Dividing Wavelength (nm)	Counts (n)	Blue Motor Position (mm): 0.000000	Red Motor Position (mm): 7.400000	
326.493990	2066.873077
326.888308	2066.873077
327.282561	2066.873077
327.676750	2089.558269
328.070874	2041.667308
328.464933	2112.243462
328.858929	2039.146731
329.252859	2107.202308
329.646726	2147.531538
330.040528	2044.187885
330.434265	2114.764038
330.827938	2117.284615
331.221547	2243.313462
331.615091	2187.860769
332.008571	2129.887500
332.401986	2084.517115
332.795338	2187.860769
333.188625	2240.792885
333.581847	2243.313462
333.975006	2248.354615
334.368100	2291.204423
334.761129	2298.766154
335.154095	2344.136538
335.546996	2346.657115
335.939833	2354.218846
336.332606	2424.795000
336.725315	2414.712692
337.117960	2502.932885
337.510540	2356.739423
337.903056	2381.945192
338.295508	2381.945192
338.687896	2472.685962
339.080220	2490.330000
339.472480	2376.904038
339.864676	2515.535769
340.256807	2399.589231
340.648875	2535.700385
341.040879	2455.041923
341.432818	2487.809423
341.824694	2397.068654
342.216506	2485.288846
342.608253	2477.727115
342.999937	2386.986346
343.391557	2492.850577
343.783113	2462.603654
344.174605	2492.850577
344.566033	2452.521346
344.957397	2518.056346
345.348697	2475.206538
345.739934	2480.247692
346.131106	2485.288846
346.522215	2439.918462
346.913260	2457.562500
347.304241	2402.109808
347.695159	2444.959615
348.086012	2402.109808
348.476802	2409.671538
348.867528	2467.644808
349.258191	2465.124231
349.648789	2467.644808
350.039324	2510.494615
350.429796	2414.712692
350.820203	2447.480192
351.210548	2457.562500
351.600828	2397.068654
351.991045	2379.424615
352.381198	2462.603654
352.771288	2392.027500
353.161314	2487.809423
353.551276	2412.192115
353.941175	2470.165385
354.331010	2424.795000
354.720782	2414.712692
355.110490	2412.192115
355.500135	2389.506923
355.889717	2480.247692
356.279235	2432.356731
356.668689	2513.015192
357.058080	2334.054231
357.447408	2475.206538
357.836672	2530.659231
358.225873	2429.836154
358.615010	2399.589231
359.004084	2467.644808
359.393095	2457.562500
359.782043	2450.000769
360.170927	2364.301154
360.559748	2409.671538
360.948505	2452.521346
361.337199	2361.780577
361.725830	2429.836154
362.114398	2457.562500
362.502903	2465.124231
362.891344	2374.383462
363.279722	2530.659231
363.668037	2455.041923
364.056289	2422.274423
364.444478	2462.603654
364.832603	2487.809423
365.220665	2465.124231
365.608665	2321.451346
365.996601	2379.424615
366.384474	2364.301154
366.772284	2462.603654
367.160031	2523.097500
367.547715	2470.165385
367.935336	2439.918462
368.322893	2447.480192
368.710388	2434.877308
369.097820	2399.589231
369.485189	2485.288846
369.872495	2399.589231
370.259738	2518.056346
370.646918	2402.109808
371.034035	2450.000769
371.421090	2442.439038
371.808081	2399.589231
372.195010	2397.068654
372.581875	2530.659231
372.968678	2475.206538
373.355418	2485.288846
373.742096	2419.753846
374.128710	2407.150962
374.515262	2460.083077
374.901751	2507.974038
375.288177	2427.315577
375.674540	2434.877308
376.060841	2422.274423
376.447079	2485.288846
376.833254	2422.274423
377.219367	2462.603654
377.605417	2437.397885
377.991404	2505.453462
378.377329	2462.603654
378.763191	2500.412308
379.148991	2460.083077
379.534727	2427.315577
379.920402	2482.768269
380.306013	2434.877308
380.691563	2419.753846
381.077049	2455.041923
381.462474	2513.015192
381.847835	2444.959615
382.233134	2507.974038
382.618371	2525.618077
383.003545	2442.439038
383.388657	2439.918462
383.773706	2447.480192
384.158693	2462.603654
384.543618	2442.439038
384.928480	2475.206538
385.313280	2409.671538
385.698017	2518.056346
386.082692	2586.111923
386.467305	2550.823846
386.851856	2437.397885
387.236344	2480.247692
387.620770	2392.027500
388.005133	2452.521346
388.389435	2485.288846
388.773674	2422.274423
389.157851	2419.753846
389.541965	2439.918462
389.926018	2460.083077
390.310008	2452.521346
390.693936	2505.453462
391.077802	2409.671538
391.461606	2409.671538
391.845348	2490.330000
392.229027	2404.630385
392.612645	2437.397885
392.996200	2434.877308
393.379694	2465.124231
393.763125	2465.124231
394.146494	2523.097500
394.529801	2457.562500
394.913047	2447.480192
395.296230	2437.397885
395.679351	2422.274423
396.062410	2545.782692
396.445408	2472.685962
396.828343	2513.015192
397.211217	2477.727115
397.594028	2535.700385
397.976778	2523.097500
398.359466	2555.865000
398.742092	2424.795000
399.124656	2553.344423
399.507158	2447.480192
399.889598	2545.782692
400.271977	2442.439038
400.654294	2502.932885
401.036549	2540.741538
401.418742	2462.603654
401.800874	2497.891731
402.182944	2495.371154
402.564952	2480.247692
402.946898	2565.947308
403.328783	2515.535769
403.710606	2432.356731
404.092367	2392.027500
404.474067	2495.371154
404.855705	2412.192115
405.237282	2518.056346
405.618797	2414.712692
406.000250	2490.330000
406.381642	2447.480192
406.762972	2485.288846
407.144240	2407.150962
407.525447	2618.879423
407.906593	2475.206538
408.287677	2487.809423
408.668700	2427.315577
409.049661	2492.850577
409.430560	2523.097500
409.811399	2528.138654
410.192176	2422.274423
410.572891	2432.356731
410.953545	2455.041923
411.334138	2485.288846
411.714669	2477.727115
412.095139	2465.124231
412.475547	2429.836154
412.855894	2507.974038
413.236180	2538.220962
413.616405	2533.179808
413.996568	2497.891731
414.376670	2495.371154
414.756711	2467.644808
415.136691	2538.220962
415.516609	2490.330000
415.896466	2548.303269
416.276262	2447.480192
416.655997	2487.809423
417.035670	2487.809423
417.415283	2500.412308
417.794834	2492.850577
418.174324	2427.315577
418.553753	2437.397885
418.933121	2407.150962
419.312428	2515.535769
419.691674	2520.576923
420.070859	2482.768269
420.449983	2507.974038
420.829045	2472.685962
421.208047	2487.809423
421.586988	2495.371154
421.965867	2505.453462
422.344686	2457.562500
422.723444	2424.795000
423.102141	2492.850577
423.480777	2467.644808
423.859352	2553.344423
424.237866	2437.397885
424.616319	2427.315577
424.994712	2490.330000
425.373044	2477.727115
425.751314	2480.247692
426.129524	2492.850577
426.507673	2518.056346
426.885762	2450.000769
427.263789	2452.521346
427.641756	2424.795000
428.019662	2439.918462
428.397508	2492.850577
428.775292	2545.782692
429.153016	2485.288846
429.530679	2482.768269
429.908282	2455.041923
430.285824	2470.165385
430.663305	2497.891731
431.040726	2518.056346
431.418086	2450.000769
431.795385	2538.220962
432.172624	2510.494615
432.549802	2513.015192
432.926920	2457.562500
433.303977	2515.535769
433.680974	2447.480192
434.057910	2591.153077
434.434786	2444.959615
434.811601	2507.974038
435.188355	2457.562500
435.565050	2528.138654
435.941683	2404.630385
436.318257	2437.397885
436.694770	2477.727115
437.071222	2477.727115
437.447614	2462.603654
437.823946	2457.562500
438.200218	2497.891731
438.576429	2543.262115
438.952580	2553.344423
439.328670	2475.206538
439.704700	2467.644808
440.080670	2356.739423
440.456580	2439.918462
440.832429	2475.206538
441.208218	2507.974038
441.583947	2543.262115
441.959616	2513.015192
442.335224	2419.753846
442.710773	2497.891731
443.086261	2437.397885
443.461689	2500.412308
443.837057	2485.288846
444.212365	2495.371154
444.587612	2437.397885
444.962800	2437.397885
445.337927	2465.124231
445.712995	2543.262115
446.088002	2467.644808
446.462949	2568.467885
446.837837	2518.056346
447.212664	2513.015192
447.587431	2475.206538
447.962139	2482.768269
448.336786	2452.521346
448.711374	2492.850577
449.085901	2485.288846
449.460369	2447.480192
449.834776	2455.041923
450.209124	2500.412308
450.583412	2450.000769
450.957640	2553.344423
451.331808	2482.768269
451.705917	2457.562500
452.079965	2455.041923
452.453954	2455.041923
452.827883	2490.330000
453.201752	2515.535769
453.575562	2507.974038
453.949311	2452.521346
454.323001	2437.397885
454.696632	2525.618077
455.070202	2492.850577
455.443713	2533.179808
455.817164	2515.535769
456.190556	2462.603654
456.563888	2497.891731
456.937160	2450.000769
457.310373	2480.247692
457.683526	2462.603654
458.056619	2480.247692
458.429653	2462.603654
458.802628	2500.412308
459.175542	2550.823846
459.548398	2495.371154
459.921194	2560.906154
460.293930	2500.412308
460.666607	2500.412308
461.039224	2500.412308
461.411782	2437.397885
461.784280	2475.206538
462.156719	2465.124231
462.529099	2465.124231
462.901419	2465.124231
463.273680	2497.891731
463.645882	2513.015192
464.018024	2397.068654
464.390106	2477.727115
464.762130	2452.521346
465.134094	2492.850577
465.505999	2455.041923
465.877845	2452.521346
466.249631	2487.809423
466.621358	2465.124231
466.993026	2485.288846
467.364634	2487.809423
467.736184	2560.906154
468.107674	2437.397885
468.479105	2538.220962
468.850477	2492.850577
469.221790	2578.550192
469.593043	2480.247692
469.964238	2573.509038
470.335373	2482.768269
470.706449	2535.700385
471.077467	2518.056346
471.448425	2565.947308
471.819324	2550.823846
472.190164	2455.041923
472.560945	2588.632500
472.931667	2558.385577
473.302330	2502.932885
473.672934	2455.041923
474.043479	2467.644808
474.413965	2543.262115
474.784393	2427.315577
475.154761	2540.741538
475.525070	2518.056346
475.895321	2573.509038
476.265513	2535.700385
476.635645	2427.315577
477.005719	2485.288846
477.375734	2548.303269
477.745691	2510.494615
478.115588	2518.056346
478.485427	2523.097500
478.855207	2462.603654
479.224928	2543.262115
479.594591	2540.741538
479.964194	2482.768269
480.333739	2525.618077
480.703226	2465.124231
481.072653	2470.165385
481.442022	2480.247692
481.811333	2545.782692
482.180584	2477.727115
482.549777	2538.220962
482.918912	2525.618077
483.287988	2530.659231
483.657005	2502.932885
484.025964	2523.097500
484.394864	2513.015192
484.763706	2437.397885
485.132489	2490.330000
485.501213	2414.712692
485.869879	2429.836154
486.238487	2535.700385
486.607036	2513.015192
486.975527	2505.453462
487.343959	2513.015192
487.712333	2515.535769
488.080648	2477.727115
488.448905	2540.741538
488.817104	2422.274423
489.185244	2525.618077
489.553326	2472.685962
489.921350	2477.727115
490.289315	2470.165385
490.657222	2520.576923
491.025070	2467.644808
491.392861	2480.247692
491.760593	2472.685962
492.128267	2570.988462
492.495883	2444.959615
492.863440	2513.015192
493.230939	2485.288846
493.598380	2480.247692
493.965763	2540.741538
494.333088	2533.179808
494.700354	2490.330000
495.067563	2452.521346
495.434713	2591.153077
495.801805	2439.918462
496.168839	2475.206538
496.535815	2505.453462
496.902733	2460.083077
497.269593	2505.453462
497.636395	2525.618077
498.003139	2452.521346
498.369825	2583.591346
498.736453	2444.959615
499.103023	2497.891731
499.469535	2507.974038
499.835989	2626.441154
500.202385	2470.165385
500.568723	2553.344423
500.935003	2467.644808
501.301226	2462.603654
501.667390	2533.179808
502.033497	2455.041923
502.399546	2490.330000
502.765537	2427.315577
503.131470	2404.630385
503.497345	2555.865000
503.863163	2497.891731
504.228923	2550.823846
504.594625	2492.850577
504.960269	2487.809423
505.325856	2538.220962
505.691385	2427.315577
506.056856	2495.371154
506.422270	2500.412308
506.787625	2457.562500
507.152924	2513.015192
507.518164	2553.344423
507.883347	2497.891731
508.248472	2540.741538
508.613540	2543.262115
508.978550	2505.453462
509.343503	2444.959615
509.708398	2487.809423
510.073236	2475.206538
510.438016	2495.371154
510.802738	2523.097500
511.167403	2518.056346
511.532010	2472.685962
511.896561	2558.385577
512.261053	2432.356731
512.625488	2510.494615
512.989866	2457.562500
513.354186	2520.576923
513.718449	2543.262115
514.082655	2515.535769
514.446803	2510.494615
514.810894	2487.809423
515.174927	2520.576923
515.538904	2414.712692
515.902822	2497.891731
516.266684	2545.782692
516.630488	2497.891731
516.994235	2434.877308
517.357925	2523.097500
517.721558	2442.439038
518.085133	2558.385577
518.448651	2578.550192
518.812112	2502.932885
519.175516	2465.124231
519.538863	2611.317692
519.902152	2452.521346
520.265385	2543.262115
520.628560	2485.288846
520.991678	2497.891731
521.354739	2525.618077
521.717743	2485.288846
522.080690	2434.877308
522.443580	2548.303269
522.806413	2502.932885
523.169189	2452.521346
523.531908	2482.768269
523.894569	2467.644808
524.257174	2563.426731
524.619722	2455.041923
524.982213	2495.371154
525.344647	2510.494615
525.707025	2543.262115
526.069345	2404.630385
526.431608	2452.521346
526.793815	2528.138654
527.155964	2515.535769
527.518057	2510.494615
527.880093	2477.727115
528.242072	2530.659231
528.603995	2573.509038
528.965860	2482.768269
529.327669	2490.330000
529.689421	2437.397885
530.051117	2495.371154
530.412755	2535.700385
530.774337	2439.918462
531.135862	2510.494615
531.497331	2513.015192
531.858743	2533.179808
532.220098	2528.138654
532.581396	2530.659231
532.942638	2576.029615
533.303824	2525.618077
533.664953	2439.918462
534.026025	2558.385577
534.387040	2475.206538
534.747999	2513.015192
535.108902	2497.891731
535.469748	2525.618077
535.830537	2477.727115
536.191270	2472.685962
536.551947	2495.371154
536.912567	2523.097500
537.273131	2538.220962
537.633638	2492.850577
537.994089	2500.412308
538.354483	2502.932885
538.714821	2510.494615
539.075103	2523.097500
539.435328	2470.165385
539.795497	2505.453462
540.155609	2520.576923
540.515665	2485.288846
540.875665	2409.671538
541.235609	2505.453462
541.595496	2477.727115
541.955328	2576.029615
542.315102	2558.385577
542.674821	2515.535769
543.034483	2558.385577
543.394090	2507.974038
543.753640	2452.521346
544.113134	2563.426731
544.472571	2437.397885
544.831953	2502.932885
545.191278	2523.097500
545.550548	2480.247692
545.909761	2495.371154
546.268918	2563.426731
546.628019	2485.288846
546.987064	2535.700385
547.346053	2495.371154
547.704986	2543.262115
548.063863	2555.865000
548.422684	2513.015192
548.781449	2472.685962
549.140158	2472.685962
549.498811	2505.453462
549.857408	2513.015192
550.215949	2475.206538
550.574434	2525.618077
550.932864	2495.371154
551.291237	2548.303269
551.649555	2540.741538
552.007817	2533.179808
552.366022	2518.056346
552.724173	2558.385577
553.082267	2487.809423
553.440305	2470.165385
553.798288	2490.330000
554.156215	2578.550192
554.514086	2513.015192
554.871902	2518.056346
555.229661	2490.330000
555.587365	2550.823846
555.945014	2477.727115
556.302606	2570.988462
556.660143	2538.220962
557.017625	2480.247692
557.375050	2510.494615
557.732421	2447.480192
558.089735	2560.906154
558.446994	2477.727115
558.804197	2450.000769
559.161345	2586.111923
559.518437	2402.109808
559.875474	2510.494615
560.232455	2558.385577
560.589381	2520.576923
560.946251	2442.439038
561.303065	2550.823846
561.659825	2530.659231
562.016528	2528.138654
562.373177	2535.700385
562.729770	2480.247692
563.086307	2500.412308
563.442789	2455.041923
563.799216	2477.727115
564.155587	2497.891731
564.511904	2581.070769
564.868164	2510.494615
565.224370	2538.220962
565.580520	2518.056346
565.936615	2497.891731
566.292654	2470.165385
566.648638	2520.576923
567.004567	2563.426731
567.360441	2452.521346
567.716260	2487.809423
568.072023	2555.865000
568.427732	2404.630385
568.783385	2535.700385
569.138982	2419.753846
569.494525	2477.727115
569.850013	2513.015192
570.205445	2513.015192
570.560823	2457.562500
570.916145	2530.659231
571.271412	2528.138654
571.626625	2510.494615
571.981782	2490.330000
572.336884	2472.685962
572.691931	2419.753846
573.046923	2447.480192
573.401860	2490.330000
573.756743	2530.659231
574.111570	2510.494615
574.466342	2530.659231
574.821059	2553.344423
575.175722	2505.453462
575.530330	2419.753846
575.884882	2399.589231
576.239380	2369.342308
576.593823	2515.535769
576.948211	2492.850577
577.302544	2565.947308
577.656823	2349.177692
578.011047	2505.453462
578.365216	2538.220962
578.719330	2475.206538
579.073389	2442.439038
579.427394	2450.000769
579.781344	2477.727115
580.135239	2513.015192
580.489080	2558.385577
580.842866	2500.412308
581.196597	2565.947308
581.550273	2487.809423
581.903895	2550.823846
582.257463	2487.809423
582.610975	2515.535769
582.964434	2502.932885
583.317837	2528.138654
583.671186	2565.947308
584.024481	2492.850577
584.377721	2513.015192
584.730906	2465.124231
585.084037	2573.509038
585.437113	2533.179808
585.790135	2480.247692
586.143103	2455.041923
586.496016	2482.768269
586.848874	2520.576923
587.201679	2510.494615
587.554428	2505.453462
587.907124	2528.138654
588.259765	2520.576923
588.612352	2480.247692
588.964884	2439.918462
589.317362	2538.220962
589.669786	2538.220962
590.022155	2535.700385
590.374470	2424.795000
590.726731	2505.453462
591.078937	2427.315577
591.431090	2507.974038
591.783188	2457.562500
592.135232	2472.685962
592.487222	2528.138654
592.839157	2427.315577
593.191038	2507.974038
593.542866	2422.274423
593.894639	2460.083077
594.246358	2507.974038
594.598022	2477.727115
594.949633	2492.850577
595.301190	2490.330000
595.652692	2450.000769
596.004141	2467.644808
596.355535	2583.591346
596.706876	2530.659231
597.058162	2560.906154
597.409395	2540.741538
597.760573	2492.850577
598.111698	2525.618077
598.462768	2525.618077
598.813785	2565.947308
599.164748	2434.877308
599.515657	2525.618077
599.866511	2563.426731
600.217312	2487.809423
600.568060	2538.220962
600.918753	2502.932885
601.269392	2513.015192
601.619978	2490.330000
601.970510	2477.727115
602.320988	2513.015192
602.671412	2485.288846
603.021783	2480.247692
603.372100	2470.165385
603.722363	2422.274423
604.072572	2545.782692
604.422728	2447.480192
604.772830	2480.247692
605.122878	2555.865000
605.472872	2535.700385
605.822813	2533.179808
606.172701	2432.356731
606.522534	2470.165385
606.872314	2528.138654
607.222041	2538.220962
607.571714	2480.247692
607.921333	2586.111923
608.270899	2465.124231
608.620411	2538.220962
608.969870	2533.179808
609.319276	2439.918462
609.668627	2502.932885
610.017926	2548.303269
610.367171	2523.097500
610.716362	2419.753846
611.065500	2515.535769
611.414585	2439.918462
611.763616	2553.344423
612.112594	2450.000769
612.461518	2505.453462
612.810389	2538.220962
613.159207	2525.618077
613.507971	2586.111923
613.856682	2480.247692
614.205340	2482.768269
614.553945	2563.426731
614.902496	2482.768269
615.250994	2477.727115
615.599439	2505.453462
615.947830	2485.288846
616.296169	2540.741538
616.644454	2500.412308
616.992686	2462.603654
617.340864	2563.426731
617.688990	2543.262115
618.037063	2475.206538
618.385082	2505.453462
618.733048	2485.288846
619.080961	2525.618077
619.428821	2465.124231
619.776628	2442.439038
620.124382	2502.932885
620.472083	2472.685962
620.819731	2412.192115
621.167326	2558.385577
621.514868	2540.741538
621.862357	2450.000769
622.209793	2560.906154
622.557176	2596.194231
622.904506	2513.015192
623.251783	2490.330000
623.599007	2530.659231
623.946179	2530.659231
624.293297	2553.344423
624.640363	2470.165385
624.987376	2505.453462
625.334336	2545.782692
625.681243	2530.659231
626.028097	2429.836154
626.374899	2530.659231
626.721647	2487.809423
627.068343	2497.891731
627.414987	2450.000769
627.761577	2570.988462
628.108115	2490.330000
628.454600	2538.220962
628.801032	2533.179808
629.147412	2525.618077
629.493739	2475.206538
629.840014	2550.823846
630.186236	2513.015192
630.532405	2505.453462
630.878521	2507.974038
631.224585	2543.262115
631.570597	2616.358846
631.916556	2525.618077
632.262462	2457.562500
632.608316	2442.439038
632.954117	2570.988462
633.299866	2538.220962
633.645562	2523.097500
633.991206	2513.015192
634.336797	2429.836154
634.682336	2439.918462
635.027823	2507.974038
635.373257	2500.412308
635.718639	2490.330000
636.063968	2439.918462
636.409245	2505.453462
636.754470	2513.015192
637.099642	2404.630385
637.444762	2495.371154
637.789829	2490.330000
638.134845	2487.809423
638.479808	2510.494615
638.824719	2518.056346
639.169577	2457.562500
639.514383	2555.865000
639.859137	2502.932885
640.203839	2470.165385
640.548489	2482.768269
640.893086	2518.056346
641.237632	2528.138654
641.582125	2505.453462
641.926566	2510.494615
642.270955	2495.371154
642.615292	2462.603654
642.959576	2507.974038
643.303809	2548.303269
643.647990	2520.576923
643.992118	2432.356731
644.336195	2515.535769
644.680219	2452.521346
645.024192	2518.056346
645.368112	2495.371154
645.711981	2515.535769
646.055797	2432.356731
646.399562	2470.165385
646.743274	2497.891731
647.086935	2402.109808
647.430544	2523.097500
647.774101	2399.589231
648.117606	2530.659231
648.461059	2472.685962
648.804460	2480.247692
649.147810	2429.836154
649.491108	2510.494615
649.834354	2525.618077
650.177548	2429.836154
650.520690	2470.165385
650.863781	2434.877308
651.206820	2535.700385
651.549807	2492.850577
651.892742	2495.371154
652.235626	2475.206538
652.578458	2523.097500
652.921238	2497.891731
653.263967	2480.247692
653.606644	2422.274423
653.949269	2553.344423
654.291843	2485.288846
654.634365	2518.056346
654.976836	2525.618077
655.319255	2500.412308
655.661622	2495.371154
656.003938	2497.891731
656.346203	2598.714808
656.688416	2407.150962
657.030577	2485.288846
657.372687	2482.768269
657.714746	2528.138654
658.056753	2467.644808
658.398708	2558.385577
658.740612	2523.097500
659.082465	2455.041923
659.424266	2578.550192
659.766016	2507.974038
660.107715	2518.056346
660.449362	2535.700385
660.790958	2412.192115
661.132503	2507.974038
661.473996	2492.850577
661.815438	2563.426731
662.156829	2472.685962
662.498168	2510.494615
662.839456	2482.768269
663.180693	2515.535769
663.521879	2434.877308
663.863013	2490.330000
664.204097	2485.288846
664.545129	2545.782692
664.886110	2492.850577
665.227040	2528.138654
665.567918	2485.288846
665.908746	2543.262115
666.249522	2523.097500
666.590248	2444.959615
666.930922	2477.727115
667.271545	2452.521346
667.612118	2455.041923
667.952639	2555.865000
668.293109	2472.685962
668.633528	2588.632500
668.973896	2470.165385
669.314213	2538.220962
669.654480	2513.015192
669.994695	2455.041923
670.334859	2507.974038
670.674973	2540.741538
671.015035	2472.685962
671.355047	2495.371154
671.695008	2477.727115
672.034918	2528.138654
672.374777	2465.124231
672.714585	2495.371154
673.054342	2427.315577
673.394049	2518.056346
673.733705	2513.015192
674.073310	2487.809423
674.412864	2553.344423
674.752368	2497.891731
675.091820	2497.891731
675.431223	2525.618077
675.770574	2548.303269
676.109875	2505.453462
676.449125	2462.603654
676.788324	2492.850577
677.127473	2533.179808
677.466571	2502.932885
677.805619	2558.385577
678.144616	2535.700385
678.483562	2450.000769
678.822458	2475.206538
679.161303	2480.247692
679.500098	2603.755962
679.838842	2487.809423
680.177535	2525.618077
680.516179	2457.562500
680.854771	2485.288846
681.193314	2591.153077
681.531805	2477.727115
681.870247	2472.685962
682.208638	2442.439038
682.546978	2518.056346
682.885268	2419.753846
683.223508	2558.385577
683.561697	2465.124231
683.899836	2450.000769
684.237925	2492.850577
684.575963	2530.659231
684.913951	2487.809423
685.251889	2462.603654
685.589776	2399.589231
685.927614	2485.288846
686.265401	2434.877308
686.603137	2513.015192
686.940824	2535.700385
687.278460	2455.041923
687.616046	2513.015192
687.953582	2482.768269
688.291068	2485.288846
688.628504	2492.850577
688.965889	2487.809423
689.303224	2550.823846
689.640510	2565.947308
689.977745	2578.550192
690.314930	2576.029615
690.652065	2583.591346
690.989150	2485.288846
691.326185	2507.974038
691.663170	2583.591346
692.000105	2543.262115
692.336990	2450.000769
692.673825	2528.138654
693.010610	2427.315577
693.347345	2455.041923
693.684030	2540.741538
694.020665	2515.535769
694.357251	2477.727115
694.693786	2447.480192
695.030272	2407.150962
695.366707	2550.823846
695.703093	2507.974038
696.039429	2518.056346
696.375716	2432.356731
696.711952	2482.768269
697.048139	2480.247692
697.384276	2528.138654
697.720363	2533.179808
698.056400	2500.412308
698.392388	2475.206538
698.728326	2475.206538
699.064214	2558.385577
699.400053	2439.918462
699.735842	2490.330000
700.071581	2462.603654
700.407270	2553.344423
700.742910	2482.768269
701.078501	2520.576923
701.414042	2515.535769
701.749533	2505.453462
702.084974	2480.247692
702.420366	2505.453462
702.755709	2490.330000
703.091002	2538.220962
703.426246	2467.644808
703.761440	2596.194231
704.096584	2462.603654
704.431679	2570.988462
704.766725	2533.179808
705.101721	2497.891731
705.436668	2457.562500
705.771565	2555.865000
706.106413	2510.494615
706.441212	2490.330000
706.775961	2553.344423
707.110661	2533.179808
707.445311	2502.932885
707.779913	2465.124231
708.114465	2485.288846
708.448967	2505.453462
708.783421	2550.823846
709.117825	2500.412308
709.452180	2497.891731
709.786485	2487.809423
710.120742	2402.109808
710.454949	2550.823846
710.789107	2485.288846
711.123216	2442.439038
711.457275	2452.521346
711.791286	2510.494615
712.125247	2500.412308
712.459159	2452.521346
712.793023	2510.494615
713.126837	2500.412308
713.460602	2530.659231
713.794318	2439.918462
714.127985	2510.494615
714.461602	2424.795000
714.795171	2505.453462
715.128691	2530.659231
715.462162	2460.083077
715.795584	2490.330000
716.128957	2361.780577
716.462281	2543.262115
716.795556	2515.535769
717.128782	2581.070769
717.461960	2555.865000
717.795088	2429.836154
718.128167	2525.618077
718.461198	2477.727115
718.794180	2555.865000
719.127113	2543.262115
719.459997	2475.206538
719.792833	2467.644808
720.125619	2477.727115
720.458357	2518.056346
720.791046	2505.453462
721.123686	2467.644808
721.456278	2457.562500
721.788821	2482.768269
722.121315	2492.850577
722.453761	2417.233269
722.786158	2502.932885
723.118506	2482.768269
723.450805	2535.700385
723.783056	2485.288846
724.115259	2502.932885
724.447412	2485.288846
724.779518	2540.741538
725.111574	2563.426731
725.443582	2452.521346
725.775542	2545.782692
726.107453	2482.768269
726.439315	2520.576923
726.771129	2434.877308
727.102895	2485.288846
727.434612	2563.426731
727.766281	2434.877308
728.097901	2505.453462
728.429473	2447.480192
728.760996	2507.974038
729.092471	2490.330000
729.423897	2402.109808
729.755276	2588.632500
730.086606	2548.303269
730.417887	2376.904038
730.749120	2475.206538
731.080305	2490.330000
731.411442	2558.385577
731.742530	2457.562500
732.073570	2533.179808
732.404562	2487.809423
732.735506	2480.247692
733.066401	2523.097500
733.397249	2548.303269
733.728048	2576.029615
734.058798	2467.644808
734.389501	2490.330000
734.720156	2475.206538
735.050762	2457.562500
735.381320	2578.550192
735.711831	2563.426731
736.042293	2414.712692
736.372707	2502.932885
736.703073	2472.685962
737.033391	2447.480192
737.363661	2480.247692
737.693883	2462.603654
738.024056	2475.206538
738.354182	2490.330000
738.684260	2538.220962
739.014290	2586.111923
739.344272	2535.700385
739.674207	2507.974038
740.004093	2540.741538
740.333931	2467.644808
740.663722	2588.632500
740.993464	2412.192115
741.323159	2523.097500
741.652806	2470.165385
741.982405	2528.138654
742.311956	2437.397885
742.641460	2500.412308
742.970915	2520.576923
743.300323	2475.206538
743.629683	2432.356731
743.958996	2467.644808
744.288260	2535.700385
744.617477	2616.358846
744.946647	2477.727115
745.275768	2394.548077
745.604842	2487.809423
745.933869	2563.426731
746.262847	2417.233269
746.591778	2553.344423
746.920662	2558.385577
747.249498	2472.685962
747.578286	2545.782692
747.907027	2497.891731
748.235720	2404.630385
748.564365	2523.097500
748.892963	2510.494615
749.221514	2462.603654
749.550017	2422.274423
749.878473	2457.562500
750.206881	2470.165385
750.535242	2495.371154
750.863555	2515.535769
751.191821	2510.494615
751.520039	2457.562500
751.848210	2500.412308
752.176334	2497.891731
752.504411	2477.727115
752.832440	2404.630385
753.160421	2533.179808
753.488356	2505.453462
753.816243	2543.262115
754.144082	2583.591346
754.471875	2553.344423
754.799620	2480.247692
755.127318	2507.974038
755.454969	2520.576923
755.782572	2480.247692
756.110129	2460.083077
756.437638	2550.823846
756.765100	2447.480192
757.092515	2581.070769
757.419882	2444.959615
757.747203	2460.083077
758.074477	2434.877308
758.401703	2538.220962
758.728882	2465.124231
759.056014	2492.850577
759.383099	2540.741538
759.710138	2437.397885
760.037129	2472.685962
760.364073	2533.179808
760.690970	2475.206538
761.017820	2419.753846
761.344623	2568.467885
761.671379	2520.576923
761.998088	2515.535769
762.324751	2523.097500
762.651366	2495.371154
762.977935	2568.467885
763.304456	2460.083077
763.630931	2477.727115
763.957359	2540.741538
764.283740	2558.385577
764.610074	2442.439038
764.936362	2520.576923
765.262602	2553.344423
765.588796	2565.947308
765.914943	2412.192115
766.241044	2500.412308
766.567097	2520.576923
766.893104	2444.959615
767.219064	2548.303269
767.544978	2434.877308
767.870845	2535.700385
768.196665	2475.206538
768.522438	2412.192115
768.848165	2432.356731
769.173846	2502.932885
769.499479	2523.097500
769.825066	2513.015192
770.150607	2515.535769
770.476101	2495.371154
770.801548	2485.288846
771.126949	2439.918462
771.452303	2520.576923
771.777611	2533.179808
772.102872	2507.974038
772.428087	2502.932885
772.753256	2621.400000
773.078378	2465.124231
773.403453	2505.453462
773.728482	2452.521346
774.053465	2450.000769
774.378401	2540.741538
774.703291	2452.521346
775.028135	2558.385577
775.352932	2565.947308
775.677683	2530.659231
776.002388	2500.412308
776.327046	2439.918462
776.651658	2467.644808
776.976224	2487.809423
777.300743	2429.836154
777.625216	2490.330000
777.949643	2570.988462
778.274024	2402.109808
778.598359	2472.685962
778.922647	2490.330000
779.246889	2570.988462
779.571086	2485.288846
779.895236	2384.465769
780.219339	2515.535769
780.543397	2439.918462
780.867409	2505.453462
781.191374	2543.262115
781.515294	2462.603654
781.839167	2437.397885
782.162995	2550.823846
782.486776	2533.179808
782.810511	2465.124231
783.134201	2500.412308
783.457844	2432.356731
783.781441	2460.083077
784.104993	2540.741538
784.428498	2477.727115
784.751958	2470.165385
785.075372	2510.494615
785.398739	2505.453462
785.722061	2525.618077
786.045337	2487.809423
786.368568	2545.782692
786.691752	2500.412308
787.014891	2523.097500
787.337983	2452.521346
787.661030	2462.603654
787.984031	2568.467885
788.306987	2490.330000
788.629897	2586.111923
788.952760	2495.371154
789.275579	2485.288846
789.598351	2568.467885
789.921078	2495.371154
790.243759	2497.891731
790.566395	2477.727115
790.888984	2533.179808
791.211529	2507.974038
791.534027	2523.097500
791.856480	2477.727115
792.178888	2558.385577
792.501249	2465.124231
792.823566	2442.439038
793.145836	2500.412308
793.468062	2588.632500
793.790241	2502.932885
794.112375	2563.426731
794.434464	2389.506923
794.756507	2505.453462
795.078505	2452.521346
795.400457	2535.700385
795.722364	2490.330000
796.044226	2565.947308
796.366042	2553.344423
796.687812	2424.795000
797.009538	2467.644808
797.331218	2515.535769
797.652852	2477.727115
797.974442	2460.083077
798.295986	2568.467885
798.617484	2492.850577
798.938938	2563.426731
799.260346	2447.480192
799.581709	2510.494615
799.903026	2432.356731
800.224299	2560.906154
800.545526	2505.453462
800.866708	2497.891731
801.187845	2444.959615
801.508936	2500.412308
801.829983	2570.988462
802.150984	2447.480192
802.471940	2523.097500
802.792851	2523.097500
803.113717	2450.000769
803.434538	2570.988462
803.755314	2472.685962
804.076045	2515.535769
804.396731	2460.083077
804.717372	2515.535769
805.037967	2490.330000
805.358518	2565.947308
805.679024	2482.768269
805.999485	2535.700385
806.319901	2487.809423
806.640272	2455.041923
806.960598	2518.056346
807.280879	2540.741538
807.601115	2533.179808
807.921306	2452.521346
808.241453	2492.850577
808.561554	2462.603654
808.881611	2500.412308
809.201623	2465.124231
809.521590	2495.371154
809.841513	2475.206538
810.161390	2480.247692
810.481223	2414.712692
810.801011	2528.138654
811.120755	2563.426731
811.440453	2477.727115
811.760107	2550.823846
812.079716	2502.932885
812.399281	2452.521346
812.718801	2460.083077
813.038276	2523.097500
813.357707	2535.700385
813.677093	2570.988462
813.996434	2535.700385
814.315731	2490.330000
814.634983	2540.741538
814.954191	2452.521346
815.273354	2495.371154
815.592473	2447.480192
815.911547	2525.618077
816.230577	2530.659231
816.549562	2520.576923
816.868502	2412.192115
817.187399	2523.097500
817.506250	2548.303269
817.825058	2475.206538
818.143821	2535.700385
818.462539	2424.795000
818.781213	2520.576923
819.099843	2507.974038
819.418429	2482.768269
819.736970	2477.727115
820.055466	2477.727115
820.373919	2560.906154
820.692327	2518.056346
821.010691	2480.247692
821.329011	2543.262115
821.647286	2487.809423
821.965517	2510.494615
822.283704	2442.439038
822.601847	2490.330000
822.919945	2439.918462
823.237999	2513.015192
823.556010	2480.247692
823.873976	2510.494615
824.191897	2455.041923
824.509775	2470.165385
824.827609	2500.412308
825.145398	2490.330000
825.463144	2525.618077
825.780845	2543.262115
826.098502	2485.288846
826.416116	2429.836154
826.733685	2450.000769
827.051210	2528.138654
827.368692	2485.288846
827.686129	2528.138654
828.003522	2470.165385
828.320872	2434.877308
828.638177	2507.974038
828.955439	2487.809423
829.272656	2427.315577
829.589830	2490.330000
829.906960	2568.467885
830.224046	2487.809423
830.541088	2437.397885
830.858086	2518.056346
831.175041	2490.330000
831.491952	2507.974038
831.808819	2507.974038
832.125642	2452.521346
832.442421	2502.932885
832.759157	2515.535769
833.075849	2492.850577
833.392497	2472.685962
833.709101	2485.288846
834.025662	2495.371154
834.342179	2533.179808
834.658653	2429.836154
834.975083	2540.741538
835.291469	2447.480192
835.607811	2528.138654
835.924110	2480.247692
836.240366	2515.535769
836.556578	2490.330000
836.872746	2518.056346
837.188871	2487.809423
837.504952	2460.083077
837.820990	2447.480192
838.136984	2520.576923
838.452935	2568.467885
838.768842	2538.220962
839.084706	2555.865000
839.400526	2533.179808
839.716303	2495.371154
840.032037	2447.480192
840.347727	2507.974038
840.663373	2407.150962
840.978977	2409.671538
841.294537	2487.809423
841.610054	2452.521346
841.925527	2502.932885
842.240957	2513.015192
842.556344	2560.906154
842.871687	2447.480192
843.186987	2515.535769
843.502244	2450.000769
843.817458	2470.165385
844.132629	2495.371154
844.447756	2427.315577
844.762840	2397.068654
845.077881	2409.671538
845.392879	2389.506923
845.707833	2538.220962
846.022745	2462.603654
846.337613	2422.274423
846.652438	2475.206538
846.967221	2525.618077
847.281960	2462.603654
847.596656	2455.041923
847.911309	2510.494615
848.225919	2558.385577
848.540485	2492.850577
848.855009	2424.795000
849.169490	2563.426731
849.483928	2414.712692
849.798323	2593.673654
850.112675	2560.906154
850.426984	2558.385577
850.741251	2560.906154
851.055474	2477.727115
851.369654	2450.000769
851.683792	2540.741538
851.997887	2482.768269
852.311938	2540.741538
852.625947	2518.056346
852.939914	2485.288846
853.253837	2565.947308
853.567718	2606.276538
853.881555	2460.083077
854.195350	2487.809423
854.509103	2578.550192
854.822812	2482.768269
855.136479	2583.591346
855.450103	2460.083077
855.763685	2523.097500
856.077224	2452.521346
856.390720	2419.753846
856.704173	2439.918462
857.017584	2576.029615
857.330953	2485.288846
857.644278	2424.795000
857.957561	2540.741538
858.270802	2520.576923
858.584000	2487.809423
858.897155	2563.426731
859.210268	2528.138654
859.523339	2439.918462
859.836367	2439.918462
860.149352	2482.768269
860.462295	2465.124231
860.775195	2452.521346
861.088054	2404.630385
861.400869	2535.700385
861.713642	2465.124231
862.026373	2442.439038
862.339062	2480.247692
862.651708	2457.562500
862.964312	2568.467885
863.276873	2467.644808
863.589392	2404.630385
863.901869	2480.247692
864.214303	2432.356731
864.526696	2412.192115
864.839045	2452.521346
865.151353	2442.439038
865.463619	2545.782692
865.775842	2505.453462
866.088023	2510.494615
866.400162	2490.330000
866.712258	2455.041923
867.024313	2502.932885
867.336325	2502.932885
867.648296	2475.206538
867.960224	2450.000769
868.272110	2457.562500
868.583954	2439.918462
868.895755	2490.330000
869.207515	2502.932885
869.519233	2515.535769
869.830909	2472.685962
870.142542	2470.165385
870.454134	2465.124231
870.765684	2470.165385
871.077191	2492.850577
871.388657	2389.506923
871.700081	2444.959615
872.011463	2518.056346
872.322803	2490.330000
872.634101	2480.247692
872.945357	2505.453462
873.256571	2462.603654
873.567744	2528.138654
873.878874	2495.371154
874.189963	2525.618077
874.501010	2497.891731
874.812015	2485.288846
875.122979	2533.179808
875.433900	2513.015192
875.744780	2518.056346
876.055618	2452.521346
876.366415	2533.179808
876.677169	2565.947308
876.987882	2485.288846
877.298554	2568.467885
877.609183	2434.877308
877.919771	2485.288846
878.230317	2432.356731
878.540822	2482.768269
878.851285	2563.426731
879.161707	2447.480192
879.472087	2492.850577
879.782425	2525.618077
880.092722	2444.959615
880.402977	2480.247692
880.713191	2467.644808
881.023363	2470.165385
881.333494	2518.056346
881.643583	2437.397885
881.953631	2490.330000
882.263637	2452.521346
882.573602	2525.618077
882.883526	2447.480192
883.193408	2457.562500
883.503248	2434.877308
883.813048	2520.576923
884.122806	2402.109808
884.432522	2457.562500
884.742197	2447.480192
885.051831	2513.015192
885.361424	2490.330000
885.670975	2450.000769
885.980485	2472.685962
886.289954	2497.891731
886.599382	2480.247692
886.908768	2465.124231
887.218113	2555.865000
887.527417	2475.206538
887.836680	2593.673654
888.145901	2540.741538
888.455082	2467.644808
888.764221	2507.974038
889.073319	2482.768269
889.382376	2475.206538
889.691392	2470.165385
890.000366	2533.179808
890.309300	2447.480192
890.618193	2581.070769
890.927044	2482.768269
891.235855	2455.041923
891.544625	2520.576923
891.853353	2427.315577
892.162041	2510.494615
892.470687	2470.165385
892.779293	2528.138654
893.087858	2450.000769
893.396381	2497.891731
893.704864	2470.165385
894.013306	2455.041923
894.321707	2502.932885
894.630068	2510.494615
894.938387	2523.097500
895.246665	2444.959615
895.554903	2533.179808
895.863100	2525.618077
896.171256	2565.947308
896.479371	2500.412308
896.787446	2507.974038
897.095480	2485.288846
897.403473	2538.220962
897.711425	2487.809423
898.019336	2515.535769
898.327207	2487.809423
898.635038	2523.097500
898.942827	2442.439038
899.250576	2487.809423
899.558284	2568.467885
899.865952	2487.809423
900.173579	2399.589231
900.481165	2500.412308
900.788711	2513.015192
901.096216	2492.850577
901.403681	2437.397885
901.711105	2490.330000
902.018489	2510.494615
902.325832	2495.371154
902.633135	2500.412308
902.940397	2507.974038
903.247619	2465.124231
903.554800	2444.959615
903.861941	2558.385577
904.169041	2520.576923
904.476101	2487.809423
904.783121	2477.727115
905.090100	2497.891731
905.397039	2422.274423
905.703938	2480.247692
906.010796	2477.727115
906.317614	2472.685962
906.624391	2432.356731
906.931129	2480.247692
907.237826	2560.906154
907.544483	2472.685962
907.851099	2485.288846
908.157675	2429.836154
908.464211	2505.453462
908.770707	2576.029615
909.077163	2485.288846
909.383578	2397.068654
909.689954	2510.494615
909.996289	2427.315577
910.302584	2462.603654
910.608839	2497.891731
910.915054	2482.768269
911.221229	2525.618077
911.527363	2568.467885
911.833458	2379.424615
912.139513	2533.179808
912.445527	2460.083077
912.751502	2457.562500
913.057436	2447.480192
913.363331	2555.865000
913.669186	2470.165385
913.975000	2525.618077
914.280775	2487.809423
914.586510	2442.439038
914.892205	2538.220962
915.197859	2480.247692
915.503475	2568.467885
915.809050	2492.850577
916.114585	2455.041923
916.420081	2553.344423
916.725536	2485.288846
917.030952	2482.768269
917.336328	2419.753846
917.641665	2462.603654
917.946961	2460.083077
918.252218	2447.480192
918.557435	2555.865000
918.862612	2540.741538
919.167750	2520.576923
919.472848	2490.330000
919.777906	2513.015192
920.082925	2432.356731
920.387904	2439.918462
920.692843	2495.371154
920.997743	2465.124231
921.302603	2515.535769
921.607423	2485.288846
921.912204	2480.247692
922.216946	2472.685962
922.521647	2462.603654
922.826310	2462.603654
923.130932	2563.426731
923.435516	2470.165385
923.740059	2530.659231
924.044564	2495.371154
924.349028	2520.576923
924.653454	2495.371154
924.957840	2480.247692
925.262186	2490.330000
925.566493	2457.562500
925.870761	2460.083077
926.174989	2573.509038
926.479178	2465.124231
926.783328	2434.877308
927.087438	2447.480192
927.391509	2470.165385
927.695541	2540.741538
927.999533	2462.603654
928.303486	2487.809423
928.607400	2482.768269
928.911275	2510.494615
929.215110	2530.659231
929.518906	2555.865000
929.822663	2558.385577
930.126381	2505.453462
930.430060	2515.535769
930.733699	2429.836154
931.037299	2528.138654
931.340861	2462.603654
931.644383	2573.509038
931.947866	2477.727115
932.251309	2495.371154
932.554714	2427.315577
932.858080	2545.782692
933.161407	2465.124231
933.464694	2513.015192
933.767943	2492.850577
934.071153	2533.179808
934.374323	2482.768269
934.677455	2351.698269
934.980548	2490.330000
935.283602	2515.535769
935.586617	2485.288846
935.889593	2450.000769
936.192530	2490.330000
936.495428	2460.083077
936.798287	2472.685962
937.101108	2507.974038
937.403890	2530.659231
937.706632	2525.618077
938.009336	2560.906154
938.312002	2475.206538
938.614628	2467.644808
938.917216	2520.576923
939.219765	2422.274423
939.522275	2535.700385
939.824747	2467.644808
940.127179	2462.603654
940.429573	2520.576923
940.731929	2540.741538
941.034246	2467.644808
941.336524	2548.303269
941.638763	2505.453462
941.940964	2500.412308
942.243126	2419.753846
942.545250	2497.891731
942.847335	2533.179808
943.149381	2502.932885
943.451389	2535.700385
943.753359	2439.918462
944.055290	2487.809423
944.357182	2379.424615
944.659036	2510.494615
944.960851	2482.768269
945.262628	2545.782692
945.564367	2507.974038
945.866067	2510.494615
946.167729	2444.959615
946.469352	2500.412308
946.770937	2467.644808
947.072484	2462.603654
947.373992	2480.247692
947.675462	2472.685962
947.976893	2359.260000
948.278286	2492.850577
948.579641	2460.083077
948.880958	2429.836154
949.182236	2535.700385
949.483476	2555.865000
949.784678	2444.959615
950.085841	2485.288846
950.386967	2495.371154
950.688054	2462.603654
950.989103	2381.945192
951.290114	2518.056346
951.591087	2543.262115
951.892021	2533.179808
952.192917	2439.918462
952.493776	2444.959615
952.794596	2568.467885
953.095378	2581.070769
953.396122	2510.494615
953.696828	2439.918462
953.997496	2497.891731
954.298126	2472.685962
954.598718	2545.782692
954.899272	2576.029615
955.199788	2555.865000
955.500266	2568.467885
955.800706	2530.659231
956.101108	2472.685962
956.401472	2533.179808
956.701798	2507.974038
957.002087	2487.809423
957.302337	2419.753846
957.602550	2530.659231
957.902724	2475.206538
958.202861	2558.385577
958.502960	2548.303269
958.803022	2439.918462
959.103045	2460.083077
959.403031	2371.862885
959.702979	2518.056346
960.002889	2472.685962
960.302762	2399.589231
960.602596	2409.671538
960.902393	2515.535769
961.202153	2563.426731
961.501875	2414.712692
961.801559	2490.330000
962.101205	2444.959615
962.400814	2533.179808
962.700385	2581.070769
962.999918	2452.521346
963.299414	2490.330000
963.598873	2583.591346
963.898293	2455.041923
964.197677	2540.741538
964.497022	2465.124231
964.796331	2460.083077
965.095601	2500.412308
965.394835	2492.850577
965.694030	2510.494615
965.993189	2442.439038
966.292309	2409.671538
966.591393	2535.700385
966.890439	2535.700385
967.189447	2470.165385
967.488419	2510.494615
967.787353	2505.453462
968.086249	2502.932885
968.385108	2472.685962
968.683930	2460.083077
968.982714	2510.494615
969.281462	2477.727115
969.580172	2540.741538
969.878844	2515.535769
970.177480	2465.124231
970.476078	2530.659231
970.774639	2497.891731
971.073162	2560.906154
971.371649	2442.439038
971.670098	2518.056346
971.968510	2460.083077
972.266885	2548.303269
972.565223	2535.700385
972.863524	2475.206538
973.161788	2482.768269
973.460014	2570.988462
973.758204	2538.220962
974.056356	2462.603654
974.354471	2507.974038
974.652550	2384.465769
974.950591	2495.371154
975.248595	2452.521346
975.546563	2505.453462
975.844493	2452.521346
976.142386	2386.986346
976.440243	2422.274423
976.738062	2505.453462
977.035845	2457.562500
977.333590	2525.618077
977.631299	2533.179808
977.928971	2495.371154
978.226606	2558.385577
978.524204	2487.809423
978.821765	2442.439038
979.119290	2495.371154
979.416777	2513.015192
979.714228	2462.603654
980.011642	2502.932885
980.309020	2505.453462
980.606360	2477.727115
980.903664	2560.906154
981.200931	2515.535769
981.498162	2439.918462
981.795356	2472.685962
982.092513	2497.891731
982.389633	2500.412308
982.686717	2523.097500
982.983764	2450.000769
983.280775	2490.330000
983.577749	2568.467885
983.874686	2540.741538
984.171587	2500.412308
984.468451	2576.029615
984.765279	2434.877308
985.062070	2502.932885
985.358824	2490.330000
985.655543	2555.865000
985.952224	2533.179808
986.248869	2437.397885
986.545478	2560.906154
986.842050	2520.576923
987.138586	2492.850577
987.435086	2475.206538
987.731549	2538.220962
988.027975	2480.247692
988.324366	2535.700385
988.620719	2576.029615
988.917037	2548.303269
989.213318	2487.809423
989.509563	2530.659231
989.805772	2518.056346
990.101944	2452.521346
990.398080	2528.138654
990.694180	2427.315577
990.990244	2475.206538
991.286271	2482.768269
991.582262	2444.959615
991.878217	2513.015192
992.174136	2518.056346
992.470019	2447.480192
992.765865	2530.659231
993.061676	2392.027500
993.357450	2444.959615
993.653188	2402.109808
993.948890	2482.768269
994.244556	2530.659231
994.540186	2555.865000
994.835780	2427.315577
995.131337	2535.700385
995.426859	2480.247692
995.722345	2434.877308
996.017795	2563.426731
996.313208	2487.809423
996.608586	2472.685962
996.903928	2470.165385
997.199234	2397.068654
997.494504	2490.330000
997.789738	2513.015192
998.084936	2505.453462
998.380099	2470.165385
998.675225	2502.932885
998.970316	2535.700385
999.265371	2555.865000
999.560390	2452.521346
999.855373	2384.465769
1000.150320	2434.877308
1000.445232	2518.056346
1000.740108	2432.356731
1001.034948	2581.070769
1001.329752	2543.262115
1001.624521	2462.603654
1001.919254	2502.932885
1002.213951	2505.453462
1002.508613	2480.247692
1002.803239	2429.836154
1003.097829	2591.153077
1003.392384	2465.124231
1003.686903	2467.644808
1003.981386	2465.124231
1004.275834	2525.618077
1004.570246	2505.453462
1004.864623	2507.974038
1005.158964	2497.891731
1005.453270	2528.138654
1005.747540	2482.768269
1006.041775	2548.303269
1006.335974	2386.986346
1006.630138	2528.138654
1006.924266	2472.685962
1007.218359	2470.165385
1007.512416	2553.344423
1007.806438	2462.603654
1008.100425	2437.397885
1008.394376	2555.865000
1008.688292	2550.823846
1008.982172	2455.041923
1009.276017	2545.782692
1009.569827	2543.262115
1009.863602	2543.262115
1010.157341	2490.330000
1010.451045	2533.179808
1010.744714	2538.220962
1011.038347	2485.288846
1011.331945	2555.865000
1011.625508	2565.947308
1011.919036	2545.782692
1012.212528	2462.603654
1012.505986	2487.809423
1012.799408	2437.397885
1013.092795	2472.685962
1013.386147	2472.685962
1013.679464	2480.247692
1013.972745	2432.356731
1014.265992	2397.068654
1014.559204	2510.494615
1014.852380	2510.494615
1015.145521	2505.453462
1015.438628	2465.124231
1015.731699	2538.220962
1016.024736	2555.865000
1016.317737	2429.836154
1016.610703	2513.015192
1016.903635	2477.727115
1017.196531	2482.768269
1017.489393	2482.768269
1017.782219	2359.260000
1018.075011	2444.959615
1018.367768	2467.644808
1018.660490	2429.836154
1018.953177	2429.836154
1019.245829	2429.836154
