Dividing Wavelength (nm)	Counts (n)	Blue Motor Position (mm): 0.000000	Red Motor Position (mm): 5.900000	
326.493990	2018.982115
326.888308	2018.982115
327.282561	2018.982115
327.676750	2026.543846
328.070874	2094.599423
328.464933	2026.543846
328.858929	2076.955385
329.252859	2142.490385
329.646726	2107.202308
330.040528	2049.229038
330.434265	2066.873077
330.827938	2122.325769
331.221547	2124.846346
331.615091	2132.408077
332.008571	2152.572692
332.401986	2263.478077
332.795338	2306.327885
333.188625	2291.204423
333.581847	2321.451346
333.975006	2281.122115
334.368100	2271.039808
334.761129	2336.574808
335.154095	2359.260000
335.546996	2364.301154
335.939833	2308.848462
336.332606	2364.301154
336.725315	2331.533654
337.117960	2384.465769
337.510540	2437.397885
337.903056	2444.959615
338.295508	2507.974038
338.687896	2394.548077
339.080220	2452.521346
339.472480	2502.932885
339.864676	2442.439038
340.256807	2472.685962
340.648875	2407.150962
341.040879	2475.206538
341.432818	2465.124231
341.824694	2520.576923
342.216506	2480.247692
342.608253	2402.109808
342.999937	2497.891731
343.391557	2472.685962
343.783113	2525.618077
344.174605	2520.576923
344.566033	2450.000769
344.957397	2422.274423
345.348697	2450.000769
345.739934	2513.015192
346.131106	2475.206538
346.522215	2439.918462
346.913260	2565.947308
347.304241	2465.124231
347.695159	2500.412308
348.086012	2432.356731
348.476802	2450.000769
348.867528	2376.904038
349.258191	2381.945192
349.648789	2450.000769
350.039324	2419.753846
350.429796	2500.412308
350.820203	2402.109808
351.210548	2369.342308
351.600828	2480.247692
351.991045	2384.465769
352.381198	2540.741538
352.771288	2419.753846
353.161314	2465.124231
353.551276	2379.424615
353.941175	2386.986346
354.331010	2515.535769
354.720782	2470.165385
355.110490	2457.562500
355.500135	2419.753846
355.889717	2507.974038
356.279235	2447.480192
356.668689	2470.165385
357.058080	2402.109808
357.447408	2349.177692
357.836672	2437.397885
358.225873	2417.233269
358.615010	2399.589231
359.004084	2475.206538
359.393095	2434.877308
359.782043	2457.562500
360.170927	2437.397885
360.559748	2419.753846
360.948505	2417.233269
361.337199	2407.150962
361.725830	2417.233269
362.114398	2507.974038
362.502903	2439.918462
362.891344	2427.315577
363.279722	2457.562500
363.668037	2467.644808
364.056289	2553.344423
364.444478	2439.918462
364.832603	2447.480192
365.220665	2457.562500
365.608665	2392.027500
365.996601	2480.247692
366.384474	2439.918462
366.772284	2442.439038
367.160031	2437.397885
367.547715	2424.795000
367.935336	2455.041923
368.322893	2480.247692
368.710388	2475.206538
369.097820	2462.603654
369.485189	2437.397885
369.872495	2548.303269
370.259738	2500.412308
370.646918	2487.809423
371.034035	2490.330000
371.421090	2417.233269
371.808081	2507.974038
372.195010	2470.165385
372.581875	2482.768269
372.968678	2419.753846
373.355418	2497.891731
373.742096	2452.521346
374.128710	2475.206538
374.515262	2540.741538
374.901751	2369.342308
375.288177	2397.068654
375.674540	2379.424615
376.060841	2472.685962
376.447079	2450.000769
376.833254	2419.753846
377.219367	2437.397885
377.605417	2470.165385
377.991404	2500.412308
378.377329	2434.877308
378.763191	2414.712692
379.148991	2437.397885
379.534727	2429.836154
379.920402	2389.506923
380.306013	2447.480192
380.691563	2477.727115
381.077049	2412.192115
381.462474	2439.918462
381.847835	2520.576923
382.233134	2407.150962
382.618371	2472.685962
383.003545	2409.671538
383.388657	2475.206538
383.773706	2424.795000
384.158693	2558.385577
384.543618	2394.548077
384.928480	2490.330000
385.313280	2507.974038
385.698017	2492.850577
386.082692	2397.068654
386.467305	2447.480192
386.851856	2424.795000
387.236344	2442.439038
387.620770	2439.918462
388.005133	2412.192115
388.389435	2513.015192
388.773674	2518.056346
389.157851	2560.906154
389.541965	2525.618077
389.926018	2399.589231
390.310008	2510.494615
390.693936	2412.192115
391.077802	2404.630385
391.461606	2417.233269
391.845348	2535.700385
392.229027	2450.000769
392.612645	2510.494615
392.996200	2467.644808
393.379694	2452.521346
393.763125	2487.809423
394.146494	2581.070769
394.529801	2329.013077
394.913047	2437.397885
395.296230	2470.165385
395.679351	2492.850577
396.062410	2490.330000
396.445408	2429.836154
396.828343	2518.056346
397.211217	2470.165385
397.594028	2455.041923
397.976778	2409.671538
398.359466	2470.165385
398.742092	2578.550192
399.124656	2470.165385
399.507158	2533.179808
399.889598	2530.659231
400.271977	2450.000769
400.654294	2422.274423
401.036549	2540.741538
401.418742	2434.877308
401.800874	2394.548077
402.182944	2470.165385
402.564952	2419.753846
402.946898	2505.453462
403.328783	2457.562500
403.710606	2457.562500
404.092367	2505.453462
404.474067	2520.576923
404.855705	2437.397885
405.237282	2452.521346
405.618797	2477.727115
406.000250	2502.932885
406.381642	2520.576923
406.762972	2518.056346
407.144240	2495.371154
407.525447	2497.891731
407.906593	2424.795000
408.287677	2470.165385
408.668700	2538.220962
409.049661	2437.397885
409.430560	2487.809423
409.811399	2482.768269
410.192176	2409.671538
410.572891	2467.644808
410.953545	2492.850577
411.334138	2538.220962
411.714669	2429.836154
412.095139	2470.165385
412.475547	2447.480192
412.855894	2500.412308
413.236180	2447.480192
413.616405	2470.165385
413.996568	2460.083077
414.376670	2593.673654
414.756711	2485.288846
415.136691	2518.056346
415.516609	2409.671538
415.896466	2460.083077
416.276262	2455.041923
416.655997	2412.192115
417.035670	2467.644808
417.415283	2525.618077
417.794834	2439.918462
418.174324	2472.685962
418.553753	2480.247692
418.933121	2538.220962
419.312428	2518.056346
419.691674	2439.918462
420.070859	2500.412308
420.449983	2555.865000
420.829045	2437.397885
421.208047	2538.220962
421.586988	2460.083077
421.965867	2450.000769
422.344686	2548.303269
422.723444	2472.685962
423.102141	2523.097500
423.480777	2419.753846
423.859352	2515.535769
424.237866	2442.439038
424.616319	2485.288846
424.994712	2525.618077
425.373044	2530.659231
425.751314	2467.644808
426.129524	2455.041923
426.507673	2482.768269
426.885762	2563.426731
427.263789	2450.000769
427.641756	2492.850577
428.019662	2548.303269
428.397508	2439.918462
428.775292	2465.124231
429.153016	2570.988462
429.530679	2510.494615
429.908282	2452.521346
430.285824	2460.083077
430.663305	2487.809423
431.040726	2515.535769
431.418086	2475.206538
431.795385	2450.000769
432.172624	2389.506923
432.549802	2568.467885
432.926920	2523.097500
433.303977	2518.056346
433.680974	2394.548077
434.057910	2475.206538
434.434786	2528.138654
434.811601	2455.041923
435.188355	2442.439038
435.565050	2452.521346
435.941683	2447.480192
436.318257	2533.179808
436.694770	2538.220962
437.071222	2450.000769
437.447614	2460.083077
437.823946	2538.220962
438.200218	2490.330000
438.576429	2518.056346
438.952580	2510.494615
439.328670	2540.741538
439.704700	2523.097500
440.080670	2399.589231
440.456580	2533.179808
440.832429	2465.124231
441.208218	2434.877308
441.583947	2439.918462
441.959616	2475.206538
442.335224	2419.753846
442.710773	2386.986346
443.086261	2487.809423
443.461689	2470.165385
443.837057	2361.780577
444.212365	2545.782692
444.587612	2588.632500
444.962800	2533.179808
445.337927	2500.412308
445.712995	2434.877308
446.088002	2477.727115
446.462949	2518.056346
446.837837	2450.000769
447.212664	2480.247692
447.587431	2447.480192
447.962139	2462.603654
448.336786	2437.397885
448.711374	2434.877308
449.085901	2540.741538
449.460369	2452.521346
449.834776	2414.712692
450.209124	2437.397885
450.583412	2472.685962
450.957640	2460.083077
451.331808	2455.041923
451.705917	2568.467885
452.079965	2482.768269
452.453954	2515.535769
452.827883	2500.412308
453.201752	2507.974038
453.575562	2442.439038
453.949311	2535.700385
454.323001	2492.850577
454.696632	2510.494615
455.070202	2523.097500
455.443713	2450.000769
455.817164	2457.562500
456.190556	2434.877308
456.563888	2470.165385
456.937160	2465.124231
457.310373	2535.700385
457.683526	2502.932885
458.056619	2427.315577
458.429653	2530.659231
458.802628	2538.220962
459.175542	2492.850577
459.548398	2495.371154
459.921194	2462.603654
460.293930	2465.124231
460.666607	2437.397885
461.039224	2510.494615
461.411782	2573.509038
461.784280	2490.330000
462.156719	2452.521346
462.529099	2452.521346
462.901419	2505.453462
463.273680	2540.741538
463.645882	2495.371154
464.018024	2460.083077
464.390106	2480.247692
464.762130	2528.138654
465.134094	2424.795000
465.505999	2528.138654
465.877845	2424.795000
466.249631	2475.206538
466.621358	2432.356731
466.993026	2523.097500
467.364634	2422.274423
467.736184	2472.685962
468.107674	2543.262115
468.479105	2510.494615
468.850477	2515.535769
469.221790	2495.371154
469.593043	2510.494615
469.964238	2530.659231
470.335373	2545.782692
470.706449	2528.138654
471.077467	2482.768269
471.448425	2475.206538
471.819324	2520.576923
472.190164	2482.768269
472.560945	2457.562500
472.931667	2545.782692
473.302330	2513.015192
473.672934	2540.741538
474.043479	2434.877308
474.413965	2568.467885
474.784393	2553.344423
475.154761	2470.165385
475.525070	2470.165385
475.895321	2467.644808
476.265513	2518.056346
476.635645	2475.206538
477.005719	2490.330000
477.375734	2480.247692
477.745691	2518.056346
478.115588	2502.932885
478.485427	2457.562500
478.855207	2500.412308
479.224928	2576.029615
479.594591	2497.891731
479.964194	2550.823846
480.333739	2528.138654
480.703226	2465.124231
481.072653	2482.768269
481.442022	2467.644808
481.811333	2560.906154
482.180584	2437.397885
482.549777	2523.097500
482.918912	2535.700385
483.287988	2563.426731
483.657005	2490.330000
484.025964	2442.439038
484.394864	2520.576923
484.763706	2462.603654
485.132489	2490.330000
485.501213	2500.412308
485.869879	2424.795000
486.238487	2505.453462
486.607036	2500.412308
486.975527	2480.247692
487.343959	2500.412308
487.712333	2487.809423
488.080648	2487.809423
488.448905	2545.782692
488.817104	2616.358846
489.185244	2465.124231
489.553326	2497.891731
489.921350	2452.521346
490.289315	2492.850577
490.657222	2533.179808
491.025070	2472.685962
491.392861	2472.685962
491.760593	2465.124231
492.128267	2490.330000
492.495883	2485.288846
492.863440	2515.535769
493.230939	2525.618077
493.598380	2528.138654
493.965763	2490.330000
494.333088	2513.015192
494.700354	2507.974038
495.067563	2472.685962
495.434713	2553.344423
495.801805	2399.589231
496.168839	2490.330000
496.535815	2422.274423
496.902733	2434.877308
497.269593	2525.618077
497.636395	2535.700385
498.003139	2560.906154
498.369825	2510.494615
498.736453	2533.179808
499.103023	2578.550192
499.469535	2538.220962
499.835989	2450.000769
500.202385	2485.288846
500.568723	2520.576923
500.935003	2467.644808
501.301226	2442.439038
501.667390	2495.371154
502.033497	2533.179808
502.399546	2540.741538
502.765537	2487.809423
503.131470	2444.959615
503.497345	2417.233269
503.863163	2540.741538
504.228923	2555.865000
504.594625	2457.562500
504.960269	2553.344423
505.325856	2513.015192
505.691385	2581.070769
506.056856	2452.521346
506.422270	2513.015192
506.787625	2450.000769
507.152924	2480.247692
507.518164	2500.412308
507.883347	2495.371154
508.248472	2465.124231
508.613540	2530.659231
508.978550	2581.070769
509.343503	2450.000769
509.708398	2452.521346
510.073236	2472.685962
510.438016	2525.618077
510.802738	2525.618077
511.167403	2581.070769
511.532010	2560.906154
511.896561	2510.494615
512.261053	2487.809423
512.625488	2528.138654
512.989866	2505.453462
513.354186	2500.412308
513.718449	2460.083077
514.082655	2497.891731
514.446803	2588.632500
514.810894	2477.727115
515.174927	2455.041923
515.538904	2555.865000
515.902822	2472.685962
516.266684	2563.426731
516.630488	2457.562500
516.994235	2543.262115
517.357925	2462.603654
517.721558	2495.371154
518.085133	2414.712692
518.448651	2482.768269
518.812112	2510.494615
519.175516	2495.371154
519.538863	2513.015192
519.902152	2452.521346
520.265385	2510.494615
520.628560	2460.083077
520.991678	2492.850577
521.354739	2439.918462
521.717743	2490.330000
522.080690	2495.371154
522.443580	2510.494615
522.806413	2439.918462
523.169189	2465.124231
523.531908	2465.124231
523.894569	2452.521346
524.257174	2409.671538
524.619722	2455.041923
524.982213	2507.974038
525.344647	2487.809423
525.707025	2565.947308
526.069345	2480.247692
526.431608	2558.385577
526.793815	2492.850577
527.155964	2507.974038
527.518057	2548.303269
527.880093	2475.206538
528.242072	2543.262115
528.603995	2505.453462
528.965860	2467.644808
529.327669	2477.727115
529.689421	2528.138654
530.051117	2480.247692
530.412755	2518.056346
530.774337	2437.397885
531.135862	2497.891731
531.497331	2472.685962
531.858743	2545.782692
532.220098	2543.262115
532.581396	2437.397885
532.942638	2442.439038
533.303824	2470.165385
533.664953	2437.397885
534.026025	2550.823846
534.387040	2447.480192
534.747999	2470.165385
535.108902	2490.330000
535.469748	2528.138654
535.830537	2500.412308
536.191270	2381.945192
536.551947	2455.041923
536.912567	2485.288846
537.273131	2492.850577
537.633638	2515.535769
537.994089	2470.165385
538.354483	2538.220962
538.714821	2497.891731
539.075103	2570.988462
539.435328	2492.850577
539.795497	2525.618077
540.155609	2402.109808
540.515665	2452.521346
540.875665	2500.412308
541.235609	2485.288846
541.595496	2477.727115
541.955328	2475.206538
542.315102	2490.330000
542.674821	2480.247692
543.034483	2507.974038
543.394090	2467.644808
543.753640	2457.562500
544.113134	2545.782692
544.472571	2485.288846
544.831953	2452.521346
545.191278	2477.727115
545.550548	2507.974038
545.909761	2432.356731
546.268918	2502.932885
546.628019	2434.877308
546.987064	2538.220962
547.346053	2513.015192
547.704986	2505.453462
548.063863	2535.700385
548.422684	2588.632500
548.781449	2462.603654
549.140158	2490.330000
549.498811	2462.603654
549.857408	2543.262115
550.215949	2513.015192
550.574434	2470.165385
550.932864	2505.453462
551.291237	2470.165385
551.649555	2439.918462
552.007817	2465.124231
552.366022	2555.865000
552.724173	2462.603654
553.082267	2515.535769
553.440305	2455.041923
553.798288	2558.385577
554.156215	2492.850577
554.514086	2555.865000
554.871902	2462.603654
555.229661	2497.891731
555.587365	2497.891731
555.945014	2505.453462
556.302606	2543.262115
556.660143	2409.671538
557.017625	2432.356731
557.375050	2462.603654
557.732421	2427.315577
558.089735	2515.535769
558.446994	2465.124231
558.804197	2500.412308
559.161345	2475.206538
559.518437	2528.138654
559.875474	2447.480192
560.232455	2502.932885
560.589381	2495.371154
560.946251	2457.562500
561.303065	2417.233269
561.659825	2442.439038
562.016528	2520.576923
562.373177	2487.809423
562.729770	2482.768269
563.086307	2523.097500
563.442789	2455.041923
563.799216	2470.165385
564.155587	2563.426731
564.511904	2530.659231
564.868164	2470.165385
565.224370	2437.397885
565.580520	2560.906154
565.936615	2490.330000
566.292654	2510.494615
566.648638	2490.330000
567.004567	2497.891731
567.360441	2434.877308
567.716260	2470.165385
568.072023	2500.412308
568.427732	2485.288846
568.783385	2548.303269
569.138982	2462.603654
569.494525	2510.494615
569.850013	2450.000769
570.205445	2528.138654
570.560823	2457.562500
570.916145	2505.453462
571.271412	2495.371154
571.626625	2455.041923
571.981782	2497.891731
572.336884	2482.768269
572.691931	2558.385577
573.046923	2533.179808
573.401860	2578.550192
573.756743	2558.385577
574.111570	2550.823846
574.466342	2487.809423
574.821059	2470.165385
575.175722	2432.356731
575.530330	2558.385577
575.884882	2439.918462
576.239380	2548.303269
576.593823	2439.918462
576.948211	2505.453462
577.302544	2553.344423
577.656823	2470.165385
578.011047	2543.262115
578.365216	2490.330000
578.719330	2492.850577
579.073389	2555.865000
579.427394	2444.959615
579.781344	2555.865000
580.135239	2570.988462
580.489080	2475.206538
580.842866	2452.521346
581.196597	2563.426731
581.550273	2568.467885
581.903895	2495.371154
582.257463	2457.562500
582.610975	2460.083077
582.964434	2444.959615
583.317837	2447.480192
583.671186	2548.303269
584.024481	2492.850577
584.377721	2480.247692
584.730906	2513.015192
585.084037	2543.262115
585.437113	2548.303269
585.790135	2500.412308
586.143103	2465.124231
586.496016	2545.782692
586.848874	2409.671538
587.201679	2502.932885
587.554428	2439.918462
587.907124	2513.015192
588.259765	2497.891731
588.612352	2490.330000
588.964884	2424.795000
589.317362	2455.041923
589.669786	2470.165385
590.022155	2472.685962
590.374470	2540.741538
590.726731	2487.809423
591.078937	2477.727115
591.431090	2530.659231
591.783188	2450.000769
592.135232	2399.589231
592.487222	2593.673654
592.839157	2457.562500
593.191038	2419.753846
593.542866	2465.124231
593.894639	2520.576923
594.246358	2455.041923
594.598022	2467.644808
594.949633	2621.400000
595.301190	2452.521346
595.652692	2414.712692
596.004141	2543.262115
596.355535	2538.220962
596.706876	2530.659231
597.058162	2555.865000
597.409395	2487.809423
597.760573	2540.741538
598.111698	2553.344423
598.462768	2510.494615
598.813785	2442.439038
599.164748	2507.974038
599.515657	2530.659231
599.866511	2550.823846
600.217312	2535.700385
600.568060	2550.823846
600.918753	2507.974038
601.269392	2450.000769
601.619978	2520.576923
601.970510	2502.932885
602.320988	2465.124231
602.671412	2558.385577
603.021783	2490.330000
603.372100	2495.371154
603.722363	2535.700385
604.072572	2442.439038
604.422728	2482.768269
604.772830	2500.412308
605.122878	2538.220962
605.472872	2538.220962
605.822813	2530.659231
606.172701	2429.836154
606.522534	2525.618077
606.872314	2462.603654
607.222041	2558.385577
607.571714	2545.782692
607.921333	2586.111923
608.270899	2487.809423
608.620411	2540.741538
608.969870	2513.015192
609.319276	2558.385577
609.668627	2492.850577
610.017926	2422.274423
610.367171	2530.659231
610.716362	2505.453462
611.065500	2528.138654
611.414585	2505.453462
611.763616	2485.288846
612.112594	2490.330000
612.461518	2462.603654
612.810389	2492.850577
613.159207	2482.768269
613.507971	2518.056346
613.856682	2399.589231
614.205340	2515.535769
614.553945	2515.535769
614.902496	2581.070769
615.250994	2477.727115
615.599439	2450.000769
615.947830	2528.138654
616.296169	2502.932885
616.644454	2550.823846
616.992686	2447.480192
617.340864	2495.371154
617.688990	2538.220962
618.037063	2490.330000
618.385082	2419.753846
618.733048	2452.521346
619.080961	2523.097500
619.428821	2477.727115
619.776628	2450.000769
620.124382	2450.000769
620.472083	2530.659231
620.819731	2495.371154
621.167326	2392.027500
621.514868	2525.618077
621.862357	2530.659231
622.209793	2475.206538
622.557176	2518.056346
622.904506	2485.288846
623.251783	2543.262115
623.599007	2389.506923
623.946179	2462.603654
624.293297	2507.974038
624.640363	2477.727115
624.987376	2450.000769
625.334336	2530.659231
625.681243	2591.153077
626.028097	2563.426731
626.374899	2462.603654
626.721647	2545.782692
627.068343	2540.741538
627.414987	2434.877308
627.761577	2515.535769
628.108115	2500.412308
628.454600	2482.768269
628.801032	2505.453462
629.147412	2502.932885
629.493739	2462.603654
629.840014	2591.153077
630.186236	2475.206538
630.532405	2513.015192
630.878521	2470.165385
631.224585	2470.165385
631.570597	2490.330000
631.916556	2492.850577
632.262462	2510.494615
632.608316	2505.453462
632.954117	2510.494615
633.299866	2490.330000
633.645562	2475.206538
633.991206	2535.700385
634.336797	2513.015192
634.682336	2495.371154
635.027823	2480.247692
635.373257	2487.809423
635.718639	2578.550192
636.063968	2510.494615
636.409245	2548.303269
636.754470	2495.371154
637.099642	2538.220962
637.444762	2482.768269
637.789829	2470.165385
638.134845	2447.480192
638.479808	2518.056346
638.824719	2402.109808
639.169577	2475.206538
639.514383	2394.548077
639.859137	2457.562500
640.203839	2543.262115
640.548489	2444.959615
640.893086	2578.550192
641.237632	2487.809423
641.582125	2472.685962
641.926566	2505.453462
642.270955	2538.220962
642.615292	2462.603654
642.959576	2513.015192
643.303809	2515.535769
643.647990	2457.562500
643.992118	2548.303269
644.336195	2444.959615
644.680219	2500.412308
645.024192	2583.591346
645.368112	2543.262115
645.711981	2427.315577
646.055797	2593.673654
646.399562	2555.865000
646.743274	2485.288846
647.086935	2515.535769
647.430544	2482.768269
647.774101	2500.412308
648.117606	2497.891731
648.461059	2497.891731
648.804460	2533.179808
649.147810	2520.576923
649.491108	2505.453462
649.834354	2497.891731
650.177548	2417.233269
650.520690	2530.659231
650.863781	2525.618077
651.206820	2613.838269
651.549807	2533.179808
651.892742	2497.891731
652.235626	2540.741538
652.578458	2482.768269
652.921238	2429.836154
653.263967	2500.412308
653.606644	2467.644808
653.949269	2510.494615
654.291843	2586.111923
654.634365	2570.988462
654.976836	2540.741538
655.319255	2523.097500
655.661622	2545.782692
656.003938	2482.768269
656.346203	2596.194231
656.688416	2450.000769
657.030577	2545.782692
657.372687	2422.274423
657.714746	2520.576923
658.056753	2533.179808
658.398708	2505.453462
658.740612	2482.768269
659.082465	2485.288846
659.424266	2515.535769
659.766016	2444.959615
660.107715	2417.233269
660.449362	2460.083077
660.790958	2528.138654
661.132503	2472.685962
661.473996	2548.303269
661.815438	2513.015192
662.156829	2490.330000
662.498168	2477.727115
662.839456	2480.247692
663.180693	2502.932885
663.521879	2505.453462
663.863013	2470.165385
664.204097	2553.344423
664.545129	2550.823846
664.886110	2450.000769
665.227040	2407.150962
665.567918	2470.165385
665.908746	2460.083077
666.249522	2565.947308
666.590248	2570.988462
666.930922	2497.891731
667.271545	2470.165385
667.612118	2455.041923
667.952639	2432.356731
668.293109	2535.700385
668.633528	2452.521346
668.973896	2480.247692
669.314213	2412.192115
669.654480	2455.041923
669.994695	2417.233269
670.334859	2465.124231
670.674973	2515.535769
671.015035	2394.548077
671.355047	2538.220962
671.695008	2558.385577
672.034918	2553.344423
672.374777	2528.138654
672.714585	2492.850577
673.054342	2507.974038
673.394049	2427.315577
673.733705	2565.947308
674.073310	2518.056346
674.412864	2480.247692
674.752368	2533.179808
675.091820	2523.097500
675.431223	2573.509038
675.770574	2472.685962
676.109875	2490.330000
676.449125	2465.124231
676.788324	2480.247692
677.127473	2530.659231
677.466571	2409.671538
677.805619	2520.576923
678.144616	2407.150962
678.483562	2434.877308
678.822458	2535.700385
679.161303	2414.712692
679.500098	2581.070769
679.838842	2437.397885
680.177535	2502.932885
680.516179	2452.521346
680.854771	2437.397885
681.193314	2530.659231
681.531805	2457.562500
681.870247	2601.235385
682.208638	2570.988462
682.546978	2583.591346
682.885268	2535.700385
683.223508	2528.138654
683.561697	2475.206538
683.899836	2500.412308
684.237925	2505.453462
684.575963	2477.727115
684.913951	2452.521346
685.251889	2487.809423
685.589776	2439.918462
685.927614	2523.097500
686.265401	2543.262115
686.603137	2485.288846
686.940824	2492.850577
687.278460	2515.535769
687.616046	2510.494615
687.953582	2515.535769
688.291068	2518.056346
688.628504	2545.782692
688.965889	2472.685962
689.303224	2510.494615
689.640510	2477.727115
689.977745	2482.768269
690.314930	2492.850577
690.652065	2490.330000
690.989150	2550.823846
691.326185	2472.685962
691.663170	2525.618077
692.000105	2444.959615
692.336990	2576.029615
692.673825	2576.029615
693.010610	2429.836154
693.347345	2528.138654
693.684030	2482.768269
694.020665	2543.262115
694.357251	2447.480192
694.693786	2480.247692
695.030272	2472.685962
695.366707	2419.753846
695.703093	2495.371154
696.039429	2502.932885
696.375716	2520.576923
696.711952	2429.836154
697.048139	2475.206538
697.384276	2518.056346
697.720363	2505.453462
698.056400	2530.659231
698.392388	2455.041923
698.728326	2507.974038
699.064214	2482.768269
699.400053	2452.521346
699.735842	2439.918462
700.071581	2487.809423
700.407270	2422.274423
700.742910	2485.288846
701.078501	2540.741538
701.414042	2576.029615
701.749533	2417.233269
702.084974	2565.947308
702.420366	2608.797115
702.755709	2500.412308
703.091002	2472.685962
703.426246	2528.138654
703.761440	2477.727115
704.096584	2502.932885
704.431679	2490.330000
704.766725	2439.918462
705.101721	2543.262115
705.436668	2513.015192
705.771565	2515.535769
706.106413	2485.288846
706.441212	2505.453462
706.775961	2510.494615
707.110661	2540.741538
707.445311	2563.426731
707.779913	2457.562500
708.114465	2492.850577
708.448967	2621.400000
708.783421	2510.494615
709.117825	2515.535769
709.452180	2603.755962
709.786485	2444.959615
710.120742	2460.083077
710.454949	2520.576923
710.789107	2598.714808
711.123216	2470.165385
711.457275	2437.397885
711.791286	2500.412308
712.125247	2560.906154
712.459159	2427.315577
712.793023	2495.371154
713.126837	2482.768269
713.460602	2490.330000
713.794318	2570.988462
714.127985	2543.262115
714.461602	2432.356731
714.795171	2540.741538
715.128691	2480.247692
715.462162	2555.865000
715.795584	2535.700385
716.128957	2540.741538
716.462281	2540.741538
716.795556	2465.124231
717.128782	2523.097500
717.461960	2553.344423
717.795088	2525.618077
718.128167	2444.959615
718.461198	2548.303269
718.794180	2550.823846
719.127113	2419.753846
719.459997	2457.562500
719.792833	2558.385577
720.125619	2553.344423
720.458357	2565.947308
720.791046	2540.741538
721.123686	2462.603654
721.456278	2487.809423
721.788821	2505.453462
722.121315	2497.891731
722.453761	2444.959615
722.786158	2470.165385
723.118506	2462.603654
723.450805	2518.056346
723.783056	2482.768269
724.115259	2487.809423
724.447412	2535.700385
724.779518	2515.535769
725.111574	2507.974038
725.443582	2500.412308
725.775542	2603.755962
726.107453	2513.015192
726.439315	2462.603654
726.771129	2487.809423
727.102895	2530.659231
727.434612	2545.782692
727.766281	2485.288846
728.097901	2550.823846
728.429473	2427.315577
728.760996	2495.371154
729.092471	2462.603654
729.423897	2502.932885
729.755276	2444.959615
730.086606	2513.015192
730.417887	2452.521346
730.749120	2565.947308
731.080305	2535.700385
731.411442	2462.603654
731.742530	2434.877308
732.073570	2439.918462
732.404562	2538.220962
732.735506	2573.509038
733.066401	2520.576923
733.397249	2452.521346
733.728048	2475.206538
734.058798	2502.932885
734.389501	2505.453462
734.720156	2540.741538
735.050762	2485.288846
735.381320	2467.644808
735.711831	2414.712692
736.042293	2487.809423
736.372707	2525.618077
736.703073	2523.097500
737.033391	2568.467885
737.363661	2447.480192
737.693883	2568.467885
738.024056	2407.150962
738.354182	2429.836154
738.684260	2538.220962
739.014290	2548.303269
739.344272	2533.179808
739.674207	2462.603654
740.004093	2510.494615
740.333931	2487.809423
740.663722	2523.097500
740.993464	2560.906154
741.323159	2455.041923
741.652806	2460.083077
741.982405	2502.932885
742.311956	2520.576923
742.641460	2444.959615
742.970915	2412.192115
743.300323	2495.371154
743.629683	2505.453462
743.958996	2480.247692
744.288260	2538.220962
744.617477	2495.371154
744.946647	2543.262115
745.275768	2538.220962
745.604842	2399.589231
745.933869	2528.138654
746.262847	2518.056346
746.591778	2475.206538
746.920662	2502.932885
747.249498	2460.083077
747.578286	2482.768269
747.907027	2487.809423
748.235720	2507.974038
748.564365	2495.371154
748.892963	2404.630385
749.221514	2576.029615
749.550017	2422.274423
749.878473	2523.097500
750.206881	2427.315577
750.535242	2543.262115
750.863555	2457.562500
751.191821	2535.700385
751.520039	2444.959615
751.848210	2477.727115
752.176334	2515.535769
752.504411	2558.385577
752.832440	2492.850577
753.160421	2392.027500
753.488356	2487.809423
753.816243	2533.179808
754.144082	2462.603654
754.471875	2470.165385
754.799620	2510.494615
755.127318	2513.015192
755.454969	2460.083077
755.782572	2581.070769
756.110129	2475.206538
756.437638	2555.865000
756.765100	2450.000769
757.092515	2480.247692
757.419882	2555.865000
757.747203	2467.644808
758.074477	2533.179808
758.401703	2525.618077
758.728882	2480.247692
759.056014	2487.809423
759.383099	2507.974038
759.710138	2475.206538
760.037129	2513.015192
760.364073	2429.836154
760.690970	2507.974038
761.017820	2427.315577
761.344623	2397.068654
761.671379	2510.494615
761.998088	2576.029615
762.324751	2538.220962
762.651366	2457.562500
762.977935	2538.220962
763.304456	2510.494615
763.630931	2533.179808
763.957359	2507.974038
764.283740	2523.097500
764.610074	2507.974038
764.936362	2550.823846
765.262602	2525.618077
765.588796	2528.138654
765.914943	2429.836154
766.241044	2563.426731
766.567097	2404.630385
766.893104	2563.426731
767.219064	2482.768269
767.544978	2419.753846
767.870845	2444.959615
768.196665	2442.439038
768.522438	2560.906154
768.848165	2439.918462
769.173846	2475.206538
769.499479	2568.467885
769.825066	2490.330000
770.150607	2576.029615
770.476101	2460.083077
770.801548	2523.097500
771.126949	2578.550192
771.452303	2475.206538
771.777611	2462.603654
772.102872	2530.659231
772.428087	2510.494615
772.753256	2518.056346
773.078378	2457.562500
773.403453	2389.506923
773.728482	2485.288846
774.053465	2424.795000
774.378401	2457.562500
774.703291	2523.097500
775.028135	2450.000769
775.352932	2507.974038
775.677683	2417.233269
776.002388	2583.591346
776.327046	2480.247692
776.651658	2500.412308
776.976224	2427.315577
777.300743	2497.891731
777.625216	2470.165385
777.949643	2444.959615
778.274024	2515.535769
778.598359	2533.179808
778.922647	2507.974038
779.246889	2500.412308
779.571086	2462.603654
779.895236	2472.685962
780.219339	2470.165385
780.543397	2497.891731
780.867409	2455.041923
781.191374	2525.618077
781.515294	2460.083077
781.839167	2550.823846
782.162995	2452.521346
782.486776	2558.385577
782.810511	2502.932885
783.134201	2444.959615
783.457844	2520.576923
783.781441	2530.659231
784.104993	2462.603654
784.428498	2550.823846
784.751958	2568.467885
785.075372	2555.865000
785.398739	2535.700385
785.722061	2555.865000
786.045337	2535.700385
786.368568	2533.179808
786.691752	2578.550192
787.014891	2502.932885
787.337983	2487.809423
787.661030	2502.932885
787.984031	2490.330000
788.306987	2442.439038
788.629897	2500.412308
788.952760	2412.192115
789.275579	2560.906154
789.598351	2570.988462
789.921078	2495.371154
790.243759	2500.412308
790.566395	2429.836154
790.888984	2404.630385
791.211529	2540.741538
791.534027	2477.727115
791.856480	2530.659231
792.178888	2470.165385
792.501249	2472.685962
792.823566	2475.206538
793.145836	2598.714808
793.468062	2510.494615
793.790241	2495.371154
794.112375	2500.412308
794.434464	2523.097500
794.756507	2533.179808
795.078505	2404.630385
795.400457	2543.262115
795.722364	2485.288846
796.044226	2485.288846
796.366042	2485.288846
796.687812	2427.315577
797.009538	2500.412308
797.331218	2467.644808
797.652852	2437.397885
797.974442	2457.562500
798.295986	2457.562500
798.617484	2460.083077
798.938938	2432.356731
799.260346	2457.562500
799.581709	2492.850577
799.903026	2492.850577
800.224299	2480.247692
800.545526	2495.371154
800.866708	2497.891731
801.187845	2500.412308
801.508936	2515.535769
801.829983	2550.823846
802.150984	2513.015192
802.471940	2447.480192
802.792851	2460.083077
803.113717	2447.480192
803.434538	2460.083077
803.755314	2404.630385
804.076045	2462.603654
804.396731	2535.700385
804.717372	2437.397885
805.037967	2490.330000
805.358518	2477.727115
805.679024	2530.659231
805.999485	2523.097500
806.319901	2487.809423
806.640272	2495.371154
806.960598	2487.809423
807.280879	2520.576923
807.601115	2429.836154
807.921306	2482.768269
808.241453	2477.727115
808.561554	2507.974038
808.881611	2419.753846
809.201623	2515.535769
809.521590	2465.124231
809.841513	2518.056346
810.161390	2603.755962
810.481223	2500.412308
810.801011	2573.509038
811.120755	2482.768269
811.440453	2543.262115
811.760107	2434.877308
812.079716	2525.618077
812.399281	2475.206538
812.718801	2419.753846
813.038276	2424.795000
813.357707	2548.303269
813.677093	2553.344423
813.996434	2422.274423
814.315731	2510.494615
814.634983	2462.603654
814.954191	2442.439038
815.273354	2510.494615
815.592473	2530.659231
815.911547	2475.206538
816.230577	2545.782692
816.549562	2444.959615
816.868502	2480.247692
817.187399	2439.918462
817.506250	2513.015192
817.825058	2442.439038
818.143821	2437.397885
818.462539	2495.371154
818.781213	2510.494615
819.099843	2540.741538
819.418429	2480.247692
819.736970	2442.439038
820.055466	2497.891731
820.373919	2475.206538
820.692327	2525.618077
821.010691	2490.330000
821.329011	2490.330000
821.647286	2497.891731
821.965517	2538.220962
822.283704	2467.644808
822.601847	2505.453462
822.919945	2510.494615
823.237999	2492.850577
823.556010	2523.097500
823.873976	2381.945192
824.191897	2462.603654
824.509775	2470.165385
824.827609	2475.206538
825.145398	2429.836154
825.463144	2399.589231
825.780845	2475.206538
826.098502	2480.247692
826.416116	2452.521346
826.733685	2515.535769
827.051210	2450.000769
827.368692	2563.426731
827.686129	2460.083077
828.003522	2500.412308
828.320872	2432.356731
828.638177	2505.453462
828.955439	2450.000769
829.272656	2490.330000
829.589830	2525.618077
829.906960	2520.576923
830.224046	2492.850577
830.541088	2450.000769
830.858086	2535.700385
831.175041	2548.303269
831.491952	2525.618077
831.808819	2540.741538
832.125642	2535.700385
832.442421	2538.220962
832.759157	2467.644808
833.075849	2467.644808
833.392497	2495.371154
833.709101	2457.562500
834.025662	2457.562500
834.342179	2538.220962
834.658653	2523.097500
834.975083	2467.644808
835.291469	2507.974038
835.607811	2482.768269
835.924110	2487.809423
836.240366	2505.453462
836.556578	2507.974038
836.872746	2507.974038
837.188871	2444.959615
837.504952	2492.850577
837.820990	2462.603654
838.136984	2442.439038
838.452935	2452.521346
838.768842	2462.603654
839.084706	2495.371154
839.400526	2535.700385
839.716303	2460.083077
840.032037	2455.041923
840.347727	2515.535769
840.663373	2417.233269
840.978977	2467.644808
841.294537	2444.959615
841.610054	2513.015192
841.925527	2518.056346
842.240957	2528.138654
842.556344	2467.644808
842.871687	2477.727115
843.186987	2495.371154
843.502244	2482.768269
843.817458	2487.809423
844.132629	2548.303269
844.447756	2462.603654
844.762840	2513.015192
845.077881	2530.659231
845.392879	2457.562500
845.707833	2497.891731
846.022745	2490.330000
846.337613	2480.247692
846.652438	2505.453462
846.967221	2457.562500
847.281960	2487.809423
847.596656	2510.494615
847.911309	2475.206538
848.225919	2528.138654
848.540485	2432.356731
848.855009	2507.974038
849.169490	2465.124231
849.483928	2553.344423
849.798323	2457.562500
850.112675	2576.029615
850.426984	2502.932885
850.741251	2548.303269
851.055474	2535.700385
851.369654	2447.480192
851.683792	2482.768269
851.997887	2540.741538
852.311938	2513.015192
852.625947	2482.768269
852.939914	2548.303269
853.253837	2460.083077
853.567718	2545.782692
853.881555	2510.494615
854.195350	2460.083077
854.509103	2523.097500
854.822812	2505.453462
855.136479	2467.644808
855.450103	2555.865000
855.763685	2465.124231
856.077224	2475.206538
856.390720	2558.385577
856.704173	2548.303269
857.017584	2528.138654
857.330953	2497.891731
857.644278	2507.974038
857.957561	2487.809423
858.270802	2502.932885
858.584000	2472.685962
858.897155	2482.768269
859.210268	2462.603654
859.523339	2457.562500
859.836367	2439.918462
860.149352	2505.453462
860.462295	2450.000769
860.775195	2550.823846
861.088054	2568.467885
861.400869	2460.083077
861.713642	2523.097500
862.026373	2369.342308
862.339062	2470.165385
862.651708	2528.138654
862.964312	2576.029615
863.276873	2505.453462
863.589392	2394.548077
863.901869	2515.535769
864.214303	2457.562500
864.526696	2507.974038
864.839045	2386.986346
865.151353	2432.356731
865.463619	2502.932885
865.775842	2422.274423
866.088023	2437.397885
866.400162	2452.521346
866.712258	2475.206538
867.024313	2490.330000
867.336325	2399.589231
867.648296	2407.150962
867.960224	2434.877308
868.272110	2568.467885
868.583954	2545.782692
868.895755	2409.671538
869.207515	2568.467885
869.519233	2492.850577
869.830909	2523.097500
870.142542	2492.850577
870.454134	2545.782692
870.765684	2467.644808
871.077191	2465.124231
871.388657	2545.782692
871.700081	2545.782692
872.011463	2432.356731
872.322803	2422.274423
872.634101	2502.932885
872.945357	2452.521346
873.256571	2477.727115
873.567744	2409.671538
873.878874	2530.659231
874.189963	2485.288846
874.501010	2485.288846
874.812015	2452.521346
875.122979	2450.000769
875.433900	2404.630385
875.744780	2543.262115
876.055618	2467.644808
876.366415	2520.576923
876.677169	2434.877308
876.987882	2472.685962
877.298554	2540.741538
877.609183	2502.932885
877.919771	2520.576923
878.230317	2457.562500
878.540822	2495.371154
878.851285	2530.659231
879.161707	2490.330000
879.472087	2490.330000
879.782425	2477.727115
880.092722	2533.179808
880.402977	2465.124231
880.713191	2444.959615
881.023363	2525.618077
881.333494	2492.850577
881.643583	2485.288846
881.953631	2482.768269
882.263637	2558.385577
882.573602	2548.303269
882.883526	2540.741538
883.193408	2502.932885
883.503248	2510.494615
883.813048	2533.179808
884.122806	2538.220962
884.432522	2530.659231
884.742197	2515.535769
885.051831	2399.589231
885.361424	2530.659231
885.670975	2487.809423
885.980485	2520.576923
886.289954	2523.097500
886.599382	2540.741538
886.908768	2515.535769
887.218113	2412.192115
887.527417	2485.288846
887.836680	2490.330000
888.145901	2530.659231
888.455082	2528.138654
888.764221	2510.494615
889.073319	2412.192115
889.382376	2555.865000
889.691392	2465.124231
890.000366	2583.591346
890.309300	2450.000769
890.618193	2565.947308
890.927044	2513.015192
891.235855	2467.644808
891.544625	2450.000769
891.853353	2460.083077
892.162041	2407.150962
892.470687	2525.618077
892.779293	2457.562500
893.087858	2525.618077
893.396381	2450.000769
893.704864	2523.097500
894.013306	2437.397885
894.321707	2533.179808
894.630068	2482.768269
894.938387	2485.288846
895.246665	2444.959615
895.554903	2507.974038
895.863100	2465.124231
896.171256	2495.371154
896.479371	2553.344423
896.787446	2477.727115
897.095480	2513.015192
897.403473	2457.562500
897.711425	2477.727115
898.019336	2520.576923
898.327207	2462.603654
898.635038	2414.712692
898.942827	2487.809423
899.250576	2523.097500
899.558284	2419.753846
899.865952	2515.535769
900.173579	2452.521346
900.481165	2492.850577
900.788711	2485.288846
901.096216	2525.618077
901.403681	2477.727115
901.711105	2444.959615
902.018489	2500.412308
902.325832	2513.015192
902.633135	2538.220962
902.940397	2528.138654
903.247619	2452.521346
903.554800	2525.618077
903.861941	2540.741538
904.169041	2533.179808
904.476101	2447.480192
904.783121	2455.041923
905.090100	2533.179808
905.397039	2525.618077
905.703938	2480.247692
906.010796	2467.644808
906.317614	2422.274423
906.624391	2485.288846
906.931129	2497.891731
907.237826	2515.535769
907.544483	2548.303269
907.851099	2470.165385
908.157675	2492.850577
908.464211	2507.974038
908.770707	2412.192115
909.077163	2452.521346
909.383578	2485.288846
909.689954	2480.247692
909.996289	2447.480192
910.302584	2485.288846
910.608839	2470.165385
910.915054	2487.809423
911.221229	2465.124231
911.527363	2482.768269
911.833458	2477.727115
912.139513	2485.288846
912.445527	2523.097500
912.751502	2422.274423
913.057436	2500.412308
913.363331	2472.685962
913.669186	2507.974038
913.975000	2419.753846
914.280775	2455.041923
914.586510	2460.083077
914.892205	2490.330000
915.197859	2507.974038
915.503475	2465.124231
915.809050	2558.385577
916.114585	2424.795000
916.420081	2565.947308
916.725536	2442.439038
917.030952	2497.891731
917.336328	2477.727115
917.641665	2538.220962
917.946961	2457.562500
918.252218	2525.618077
918.557435	2497.891731
918.862612	2518.056346
919.167750	2538.220962
919.472848	2543.262115
919.777906	2412.192115
920.082925	2477.727115
920.387904	2533.179808
920.692843	2528.138654
920.997743	2460.083077
921.302603	2500.412308
921.607423	2427.315577
921.912204	2485.288846
922.216946	2452.521346
922.521647	2540.741538
922.826310	2444.959615
923.130932	2528.138654
923.435516	2502.932885
923.740059	2475.206538
924.044564	2495.371154
924.349028	2583.591346
924.653454	2477.727115
924.957840	2414.712692
925.262186	2457.562500
925.566493	2407.150962
925.870761	2495.371154
926.174989	2533.179808
926.479178	2593.673654
926.783328	2548.303269
927.087438	2538.220962
927.391509	2502.932885
927.695541	2470.165385
927.999533	2495.371154
928.303486	2427.315577
928.607400	2543.262115
928.911275	2455.041923
929.215110	2490.330000
929.518906	2447.480192
929.822663	2422.274423
930.126381	2364.301154
930.430060	2457.562500
930.733699	2515.535769
931.037299	2447.480192
931.340861	2485.288846
931.644383	2518.056346
931.947866	2492.850577
932.251309	2457.562500
932.554714	2457.562500
932.858080	2543.262115
933.161407	2533.179808
933.464694	2434.877308
933.767943	2502.932885
934.071153	2457.562500
934.374323	2601.235385
934.677455	2424.795000
934.980548	2543.262115
935.283602	2434.877308
935.586617	2518.056346
935.889593	2460.083077
936.192530	2472.685962
936.495428	2429.836154
936.798287	2482.768269
937.101108	2467.644808
937.403890	2510.494615
937.706632	2455.041923
938.009336	2565.947308
938.312002	2485.288846
938.614628	2523.097500
938.917216	2515.535769
939.219765	2477.727115
939.522275	2417.233269
939.824747	2492.850577
940.127179	2545.782692
940.429573	2548.303269
940.731929	2482.768269
941.034246	2583.591346
941.336524	2470.165385
941.638763	2432.356731
941.940964	2513.015192
942.243126	2495.371154
942.545250	2555.865000
942.847335	2520.576923
943.149381	2429.836154
943.451389	2525.618077
943.753359	2442.439038
944.055290	2528.138654
944.357182	2409.671538
944.659036	2444.959615
944.960851	2462.603654
945.262628	2510.494615
945.564367	2467.644808
945.866067	2545.782692
946.167729	2553.344423
946.469352	2550.823846
946.770937	2515.535769
947.072484	2467.644808
947.373992	2457.562500
947.675462	2490.330000
947.976893	2480.247692
948.278286	2497.891731
948.579641	2518.056346
948.880958	2482.768269
949.182236	2419.753846
949.483476	2485.288846
949.784678	2452.521346
950.085841	2477.727115
950.386967	2515.535769
950.688054	2480.247692
950.989103	2422.274423
951.290114	2510.494615
951.591087	2452.521346
951.892021	2507.974038
952.192917	2475.206538
952.493776	2530.659231
952.794596	2424.795000
953.095378	2500.412308
953.396122	2417.233269
953.696828	2482.768269
953.997496	2510.494615
954.298126	2533.179808
954.598718	2520.576923
954.899272	2457.562500
955.199788	2560.906154
955.500266	2515.535769
955.800706	2500.412308
956.101108	2545.782692
956.401472	2487.809423
956.701798	2480.247692
957.002087	2518.056346
957.302337	2455.041923
957.602550	2553.344423
957.902724	2513.015192
958.202861	2495.371154
958.502960	2472.685962
958.803022	2523.097500
959.103045	2525.618077
959.403031	2485.288846
959.702979	2492.850577
960.002889	2500.412308
960.302762	2480.247692
960.602596	2518.056346
960.902393	2472.685962
961.202153	2495.371154
961.501875	2450.000769
961.801559	2505.453462
962.101205	2452.521346
962.400814	2490.330000
962.700385	2462.603654
962.999918	2495.371154
963.299414	2417.233269
963.598873	2505.453462
963.898293	2455.041923
964.197677	2495.371154
964.497022	2502.932885
964.796331	2397.068654
965.095601	2528.138654
965.394835	2487.809423
965.694030	2558.385577
965.993189	2500.412308
966.292309	2497.891731
966.591393	2452.521346
966.890439	2513.015192
967.189447	2472.685962
967.488419	2576.029615
967.787353	2472.685962
968.086249	2550.823846
968.385108	2530.659231
968.683930	2480.247692
968.982714	2538.220962
969.281462	2500.412308
969.580172	2490.330000
969.878844	2530.659231
970.177480	2490.330000
970.476078	2618.879423
970.774639	2485.288846
971.073162	2480.247692
971.371649	2424.795000
971.670098	2505.453462
971.968510	2492.850577
972.266885	2457.562500
972.565223	2450.000769
972.863524	2497.891731
973.161788	2472.685962
973.460014	2465.124231
973.758204	2502.932885
974.056356	2490.330000
974.354471	2548.303269
974.652550	2565.947308
974.950591	2452.521346
975.248595	2555.865000
975.546563	2439.918462
975.844493	2477.727115
976.142386	2538.220962
976.440243	2480.247692
976.738062	2558.385577
977.035845	2510.494615
977.333590	2513.015192
977.631299	2568.467885
977.928971	2485.288846
978.226606	2497.891731
978.524204	2424.795000
978.821765	2465.124231
979.119290	2513.015192
979.416777	2462.603654
979.714228	2452.521346
980.011642	2462.603654
980.309020	2543.262115
980.606360	2485.288846
980.903664	2455.041923
981.200931	2480.247692
981.498162	2434.877308
981.795356	2455.041923
982.092513	2422.274423
982.389633	2563.426731
982.686717	2495.371154
982.983764	2457.562500
983.280775	2507.974038
983.577749	2450.000769
983.874686	2424.795000
984.171587	2558.385577
984.468451	2452.521346
984.765279	2502.932885
985.062070	2384.465769
985.358824	2457.562500
985.655543	2422.274423
985.952224	2530.659231
986.248869	2439.918462
986.545478	2467.644808
986.842050	2447.480192
987.138586	2520.576923
987.435086	2570.988462
987.731549	2505.453462
988.027975	2467.644808
988.324366	2447.480192
988.620719	2495.371154
988.917037	2560.906154
989.213318	2548.303269
989.509563	2432.356731
989.805772	2513.015192
990.101944	2452.521346
990.398080	2485.288846
990.694180	2457.562500
990.990244	2515.535769
991.286271	2570.988462
991.582262	2475.206538
991.878217	2462.603654
992.174136	2477.727115
992.470019	2462.603654
992.765865	2520.576923
993.061676	2442.439038
993.357450	2510.494615
993.653188	2497.891731
993.948890	2450.000769
994.244556	2465.124231
994.540186	2480.247692
994.835780	2470.165385
995.131337	2427.315577
995.426859	2530.659231
995.722345	2507.974038
996.017795	2510.494615
996.313208	2485.288846
996.608586	2482.768269
996.903928	2409.671538
997.199234	2533.179808
997.494504	2450.000769
997.789738	2492.850577
998.084936	2565.947308
998.380099	2490.330000
998.675225	2540.741538
998.970316	2530.659231
999.265371	2535.700385
999.560390	2523.097500
999.855373	2525.618077
1000.150320	2520.576923
1000.445232	2465.124231
1000.740108	2492.850577
1001.034948	2520.576923
1001.329752	2467.644808
1001.624521	2525.618077
1001.919254	2437.397885
1002.213951	2439.918462
1002.508613	2520.576923
1002.803239	2472.685962
1003.097829	2452.521346
1003.392384	2427.315577
1003.686903	2389.506923
1003.981386	2525.618077
1004.275834	2434.877308
1004.570246	2510.494615
1004.864623	2528.138654
1005.158964	2495.371154
1005.453270	2422.274423
1005.747540	2482.768269
1006.041775	2444.959615
1006.335974	2513.015192
1006.630138	2502.932885
1006.924266	2480.247692
1007.218359	2540.741538
1007.512416	2447.480192
1007.806438	2485.288846
1008.100425	2490.330000
1008.394376	2490.330000
1008.688292	2480.247692
1008.982172	2523.097500
1009.276017	2442.439038
1009.569827	2495.371154
1009.863602	2470.165385
1010.157341	2515.535769
1010.451045	2460.083077
1010.744714	2475.206538
1011.038347	2507.974038
1011.331945	2545.782692
1011.625508	2447.480192
1011.919036	2495.371154
1012.212528	2502.932885
1012.505986	2507.974038
1012.799408	2457.562500
1013.092795	2528.138654
1013.386147	2482.768269
1013.679464	2505.453462
1013.972745	2402.109808
1014.265992	2452.521346
1014.559204	2417.233269
1014.852380	2540.741538
1015.145521	2432.356731
1015.438628	2515.535769
1015.731699	2475.206538
1016.024736	2452.521346
1016.317737	2394.548077
1016.610703	2460.083077
1016.903635	2432.356731
1017.196531	2482.768269
1017.489393	2515.535769
1017.782219	2502.932885
1018.075011	2455.041923
1018.367768	2535.700385
1018.660490	2560.906154
1018.953177	2560.906154
1019.245829	2560.906154
