Dividing Wavelength (nm)	Counts (n)	Blue Motor Position (mm): 0.000000	Red Motor Position (mm): 2.900000	
326.493990	2119.805192
326.888308	2119.805192
327.282561	2119.805192
327.676750	2049.229038
328.070874	2044.187885
328.464933	2051.749615
328.858929	2079.475962
329.252859	2139.969808
329.646726	2107.202308
330.040528	2119.805192
330.434265	2150.052115
330.827938	2117.284615
331.221547	2197.943077
331.615091	2238.272308
332.008571	2162.655000
332.401986	2238.272308
332.795338	2243.313462
333.188625	2202.984231
333.581847	2213.066538
333.975006	2271.039808
334.368100	2253.395769
334.761129	2341.615962
335.154095	2316.410192
335.546996	2306.327885
335.939833	2354.218846
336.332606	2397.068654
336.725315	2354.218846
337.117960	2366.821731
337.510540	2397.068654
337.903056	2462.603654
338.295508	2402.109808
338.687896	2457.562500
339.080220	2518.056346
339.472480	2457.562500
339.864676	2465.124231
340.256807	2495.371154
340.648875	2442.439038
341.040879	2447.480192
341.432818	2442.439038
341.824694	2518.056346
342.216506	2492.850577
342.608253	2510.494615
342.999937	2427.315577
343.391557	2520.576923
343.783113	2402.109808
344.174605	2555.865000
344.566033	2450.000769
344.957397	2538.220962
345.348697	2525.618077
345.739934	2535.700385
346.131106	2477.727115
346.522215	2500.412308
346.913260	2462.603654
347.304241	2518.056346
347.695159	2422.274423
348.086012	2472.685962
348.476802	2444.959615
348.867528	2495.371154
349.258191	2452.521346
349.648789	2455.041923
350.039324	2429.836154
350.429796	2513.015192
350.820203	2523.097500
351.210548	2485.288846
351.600828	2427.315577
351.991045	2444.959615
352.381198	2444.959615
352.771288	2505.453462
353.161314	2346.657115
353.551276	2381.945192
353.941175	2366.821731
354.331010	2432.356731
354.720782	2427.315577
355.110490	2371.862885
355.500135	2480.247692
355.889717	2397.068654
356.279235	2465.124231
356.668689	2507.974038
357.058080	2424.795000
357.447408	2510.494615
357.836672	2427.315577
358.225873	2407.150962
358.615010	2381.945192
359.004084	2417.233269
359.393095	2389.506923
359.782043	2422.274423
360.170927	2412.192115
360.559748	2409.671538
360.948505	2467.644808
361.337199	2434.877308
361.725830	2455.041923
362.114398	2450.000769
362.502903	2475.206538
362.891344	2432.356731
363.279722	2442.439038
363.668037	2472.685962
364.056289	2404.630385
364.444478	2507.974038
364.832603	2429.836154
365.220665	2480.247692
365.608665	2495.371154
365.996601	2492.850577
366.384474	2417.233269
366.772284	2485.288846
367.160031	2455.041923
367.547715	2457.562500
367.935336	2500.412308
368.322893	2477.727115
368.710388	2482.768269
369.097820	2437.397885
369.485189	2452.521346
369.872495	2480.247692
370.259738	2543.262115
370.646918	2470.165385
371.034035	2558.385577
371.421090	2530.659231
371.808081	2414.712692
372.195010	2399.589231
372.581875	2429.836154
372.968678	2402.109808
373.355418	2515.535769
373.742096	2513.015192
374.128710	2465.124231
374.515262	2424.795000
374.901751	2439.918462
375.288177	2356.739423
375.674540	2470.165385
376.060841	2457.562500
376.447079	2553.344423
376.833254	2394.548077
377.219367	2442.439038
377.605417	2409.671538
377.991404	2513.015192
378.377329	2394.548077
378.763191	2392.027500
379.148991	2384.465769
379.534727	2439.918462
379.920402	2525.618077
380.306013	2502.932885
380.691563	2409.671538
381.077049	2467.644808
381.462474	2399.589231
381.847835	2442.439038
382.233134	2465.124231
382.618371	2500.412308
383.003545	2497.891731
383.388657	2444.959615
383.773706	2434.877308
384.158693	2472.685962
384.543618	2500.412308
384.928480	2452.521346
385.313280	2452.521346
385.698017	2502.932885
386.082692	2404.630385
386.467305	2510.494615
386.851856	2409.671538
387.236344	2475.206538
387.620770	2460.083077
388.005133	2472.685962
388.389435	2570.988462
388.773674	2429.836154
389.157851	2507.974038
389.541965	2434.877308
389.926018	2485.288846
390.310008	2414.712692
390.693936	2475.206538
391.077802	2477.727115
391.461606	2573.509038
391.845348	2598.714808
392.229027	2502.932885
392.612645	2482.768269
392.996200	2482.768269
393.379694	2450.000769
393.763125	2548.303269
394.146494	2505.453462
394.529801	2419.753846
394.913047	2465.124231
395.296230	2525.618077
395.679351	2538.220962
396.062410	2518.056346
396.445408	2424.795000
396.828343	2412.192115
397.211217	2427.315577
397.594028	2492.850577
397.976778	2502.932885
398.359466	2603.755962
398.742092	2434.877308
399.124656	2427.315577
399.507158	2444.959615
399.889598	2450.000769
400.271977	2485.288846
400.654294	2452.521346
401.036549	2417.233269
401.418742	2412.192115
401.800874	2444.959615
402.182944	2422.274423
402.564952	2450.000769
402.946898	2477.727115
403.328783	2444.959615
403.710606	2437.397885
404.092367	2490.330000
404.474067	2525.618077
404.855705	2528.138654
405.237282	2462.603654
405.618797	2477.727115
406.000250	2510.494615
406.381642	2437.397885
406.762972	2482.768269
407.144240	2540.741538
407.525447	2523.097500
407.906593	2450.000769
408.287677	2482.768269
408.668700	2414.712692
409.049661	2490.330000
409.430560	2480.247692
409.811399	2450.000769
410.192176	2490.330000
410.572891	2412.192115
410.953545	2424.795000
411.334138	2465.124231
411.714669	2460.083077
412.095139	2450.000769
412.475547	2510.494615
412.855894	2548.303269
413.236180	2447.480192
413.616405	2475.206538
413.996568	2505.453462
414.376670	2460.083077
414.756711	2482.768269
415.136691	2462.603654
415.516609	2487.809423
415.896466	2442.439038
416.276262	2475.206538
416.655997	2465.124231
417.035670	2510.494615
417.415283	2528.138654
417.794834	2535.700385
418.174324	2442.439038
418.553753	2507.974038
418.933121	2394.548077
419.312428	2412.192115
419.691674	2492.850577
420.070859	2485.288846
420.449983	2472.685962
420.829045	2513.015192
421.208047	2510.494615
421.586988	2439.918462
421.965867	2472.685962
422.344686	2505.453462
422.723444	2510.494615
423.102141	2439.918462
423.480777	2500.412308
423.859352	2520.576923
424.237866	2507.974038
424.616319	2450.000769
424.994712	2495.371154
425.373044	2535.700385
425.751314	2565.947308
426.129524	2507.974038
426.507673	2485.288846
426.885762	2447.480192
427.263789	2457.562500
427.641756	2528.138654
428.019662	2402.109808
428.397508	2437.397885
428.775292	2507.974038
429.153016	2497.891731
429.530679	2472.685962
429.908282	2465.124231
430.285824	2386.986346
430.663305	2442.439038
431.040726	2507.974038
431.418086	2455.041923
431.795385	2523.097500
432.172624	2417.233269
432.549802	2490.330000
432.926920	2437.397885
433.303977	2513.015192
433.680974	2535.700385
434.057910	2432.356731
434.434786	2505.453462
434.811601	2467.644808
435.188355	2565.947308
435.565050	2487.809423
435.941683	2414.712692
436.318257	2482.768269
436.694770	2397.068654
437.071222	2467.644808
437.447614	2492.850577
437.823946	2523.097500
438.200218	2444.959615
438.576429	2497.891731
438.952580	2548.303269
439.328670	2495.371154
439.704700	2586.111923
440.080670	2528.138654
440.456580	2417.233269
440.832429	2533.179808
441.208218	2442.439038
441.583947	2452.521346
441.959616	2472.685962
442.335224	2523.097500
442.710773	2480.247692
443.086261	2404.630385
443.461689	2480.247692
443.837057	2505.453462
444.212365	2465.124231
444.587612	2450.000769
444.962800	2457.562500
445.337927	2555.865000
445.712995	2467.644808
446.088002	2513.015192
446.462949	2475.206538
446.837837	2583.591346
447.212664	2613.838269
447.587431	2437.397885
447.962139	2455.041923
448.336786	2568.467885
448.711374	2606.276538
449.085901	2480.247692
449.460369	2432.356731
449.834776	2502.932885
450.209124	2538.220962
450.583412	2427.315577
450.957640	2465.124231
451.331808	2500.412308
451.705917	2414.712692
452.079965	2482.768269
452.453954	2487.809423
452.827883	2548.303269
453.201752	2485.288846
453.575562	2538.220962
453.949311	2540.741538
454.323001	2462.603654
454.696632	2457.562500
455.070202	2492.850577
455.443713	2518.056346
455.817164	2495.371154
456.190556	2450.000769
456.563888	2472.685962
456.937160	2475.206538
457.310373	2412.192115
457.683526	2412.192115
458.056619	2560.906154
458.429653	2510.494615
458.802628	2502.932885
459.175542	2540.741538
459.548398	2379.424615
459.921194	2505.453462
460.293930	2540.741538
460.666607	2570.988462
461.039224	2535.700385
461.411782	2550.823846
461.784280	2467.644808
462.156719	2510.494615
462.529099	2460.083077
462.901419	2538.220962
463.273680	2485.288846
463.645882	2533.179808
464.018024	2505.453462
464.390106	2465.124231
464.762130	2533.179808
465.134094	2477.727115
465.505999	2555.865000
465.877845	2437.397885
466.249631	2513.015192
466.621358	2515.535769
466.993026	2528.138654
467.364634	2457.562500
467.736184	2497.891731
468.107674	2470.165385
468.479105	2427.315577
468.850477	2507.974038
469.221790	2497.891731
469.593043	2477.727115
469.964238	2460.083077
470.335373	2462.603654
470.706449	2477.727115
471.077467	2528.138654
471.448425	2533.179808
471.819324	2455.041923
472.190164	2586.111923
472.560945	2437.397885
472.931667	2548.303269
473.302330	2424.795000
473.672934	2538.220962
474.043479	2442.439038
474.413965	2543.262115
474.784393	2507.974038
475.154761	2548.303269
475.525070	2462.603654
475.895321	2535.700385
476.265513	2500.412308
476.635645	2558.385577
477.005719	2538.220962
477.375734	2520.576923
477.745691	2467.644808
478.115588	2500.412308
478.485427	2492.850577
478.855207	2497.891731
479.224928	2409.671538
479.594591	2487.809423
479.964194	2444.959615
480.333739	2555.865000
480.703226	2513.015192
481.072653	2535.700385
481.442022	2548.303269
481.811333	2548.303269
482.180584	2533.179808
482.549777	2500.412308
482.918912	2457.562500
483.287988	2472.685962
483.657005	2528.138654
484.025964	2475.206538
484.394864	2530.659231
484.763706	2553.344423
485.132489	2444.959615
485.501213	2457.562500
485.869879	2518.056346
486.238487	2439.918462
486.607036	2475.206538
486.975527	2528.138654
487.343959	2538.220962
487.712333	2452.521346
488.080648	2535.700385
488.448905	2502.932885
488.817104	2523.097500
489.185244	2487.809423
489.553326	2535.700385
489.921350	2482.768269
490.289315	2510.494615
490.657222	2550.823846
491.025070	2467.644808
491.392861	2447.480192
491.760593	2510.494615
492.128267	2555.865000
492.495883	2555.865000
492.863440	2543.262115
493.230939	2437.397885
493.598380	2470.165385
493.965763	2412.192115
494.333088	2482.768269
494.700354	2465.124231
495.067563	2568.467885
495.434713	2429.836154
495.801805	2550.823846
496.168839	2475.206538
496.535815	2523.097500
496.902733	2518.056346
497.269593	2515.535769
497.636395	2460.083077
498.003139	2518.056346
498.369825	2490.330000
498.736453	2634.002885
499.103023	2462.603654
499.469535	2480.247692
499.835989	2528.138654
500.202385	2545.782692
500.568723	2475.206538
500.935003	2495.371154
501.301226	2475.206538
501.667390	2502.932885
502.033497	2507.974038
502.399546	2452.521346
502.765537	2442.439038
503.131470	2523.097500
503.497345	2455.041923
503.863163	2523.097500
504.228923	2455.041923
504.594625	2475.206538
504.960269	2460.083077
505.325856	2487.809423
505.691385	2596.194231
506.056856	2528.138654
506.422270	2472.685962
506.787625	2505.453462
507.152924	2472.685962
507.518164	2518.056346
507.883347	2523.097500
508.248472	2500.412308
508.613540	2502.932885
508.978550	2545.782692
509.343503	2507.974038
509.708398	2500.412308
510.073236	2505.453462
510.438016	2460.083077
510.802738	2497.891731
511.167403	2412.192115
511.532010	2530.659231
511.896561	2477.727115
512.261053	2530.659231
512.625488	2568.467885
512.989866	2485.288846
513.354186	2424.795000
513.718449	2548.303269
514.082655	2470.165385
514.446803	2492.850577
514.810894	2467.644808
515.174927	2533.179808
515.538904	2492.850577
515.902822	2480.247692
516.266684	2586.111923
516.630488	2482.768269
516.994235	2581.070769
517.357925	2550.823846
517.721558	2455.041923
518.085133	2447.480192
518.448651	2470.165385
518.812112	2470.165385
519.175516	2520.576923
519.538863	2507.974038
519.902152	2588.632500
520.265385	2586.111923
520.628560	2510.494615
520.991678	2515.535769
521.354739	2442.439038
521.717743	2487.809423
522.080690	2573.509038
522.443580	2460.083077
522.806413	2487.809423
523.169189	2465.124231
523.531908	2497.891731
523.894569	2460.083077
524.257174	2510.494615
524.619722	2507.974038
524.982213	2507.974038
525.344647	2523.097500
525.707025	2500.412308
526.069345	2550.823846
526.431608	2507.974038
526.793815	2513.015192
527.155964	2480.247692
527.518057	2429.836154
527.880093	2520.576923
528.242072	2492.850577
528.603995	2470.165385
528.965860	2545.782692
529.327669	2460.083077
529.689421	2500.412308
530.051117	2460.083077
530.412755	2495.371154
530.774337	2477.727115
531.135862	2480.247692
531.497331	2550.823846
531.858743	2460.083077
532.220098	2482.768269
532.581396	2578.550192
532.942638	2460.083077
533.303824	2485.288846
533.664953	2480.247692
534.026025	2460.083077
534.387040	2593.673654
534.747999	2495.371154
535.108902	2497.891731
535.469748	2490.330000
535.830537	2515.535769
536.191270	2525.618077
536.551947	2477.727115
536.912567	2533.179808
537.273131	2565.947308
537.633638	2538.220962
537.994089	2392.027500
538.354483	2513.015192
538.714821	2510.494615
539.075103	2548.303269
539.435328	2492.850577
539.795497	2540.741538
540.155609	2515.535769
540.515665	2480.247692
540.875665	2507.974038
541.235609	2550.823846
541.595496	2419.753846
541.955328	2518.056346
542.315102	2581.070769
542.674821	2422.274423
543.034483	2500.412308
543.394090	2495.371154
543.753640	2538.220962
544.113134	2596.194231
544.472571	2520.576923
544.831953	2560.906154
545.191278	2437.397885
545.550548	2578.550192
545.909761	2467.644808
546.268918	2510.494615
546.628019	2480.247692
546.987064	2492.850577
547.346053	2518.056346
547.704986	2568.467885
548.063863	2455.041923
548.422684	2525.618077
548.781449	2409.671538
549.140158	2492.850577
549.498811	2518.056346
549.857408	2518.056346
550.215949	2447.480192
550.574434	2525.618077
550.932864	2510.494615
551.291237	2523.097500
551.649555	2523.097500
552.007817	2533.179808
552.366022	2513.015192
552.724173	2429.836154
553.082267	2455.041923
553.440305	2500.412308
553.798288	2500.412308
554.156215	2480.247692
554.514086	2510.494615
554.871902	2533.179808
555.229661	2490.330000
555.587365	2550.823846
555.945014	2510.494615
556.302606	2475.206538
556.660143	2520.576923
557.017625	2450.000769
557.375050	2364.301154
557.732421	2540.741538
558.089735	2472.685962
558.446994	2485.288846
558.804197	2510.494615
559.161345	2523.097500
559.518437	2470.165385
559.875474	2505.453462
560.232455	2417.233269
560.589381	2535.700385
560.946251	2550.823846
561.303065	2465.124231
561.659825	2477.727115
562.016528	2533.179808
562.373177	2497.891731
562.729770	2475.206538
563.086307	2548.303269
563.442789	2477.727115
563.799216	2404.630385
564.155587	2513.015192
564.511904	2467.644808
564.868164	2528.138654
565.224370	2477.727115
565.580520	2477.727115
565.936615	2495.371154
566.292654	2518.056346
566.648638	2437.397885
567.004567	2447.480192
567.360441	2502.932885
567.716260	2432.356731
568.072023	2543.262115
568.427732	2452.521346
568.783385	2452.521346
569.138982	2525.618077
569.494525	2424.795000
569.850013	2565.947308
570.205445	2495.371154
570.560823	2475.206538
570.916145	2573.509038
571.271412	2427.315577
571.626625	2447.480192
571.981782	2502.932885
572.336884	2467.644808
572.691931	2475.206538
573.046923	2472.685962
573.401860	2528.138654
573.756743	2485.288846
574.111570	2669.290962
574.466342	2477.727115
574.821059	2485.288846
575.175722	2482.768269
575.530330	2462.603654
575.884882	2502.932885
576.239380	2568.467885
576.593823	2427.315577
576.948211	2439.918462
577.302544	2490.330000
577.656823	2429.836154
578.011047	2457.562500
578.365216	2518.056346
578.719330	2500.412308
579.073389	2485.288846
579.427394	2555.865000
579.781344	2528.138654
580.135239	2467.644808
580.489080	2505.453462
580.842866	2538.220962
581.196597	2507.974038
581.550273	2588.632500
581.903895	2492.850577
582.257463	2588.632500
582.610975	2528.138654
582.964434	2482.768269
583.317837	2412.192115
583.671186	2550.823846
584.024481	2553.344423
584.377721	2472.685962
584.730906	2586.111923
585.084037	2450.000769
585.437113	2520.576923
585.790135	2510.494615
586.143103	2520.576923
586.496016	2518.056346
586.848874	2455.041923
587.201679	2475.206538
587.554428	2429.836154
587.907124	2465.124231
588.259765	2417.233269
588.612352	2407.150962
588.964884	2447.480192
589.317362	2485.288846
589.669786	2533.179808
590.022155	2639.044038
590.374470	2477.727115
590.726731	2528.138654
591.078937	2462.603654
591.431090	2399.589231
591.783188	2538.220962
592.135232	2417.233269
592.487222	2452.521346
592.839157	2505.453462
593.191038	2465.124231
593.542866	2492.850577
593.894639	2457.562500
594.246358	2570.988462
594.598022	2573.509038
594.949633	2422.274423
595.301190	2439.918462
595.652692	2618.879423
596.004141	2535.700385
596.355535	2520.576923
596.706876	2434.877308
597.058162	2475.206538
597.409395	2472.685962
597.760573	2497.891731
598.111698	2555.865000
598.462768	2563.426731
598.813785	2523.097500
599.164748	2530.659231
599.515657	2568.467885
599.866511	2412.192115
600.217312	2455.041923
600.568060	2555.865000
600.918753	2475.206538
601.269392	2568.467885
601.619978	2596.194231
601.970510	2492.850577
602.320988	2477.727115
602.671412	2472.685962
603.021783	2497.891731
603.372100	2533.179808
603.722363	2480.247692
604.072572	2487.809423
604.422728	2535.700385
604.772830	2447.480192
605.122878	2535.700385
605.472872	2515.535769
605.822813	2497.891731
606.172701	2437.397885
606.522534	2482.768269
606.872314	2502.932885
607.222041	2523.097500
607.571714	2457.562500
607.921333	2533.179808
608.270899	2485.288846
608.620411	2480.247692
608.969870	2555.865000
609.319276	2548.303269
609.668627	2480.247692
610.017926	2497.891731
610.367171	2480.247692
610.716362	2462.603654
611.065500	2573.509038
611.414585	2475.206538
611.763616	2578.550192
612.112594	2520.576923
612.461518	2439.918462
612.810389	2475.206538
613.159207	2467.644808
613.507971	2497.891731
613.856682	2455.041923
614.205340	2510.494615
614.553945	2553.344423
614.902496	2513.015192
615.250994	2462.603654
615.599439	2568.467885
615.947830	2500.412308
616.296169	2550.823846
616.644454	2570.988462
616.992686	2505.453462
617.340864	2568.467885
617.688990	2555.865000
618.037063	2500.412308
618.385082	2505.453462
618.733048	2502.932885
619.080961	2502.932885
619.428821	2553.344423
619.776628	2505.453462
620.124382	2513.015192
620.472083	2596.194231
620.819731	2429.836154
621.167326	2570.988462
621.514868	2467.644808
621.862357	2510.494615
622.209793	2492.850577
622.557176	2510.494615
622.904506	2576.029615
623.251783	2543.262115
623.599007	2414.712692
623.946179	2434.877308
624.293297	2500.412308
624.640363	2523.097500
624.987376	2450.000769
625.334336	2533.179808
625.681243	2513.015192
626.028097	2414.712692
626.374899	2510.494615
626.721647	2495.371154
627.068343	2470.165385
627.414987	2500.412308
627.761577	2528.138654
628.108115	2500.412308
628.454600	2402.109808
628.801032	2465.124231
629.147412	2404.630385
629.493739	2397.068654
629.840014	2444.959615
630.186236	2490.330000
630.532405	2502.932885
630.878521	2548.303269
631.224585	2502.932885
631.570597	2518.056346
631.916556	2535.700385
632.262462	2439.918462
632.608316	2462.603654
632.954117	2505.453462
633.299866	2437.397885
633.645562	2432.356731
633.991206	2525.618077
634.336797	2439.918462
634.682336	2422.274423
635.027823	2477.727115
635.373257	2535.700385
635.718639	2507.974038
636.063968	2444.959615
636.409245	2555.865000
636.754470	2462.603654
637.099642	2563.426731
637.444762	2457.562500
637.789829	2432.356731
638.134845	2492.850577
638.479808	2505.453462
638.824719	2555.865000
639.169577	2563.426731
639.514383	2515.535769
639.859137	2475.206538
640.203839	2553.344423
640.548489	2457.562500
640.893086	2530.659231
641.237632	2548.303269
641.582125	2568.467885
641.926566	2490.330000
642.270955	2538.220962
642.615292	2535.700385
642.959576	2492.850577
643.303809	2462.603654
643.647990	2576.029615
643.992118	2477.727115
644.336195	2452.521346
644.680219	2560.906154
645.024192	2424.795000
645.368112	2477.727115
645.711981	2457.562500
646.055797	2535.700385
646.399562	2540.741538
646.743274	2437.397885
647.086935	2538.220962
647.430544	2507.974038
647.774101	2518.056346
648.117606	2525.618077
648.461059	2543.262115
648.804460	2492.850577
649.147810	2507.974038
649.491108	2507.974038
649.834354	2518.056346
650.177548	2455.041923
650.520690	2565.947308
650.863781	2533.179808
651.206820	2558.385577
651.549807	2472.685962
651.892742	2437.397885
652.235626	2492.850577
652.578458	2485.288846
652.921238	2563.426731
653.263967	2530.659231
653.606644	2477.727115
653.949269	2480.247692
654.291843	2417.233269
654.634365	2455.041923
654.976836	2570.988462
655.319255	2477.727115
655.661622	2434.877308
656.003938	2422.274423
656.346203	2502.932885
656.688416	2515.535769
657.030577	2492.850577
657.372687	2513.015192
657.714746	2525.618077
658.056753	2485.288846
658.398708	2563.426731
658.740612	2475.206538
659.082465	2510.494615
659.424266	2593.673654
659.766016	2402.109808
660.107715	2540.741538
660.449362	2603.755962
660.790958	2545.782692
661.132503	2475.206538
661.473996	2576.029615
661.815438	2480.247692
662.156829	2525.618077
662.498168	2538.220962
662.839456	2528.138654
663.180693	2578.550192
663.521879	2475.206538
663.863013	2513.015192
664.204097	2568.467885
664.545129	2497.891731
664.886110	2518.056346
665.227040	2497.891731
665.567918	2550.823846
665.908746	2457.562500
666.249522	2528.138654
666.590248	2523.097500
666.930922	2507.974038
667.271545	2510.494615
667.612118	2528.138654
667.952639	2558.385577
668.293109	2480.247692
668.633528	2482.768269
668.973896	2399.589231
669.314213	2502.932885
669.654480	2427.315577
669.994695	2475.206538
670.334859	2480.247692
670.674973	2505.453462
671.015035	2444.959615
671.355047	2513.015192
671.695008	2487.809423
672.034918	2535.700385
672.374777	2523.097500
672.714585	2477.727115
673.054342	2490.330000
673.394049	2528.138654
673.733705	2457.562500
674.073310	2535.700385
674.412864	2528.138654
674.752368	2460.083077
675.091820	2432.356731
675.431223	2457.562500
675.770574	2417.233269
676.109875	2563.426731
676.449125	2510.494615
676.788324	2475.206538
677.127473	2502.932885
677.466571	2502.932885
677.805619	2495.371154
678.144616	2455.041923
678.483562	2528.138654
678.822458	2495.371154
679.161303	2444.959615
679.500098	2457.562500
679.838842	2427.315577
680.177535	2497.891731
680.516179	2482.768269
680.854771	2502.932885
681.193314	2507.974038
681.531805	2482.768269
681.870247	2447.480192
682.208638	2470.165385
682.546978	2520.576923
682.885268	2518.056346
683.223508	2450.000769
683.561697	2487.809423
683.899836	2500.412308
684.237925	2424.795000
684.575963	2507.974038
684.913951	2444.959615
685.251889	2548.303269
685.589776	2419.753846
685.927614	2442.439038
686.265401	2558.385577
686.603137	2528.138654
686.940824	2518.056346
687.278460	2485.288846
687.616046	2535.700385
687.953582	2593.673654
688.291068	2442.439038
688.628504	2477.727115
688.965889	2427.315577
689.303224	2523.097500
689.640510	2419.753846
689.977745	2515.535769
690.314930	2558.385577
690.652065	2578.550192
690.989150	2480.247692
691.326185	2480.247692
691.663170	2452.521346
692.000105	2528.138654
692.336990	2513.015192
692.673825	2444.959615
693.010610	2439.918462
693.347345	2530.659231
693.684030	2427.315577
694.020665	2490.330000
694.357251	2442.439038
694.693786	2495.371154
695.030272	2424.795000
695.366707	2402.109808
695.703093	2429.836154
696.039429	2576.029615
696.375716	2452.521346
696.711952	2497.891731
697.048139	2490.330000
697.384276	2586.111923
697.720363	2452.521346
698.056400	2500.412308
698.392388	2583.591346
698.728326	2500.412308
699.064214	2392.027500
699.400053	2560.906154
699.735842	2505.453462
700.071581	2399.589231
700.407270	2550.823846
700.742910	2525.618077
701.078501	2495.371154
701.414042	2538.220962
701.749533	2586.111923
702.084974	2455.041923
702.420366	2482.768269
702.755709	2477.727115
703.091002	2543.262115
703.426246	2528.138654
703.761440	2497.891731
704.096584	2480.247692
704.431679	2513.015192
704.766725	2570.988462
705.101721	2593.673654
705.436668	2528.138654
705.771565	2490.330000
706.106413	2505.453462
706.441212	2465.124231
706.775961	2505.453462
707.110661	2472.685962
707.445311	2505.453462
707.779913	2447.480192
708.114465	2457.562500
708.448967	2492.850577
708.783421	2540.741538
709.117825	2518.056346
709.452180	2417.233269
709.786485	2523.097500
710.120742	2465.124231
710.454949	2490.330000
710.789107	2523.097500
711.123216	2477.727115
711.457275	2485.288846
711.791286	2502.932885
712.125247	2470.165385
712.459159	2434.877308
712.793023	2533.179808
713.126837	2578.550192
713.460602	2480.247692
713.794318	2485.288846
714.127985	2452.521346
714.461602	2460.083077
714.795171	2558.385577
715.128691	2414.712692
715.462162	2472.685962
715.795584	2480.247692
716.128957	2490.330000
716.462281	2477.727115
716.795556	2462.603654
717.128782	2424.795000
717.461960	2465.124231
717.795088	2570.988462
718.128167	2477.727115
718.461198	2465.124231
718.794180	2502.932885
719.127113	2407.150962
719.459997	2520.576923
719.792833	2518.056346
720.125619	2507.974038
720.458357	2570.988462
720.791046	2482.768269
721.123686	2540.741538
721.456278	2482.768269
721.788821	2497.891731
722.121315	2596.194231
722.453761	2500.412308
722.786158	2515.535769
723.118506	2419.753846
723.450805	2513.015192
723.783056	2533.179808
724.115259	2475.206538
724.447412	2513.015192
724.779518	2495.371154
725.111574	2505.453462
725.443582	2485.288846
725.775542	2507.974038
726.107453	2455.041923
726.439315	2487.809423
726.771129	2623.920577
727.102895	2492.850577
727.434612	2477.727115
727.766281	2467.644808
728.097901	2523.097500
728.429473	2460.083077
728.760996	2465.124231
729.092471	2472.685962
729.423897	2533.179808
729.755276	2565.947308
730.086606	2434.877308
730.417887	2523.097500
730.749120	2465.124231
731.080305	2540.741538
731.411442	2533.179808
731.742530	2477.727115
732.073570	2550.823846
732.404562	2538.220962
732.735506	2510.494615
733.066401	2414.712692
733.397249	2528.138654
733.728048	2444.959615
734.058798	2452.521346
734.389501	2510.494615
734.720156	2477.727115
735.050762	2432.356731
735.381320	2427.315577
735.711831	2439.918462
736.042293	2525.618077
736.372707	2538.220962
736.703073	2485.288846
737.033391	2548.303269
737.363661	2439.918462
737.693883	2518.056346
738.024056	2447.480192
738.354182	2533.179808
738.684260	2467.644808
739.014290	2505.453462
739.344272	2477.727115
739.674207	2452.521346
740.004093	2480.247692
740.333931	2543.262115
740.663722	2437.397885
740.993464	2462.603654
741.323159	2570.988462
741.652806	2510.494615
741.982405	2535.700385
742.311956	2457.562500
742.641460	2570.988462
742.970915	2470.165385
743.300323	2480.247692
743.629683	2487.809423
743.958996	2502.932885
744.288260	2565.947308
744.617477	2510.494615
744.946647	2596.194231
745.275768	2518.056346
745.604842	2565.947308
745.933869	2528.138654
746.262847	2525.618077
746.591778	2442.439038
746.920662	2573.509038
747.249498	2523.097500
747.578286	2492.850577
747.907027	2472.685962
748.235720	2384.465769
748.564365	2485.288846
748.892963	2530.659231
749.221514	2460.083077
749.550017	2500.412308
749.878473	2427.315577
750.206881	2502.932885
750.535242	2500.412308
750.863555	2480.247692
751.191821	2485.288846
751.520039	2452.521346
751.848210	2530.659231
752.176334	2500.412308
752.504411	2455.041923
752.832440	2563.426731
753.160421	2485.288846
753.488356	2505.453462
753.816243	2530.659231
754.144082	2482.768269
754.471875	2500.412308
754.799620	2457.562500
755.127318	2588.632500
755.454969	2450.000769
755.782572	2591.153077
756.110129	2414.712692
756.437638	2513.015192
756.765100	2492.850577
757.092515	2490.330000
757.419882	2434.877308
757.747203	2507.974038
758.074477	2490.330000
758.401703	2460.083077
758.728882	2555.865000
759.056014	2427.315577
759.383099	2472.685962
759.710138	2470.165385
760.037129	2515.535769
760.364073	2553.344423
760.690970	2558.385577
761.017820	2525.618077
761.344623	2450.000769
761.671379	2523.097500
761.998088	2490.330000
762.324751	2513.015192
762.651366	2548.303269
762.977935	2490.330000
763.304456	2505.453462
763.630931	2495.371154
763.957359	2525.618077
764.283740	2452.521346
764.610074	2530.659231
764.936362	2502.932885
765.262602	2608.797115
765.588796	2533.179808
765.914943	2465.124231
766.241044	2500.412308
766.567097	2485.288846
766.893104	2583.591346
767.219064	2525.618077
767.544978	2487.809423
767.870845	2450.000769
768.196665	2497.891731
768.522438	2465.124231
768.848165	2502.932885
769.173846	2472.685962
769.499479	2535.700385
769.825066	2452.521346
770.150607	2497.891731
770.476101	2399.589231
770.801548	2475.206538
771.126949	2432.356731
771.452303	2500.412308
771.777611	2513.015192
772.102872	2510.494615
772.428087	2523.097500
772.753256	2525.618077
773.078378	2500.412308
773.403453	2490.330000
773.728482	2550.823846
774.053465	2490.330000
774.378401	2513.015192
774.703291	2586.111923
775.028135	2495.371154
775.352932	2495.371154
775.677683	2434.877308
776.002388	2485.288846
776.327046	2422.274423
776.651658	2407.150962
776.976224	2437.397885
777.300743	2442.439038
777.625216	2472.685962
777.949643	2490.330000
778.274024	2533.179808
778.598359	2518.056346
778.922647	2500.412308
779.246889	2455.041923
779.571086	2515.535769
779.895236	2510.494615
780.219339	2437.397885
780.543397	2384.465769
780.867409	2492.850577
781.191374	2447.480192
781.515294	2434.877308
781.839167	2573.509038
782.162995	2502.932885
782.486776	2520.576923
782.810511	2477.727115
783.134201	2518.056346
783.457844	2530.659231
783.781441	2455.041923
784.104993	2535.700385
784.428498	2467.644808
784.751958	2523.097500
785.075372	2409.671538
785.398739	2507.974038
785.722061	2442.439038
786.045337	2528.138654
786.368568	2581.070769
786.691752	2505.453462
787.014891	2518.056346
787.337983	2475.206538
787.661030	2477.727115
787.984031	2455.041923
788.306987	2457.562500
788.629897	2487.809423
788.952760	2477.727115
789.275579	2482.768269
789.598351	2502.932885
789.921078	2422.274423
790.243759	2523.097500
790.566395	2558.385577
790.888984	2535.700385
791.211529	2505.453462
791.534027	2520.576923
791.856480	2460.083077
792.178888	2543.262115
792.501249	2417.233269
792.823566	2497.891731
793.145836	2510.494615
793.468062	2439.918462
793.790241	2429.836154
794.112375	2538.220962
794.434464	2462.603654
794.756507	2525.618077
795.078505	2434.877308
795.400457	2444.959615
795.722364	2528.138654
796.044226	2525.618077
796.366042	2523.097500
796.687812	2442.439038
797.009538	2533.179808
797.331218	2437.397885
797.652852	2492.850577
797.974442	2490.330000
798.295986	2530.659231
798.617484	2460.083077
798.938938	2462.603654
799.260346	2419.753846
799.581709	2540.741538
799.903026	2450.000769
800.224299	2485.288846
800.545526	2490.330000
800.866708	2429.836154
801.187845	2510.494615
801.508936	2434.877308
801.829983	2442.439038
802.150984	2485.288846
802.471940	2480.247692
802.792851	2525.618077
803.113717	2487.809423
803.434538	2591.153077
803.755314	2523.097500
804.076045	2439.918462
804.396731	2462.603654
804.717372	2507.974038
805.037967	2444.959615
805.358518	2470.165385
805.679024	2606.276538
805.999485	2465.124231
806.319901	2518.056346
806.640272	2497.891731
806.960598	2535.700385
807.280879	2442.439038
807.601115	2487.809423
807.921306	2467.644808
808.241453	2593.673654
808.561554	2442.439038
808.881611	2586.111923
809.201623	2482.768269
809.521590	2573.509038
809.841513	2439.918462
810.161390	2485.288846
810.481223	2447.480192
810.801011	2490.330000
811.120755	2490.330000
811.440453	2444.959615
811.760107	2492.850577
812.079716	2422.274423
812.399281	2485.288846
812.718801	2505.453462
813.038276	2548.303269
813.357707	2480.247692
813.677093	2495.371154
813.996434	2507.974038
814.315731	2472.685962
814.634983	2507.974038
814.954191	2475.206538
815.273354	2457.562500
815.592473	2513.015192
815.911547	2455.041923
816.230577	2437.397885
816.549562	2538.220962
816.868502	2472.685962
817.187399	2419.753846
817.506250	2523.097500
817.825058	2507.974038
818.143821	2513.015192
818.462539	2505.453462
818.781213	2455.041923
819.099843	2555.865000
819.418429	2497.891731
819.736970	2510.494615
820.055466	2422.274423
820.373919	2513.015192
820.692327	2568.467885
821.010691	2457.562500
821.329011	2485.288846
821.647286	2525.618077
821.965517	2525.618077
822.283704	2442.439038
822.601847	2472.685962
822.919945	2386.986346
823.237999	2487.809423
823.556010	2523.097500
823.873976	2460.083077
824.191897	2540.741538
824.509775	2472.685962
824.827609	2533.179808
825.145398	2495.371154
825.463144	2560.906154
825.780845	2586.111923
826.098502	2460.083077
826.416116	2515.535769
826.733685	2482.768269
827.051210	2510.494615
827.368692	2452.521346
827.686129	2470.165385
828.003522	2492.850577
828.320872	2570.988462
828.638177	2525.618077
828.955439	2424.795000
829.272656	2540.741538
829.589830	2470.165385
829.906960	2535.700385
830.224046	2442.439038
830.541088	2467.644808
830.858086	2530.659231
831.175041	2480.247692
831.491952	2447.480192
831.808819	2434.877308
832.125642	2492.850577
832.442421	2495.371154
832.759157	2460.083077
833.075849	2502.932885
833.392497	2583.591346
833.709101	2530.659231
834.025662	2487.809423
834.342179	2510.494615
834.658653	2495.371154
834.975083	2545.782692
835.291469	2434.877308
835.607811	2472.685962
835.924110	2581.070769
836.240366	2558.385577
836.556578	2462.603654
836.872746	2487.809423
837.188871	2616.358846
837.504952	2429.836154
837.820990	2422.274423
838.136984	2565.947308
838.452935	2457.562500
838.768842	2543.262115
839.084706	2475.206538
839.400526	2525.618077
839.716303	2502.932885
840.032037	2457.562500
840.347727	2369.342308
840.663373	2497.891731
840.978977	2422.274423
841.294537	2495.371154
841.610054	2472.685962
841.925527	2495.371154
842.240957	2583.591346
842.556344	2500.412308
842.871687	2472.685962
843.186987	2525.618077
843.502244	2538.220962
843.817458	2480.247692
844.132629	2515.535769
844.447756	2505.453462
844.762840	2502.932885
845.077881	2437.397885
845.392879	2550.823846
845.707833	2548.303269
846.022745	2507.974038
846.337613	2586.111923
846.652438	2427.315577
846.967221	2525.618077
847.281960	2462.603654
847.596656	2543.262115
847.911309	2482.768269
848.225919	2482.768269
848.540485	2462.603654
848.855009	2510.494615
849.169490	2429.836154
849.483928	2455.041923
849.798323	2450.000769
850.112675	2500.412308
850.426984	2450.000769
850.741251	2586.111923
851.055474	2548.303269
851.369654	2455.041923
851.683792	2545.782692
851.997887	2444.959615
852.311938	2472.685962
852.625947	2492.850577
852.939914	2427.315577
853.253837	2462.603654
853.567718	2457.562500
853.881555	2505.453462
854.195350	2389.506923
854.509103	2533.179808
854.822812	2581.070769
855.136479	2497.891731
855.450103	2497.891731
855.763685	2515.535769
856.077224	2444.959615
856.390720	2520.576923
856.704173	2477.727115
857.017584	2497.891731
857.330953	2543.262115
857.644278	2523.097500
857.957561	2460.083077
858.270802	2462.603654
858.584000	2417.233269
858.897155	2424.795000
859.210268	2510.494615
859.523339	2591.153077
859.836367	2495.371154
860.149352	2467.644808
860.462295	2442.439038
860.775195	2495.371154
861.088054	2444.959615
861.400869	2513.015192
861.713642	2492.850577
862.026373	2429.836154
862.339062	2452.521346
862.651708	2502.932885
862.964312	2444.959615
863.276873	2520.576923
863.589392	2515.535769
863.901869	2525.618077
864.214303	2586.111923
864.526696	2513.015192
864.839045	2460.083077
865.151353	2518.056346
865.463619	2472.685962
865.775842	2402.109808
866.088023	2434.877308
866.400162	2470.165385
866.712258	2548.303269
867.024313	2550.823846
867.336325	2495.371154
867.648296	2518.056346
867.960224	2555.865000
868.272110	2487.809423
868.583954	2460.083077
868.895755	2442.439038
869.207515	2588.632500
869.519233	2467.644808
869.830909	2492.850577
870.142542	2444.959615
870.454134	2490.330000
870.765684	2518.056346
871.077191	2533.179808
871.388657	2419.753846
871.700081	2533.179808
872.011463	2576.029615
872.322803	2417.233269
872.634101	2495.371154
872.945357	2465.124231
873.256571	2475.206538
873.567744	2472.685962
873.878874	2502.932885
874.189963	2533.179808
874.501010	2477.727115
874.812015	2513.015192
875.122979	2535.700385
875.433900	2429.836154
875.744780	2520.576923
876.055618	2457.562500
876.366415	2450.000769
876.677169	2407.150962
876.987882	2434.877308
877.298554	2591.153077
877.609183	2442.439038
877.919771	2470.165385
878.230317	2578.550192
878.540822	2482.768269
878.851285	2510.494615
879.161707	2540.741538
879.472087	2560.906154
879.782425	2467.644808
880.092722	2505.453462
880.402977	2460.083077
880.713191	2439.918462
881.023363	2470.165385
881.333494	2462.603654
881.643583	2528.138654
881.953631	2439.918462
882.263637	2409.671538
882.573602	2485.288846
882.883526	2555.865000
883.193408	2477.727115
883.503248	2480.247692
883.813048	2505.453462
884.122806	2457.562500
884.432522	2492.850577
884.742197	2623.920577
885.051831	2480.247692
885.361424	2477.727115
885.670975	2507.974038
885.980485	2490.330000
886.289954	2505.453462
886.599382	2490.330000
886.908768	2502.932885
887.218113	2518.056346
887.527417	2490.330000
887.836680	2482.768269
888.145901	2525.618077
888.455082	2490.330000
888.764221	2346.657115
889.073319	2515.535769
889.382376	2545.782692
889.691392	2523.097500
890.000366	2460.083077
890.309300	2513.015192
890.618193	2487.809423
890.927044	2548.303269
891.235855	2475.206538
891.544625	2439.918462
891.853353	2470.165385
892.162041	2452.521346
892.470687	2502.932885
892.779293	2538.220962
893.087858	2505.453462
893.396381	2560.906154
893.704864	2525.618077
894.013306	2495.371154
894.321707	2477.727115
894.630068	2518.056346
894.938387	2545.782692
895.246665	2538.220962
895.554903	2502.932885
895.863100	2497.891731
896.171256	2523.097500
896.479371	2492.850577
896.787446	2492.850577
897.095480	2450.000769
897.403473	2472.685962
897.711425	2470.165385
898.019336	2500.412308
898.327207	2480.247692
898.635038	2530.659231
898.942827	2439.918462
899.250576	2495.371154
899.558284	2470.165385
899.865952	2480.247692
900.173579	2525.618077
900.481165	2475.206538
900.788711	2507.974038
901.096216	2450.000769
901.403681	2515.535769
901.711105	2447.480192
902.018489	2518.056346
902.325832	2533.179808
902.633135	2515.535769
902.940397	2502.932885
903.247619	2467.644808
903.554800	2502.932885
903.861941	2525.618077
904.169041	2588.632500
904.476101	2565.947308
904.783121	2437.397885
905.090100	2465.124231
905.397039	2447.480192
905.703938	2528.138654
906.010796	2513.015192
906.317614	2507.974038
906.624391	2497.891731
906.931129	2467.644808
907.237826	2492.850577
907.544483	2520.576923
907.851099	2523.097500
908.157675	2578.550192
908.464211	2447.480192
908.770707	2550.823846
909.077163	2510.494615
909.383578	2495.371154
909.689954	2472.685962
909.996289	2462.603654
910.302584	2480.247692
910.608839	2510.494615
910.915054	2437.397885
911.221229	2520.576923
911.527363	2485.288846
911.833458	2535.700385
912.139513	2596.194231
912.445527	2437.397885
912.751502	2520.576923
913.057436	2497.891731
913.363331	2497.891731
913.669186	2533.179808
913.975000	2462.603654
914.280775	2409.671538
914.586510	2482.768269
914.892205	2492.850577
915.197859	2480.247692
915.503475	2495.371154
915.809050	2439.918462
916.114585	2565.947308
916.420081	2485.288846
916.725536	2434.877308
917.030952	2462.603654
917.336328	2444.959615
917.641665	2492.850577
917.946961	2497.891731
918.252218	2412.192115
918.557435	2414.712692
918.862612	2523.097500
919.167750	2485.288846
919.472848	2523.097500
919.777906	2404.630385
920.082925	2538.220962
920.387904	2555.865000
920.692843	2462.603654
920.997743	2510.494615
921.302603	2558.385577
921.607423	2457.562500
921.912204	2528.138654
922.216946	2520.576923
922.521647	2515.535769
922.826310	2553.344423
923.130932	2558.385577
923.435516	2523.097500
923.740059	2510.494615
924.044564	2417.233269
924.349028	2621.400000
924.653454	2563.426731
924.957840	2460.083077
925.262186	2530.659231
925.566493	2513.015192
925.870761	2460.083077
926.174989	2570.988462
926.479178	2500.412308
926.783328	2485.288846
927.087438	2510.494615
927.391509	2490.330000
927.695541	2470.165385
927.999533	2475.206538
928.303486	2482.768269
928.607400	2480.247692
928.911275	2480.247692
929.215110	2465.124231
929.518906	2533.179808
929.822663	2470.165385
930.126381	2460.083077
930.430060	2555.865000
930.733699	2467.644808
931.037299	2444.959615
931.340861	2394.548077
931.644383	2530.659231
931.947866	2437.397885
932.251309	2548.303269
932.554714	2477.727115
932.858080	2518.056346
933.161407	2444.959615
933.464694	2513.015192
933.767943	2528.138654
934.071153	2558.385577
934.374323	2462.603654
934.677455	2412.192115
934.980548	2444.959615
935.283602	2507.974038
935.586617	2472.685962
935.889593	2510.494615
936.192530	2515.535769
936.495428	2467.644808
936.798287	2502.932885
937.101108	2500.412308
937.403890	2429.836154
937.706632	2513.015192
938.009336	2457.562500
938.312002	2500.412308
938.614628	2394.548077
938.917216	2404.630385
939.219765	2550.823846
939.522275	2467.644808
939.824747	2444.959615
940.127179	2452.521346
940.429573	2397.068654
940.731929	2455.041923
941.034246	2528.138654
941.336524	2442.439038
941.638763	2455.041923
941.940964	2533.179808
942.243126	2518.056346
942.545250	2513.015192
942.847335	2434.877308
943.149381	2513.015192
943.451389	2545.782692
943.753359	2502.932885
944.055290	2470.165385
944.357182	2467.644808
944.659036	2450.000769
944.960851	2518.056346
945.262628	2450.000769
945.564367	2434.877308
945.866067	2487.809423
946.167729	2485.288846
946.469352	2528.138654
946.770937	2455.041923
947.072484	2467.644808
947.373992	2548.303269
947.675462	2432.356731
947.976893	2533.179808
948.278286	2457.562500
948.579641	2583.591346
948.880958	2513.015192
949.182236	2470.165385
949.483476	2560.906154
949.784678	2543.262115
950.085841	2450.000769
950.386967	2369.342308
950.688054	2495.371154
950.989103	2545.782692
951.290114	2455.041923
951.591087	2510.494615
951.892021	2540.741538
952.192917	2533.179808
952.493776	2497.891731
952.794596	2482.768269
953.095378	2555.865000
953.396122	2465.124231
953.696828	2525.618077
953.997496	2467.644808
954.298126	2490.330000
954.598718	2533.179808
954.899272	2397.068654
955.199788	2497.891731
955.500266	2487.809423
955.800706	2419.753846
956.101108	2515.535769
956.401472	2427.315577
956.701798	2558.385577
957.002087	2487.809423
957.302337	2520.576923
957.602550	2533.179808
957.902724	2472.685962
958.202861	2442.439038
958.502960	2422.274423
958.803022	2500.412308
959.103045	2470.165385
959.403031	2455.041923
959.702979	2460.083077
960.002889	2515.535769
960.302762	2470.165385
960.602596	2596.194231
960.902393	2502.932885
961.202153	2520.576923
961.501875	2507.974038
961.801559	2550.823846
962.101205	2442.439038
962.400814	2490.330000
962.700385	2465.124231
962.999918	2518.056346
963.299414	2439.918462
963.598873	2505.453462
963.898293	2419.753846
964.197677	2502.932885
964.497022	2513.015192
964.796331	2505.453462
965.095601	2477.727115
965.394835	2455.041923
965.694030	2545.782692
965.993189	2570.988462
966.292309	2487.809423
966.591393	2543.262115
966.890439	2462.603654
967.189447	2502.932885
967.488419	2429.836154
967.787353	2437.397885
968.086249	2434.877308
968.385108	2475.206538
968.683930	2434.877308
968.982714	2480.247692
969.281462	2502.932885
969.580172	2543.262115
969.878844	2487.809423
970.177480	2518.056346
970.476078	2460.083077
970.774639	2475.206538
971.073162	2480.247692
971.371649	2472.685962
971.670098	2472.685962
971.968510	2429.836154
972.266885	2487.809423
972.565223	2550.823846
972.863524	2505.453462
973.161788	2480.247692
973.460014	2444.959615
973.758204	2482.768269
974.056356	2525.618077
974.354471	2543.262115
974.652550	2520.576923
974.950591	2412.192115
975.248595	2434.877308
975.546563	2523.097500
975.844493	2581.070769
976.142386	2500.412308
976.440243	2470.165385
976.738062	2492.850577
977.035845	2485.288846
977.333590	2535.700385
977.631299	2490.330000
977.928971	2505.453462
978.226606	2490.330000
978.524204	2507.974038
978.821765	2523.097500
979.119290	2515.535769
979.416777	2553.344423
979.714228	2520.576923
980.011642	2523.097500
980.309020	2369.342308
980.606360	2452.521346
980.903664	2510.494615
981.200931	2465.124231
981.498162	2530.659231
981.795356	2419.753846
982.092513	2434.877308
982.389633	2424.795000
982.686717	2482.768269
982.983764	2434.877308
983.280775	2535.700385
983.577749	2462.603654
983.874686	2442.439038
984.171587	2505.453462
984.468451	2507.974038
984.765279	2563.426731
985.062070	2570.988462
985.358824	2470.165385
985.655543	2492.850577
985.952224	2422.274423
986.248869	2535.700385
986.545478	2510.494615
986.842050	2515.535769
987.138586	2455.041923
987.435086	2495.371154
987.731549	2422.274423
988.027975	2424.795000
988.324366	2427.315577
988.620719	2528.138654
988.917037	2543.262115
989.213318	2475.206538
989.509563	2477.727115
989.805772	2497.891731
990.101944	2497.891731
990.398080	2480.247692
990.694180	2518.056346
990.990244	2412.192115
991.286271	2467.644808
991.582262	2422.274423
991.878217	2520.576923
992.174136	2457.562500
992.470019	2525.618077
992.765865	2523.097500
993.061676	2515.535769
993.357450	2550.823846
993.653188	2457.562500
993.948890	2492.850577
994.244556	2520.576923
994.540186	2497.891731
994.835780	2404.630385
995.131337	2422.274423
995.426859	2510.494615
995.722345	2424.795000
996.017795	2407.150962
996.313208	2502.932885
996.608586	2444.959615
996.903928	2439.918462
997.199234	2518.056346
997.494504	2513.015192
997.789738	2470.165385
998.084936	2482.768269
998.380099	2576.029615
998.675225	2558.385577
998.970316	2560.906154
999.265371	2465.124231
999.560390	2555.865000
999.855373	2533.179808
1000.150320	2442.439038
1000.445232	2470.165385
1000.740108	2477.727115
1001.034948	2487.809423
1001.329752	2500.412308
1001.624521	2525.618077
1001.919254	2429.836154
1002.213951	2558.385577
1002.508613	2442.439038
1002.803239	2505.453462
1003.097829	2487.809423
1003.392384	2439.918462
1003.686903	2442.439038
1003.981386	2500.412308
1004.275834	2477.727115
1004.570246	2603.755962
1004.864623	2379.424615
1005.158964	2399.589231
1005.453270	2576.029615
1005.747540	2507.974038
1006.041775	2414.712692
1006.335974	2434.877308
1006.630138	2480.247692
1006.924266	2492.850577
1007.218359	2533.179808
1007.512416	2533.179808
1007.806438	2447.480192
1008.100425	2515.535769
1008.394376	2500.412308
1008.688292	2560.906154
1008.982172	2460.083077
1009.276017	2492.850577
1009.569827	2437.397885
1009.863602	2525.618077
1010.157341	2490.330000
1010.451045	2490.330000
1010.744714	2510.494615
1011.038347	2477.727115
1011.331945	2528.138654
1011.625508	2450.000769
1011.919036	2500.412308
1012.212528	2490.330000
1012.505986	2502.932885
1012.799408	2346.657115
1013.092795	2560.906154
1013.386147	2470.165385
1013.679464	2480.247692
1013.972745	2495.371154
1014.265992	2432.356731
1014.559204	2500.412308
1014.852380	2475.206538
1015.145521	2450.000769
1015.438628	2492.850577
1015.731699	2485.288846
1016.024736	2530.659231
1016.317737	2563.426731
1016.610703	2525.618077
1016.903635	2500.412308
1017.196531	2513.015192
1017.489393	2500.412308
1017.782219	2470.165385
1018.075011	2598.714808
1018.367768	2480.247692
1018.660490	2439.918462
1018.953177	2439.918462
1019.245829	2439.918462
