Dividing Wavelength (nm)	Counts (n)	Blue Motor Position (mm): 0.000000	Red Motor Position (mm): 6.300000	
326.493990	2190.381346
326.888308	2190.381346
327.282561	2190.381346
327.676750	2049.229038
328.070874	2036.626154
328.464933	2036.626154
328.858929	2089.558269
329.252859	2021.502692
329.646726	2097.120000
330.040528	2152.572692
330.434265	2092.078846
330.827938	2142.490385
331.221547	2160.134423
331.615091	2147.531538
332.008571	2210.545962
332.401986	2245.834038
332.795338	2215.587115
333.188625	2313.889615
333.581847	2273.560385
333.975006	2208.025385
334.368100	2356.739423
334.761129	2281.122115
335.154095	2311.369038
335.546996	2356.739423
335.939833	2323.971923
336.332606	2346.657115
336.725315	2450.000769
337.117960	2424.795000
337.510540	2386.986346
337.903056	2392.027500
338.295508	2437.397885
338.687896	2429.836154
339.080220	2457.562500
339.472480	2361.780577
339.864676	2480.247692
340.256807	2502.932885
340.648875	2470.165385
341.040879	2402.109808
341.432818	2490.330000
341.824694	2480.247692
342.216506	2455.041923
342.608253	2429.836154
342.999937	2475.206538
343.391557	2490.330000
343.783113	2455.041923
344.174605	2417.233269
344.566033	2460.083077
344.957397	2472.685962
345.348697	2480.247692
345.739934	2477.727115
346.131106	2467.644808
346.522215	2434.877308
346.913260	2434.877308
347.304241	2409.671538
347.695159	2432.356731
348.086012	2543.262115
348.476802	2447.480192
348.867528	2402.109808
349.258191	2525.618077
349.648789	2404.630385
350.039324	2455.041923
350.429796	2518.056346
350.820203	2439.918462
351.210548	2417.233269
351.600828	2381.945192
351.991045	2502.932885
352.381198	2402.109808
352.771288	2394.548077
353.161314	2447.480192
353.551276	2510.494615
353.941175	2500.412308
354.331010	2500.412308
354.720782	2452.521346
355.110490	2402.109808
355.500135	2424.795000
355.889717	2409.671538
356.279235	2419.753846
356.668689	2359.260000
357.058080	2419.753846
357.447408	2417.233269
357.836672	2439.918462
358.225873	2384.465769
358.615010	2419.753846
359.004084	2374.383462
359.393095	2502.932885
359.782043	2475.206538
360.170927	2482.768269
360.559748	2444.959615
360.948505	2502.932885
361.337199	2439.918462
361.725830	2452.521346
362.114398	2424.795000
362.502903	2402.109808
362.891344	2460.083077
363.279722	2434.877308
363.668037	2444.959615
364.056289	2422.274423
364.444478	2495.371154
364.832603	2434.877308
365.220665	2502.932885
365.608665	2326.492500
365.996601	2409.671538
366.384474	2447.480192
366.772284	2452.521346
367.160031	2439.918462
367.547715	2543.262115
367.935336	2470.165385
368.322893	2402.109808
368.710388	2429.836154
369.097820	2530.659231
369.485189	2409.671538
369.872495	2414.712692
370.259738	2369.342308
370.646918	2460.083077
371.034035	2485.288846
371.421090	2424.795000
371.808081	2487.809423
372.195010	2429.836154
372.581875	2465.124231
372.968678	2457.562500
373.355418	2477.727115
373.742096	2447.480192
374.128710	2414.712692
374.515262	2513.015192
374.901751	2462.603654
375.288177	2482.768269
375.674540	2467.644808
376.060841	2422.274423
376.447079	2394.548077
376.833254	2525.618077
377.219367	2404.630385
377.605417	2507.974038
377.991404	2434.877308
378.377329	2543.262115
378.763191	2447.480192
379.148991	2497.891731
379.534727	2397.068654
379.920402	2513.015192
380.306013	2389.506923
380.691563	2472.685962
381.077049	2497.891731
381.462474	2497.891731
381.847835	2389.506923
382.233134	2475.206538
382.618371	2384.465769
383.003545	2472.685962
383.388657	2492.850577
383.773706	2409.671538
384.158693	2482.768269
384.543618	2467.644808
384.928480	2399.589231
385.313280	2455.041923
385.698017	2500.412308
386.082692	2485.288846
386.467305	2437.397885
386.851856	2570.988462
387.236344	2528.138654
387.620770	2444.959615
388.005133	2482.768269
388.389435	2523.097500
388.773674	2490.330000
389.157851	2422.274423
389.541965	2371.862885
389.926018	2429.836154
390.310008	2434.877308
390.693936	2465.124231
391.077802	2434.877308
391.461606	2505.453462
391.845348	2500.412308
392.229027	2432.356731
392.612645	2487.809423
392.996200	2462.603654
393.379694	2558.385577
393.763125	2480.247692
394.146494	2460.083077
394.529801	2482.768269
394.913047	2434.877308
395.296230	2507.974038
395.679351	2424.795000
396.062410	2414.712692
396.445408	2515.535769
396.828343	2472.685962
397.211217	2412.192115
397.594028	2528.138654
397.976778	2467.644808
398.359466	2447.480192
398.742092	2500.412308
399.124656	2470.165385
399.507158	2482.768269
399.889598	2518.056346
400.271977	2563.426731
400.654294	2520.576923
401.036549	2525.618077
401.418742	2505.453462
401.800874	2482.768269
402.182944	2460.083077
402.564952	2555.865000
402.946898	2412.192115
403.328783	2442.439038
403.710606	2389.506923
404.092367	2450.000769
404.474067	2507.974038
404.855705	2404.630385
405.237282	2429.836154
405.618797	2470.165385
406.000250	2434.877308
406.381642	2492.850577
406.762972	2462.603654
407.144240	2450.000769
407.525447	2419.753846
407.906593	2432.356731
408.287677	2429.836154
408.668700	2475.206538
409.049661	2414.712692
409.430560	2495.371154
409.811399	2409.671538
410.192176	2535.700385
410.572891	2412.192115
410.953545	2386.986346
411.334138	2548.303269
411.714669	2424.795000
412.095139	2513.015192
412.475547	2515.535769
412.855894	2563.426731
413.236180	2482.768269
413.616405	2578.550192
413.996568	2530.659231
414.376670	2427.315577
414.756711	2485.288846
415.136691	2475.206538
415.516609	2452.521346
415.896466	2525.618077
416.276262	2447.480192
416.655997	2407.150962
417.035670	2412.192115
417.415283	2470.165385
417.794834	2482.768269
418.174324	2402.109808
418.553753	2477.727115
418.933121	2419.753846
419.312428	2510.494615
419.691674	2424.795000
420.070859	2530.659231
420.449983	2492.850577
420.829045	2535.700385
421.208047	2530.659231
421.586988	2507.974038
421.965867	2495.371154
422.344686	2535.700385
422.723444	2371.862885
423.102141	2424.795000
423.480777	2543.262115
423.859352	2422.274423
424.237866	2538.220962
424.616319	2434.877308
424.994712	2513.015192
425.373044	2460.083077
425.751314	2530.659231
426.129524	2523.097500
426.507673	2417.233269
426.885762	2429.836154
427.263789	2424.795000
427.641756	2485.288846
428.019662	2414.712692
428.397508	2477.727115
428.775292	2475.206538
429.153016	2437.397885
429.530679	2518.056346
429.908282	2523.097500
430.285824	2467.644808
430.663305	2462.603654
431.040726	2502.932885
431.418086	2457.562500
431.795385	2460.083077
432.172624	2518.056346
432.549802	2475.206538
432.926920	2510.494615
433.303977	2487.809423
433.680974	2399.589231
434.057910	2472.685962
434.434786	2477.727115
434.811601	2450.000769
435.188355	2477.727115
435.565050	2560.906154
435.941683	2485.288846
436.318257	2442.439038
436.694770	2525.618077
437.071222	2538.220962
437.447614	2394.548077
437.823946	2397.068654
438.200218	2570.988462
438.576429	2437.397885
438.952580	2563.426731
439.328670	2518.056346
439.704700	2467.644808
440.080670	2505.453462
440.456580	2523.097500
440.832429	2485.288846
441.208218	2497.891731
441.583947	2548.303269
441.959616	2513.015192
442.335224	2505.453462
442.710773	2477.727115
443.086261	2477.727115
443.461689	2502.932885
443.837057	2450.000769
444.212365	2533.179808
444.587612	2392.027500
444.962800	2432.356731
445.337927	2465.124231
445.712995	2510.494615
446.088002	2475.206538
446.462949	2460.083077
446.837837	2555.865000
447.212664	2442.439038
447.587431	2480.247692
447.962139	2487.809423
448.336786	2480.247692
448.711374	2462.603654
449.085901	2505.453462
449.460369	2515.535769
449.834776	2472.685962
450.209124	2530.659231
450.583412	2535.700385
450.957640	2427.315577
451.331808	2492.850577
451.705917	2429.836154
452.079965	2460.083077
452.453954	2563.426731
452.827883	2568.467885
453.201752	2505.453462
453.575562	2601.235385
453.949311	2475.206538
454.323001	2460.083077
454.696632	2482.768269
455.070202	2553.344423
455.443713	2510.494615
455.817164	2548.303269
456.190556	2525.618077
456.563888	2444.959615
456.937160	2485.288846
457.310373	2475.206538
457.683526	2593.673654
458.056619	2457.562500
458.429653	2432.356731
458.802628	2437.397885
459.175542	2492.850577
459.548398	2545.782692
459.921194	2351.698269
460.293930	2520.576923
460.666607	2447.480192
461.039224	2450.000769
461.411782	2563.426731
461.784280	2475.206538
462.156719	2515.535769
462.529099	2412.192115
462.901419	2555.865000
463.273680	2460.083077
463.645882	2538.220962
464.018024	2543.262115
464.390106	2450.000769
464.762130	2472.685962
465.134094	2465.124231
465.505999	2447.480192
465.877845	2520.576923
466.249631	2434.877308
466.621358	2439.918462
466.993026	2482.768269
467.364634	2412.192115
467.736184	2550.823846
468.107674	2553.344423
468.479105	2495.371154
468.850477	2475.206538
469.221790	2485.288846
469.593043	2525.618077
469.964238	2505.453462
470.335373	2492.850577
470.706449	2538.220962
471.077467	2437.397885
471.448425	2402.109808
471.819324	2513.015192
472.190164	2510.494615
472.560945	2528.138654
472.931667	2513.015192
473.302330	2450.000769
473.672934	2480.247692
474.043479	2424.795000
474.413965	2467.644808
474.784393	2540.741538
475.154761	2545.782692
475.525070	2520.576923
475.895321	2518.056346
476.265513	2457.562500
476.635645	2550.823846
477.005719	2502.932885
477.375734	2510.494615
477.745691	2457.562500
478.115588	2608.797115
478.485427	2480.247692
478.855207	2596.194231
479.224928	2545.782692
479.594591	2457.562500
479.964194	2402.109808
480.333739	2510.494615
480.703226	2553.344423
481.072653	2457.562500
481.442022	2507.974038
481.811333	2480.247692
482.180584	2470.165385
482.549777	2439.918462
482.918912	2467.644808
483.287988	2528.138654
483.657005	2460.083077
484.025964	2460.083077
484.394864	2545.782692
484.763706	2507.974038
485.132489	2482.768269
485.501213	2510.494615
485.869879	2540.741538
486.238487	2482.768269
486.607036	2528.138654
486.975527	2465.124231
487.343959	2475.206538
487.712333	2490.330000
488.080648	2460.083077
488.448905	2533.179808
488.817104	2462.603654
489.185244	2523.097500
489.553326	2480.247692
489.921350	2434.877308
490.289315	2601.235385
490.657222	2520.576923
491.025070	2490.330000
491.392861	2530.659231
491.760593	2497.891731
492.128267	2429.836154
492.495883	2495.371154
492.863440	2500.412308
493.230939	2545.782692
493.598380	2492.850577
493.965763	2470.165385
494.333088	2457.562500
494.700354	2480.247692
495.067563	2492.850577
495.434713	2450.000769
495.801805	2490.330000
496.168839	2482.768269
496.535815	2439.918462
496.902733	2485.288846
497.269593	2535.700385
497.636395	2565.947308
498.003139	2480.247692
498.369825	2414.712692
498.736453	2507.974038
499.103023	2462.603654
499.469535	2457.562500
499.835989	2510.494615
500.202385	2518.056346
500.568723	2452.521346
500.935003	2480.247692
501.301226	2543.262115
501.667390	2439.918462
502.033497	2528.138654
502.399546	2505.453462
502.765537	2485.288846
503.131470	2485.288846
503.497345	2490.330000
503.863163	2467.644808
504.228923	2528.138654
504.594625	2457.562500
504.960269	2553.344423
505.325856	2429.836154
505.691385	2462.603654
506.056856	2482.768269
506.422270	2457.562500
506.787625	2555.865000
507.152924	2485.288846
507.518164	2475.206538
507.883347	2490.330000
508.248472	2472.685962
508.613540	2482.768269
508.978550	2568.467885
509.343503	2523.097500
509.708398	2414.712692
510.073236	2510.494615
510.438016	2450.000769
510.802738	2452.521346
511.167403	2444.959615
511.532010	2543.262115
511.896561	2565.947308
512.261053	2465.124231
512.625488	2470.165385
512.989866	2523.097500
513.354186	2450.000769
513.718449	2472.685962
514.082655	2487.809423
514.446803	2500.412308
514.810894	2450.000769
515.174927	2550.823846
515.538904	2475.206538
515.902822	2482.768269
516.266684	2540.741538
516.630488	2560.906154
516.994235	2530.659231
517.357925	2528.138654
517.721558	2460.083077
518.085133	2550.823846
518.448651	2586.111923
518.812112	2480.247692
519.175516	2523.097500
519.538863	2485.288846
519.902152	2540.741538
520.265385	2467.644808
520.628560	2495.371154
520.991678	2480.247692
521.354739	2543.262115
521.717743	2485.288846
522.080690	2492.850577
522.443580	2457.562500
522.806413	2495.371154
523.169189	2470.165385
523.531908	2523.097500
523.894569	2535.700385
524.257174	2507.974038
524.619722	2502.932885
524.982213	2565.947308
525.344647	2520.576923
525.707025	2477.727115
526.069345	2467.644808
526.431608	2465.124231
526.793815	2427.315577
527.155964	2515.535769
527.518057	2528.138654
527.880093	2528.138654
528.242072	2563.426731
528.603995	2477.727115
528.965860	2538.220962
529.327669	2513.015192
529.689421	2477.727115
530.051117	2475.206538
530.412755	2462.603654
530.774337	2437.397885
531.135862	2505.453462
531.497331	2573.509038
531.858743	2477.727115
532.220098	2450.000769
532.581396	2507.974038
532.942638	2548.303269
533.303824	2460.083077
533.664953	2442.439038
534.026025	2455.041923
534.387040	2492.850577
534.747999	2467.644808
535.108902	2465.124231
535.469748	2475.206538
535.830537	2457.562500
536.191270	2439.918462
536.551947	2507.974038
536.912567	2538.220962
537.273131	2538.220962
537.633638	2467.644808
537.994089	2455.041923
538.354483	2538.220962
538.714821	2568.467885
539.075103	2558.385577
539.435328	2538.220962
539.795497	2437.397885
540.155609	2361.780577
540.515665	2553.344423
540.875665	2528.138654
541.235609	2417.233269
541.595496	2502.932885
541.955328	2576.029615
542.315102	2495.371154
542.674821	2412.192115
543.034483	2447.480192
543.394090	2429.836154
543.753640	2497.891731
544.113134	2452.521346
544.472571	2565.947308
544.831953	2487.809423
545.191278	2530.659231
545.550548	2518.056346
545.909761	2414.712692
546.268918	2558.385577
546.628019	2417.233269
546.987064	2455.041923
547.346053	2447.480192
547.704986	2528.138654
548.063863	2553.344423
548.422684	2422.274423
548.781449	2497.891731
549.140158	2452.521346
549.498811	2548.303269
549.857408	2424.795000
550.215949	2525.618077
550.574434	2407.150962
550.932864	2495.371154
551.291237	2502.932885
551.649555	2533.179808
552.007817	2432.356731
552.366022	2422.274423
552.724173	2437.397885
553.082267	2525.618077
553.440305	2495.371154
553.798288	2515.535769
554.156215	2540.741538
554.514086	2518.056346
554.871902	2518.056346
555.229661	2497.891731
555.587365	2518.056346
555.945014	2409.671538
556.302606	2482.768269
556.660143	2548.303269
557.017625	2447.480192
557.375050	2523.097500
557.732421	2394.548077
558.089735	2480.247692
558.446994	2558.385577
558.804197	2528.138654
559.161345	2409.671538
559.518437	2452.521346
559.875474	2450.000769
560.232455	2548.303269
560.589381	2452.521346
560.946251	2510.494615
561.303065	2429.836154
561.659825	2535.700385
562.016528	2492.850577
562.373177	2525.618077
562.729770	2525.618077
563.086307	2550.823846
563.442789	2447.480192
563.799216	2510.494615
564.155587	2462.603654
564.511904	2477.727115
564.868164	2530.659231
565.224370	2477.727115
565.580520	2515.535769
565.936615	2550.823846
566.292654	2472.685962
566.648638	2515.535769
567.004567	2578.550192
567.360441	2563.426731
567.716260	2500.412308
568.072023	2581.070769
568.427732	2568.467885
568.783385	2608.797115
569.138982	2460.083077
569.494525	2560.906154
569.850013	2555.865000
570.205445	2432.356731
570.560823	2507.974038
570.916145	2525.618077
571.271412	2495.371154
571.626625	2533.179808
571.981782	2455.041923
572.336884	2457.562500
572.691931	2417.233269
573.046923	2492.850577
573.401860	2455.041923
573.756743	2467.644808
574.111570	2513.015192
574.466342	2518.056346
574.821059	2490.330000
575.175722	2507.974038
575.530330	2472.685962
575.884882	2530.659231
576.239380	2573.509038
576.593823	2500.412308
576.948211	2497.891731
577.302544	2530.659231
577.656823	2475.206538
578.011047	2465.124231
578.365216	2540.741538
578.719330	2437.397885
579.073389	2550.823846
579.427394	2583.591346
579.781344	2457.562500
580.135239	2475.206538
580.489080	2533.179808
580.842866	2450.000769
581.196597	2576.029615
581.550273	2578.550192
581.903895	2528.138654
582.257463	2565.947308
582.610975	2601.235385
582.964434	2432.356731
583.317837	2502.932885
583.671186	2497.891731
584.024481	2462.603654
584.377721	2404.630385
584.730906	2450.000769
585.084037	2535.700385
585.437113	2482.768269
585.790135	2515.535769
586.143103	2477.727115
586.496016	2444.959615
586.848874	2603.755962
587.201679	2434.877308
587.554428	2518.056346
587.907124	2482.768269
588.259765	2487.809423
588.612352	2500.412308
588.964884	2427.315577
589.317362	2502.932885
589.669786	2439.918462
590.022155	2528.138654
590.374470	2550.823846
590.726731	2553.344423
591.078937	2510.494615
591.431090	2429.836154
591.783188	2518.056346
592.135232	2470.165385
592.487222	2550.823846
592.839157	2439.918462
593.191038	2490.330000
593.542866	2432.356731
593.894639	2505.453462
594.246358	2570.988462
594.598022	2510.494615
594.949633	2555.865000
595.301190	2495.371154
595.652692	2578.550192
596.004141	2505.453462
596.355535	2409.671538
596.706876	2553.344423
597.058162	2442.439038
597.409395	2588.632500
597.760573	2497.891731
598.111698	2525.618077
598.462768	2475.206538
598.813785	2490.330000
599.164748	2467.644808
599.515657	2513.015192
599.866511	2457.562500
600.217312	2507.974038
600.568060	2470.165385
600.918753	2497.891731
601.269392	2525.618077
601.619978	2492.850577
601.970510	2487.809423
602.320988	2525.618077
602.671412	2487.809423
603.021783	2432.356731
603.372100	2510.494615
603.722363	2538.220962
604.072572	2462.603654
604.422728	2513.015192
604.772830	2510.494615
605.122878	2419.753846
605.472872	2543.262115
605.822813	2409.671538
606.172701	2505.453462
606.522534	2510.494615
606.872314	2444.959615
607.222041	2530.659231
607.571714	2470.165385
607.921333	2487.809423
608.270899	2485.288846
608.620411	2437.397885
608.969870	2545.782692
609.319276	2565.947308
609.668627	2497.891731
610.017926	2487.809423
610.367171	2492.850577
610.716362	2472.685962
611.065500	2452.521346
611.414585	2457.562500
611.763616	2457.562500
612.112594	2485.288846
612.461518	2530.659231
612.810389	2455.041923
613.159207	2538.220962
613.507971	2518.056346
613.856682	2502.932885
614.205340	2485.288846
614.553945	2472.685962
614.902496	2462.603654
615.250994	2538.220962
615.599439	2505.453462
615.947830	2412.192115
616.296169	2409.671538
616.644454	2576.029615
616.992686	2437.397885
617.340864	2487.809423
617.688990	2475.206538
618.037063	2450.000769
618.385082	2482.768269
618.733048	2553.344423
619.080961	2422.274423
619.428821	2553.344423
619.776628	2399.589231
620.124382	2520.576923
620.472083	2465.124231
620.819731	2525.618077
621.167326	2560.906154
621.514868	2581.070769
621.862357	2535.700385
622.209793	2543.262115
622.557176	2457.562500
622.904506	2434.877308
623.251783	2611.317692
623.599007	2518.056346
623.946179	2500.412308
624.293297	2467.644808
624.640363	2462.603654
624.987376	2429.836154
625.334336	2538.220962
625.681243	2419.753846
626.028097	2472.685962
626.374899	2480.247692
626.721647	2465.124231
627.068343	2467.644808
627.414987	2555.865000
627.761577	2465.124231
628.108115	2560.906154
628.454600	2523.097500
628.801032	2568.467885
629.147412	2472.685962
629.493739	2518.056346
629.840014	2515.535769
630.186236	2510.494615
630.532405	2588.632500
630.878521	2555.865000
631.224585	2528.138654
631.570597	2492.850577
631.916556	2480.247692
632.262462	2502.932885
632.608316	2487.809423
632.954117	2477.727115
633.299866	2495.371154
633.645562	2525.618077
633.991206	2500.412308
634.336797	2533.179808
634.682336	2623.920577
635.027823	2553.344423
635.373257	2437.397885
635.718639	2490.330000
636.063968	2470.165385
636.409245	2545.782692
636.754470	2555.865000
637.099642	2492.850577
637.444762	2596.194231
637.789829	2555.865000
638.134845	2538.220962
638.479808	2457.562500
638.824719	2460.083077
639.169577	2492.850577
639.514383	2533.179808
639.859137	2492.850577
640.203839	2553.344423
640.548489	2470.165385
640.893086	2510.494615
641.237632	2515.535769
641.582125	2480.247692
641.926566	2480.247692
642.270955	2550.823846
642.615292	2465.124231
642.959576	2543.262115
643.303809	2565.947308
643.647990	2495.371154
643.992118	2515.535769
644.336195	2543.262115
644.680219	2525.618077
645.024192	2528.138654
645.368112	2487.809423
645.711981	2462.603654
646.055797	2444.959615
646.399562	2472.685962
646.743274	2543.262115
647.086935	2412.192115
647.430544	2515.535769
647.774101	2457.562500
648.117606	2455.041923
648.461059	2424.795000
648.804460	2470.165385
649.147810	2558.385577
649.491108	2457.562500
649.834354	2482.768269
650.177548	2482.768269
650.520690	2505.453462
650.863781	2492.850577
651.206820	2538.220962
651.549807	2470.165385
651.892742	2510.494615
652.235626	2507.974038
652.578458	2565.947308
652.921238	2513.015192
653.263967	2540.741538
653.606644	2535.700385
653.949269	2492.850577
654.291843	2538.220962
654.634365	2581.070769
654.976836	2510.494615
655.319255	2492.850577
655.661622	2540.741538
656.003938	2507.974038
656.346203	2570.988462
656.688416	2525.618077
657.030577	2495.371154
657.372687	2515.535769
657.714746	2492.850577
658.056753	2444.959615
658.398708	2497.891731
658.740612	2472.685962
659.082465	2523.097500
659.424266	2465.124231
659.766016	2538.220962
660.107715	2422.274423
660.449362	2535.700385
660.790958	2510.494615
661.132503	2507.974038
661.473996	2447.480192
661.815438	2419.753846
662.156829	2502.932885
662.498168	2485.288846
662.839456	2523.097500
663.180693	2518.056346
663.521879	2581.070769
663.863013	2434.877308
664.204097	2543.262115
664.545129	2485.288846
664.886110	2553.344423
665.227040	2429.836154
665.567918	2507.974038
665.908746	2434.877308
666.249522	2497.891731
666.590248	2460.083077
666.930922	2505.453462
667.271545	2523.097500
667.612118	2497.891731
667.952639	2487.809423
668.293109	2490.330000
668.633528	2442.439038
668.973896	2434.877308
669.314213	2518.056346
669.654480	2523.097500
669.994695	2505.453462
670.334859	2505.453462
670.674973	2543.262115
671.015035	2432.356731
671.355047	2470.165385
671.695008	2623.920577
672.034918	2492.850577
672.374777	2450.000769
672.714585	2515.535769
673.054342	2515.535769
673.394049	2530.659231
673.733705	2399.589231
674.073310	2530.659231
674.412864	2477.727115
674.752368	2583.591346
675.091820	2490.330000
675.431223	2535.700385
675.770574	2525.618077
676.109875	2523.097500
676.449125	2475.206538
676.788324	2510.494615
677.127473	2507.974038
677.466571	2528.138654
677.805619	2485.288846
678.144616	2518.056346
678.483562	2409.671538
678.822458	2553.344423
679.161303	2558.385577
679.500098	2467.644808
679.838842	2548.303269
680.177535	2490.330000
680.516179	2550.823846
680.854771	2548.303269
681.193314	2492.850577
681.531805	2502.932885
681.870247	2500.412308
682.208638	2495.371154
682.546978	2487.809423
682.885268	2394.548077
683.223508	2601.235385
683.561697	2525.618077
683.899836	2467.644808
684.237925	2513.015192
684.575963	2502.932885
684.913951	2465.124231
685.251889	2492.850577
685.589776	2487.809423
685.927614	2470.165385
686.265401	2540.741538
686.603137	2397.068654
686.940824	2510.494615
687.278460	2543.262115
687.616046	2560.906154
687.953582	2500.412308
688.291068	2497.891731
688.628504	2455.041923
688.965889	2495.371154
689.303224	2570.988462
689.640510	2460.083077
689.977745	2452.521346
690.314930	2482.768269
690.652065	2533.179808
690.989150	2515.535769
691.326185	2515.535769
691.663170	2525.618077
692.000105	2570.988462
692.336990	2515.535769
692.673825	2437.397885
693.010610	2502.932885
693.347345	2513.015192
693.684030	2465.124231
694.020665	2407.150962
694.357251	2558.385577
694.693786	2475.206538
695.030272	2550.823846
695.366707	2568.467885
695.703093	2492.850577
696.039429	2442.439038
696.375716	2492.850577
696.711952	2520.576923
697.048139	2543.262115
697.384276	2490.330000
697.720363	2485.288846
698.056400	2485.288846
698.392388	2470.165385
698.728326	2480.247692
699.064214	2540.741538
699.400053	2513.015192
699.735842	2447.480192
700.071581	2495.371154
700.407270	2475.206538
700.742910	2460.083077
701.078501	2576.029615
701.414042	2432.356731
701.749533	2482.768269
702.084974	2487.809423
702.420366	2439.918462
702.755709	2407.150962
703.091002	2500.412308
703.426246	2596.194231
703.761440	2462.603654
704.096584	2475.206538
704.431679	2538.220962
704.766725	2455.041923
705.101721	2573.509038
705.436668	2500.412308
705.771565	2518.056346
706.106413	2502.932885
706.441212	2442.439038
706.775961	2525.618077
707.110661	2520.576923
707.445311	2513.015192
707.779913	2450.000769
708.114465	2450.000769
708.448967	2558.385577
708.783421	2450.000769
709.117825	2555.865000
709.452180	2485.288846
709.786485	2535.700385
710.120742	2513.015192
710.454949	2510.494615
710.789107	2452.521346
711.123216	2502.932885
711.457275	2392.027500
711.791286	2515.535769
712.125247	2560.906154
712.459159	2520.576923
712.793023	2520.576923
713.126837	2455.041923
713.460602	2437.397885
713.794318	2525.618077
714.127985	2495.371154
714.461602	2495.371154
714.795171	2427.315577
715.128691	2442.439038
715.462162	2457.562500
715.795584	2482.768269
716.128957	2457.562500
716.462281	2513.015192
716.795556	2525.618077
717.128782	2523.097500
717.461960	2470.165385
717.795088	2472.685962
718.128167	2460.083077
718.461198	2417.233269
718.794180	2545.782692
719.127113	2510.494615
719.459997	2495.371154
719.792833	2495.371154
720.125619	2462.603654
720.458357	2482.768269
720.791046	2540.741538
721.123686	2502.932885
721.456278	2528.138654
721.788821	2455.041923
722.121315	2455.041923
722.453761	2460.083077
722.786158	2545.782692
723.118506	2452.521346
723.450805	2402.109808
723.783056	2523.097500
724.115259	2500.412308
724.447412	2583.591346
724.779518	2485.288846
725.111574	2500.412308
725.443582	2505.453462
725.775542	2601.235385
726.107453	2520.576923
726.439315	2528.138654
726.771129	2465.124231
727.102895	2437.397885
727.434612	2444.959615
727.766281	2520.576923
728.097901	2502.932885
728.429473	2417.233269
728.760996	2523.097500
729.092471	2432.356731
729.423897	2500.412308
729.755276	2540.741538
730.086606	2487.809423
730.417887	2520.576923
730.749120	2485.288846
731.080305	2500.412308
731.411442	2505.453462
731.742530	2427.315577
732.073570	2500.412308
732.404562	2628.961731
732.735506	2480.247692
733.066401	2472.685962
733.397249	2447.480192
733.728048	2525.618077
734.058798	2472.685962
734.389501	2530.659231
734.720156	2414.712692
735.050762	2533.179808
735.381320	2563.426731
735.711831	2515.535769
736.042293	2434.877308
736.372707	2447.480192
736.703073	2581.070769
737.033391	2485.288846
737.363661	2472.685962
737.693883	2457.562500
738.024056	2502.932885
738.354182	2520.576923
738.684260	2412.192115
739.014290	2444.959615
739.344272	2518.056346
739.674207	2495.371154
740.004093	2520.576923
740.333931	2555.865000
740.663722	2467.644808
740.993464	2492.850577
741.323159	2518.056346
741.652806	2530.659231
741.982405	2497.891731
742.311956	2477.727115
742.641460	2465.124231
742.970915	2467.644808
743.300323	2520.576923
743.629683	2523.097500
743.958996	2533.179808
744.288260	2477.727115
744.617477	2502.932885
744.946647	2369.342308
745.275768	2560.906154
745.604842	2495.371154
745.933869	2442.439038
746.262847	2490.330000
746.591778	2520.576923
746.920662	2460.083077
747.249498	2523.097500
747.578286	2475.206538
747.907027	2444.959615
748.235720	2444.959615
748.564365	2434.877308
748.892963	2460.083077
749.221514	2452.521346
749.550017	2538.220962
749.878473	2472.685962
750.206881	2477.727115
750.535242	2560.906154
750.863555	2500.412308
751.191821	2533.179808
751.520039	2520.576923
751.848210	2528.138654
752.176334	2455.041923
752.504411	2470.165385
752.832440	2480.247692
753.160421	2475.206538
753.488356	2447.480192
753.816243	2422.274423
754.144082	2515.535769
754.471875	2565.947308
754.799620	2482.768269
755.127318	2442.439038
755.454969	2631.482308
755.782572	2386.986346
756.110129	2523.097500
756.437638	2500.412308
756.765100	2555.865000
757.092515	2515.535769
757.419882	2573.509038
757.747203	2570.988462
758.074477	2545.782692
758.401703	2472.685962
758.728882	2497.891731
759.056014	2500.412308
759.383099	2490.330000
759.710138	2497.891731
760.037129	2530.659231
760.364073	2608.797115
760.690970	2480.247692
761.017820	2485.288846
761.344623	2467.644808
761.671379	2505.453462
761.998088	2487.809423
762.324751	2500.412308
762.651366	2432.356731
762.977935	2502.932885
763.304456	2558.385577
763.630931	2558.385577
763.957359	2505.453462
764.283740	2490.330000
764.610074	2475.206538
764.936362	2452.521346
765.262602	2507.974038
765.588796	2628.961731
765.914943	2540.741538
766.241044	2462.603654
766.567097	2495.371154
766.893104	2497.891731
767.219064	2467.644808
767.544978	2540.741538
767.870845	2429.836154
768.196665	2533.179808
768.522438	2457.562500
768.848165	2452.521346
769.173846	2434.877308
769.499479	2520.576923
769.825066	2500.412308
770.150607	2492.850577
770.476101	2470.165385
770.801548	2543.262115
771.126949	2450.000769
771.452303	2500.412308
771.777611	2505.453462
772.102872	2570.988462
772.428087	2520.576923
772.753256	2465.124231
773.078378	2515.535769
773.403453	2452.521346
773.728482	2414.712692
774.053465	2510.494615
774.378401	2462.603654
774.703291	2462.603654
775.028135	2450.000769
775.352932	2452.521346
775.677683	2540.741538
776.002388	2455.041923
776.327046	2500.412308
776.651658	2409.671538
776.976224	2505.453462
777.300743	2450.000769
777.625216	2507.974038
777.949643	2444.959615
778.274024	2475.206538
778.598359	2538.220962
778.922647	2470.165385
779.246889	2528.138654
779.571086	2507.974038
779.895236	2538.220962
780.219339	2492.850577
780.543397	2505.453462
780.867409	2477.727115
781.191374	2513.015192
781.515294	2397.068654
781.839167	2450.000769
782.162995	2497.891731
782.486776	2608.797115
782.810511	2475.206538
783.134201	2513.015192
783.457844	2475.206538
783.781441	2467.644808
784.104993	2417.233269
784.428498	2558.385577
784.751958	2470.165385
785.075372	2518.056346
785.398739	2462.603654
785.722061	2497.891731
786.045337	2482.768269
786.368568	2555.865000
786.691752	2497.891731
787.014891	2419.753846
787.337983	2543.262115
787.661030	2545.782692
787.984031	2417.233269
788.306987	2538.220962
788.629897	2465.124231
788.952760	2460.083077
789.275579	2502.932885
789.598351	2558.385577
789.921078	2502.932885
790.243759	2432.356731
790.566395	2555.865000
790.888984	2475.206538
791.211529	2563.426731
791.534027	2555.865000
791.856480	2480.247692
792.178888	2467.644808
792.501249	2593.673654
792.823566	2530.659231
793.145836	2492.850577
793.468062	2530.659231
793.790241	2437.397885
794.112375	2525.618077
794.434464	2570.988462
794.756507	2465.124231
795.078505	2560.906154
795.400457	2462.603654
795.722364	2497.891731
796.044226	2490.330000
796.366042	2452.521346
796.687812	2444.959615
797.009538	2525.618077
797.331218	2477.727115
797.652852	2565.947308
797.974442	2470.165385
798.295986	2417.233269
798.617484	2558.385577
798.938938	2563.426731
799.260346	2563.426731
799.581709	2490.330000
799.903026	2487.809423
800.224299	2492.850577
800.545526	2475.206538
800.866708	2490.330000
801.187845	2470.165385
801.508936	2487.809423
801.829983	2515.535769
802.150984	2523.097500
802.471940	2485.288846
802.792851	2545.782692
803.113717	2518.056346
803.434538	2407.150962
803.755314	2434.877308
804.076045	2472.685962
804.396731	2442.439038
804.717372	2477.727115
805.037967	2492.850577
805.358518	2457.562500
805.679024	2485.288846
805.999485	2424.795000
806.319901	2513.015192
806.640272	2460.083077
806.960598	2432.356731
807.280879	2467.644808
807.601115	2502.932885
807.921306	2560.906154
808.241453	2505.453462
808.561554	2404.630385
808.881611	2412.192115
809.201623	2434.877308
809.521590	2465.124231
809.841513	2437.397885
810.161390	2523.097500
810.481223	2485.288846
810.801011	2538.220962
811.120755	2472.685962
811.440453	2502.932885
811.760107	2444.959615
812.079716	2477.727115
812.399281	2452.521346
812.718801	2525.618077
813.038276	2419.753846
813.357707	2392.027500
813.677093	2492.850577
813.996434	2460.083077
814.315731	2492.850577
814.634983	2465.124231
814.954191	2535.700385
815.273354	2545.782692
815.592473	2389.506923
815.911547	2444.959615
816.230577	2548.303269
816.549562	2538.220962
816.868502	2462.603654
817.187399	2480.247692
817.506250	2437.397885
817.825058	2507.974038
818.143821	2528.138654
818.462539	2470.165385
818.781213	2565.947308
819.099843	2523.097500
819.418429	2507.974038
819.736970	2477.727115
820.055466	2520.576923
820.373919	2497.891731
820.692327	2520.576923
821.010691	2538.220962
821.329011	2457.562500
821.647286	2530.659231
821.965517	2381.945192
822.283704	2530.659231
822.601847	2462.603654
822.919945	2507.974038
823.237999	2555.865000
823.556010	2510.494615
823.873976	2500.412308
824.191897	2450.000769
824.509775	2467.644808
824.827609	2412.192115
825.145398	2540.741538
825.463144	2460.083077
825.780845	2374.383462
826.098502	2513.015192
826.416116	2520.576923
826.733685	2475.206538
827.051210	2485.288846
827.368692	2507.974038
827.686129	2439.918462
828.003522	2480.247692
828.320872	2477.727115
828.638177	2538.220962
828.955439	2462.603654
829.272656	2470.165385
829.589830	2404.630385
829.906960	2492.850577
830.224046	2523.097500
830.541088	2525.618077
830.858086	2520.576923
831.175041	2553.344423
831.491952	2581.070769
831.808819	2465.124231
832.125642	2427.315577
832.442421	2570.988462
832.759157	2460.083077
833.075849	2495.371154
833.392497	2467.644808
833.709101	2447.480192
834.025662	2439.918462
834.342179	2460.083077
834.658653	2412.192115
834.975083	2492.850577
835.291469	2507.974038
835.607811	2470.165385
835.924110	2455.041923
836.240366	2490.330000
836.556578	2414.712692
836.872746	2538.220962
837.188871	2555.865000
837.504952	2487.809423
837.820990	2535.700385
838.136984	2518.056346
838.452935	2432.356731
838.768842	2452.521346
839.084706	2553.344423
839.400526	2548.303269
839.716303	2563.426731
840.032037	2495.371154
840.347727	2450.000769
840.663373	2510.494615
840.978977	2462.603654
841.294537	2510.494615
841.610054	2472.685962
841.925527	2505.453462
842.240957	2490.330000
842.556344	2576.029615
842.871687	2460.083077
843.186987	2460.083077
843.502244	2513.015192
843.817458	2505.453462
844.132629	2452.521346
844.447756	2444.959615
844.762840	2495.371154
845.077881	2455.041923
845.392879	2492.850577
845.707833	2550.823846
846.022745	2462.603654
846.337613	2502.932885
846.652438	2417.233269
846.967221	2520.576923
847.281960	2530.659231
847.596656	2475.206538
847.911309	2560.906154
848.225919	2477.727115
848.540485	2485.288846
848.855009	2530.659231
849.169490	2427.315577
849.483928	2460.083077
849.798323	2462.603654
850.112675	2568.467885
850.426984	2510.494615
850.741251	2482.768269
851.055474	2424.795000
851.369654	2409.671538
851.683792	2457.562500
851.997887	2480.247692
852.311938	2450.000769
852.625947	2492.850577
852.939914	2439.918462
853.253837	2528.138654
853.567718	2540.741538
853.881555	2444.959615
854.195350	2565.947308
854.509103	2495.371154
854.822812	2497.891731
855.136479	2510.494615
855.450103	2487.809423
855.763685	2497.891731
856.077224	2558.385577
856.390720	2492.850577
856.704173	2414.712692
857.017584	2528.138654
857.330953	2497.891731
857.644278	2427.315577
857.957561	2525.618077
858.270802	2518.056346
858.584000	2513.015192
858.897155	2462.603654
859.210268	2437.397885
859.523339	2523.097500
859.836367	2487.809423
860.149352	2530.659231
860.462295	2616.358846
860.775195	2422.274423
861.088054	2515.535769
861.400869	2462.603654
861.713642	2444.959615
862.026373	2502.932885
862.339062	2495.371154
862.651708	2457.562500
862.964312	2429.836154
863.276873	2472.685962
863.589392	2384.465769
863.901869	2487.809423
864.214303	2422.274423
864.526696	2434.877308
864.839045	2485.288846
865.151353	2427.315577
865.463619	2533.179808
865.775842	2460.083077
866.088023	2477.727115
866.400162	2487.809423
866.712258	2412.192115
867.024313	2470.165385
867.336325	2429.836154
867.648296	2482.768269
867.960224	2543.262115
868.272110	2470.165385
868.583954	2510.494615
868.895755	2500.412308
869.207515	2490.330000
869.519233	2434.877308
869.830909	2475.206538
870.142542	2480.247692
870.454134	2525.618077
870.765684	2591.153077
871.077191	2578.550192
871.388657	2417.233269
871.700081	2545.782692
872.011463	2472.685962
872.322803	2500.412308
872.634101	2422.274423
872.945357	2558.385577
873.256571	2442.439038
873.567744	2475.206538
873.878874	2490.330000
874.189963	2560.906154
874.501010	2528.138654
874.812015	2515.535769
875.122979	2477.727115
875.433900	2495.371154
875.744780	2465.124231
876.055618	2538.220962
876.366415	2563.426731
876.677169	2553.344423
876.987882	2518.056346
877.298554	2437.397885
877.609183	2482.768269
877.919771	2490.330000
878.230317	2525.618077
878.540822	2462.603654
878.851285	2513.015192
879.161707	2409.671538
879.472087	2490.330000
879.782425	2563.426731
880.092722	2455.041923
880.402977	2490.330000
880.713191	2540.741538
881.023363	2444.959615
881.333494	2505.453462
881.643583	2472.685962
881.953631	2550.823846
882.263637	2404.630385
882.573602	2467.644808
882.883526	2467.644808
883.193408	2550.823846
883.503248	2520.576923
883.813048	2417.233269
884.122806	2432.356731
884.432522	2487.809423
884.742197	2460.083077
885.051831	2444.959615
885.361424	2578.550192
885.670975	2465.124231
885.980485	2452.521346
886.289954	2434.877308
886.599382	2467.644808
886.908768	2472.685962
887.218113	2487.809423
887.527417	2414.712692
887.836680	2487.809423
888.145901	2523.097500
888.455082	2485.288846
888.764221	2452.521346
889.073319	2427.315577
889.382376	2502.932885
889.691392	2520.576923
890.000366	2402.109808
890.309300	2490.330000
890.618193	2507.974038
890.927044	2586.111923
891.235855	2450.000769
891.544625	2490.330000
891.853353	2510.494615
892.162041	2538.220962
892.470687	2513.015192
892.779293	2560.906154
893.087858	2606.276538
893.396381	2495.371154
893.704864	2548.303269
894.013306	2555.865000
894.321707	2535.700385
894.630068	2462.603654
894.938387	2422.274423
895.246665	2558.385577
895.554903	2523.097500
895.863100	2502.932885
896.171256	2470.165385
896.479371	2495.371154
896.787446	2492.850577
897.095480	2475.206538
897.403473	2419.753846
897.711425	2591.153077
898.019336	2457.562500
898.327207	2490.330000
898.635038	2513.015192
898.942827	2490.330000
899.250576	2465.124231
899.558284	2487.809423
899.865952	2586.111923
900.173579	2409.671538
900.481165	2399.589231
900.788711	2538.220962
901.096216	2437.397885
901.403681	2482.768269
901.711105	2500.412308
902.018489	2505.453462
902.325832	2528.138654
902.633135	2538.220962
902.940397	2500.412308
903.247619	2450.000769
903.554800	2507.974038
903.861941	2472.685962
904.169041	2422.274423
904.476101	2535.700385
904.783121	2565.947308
905.090100	2397.068654
905.397039	2505.453462
905.703938	2470.165385
906.010796	2492.850577
906.317614	2502.932885
906.624391	2482.768269
906.931129	2523.097500
907.237826	2429.836154
907.544483	2475.206538
907.851099	2450.000769
908.157675	2505.453462
908.464211	2480.247692
908.770707	2515.535769
909.077163	2452.521346
909.383578	2480.247692
909.689954	2472.685962
909.996289	2540.741538
910.302584	2487.809423
910.608839	2515.535769
910.915054	2455.041923
911.221229	2545.782692
911.527363	2510.494615
911.833458	2513.015192
912.139513	2518.056346
912.445527	2583.591346
912.751502	2603.755962
913.057436	2460.083077
913.363331	2485.288846
913.669186	2457.562500
913.975000	2505.453462
914.280775	2389.506923
914.586510	2485.288846
914.892205	2502.932885
915.197859	2402.109808
915.503475	2482.768269
915.809050	2570.988462
916.114585	2578.550192
916.420081	2429.836154
916.725536	2404.630385
917.030952	2419.753846
917.336328	2510.494615
917.641665	2462.603654
917.946961	2485.288846
918.252218	2452.521346
918.557435	2470.165385
918.862612	2485.288846
919.167750	2465.124231
919.472848	2447.480192
919.777906	2520.576923
920.082925	2450.000769
920.387904	2462.603654
920.692843	2462.603654
920.997743	2553.344423
921.302603	2545.782692
921.607423	2470.165385
921.912204	2525.618077
922.216946	2570.988462
922.521647	2444.959615
922.826310	2583.591346
923.130932	2586.111923
923.435516	2472.685962
923.740059	2419.753846
924.044564	2407.150962
924.349028	2419.753846
924.653454	2533.179808
924.957840	2485.288846
925.262186	2444.959615
925.566493	2507.974038
925.870761	2520.576923
926.174989	2470.165385
926.479178	2523.097500
926.783328	2563.426731
927.087438	2523.097500
927.391509	2505.453462
927.695541	2495.371154
927.999533	2520.576923
928.303486	2465.124231
928.607400	2419.753846
928.911275	2402.109808
929.215110	2422.274423
929.518906	2470.165385
929.822663	2482.768269
930.126381	2500.412308
930.430060	2434.877308
930.733699	2495.371154
931.037299	2455.041923
931.340861	2505.453462
931.644383	2485.288846
931.947866	2472.685962
932.251309	2502.932885
932.554714	2523.097500
932.858080	2553.344423
933.161407	2523.097500
933.464694	2515.535769
933.767943	2515.535769
934.071153	2409.671538
934.374323	2500.412308
934.677455	2455.041923
934.980548	2497.891731
935.283602	2523.097500
935.586617	2444.959615
935.889593	2480.247692
936.192530	2528.138654
936.495428	2558.385577
936.798287	2444.959615
937.101108	2492.850577
937.403890	2450.000769
937.706632	2523.097500
938.009336	2477.727115
938.312002	2528.138654
938.614628	2510.494615
938.917216	2500.412308
939.219765	2540.741538
939.522275	2467.644808
939.824747	2497.891731
940.127179	2540.741538
940.429573	2439.918462
940.731929	2475.206538
941.034246	2452.521346
941.336524	2578.550192
941.638763	2480.247692
941.940964	2515.535769
942.243126	2407.150962
942.545250	2470.165385
942.847335	2381.945192
943.149381	2505.453462
943.451389	2452.521346
943.753359	2432.356731
944.055290	2510.494615
944.357182	2530.659231
944.659036	2482.768269
944.960851	2530.659231
945.262628	2465.124231
945.564367	2470.165385
945.866067	2540.741538
946.167729	2550.823846
946.469352	2500.412308
946.770937	2427.315577
947.072484	2510.494615
947.373992	2384.465769
947.675462	2515.535769
947.976893	2520.576923
948.278286	2523.097500
948.579641	2601.235385
948.880958	2538.220962
949.182236	2538.220962
949.483476	2490.330000
949.784678	2495.371154
950.085841	2535.700385
950.386967	2477.727115
950.688054	2482.768269
950.989103	2495.371154
951.290114	2497.891731
951.591087	2457.562500
951.892021	2472.685962
952.192917	2555.865000
952.493776	2467.644808
952.794596	2563.426731
953.095378	2447.480192
953.396122	2480.247692
953.696828	2417.233269
953.997496	2442.439038
954.298126	2515.535769
954.598718	2497.891731
954.899272	2510.494615
955.199788	2462.603654
955.500266	2530.659231
955.800706	2502.932885
956.101108	2437.397885
956.401472	2434.877308
956.701798	2424.795000
957.002087	2439.918462
957.302337	2439.918462
957.602550	2538.220962
957.902724	2467.644808
958.202861	2513.015192
958.502960	2540.741538
958.803022	2455.041923
959.103045	2528.138654
959.403031	2467.644808
959.702979	2515.535769
960.002889	2460.083077
960.302762	2513.015192
960.602596	2452.521346
960.902393	2492.850577
961.202153	2467.644808
961.501875	2525.618077
961.801559	2470.165385
962.101205	2530.659231
962.400814	2444.959615
962.700385	2472.685962
962.999918	2422.274423
963.299414	2429.836154
963.598873	2510.494615
963.898293	2442.439038
964.197677	2545.782692
964.497022	2500.412308
964.796331	2545.782692
965.095601	2480.247692
965.394835	2475.206538
965.694030	2492.850577
965.993189	2470.165385
966.292309	2447.480192
966.591393	2439.918462
966.890439	2482.768269
967.189447	2480.247692
967.488419	2555.865000
967.787353	2543.262115
968.086249	2510.494615
968.385108	2505.453462
968.683930	2460.083077
968.982714	2417.233269
969.281462	2455.041923
969.580172	2374.383462
969.878844	2472.685962
970.177480	2465.124231
970.476078	2497.891731
970.774639	2513.015192
971.073162	2528.138654
971.371649	2470.165385
971.670098	2472.685962
971.968510	2502.932885
972.266885	2540.741538
972.565223	2487.809423
972.863524	2495.371154
973.161788	2394.548077
973.460014	2535.700385
973.758204	2480.247692
974.056356	2543.262115
974.354471	2538.220962
974.652550	2507.974038
974.950591	2548.303269
975.248595	2576.029615
975.546563	2450.000769
975.844493	2497.891731
976.142386	2563.426731
976.440243	2432.356731
976.738062	2548.303269
977.035845	2495.371154
977.333590	2447.480192
977.631299	2485.288846
977.928971	2470.165385
978.226606	2507.974038
978.524204	2513.015192
978.821765	2427.315577
979.119290	2482.768269
979.416777	2439.918462
979.714228	2482.768269
980.011642	2505.453462
980.309020	2462.603654
980.606360	2429.836154
980.903664	2475.206538
981.200931	2510.494615
981.498162	2482.768269
981.795356	2394.548077
982.092513	2460.083077
982.389633	2598.714808
982.686717	2530.659231
982.983764	2515.535769
983.280775	2437.397885
983.577749	2530.659231
983.874686	2442.439038
984.171587	2424.795000
984.468451	2472.685962
984.765279	2528.138654
985.062070	2439.918462
985.358824	2470.165385
985.655543	2472.685962
985.952224	2505.453462
986.248869	2422.274423
986.545478	2429.836154
986.842050	2475.206538
987.138586	2434.877308
987.435086	2467.644808
987.731549	2515.535769
988.027975	2545.782692
988.324366	2487.809423
988.620719	2437.397885
988.917037	2502.932885
989.213318	2472.685962
989.509563	2392.027500
989.805772	2558.385577
990.101944	2538.220962
990.398080	2530.659231
990.694180	2545.782692
990.990244	2525.618077
991.286271	2472.685962
991.582262	2432.356731
991.878217	2424.795000
992.174136	2563.426731
992.470019	2371.862885
992.765865	2495.371154
993.061676	2414.712692
993.357450	2497.891731
993.653188	2439.918462
993.948890	2419.753846
994.244556	2407.150962
994.540186	2518.056346
994.835780	2518.056346
995.131337	2434.877308
995.426859	2510.494615
995.722345	2482.768269
996.017795	2502.932885
996.313208	2432.356731
996.608586	2482.768269
996.903928	2495.371154
997.199234	2465.124231
997.494504	2495.371154
997.789738	2384.465769
998.084936	2550.823846
998.380099	2467.644808
998.675225	2477.727115
998.970316	2397.068654
999.265371	2558.385577
999.560390	2500.412308
999.855373	2492.850577
1000.150320	2573.509038
1000.445232	2462.603654
1000.740108	2507.974038
1001.034948	2510.494615
1001.329752	2470.165385
1001.624521	2475.206538
1001.919254	2429.836154
1002.213951	2462.603654
1002.508613	2450.000769
1002.803239	2555.865000
1003.097829	2437.397885
1003.392384	2480.247692
1003.686903	2520.576923
1003.981386	2369.342308
1004.275834	2497.891731
1004.570246	2452.521346
1004.864623	2586.111923
1005.158964	2465.124231
1005.453270	2510.494615
1005.747540	2487.809423
1006.041775	2490.330000
1006.335974	2543.262115
1006.630138	2442.439038
1006.924266	2495.371154
1007.218359	2492.850577
1007.512416	2444.959615
1007.806438	2394.548077
1008.100425	2465.124231
1008.394376	2518.056346
1008.688292	2565.947308
1008.982172	2432.356731
1009.276017	2563.426731
1009.569827	2452.521346
1009.863602	2497.891731
1010.157341	2402.109808
1010.451045	2500.412308
1010.744714	2460.083077
1011.038347	2495.371154
1011.331945	2502.932885
1011.625508	2515.535769
1011.919036	2535.700385
1012.212528	2515.535769
1012.505986	2513.015192
1012.799408	2465.124231
1013.092795	2563.426731
1013.386147	2472.685962
1013.679464	2497.891731
1013.972745	2540.741538
1014.265992	2528.138654
1014.559204	2540.741538
1014.852380	2505.453462
1015.145521	2568.467885
1015.438628	2460.083077
1015.731699	2402.109808
1016.024736	2450.000769
1016.317737	2452.521346
1016.610703	2366.821731
1016.903635	2525.618077
1017.196531	2540.741538
1017.489393	2510.494615
1017.782219	2495.371154
1018.075011	2523.097500
1018.367768	2477.727115
1018.660490	2510.494615
1018.953177	2510.494615
1019.245829	2510.494615
