Dividing Wavelength (nm)	Counts (n)	Blue Motor Position (mm): 0.000000	Red Motor Position (mm): 2.300000	
326.493990	2044.187885
326.888308	2044.187885
327.282561	2044.187885
327.676750	2044.187885
328.070874	2051.749615
328.464933	2024.023269
328.858929	2099.640577
329.252859	2059.311346
329.646726	2079.475962
330.040528	2029.064423
330.434265	2155.093269
330.827938	2056.790769
331.221547	2152.572692
331.615091	2127.366923
332.008571	2192.901923
332.401986	2215.587115
332.795338	2213.066538
333.188625	2321.451346
333.581847	2273.560385
333.975006	2311.369038
334.368100	2346.657115
334.761129	2326.492500
335.154095	2288.683846
335.546996	2366.821731
335.939833	2369.342308
336.332606	2386.986346
336.725315	2326.492500
337.117960	2414.712692
337.510540	2422.274423
337.903056	2439.918462
338.295508	2502.932885
338.687896	2397.068654
339.080220	2412.192115
339.472480	2434.877308
339.864676	2480.247692
340.256807	2389.506923
340.648875	2462.603654
341.040879	2555.865000
341.432818	2533.179808
341.824694	2470.165385
342.216506	2455.041923
342.608253	2439.918462
342.999937	2412.192115
343.391557	2515.535769
343.783113	2475.206538
344.174605	2447.480192
344.566033	2490.330000
344.957397	2429.836154
345.348697	2447.480192
345.739934	2482.768269
346.131106	2502.932885
346.522215	2450.000769
346.913260	2429.836154
347.304241	2381.945192
347.695159	2515.535769
348.086012	2460.083077
348.476802	2510.494615
348.867528	2384.465769
349.258191	2470.165385
349.648789	2462.603654
350.039324	2455.041923
350.429796	2384.465769
350.820203	2477.727115
351.210548	2434.877308
351.600828	2455.041923
351.991045	2487.809423
352.381198	2402.109808
352.771288	2513.015192
353.161314	2361.780577
353.551276	2432.356731
353.941175	2437.397885
354.331010	2364.301154
354.720782	2475.206538
355.110490	2409.671538
355.500135	2495.371154
355.889717	2386.986346
356.279235	2442.439038
356.668689	2507.974038
357.058080	2404.630385
357.447408	2457.562500
357.836672	2477.727115
358.225873	2434.877308
358.615010	2487.809423
359.004084	2482.768269
359.393095	2422.274423
359.782043	2417.233269
360.170927	2407.150962
360.559748	2386.986346
360.948505	2429.836154
361.337199	2439.918462
361.725830	2462.603654
362.114398	2447.480192
362.502903	2492.850577
362.891344	2439.918462
363.279722	2490.330000
363.668037	2389.506923
364.056289	2427.315577
364.444478	2455.041923
364.832603	2455.041923
365.220665	2414.712692
365.608665	2525.618077
365.996601	2472.685962
366.384474	2457.562500
366.772284	2397.068654
367.160031	2497.891731
367.547715	2442.439038
367.935336	2419.753846
368.322893	2447.480192
368.710388	2472.685962
369.097820	2392.027500
369.485189	2480.247692
369.872495	2399.589231
370.259738	2523.097500
370.646918	2429.836154
371.034035	2475.206538
371.421090	2424.795000
371.808081	2389.506923
372.195010	2444.959615
372.581875	2460.083077
372.968678	2412.192115
373.355418	2462.603654
373.742096	2424.795000
374.128710	2487.809423
374.515262	2450.000769
374.901751	2515.535769
375.288177	2444.959615
375.674540	2412.192115
376.060841	2472.685962
376.447079	2480.247692
376.833254	2477.727115
377.219367	2447.480192
377.605417	2394.548077
377.991404	2450.000769
378.377329	2495.371154
378.763191	2417.233269
379.148991	2467.644808
379.534727	2543.262115
379.920402	2429.836154
380.306013	2538.220962
380.691563	2467.644808
381.077049	2462.603654
381.462474	2455.041923
381.847835	2470.165385
382.233134	2513.015192
382.618371	2432.356731
383.003545	2515.535769
383.388657	2417.233269
383.773706	2525.618077
384.158693	2485.288846
384.543618	2520.576923
384.928480	2462.603654
385.313280	2412.192115
385.698017	2422.274423
386.082692	2482.768269
386.467305	2460.083077
386.851856	2455.041923
387.236344	2444.959615
387.620770	2409.671538
388.005133	2460.083077
388.389435	2439.918462
388.773674	2518.056346
389.157851	2442.439038
389.541965	2424.795000
389.926018	2535.700385
390.310008	2490.330000
390.693936	2487.809423
391.077802	2450.000769
391.461606	2593.673654
391.845348	2462.603654
392.229027	2419.753846
392.612645	2467.644808
392.996200	2490.330000
393.379694	2480.247692
393.763125	2470.165385
394.146494	2515.535769
394.529801	2447.480192
394.913047	2505.453462
395.296230	2439.918462
395.679351	2450.000769
396.062410	2497.891731
396.445408	2452.521346
396.828343	2482.768269
397.211217	2460.083077
397.594028	2465.124231
397.976778	2422.274423
398.359466	2485.288846
398.742092	2596.194231
399.124656	2505.453462
399.507158	2492.850577
399.889598	2485.288846
400.271977	2452.521346
400.654294	2397.068654
401.036549	2442.439038
401.418742	2565.947308
401.800874	2447.480192
402.182944	2510.494615
402.564952	2513.015192
402.946898	2510.494615
403.328783	2492.850577
403.710606	2502.932885
404.092367	2419.753846
404.474067	2515.535769
404.855705	2475.206538
405.237282	2475.206538
405.618797	2429.836154
406.000250	2591.153077
406.381642	2487.809423
406.762972	2593.673654
407.144240	2538.220962
407.525447	2540.741538
407.906593	2560.906154
408.287677	2457.562500
408.668700	2520.576923
409.049661	2432.356731
409.430560	2490.330000
409.811399	2480.247692
410.192176	2528.138654
410.572891	2505.453462
410.953545	2490.330000
411.334138	2470.165385
411.714669	2505.453462
412.095139	2477.727115
412.475547	2507.974038
412.855894	2450.000769
413.236180	2409.671538
413.616405	2462.603654
413.996568	2462.603654
414.376670	2492.850577
414.756711	2495.371154
415.136691	2475.206538
415.516609	2429.836154
415.896466	2550.823846
416.276262	2565.947308
416.655997	2507.974038
417.035670	2477.727115
417.415283	2515.535769
417.794834	2399.589231
418.174324	2487.809423
418.553753	2442.439038
418.933121	2533.179808
419.312428	2497.891731
419.691674	2460.083077
420.070859	2427.315577
420.449983	2439.918462
420.829045	2439.918462
421.208047	2392.027500
421.586988	2500.412308
421.965867	2452.521346
422.344686	2444.959615
422.723444	2434.877308
423.102141	2480.247692
423.480777	2450.000769
423.859352	2525.618077
424.237866	2462.603654
424.616319	2497.891731
424.994712	2500.412308
425.373044	2540.741538
425.751314	2427.315577
426.129524	2460.083077
426.507673	2518.056346
426.885762	2470.165385
427.263789	2505.453462
427.641756	2528.138654
428.019662	2434.877308
428.397508	2523.097500
428.775292	2540.741538
429.153016	2528.138654
429.530679	2482.768269
429.908282	2487.809423
430.285824	2455.041923
430.663305	2490.330000
431.040726	2482.768269
431.418086	2495.371154
431.795385	2502.932885
432.172624	2487.809423
432.549802	2525.618077
432.926920	2429.836154
433.303977	2553.344423
433.680974	2444.959615
434.057910	2487.809423
434.434786	2467.644808
434.811601	2460.083077
435.188355	2460.083077
435.565050	2533.179808
435.941683	2558.385577
436.318257	2583.591346
436.694770	2389.506923
437.071222	2480.247692
437.447614	2455.041923
437.823946	2538.220962
438.200218	2480.247692
438.576429	2525.618077
438.952580	2495.371154
439.328670	2523.097500
439.704700	2518.056346
440.080670	2475.206538
440.456580	2472.685962
440.832429	2528.138654
441.208218	2525.618077
441.583947	2502.932885
441.959616	2467.644808
442.335224	2500.412308
442.710773	2482.768269
443.086261	2492.850577
443.461689	2409.671538
443.837057	2492.850577
444.212365	2429.836154
444.587612	2475.206538
444.962800	2444.959615
445.337927	2540.741538
445.712995	2570.988462
446.088002	2480.247692
446.462949	2487.809423
446.837837	2437.397885
447.212664	2455.041923
447.587431	2495.371154
447.962139	2515.535769
448.336786	2558.385577
448.711374	2427.315577
449.085901	2366.821731
449.460369	2477.727115
449.834776	2386.986346
450.209124	2467.644808
450.583412	2492.850577
450.957640	2447.480192
451.331808	2472.685962
451.705917	2507.974038
452.079965	2518.056346
452.453954	2505.453462
452.827883	2502.932885
453.201752	2490.330000
453.575562	2507.974038
453.949311	2513.015192
454.323001	2553.344423
454.696632	2510.494615
455.070202	2460.083077
455.443713	2472.685962
455.817164	2455.041923
456.190556	2505.453462
456.563888	2515.535769
456.937160	2465.124231
457.310373	2535.700385
457.683526	2538.220962
458.056619	2588.632500
458.429653	2427.315577
458.802628	2361.780577
459.175542	2497.891731
459.548398	2442.439038
459.921194	2472.685962
460.293930	2528.138654
460.666607	2490.330000
461.039224	2472.685962
461.411782	2510.494615
461.784280	2475.206538
462.156719	2457.562500
462.529099	2444.959615
462.901419	2510.494615
463.273680	2525.618077
463.645882	2497.891731
464.018024	2492.850577
464.390106	2533.179808
464.762130	2490.330000
465.134094	2447.480192
465.505999	2497.891731
465.877845	2495.371154
466.249631	2515.535769
466.621358	2495.371154
466.993026	2462.603654
467.364634	2477.727115
467.736184	2553.344423
468.107674	2417.233269
468.479105	2467.644808
468.850477	2495.371154
469.221790	2538.220962
469.593043	2520.576923
469.964238	2563.426731
470.335373	2613.838269
470.706449	2432.356731
471.077467	2523.097500
471.448425	2545.782692
471.819324	2515.535769
472.190164	2525.618077
472.560945	2490.330000
472.931667	2500.412308
473.302330	2492.850577
473.672934	2472.685962
474.043479	2543.262115
474.413965	2495.371154
474.784393	2515.535769
475.154761	2530.659231
475.525070	2505.453462
475.895321	2480.247692
476.265513	2563.426731
476.635645	2487.809423
477.005719	2581.070769
477.375734	2477.727115
477.745691	2450.000769
478.115588	2419.753846
478.485427	2492.850577
478.855207	2465.124231
479.224928	2437.397885
479.594591	2530.659231
479.964194	2500.412308
480.333739	2500.412308
480.703226	2543.262115
481.072653	2442.439038
481.442022	2480.247692
481.811333	2565.947308
482.180584	2465.124231
482.549777	2429.836154
482.918912	2480.247692
483.287988	2515.535769
483.657005	2507.974038
484.025964	2523.097500
484.394864	2525.618077
484.763706	2525.618077
485.132489	2407.150962
485.501213	2502.932885
485.869879	2439.918462
486.238487	2497.891731
486.607036	2432.356731
486.975527	2533.179808
487.343959	2480.247692
487.712333	2465.124231
488.080648	2563.426731
488.448905	2460.083077
488.817104	2465.124231
489.185244	2465.124231
489.553326	2467.644808
489.921350	2611.317692
490.289315	2550.823846
490.657222	2437.397885
491.025070	2442.439038
491.392861	2457.562500
491.760593	2510.494615
492.128267	2444.959615
492.495883	2507.974038
492.863440	2525.618077
493.230939	2533.179808
493.598380	2520.576923
493.965763	2462.603654
494.333088	2487.809423
494.700354	2507.974038
495.067563	2515.535769
495.434713	2480.247692
495.801805	2540.741538
496.168839	2497.891731
496.535815	2467.644808
496.902733	2477.727115
497.269593	2510.494615
497.636395	2480.247692
498.003139	2492.850577
498.369825	2472.685962
498.736453	2467.644808
499.103023	2515.535769
499.469535	2520.576923
499.835989	2429.836154
500.202385	2490.330000
500.568723	2467.644808
500.935003	2482.768269
501.301226	2450.000769
501.667390	2480.247692
502.033497	2460.083077
502.399546	2462.603654
502.765537	2520.576923
503.131470	2510.494615
503.497345	2550.823846
503.863163	2429.836154
504.228923	2455.041923
504.594625	2490.330000
504.960269	2510.494615
505.325856	2540.741538
505.691385	2369.342308
506.056856	2412.192115
506.422270	2505.453462
506.787625	2550.823846
507.152924	2500.412308
507.518164	2465.124231
507.883347	2500.412308
508.248472	2523.097500
508.613540	2490.330000
508.978550	2455.041923
509.343503	2457.562500
509.708398	2500.412308
510.073236	2455.041923
510.438016	2505.453462
510.802738	2507.974038
511.167403	2518.056346
511.532010	2525.618077
511.896561	2477.727115
512.261053	2482.768269
512.625488	2507.974038
512.989866	2487.809423
513.354186	2452.521346
513.718449	2558.385577
514.082655	2495.371154
514.446803	2533.179808
514.810894	2477.727115
515.174927	2515.535769
515.538904	2528.138654
515.902822	2497.891731
516.266684	2455.041923
516.630488	2412.192115
516.994235	2523.097500
517.357925	2502.932885
517.721558	2548.303269
518.085133	2497.891731
518.448651	2475.206538
518.812112	2560.906154
519.175516	2424.795000
519.538863	2507.974038
519.902152	2528.138654
520.265385	2492.850577
520.628560	2525.618077
520.991678	2497.891731
521.354739	2427.315577
521.717743	2427.315577
522.080690	2505.453462
522.443580	2467.644808
522.806413	2528.138654
523.169189	2487.809423
523.531908	2513.015192
523.894569	2467.644808
524.257174	2477.727115
524.619722	2472.685962
524.982213	2502.932885
525.344647	2480.247692
525.707025	2462.603654
526.069345	2462.603654
526.431608	2439.918462
526.793815	2490.330000
527.155964	2455.041923
527.518057	2404.630385
527.880093	2470.165385
528.242072	2540.741538
528.603995	2495.371154
528.965860	2497.891731
529.327669	2502.932885
529.689421	2475.206538
530.051117	2505.453462
530.412755	2507.974038
530.774337	2497.891731
531.135862	2414.712692
531.497331	2533.179808
531.858743	2518.056346
532.220098	2538.220962
532.581396	2487.809423
532.942638	2492.850577
533.303824	2540.741538
533.664953	2538.220962
534.026025	2427.315577
534.387040	2538.220962
534.747999	2404.630385
535.108902	2500.412308
535.469748	2502.932885
535.830537	2467.644808
536.191270	2543.262115
536.551947	2548.303269
536.912567	2470.165385
537.273131	2565.947308
537.633638	2477.727115
537.994089	2485.288846
538.354483	2452.521346
538.714821	2596.194231
539.075103	2477.727115
539.435328	2502.932885
539.795497	2417.233269
540.155609	2505.453462
540.515665	2452.521346
540.875665	2482.768269
541.235609	2520.576923
541.595496	2447.480192
541.955328	2452.521346
542.315102	2470.165385
542.674821	2465.124231
543.034483	2550.823846
543.394090	2573.509038
543.753640	2515.535769
544.113134	2515.535769
544.472571	2593.673654
544.831953	2439.918462
545.191278	2480.247692
545.550548	2507.974038
545.909761	2502.932885
546.268918	2570.988462
546.628019	2465.124231
546.987064	2515.535769
547.346053	2548.303269
547.704986	2596.194231
548.063863	2455.041923
548.422684	2548.303269
548.781449	2472.685962
549.140158	2533.179808
549.498811	2452.521346
549.857408	2497.891731
550.215949	2487.809423
550.574434	2535.700385
550.932864	2525.618077
551.291237	2465.124231
551.649555	2507.974038
552.007817	2492.850577
552.366022	2447.480192
552.724173	2543.262115
553.082267	2502.932885
553.440305	2583.591346
553.798288	2525.618077
554.156215	2518.056346
554.514086	2465.124231
554.871902	2510.494615
555.229661	2460.083077
555.587365	2518.056346
555.945014	2487.809423
556.302606	2528.138654
556.660143	2480.247692
557.017625	2560.906154
557.375050	2492.850577
557.732421	2442.439038
558.089735	2472.685962
558.446994	2480.247692
558.804197	2465.124231
559.161345	2525.618077
559.518437	2545.782692
559.875474	2450.000769
560.232455	2414.712692
560.589381	2462.603654
560.946251	2538.220962
561.303065	2533.179808
561.659825	2510.494615
562.016528	2472.685962
562.373177	2460.083077
562.729770	2523.097500
563.086307	2480.247692
563.442789	2485.288846
563.799216	2500.412308
564.155587	2530.659231
564.511904	2419.753846
564.868164	2520.576923
565.224370	2523.097500
565.580520	2535.700385
565.936615	2515.535769
566.292654	2515.535769
566.648638	2500.412308
567.004567	2439.918462
567.360441	2442.439038
567.716260	2543.262115
568.072023	2528.138654
568.427732	2510.494615
568.783385	2520.576923
569.138982	2470.165385
569.494525	2535.700385
569.850013	2452.521346
570.205445	2465.124231
570.560823	2505.453462
570.916145	2525.618077
571.271412	2513.015192
571.626625	2495.371154
571.981782	2457.562500
572.336884	2513.015192
572.691931	2457.562500
573.046923	2495.371154
573.401860	2462.603654
573.756743	2472.685962
574.111570	2399.589231
574.466342	2502.932885
574.821059	2523.097500
575.175722	2460.083077
575.530330	2444.959615
575.884882	2530.659231
576.239380	2455.041923
576.593823	2455.041923
576.948211	2359.260000
577.302544	2492.850577
577.656823	2465.124231
578.011047	2533.179808
578.365216	2538.220962
578.719330	2570.988462
579.073389	2460.083077
579.427394	2528.138654
579.781344	2475.206538
580.135239	2477.727115
580.489080	2455.041923
580.842866	2455.041923
581.196597	2497.891731
581.550273	2492.850577
581.903895	2482.768269
582.257463	2447.480192
582.610975	2477.727115
582.964434	2467.644808
583.317837	2540.741538
583.671186	2505.453462
584.024481	2462.603654
584.377721	2457.562500
584.730906	2588.632500
585.084037	2500.412308
585.437113	2568.467885
585.790135	2475.206538
586.143103	2452.521346
586.496016	2472.685962
586.848874	2515.535769
587.201679	2497.891731
587.554428	2492.850577
587.907124	2520.576923
588.259765	2535.700385
588.612352	2518.056346
588.964884	2518.056346
589.317362	2510.494615
589.669786	2490.330000
590.022155	2467.644808
590.374470	2513.015192
590.726731	2513.015192
591.078937	2470.165385
591.431090	2495.371154
591.783188	2523.097500
592.135232	2490.330000
592.487222	2505.453462
592.839157	2475.206538
593.191038	2457.562500
593.542866	2424.795000
593.894639	2535.700385
594.246358	2553.344423
594.598022	2397.068654
594.949633	2523.097500
595.301190	2507.974038
595.652692	2492.850577
596.004141	2485.288846
596.355535	2533.179808
596.706876	2470.165385
597.058162	2452.521346
597.409395	2460.083077
597.760573	2427.315577
598.111698	2515.535769
598.462768	2515.535769
598.813785	2560.906154
599.164748	2500.412308
599.515657	2467.644808
599.866511	2528.138654
600.217312	2568.467885
600.568060	2490.330000
600.918753	2581.070769
601.269392	2568.467885
601.619978	2578.550192
601.970510	2523.097500
602.320988	2535.700385
602.671412	2510.494615
603.021783	2563.426731
603.372100	2513.015192
603.722363	2591.153077
604.072572	2563.426731
604.422728	2394.548077
604.772830	2470.165385
605.122878	2525.618077
605.472872	2490.330000
605.822813	2621.400000
606.172701	2432.356731
606.522534	2570.988462
606.872314	2593.673654
607.222041	2576.029615
607.571714	2480.247692
607.921333	2470.165385
608.270899	2450.000769
608.620411	2490.330000
608.969870	2487.809423
609.319276	2540.741538
609.668627	2555.865000
610.017926	2495.371154
610.367171	2500.412308
610.716362	2518.056346
611.065500	2510.494615
611.414585	2497.891731
611.763616	2618.879423
612.112594	2450.000769
612.461518	2477.727115
612.810389	2560.906154
613.159207	2492.850577
613.507971	2548.303269
613.856682	2510.494615
614.205340	2518.056346
614.553945	2465.124231
614.902496	2450.000769
615.250994	2457.562500
615.599439	2455.041923
615.947830	2502.932885
616.296169	2487.809423
616.644454	2490.330000
616.992686	2407.150962
617.340864	2603.755962
617.688990	2485.288846
618.037063	2487.809423
618.385082	2535.700385
618.733048	2502.932885
619.080961	2530.659231
619.428821	2397.068654
619.776628	2497.891731
620.124382	2518.056346
620.472083	2490.330000
620.819731	2434.877308
621.167326	2477.727115
621.514868	2558.385577
621.862357	2482.768269
622.209793	2505.453462
622.557176	2417.233269
622.904506	2528.138654
623.251783	2487.809423
623.599007	2545.782692
623.946179	2487.809423
624.293297	2472.685962
624.640363	2442.439038
624.987376	2492.850577
625.334336	2502.932885
625.681243	2497.891731
626.028097	2530.659231
626.374899	2500.412308
626.721647	2510.494615
627.068343	2475.206538
627.414987	2523.097500
627.761577	2581.070769
628.108115	2480.247692
628.454600	2576.029615
628.801032	2568.467885
629.147412	2510.494615
629.493739	2419.753846
629.840014	2535.700385
630.186236	2487.809423
630.532405	2523.097500
630.878521	2576.029615
631.224585	2414.712692
631.570597	2518.056346
631.916556	2482.768269
632.262462	2581.070769
632.608316	2412.192115
632.954117	2507.974038
633.299866	2452.521346
633.645562	2475.206538
633.991206	2475.206538
634.336797	2540.741538
634.682336	2513.015192
635.027823	2444.959615
635.373257	2477.727115
635.718639	2462.603654
636.063968	2550.823846
636.409245	2520.576923
636.754470	2538.220962
637.099642	2492.850577
637.444762	2505.453462
637.789829	2530.659231
638.134845	2485.288846
638.479808	2467.644808
638.824719	2485.288846
639.169577	2553.344423
639.514383	2540.741538
639.859137	2513.015192
640.203839	2553.344423
640.548489	2452.521346
640.893086	2505.453462
641.237632	2540.741538
641.582125	2525.618077
641.926566	2455.041923
642.270955	2470.165385
642.615292	2578.550192
642.959576	2470.165385
643.303809	2518.056346
643.647990	2492.850577
643.992118	2500.412308
644.336195	2442.439038
644.680219	2555.865000
645.024192	2482.768269
645.368112	2550.823846
645.711981	2500.412308
646.055797	2485.288846
646.399562	2472.685962
646.743274	2500.412308
647.086935	2490.330000
647.430544	2540.741538
647.774101	2528.138654
648.117606	2495.371154
648.461059	2570.988462
648.804460	2505.453462
649.147810	2540.741538
649.491108	2467.644808
649.834354	2518.056346
650.177548	2505.453462
650.520690	2513.015192
650.863781	2450.000769
651.206820	2502.932885
651.549807	2558.385577
651.892742	2452.521346
652.235626	2540.741538
652.578458	2535.700385
652.921238	2475.206538
653.263967	2502.932885
653.606644	2560.906154
653.949269	2515.535769
654.291843	2437.397885
654.634365	2543.262115
654.976836	2545.782692
655.319255	2490.330000
655.661622	2513.015192
656.003938	2477.727115
656.346203	2515.535769
656.688416	2492.850577
657.030577	2550.823846
657.372687	2495.371154
657.714746	2492.850577
658.056753	2533.179808
658.398708	2560.906154
658.740612	2470.165385
659.082465	2563.426731
659.424266	2545.782692
659.766016	2565.947308
660.107715	2505.453462
660.449362	2490.330000
660.790958	2485.288846
661.132503	2482.768269
661.473996	2407.150962
661.815438	2482.768269
662.156829	2414.712692
662.498168	2528.138654
662.839456	2520.576923
663.180693	2518.056346
663.521879	2434.877308
663.863013	2422.274423
664.204097	2437.397885
664.545129	2490.330000
664.886110	2497.891731
665.227040	2457.562500
665.567918	2455.041923
665.908746	2533.179808
666.249522	2565.947308
666.590248	2578.550192
666.930922	2563.426731
667.271545	2482.768269
667.612118	2540.741538
667.952639	2472.685962
668.293109	2457.562500
668.633528	2520.576923
668.973896	2500.412308
669.314213	2460.083077
669.654480	2591.153077
669.994695	2487.809423
670.334859	2434.877308
670.674973	2475.206538
671.015035	2394.548077
671.355047	2505.453462
671.695008	2457.562500
672.034918	2492.850577
672.374777	2533.179808
672.714585	2507.974038
673.054342	2513.015192
673.394049	2482.768269
673.733705	2515.535769
674.073310	2545.782692
674.412864	2477.727115
674.752368	2560.906154
675.091820	2560.906154
675.431223	2437.397885
675.770574	2452.521346
676.109875	2417.233269
676.449125	2545.782692
676.788324	2530.659231
677.127473	2447.480192
677.466571	2389.506923
677.805619	2442.439038
678.144616	2502.932885
678.483562	2475.206538
678.822458	2578.550192
679.161303	2525.618077
679.500098	2470.165385
679.838842	2500.412308
680.177535	2518.056346
680.516179	2518.056346
680.854771	2447.480192
681.193314	2475.206538
681.531805	2520.576923
681.870247	2482.768269
682.208638	2513.015192
682.546978	2482.768269
682.885268	2497.891731
683.223508	2515.535769
683.561697	2611.317692
683.899836	2485.288846
684.237925	2475.206538
684.575963	2467.644808
684.913951	2502.932885
685.251889	2434.877308
685.589776	2502.932885
685.927614	2523.097500
686.265401	2502.932885
686.603137	2510.494615
686.940824	2492.850577
687.278460	2419.753846
687.616046	2576.029615
687.953582	2490.330000
688.291068	2510.494615
688.628504	2495.371154
688.965889	2520.576923
689.303224	2492.850577
689.640510	2480.247692
689.977745	2505.453462
690.314930	2442.439038
690.652065	2540.741538
690.989150	2465.124231
691.326185	2394.548077
691.663170	2528.138654
692.000105	2540.741538
692.336990	2409.671538
692.673825	2548.303269
693.010610	2513.015192
693.347345	2528.138654
693.684030	2480.247692
694.020665	2555.865000
694.357251	2487.809423
694.693786	2505.453462
695.030272	2523.097500
695.366707	2495.371154
695.703093	2588.632500
696.039429	2467.644808
696.375716	2507.974038
696.711952	2545.782692
697.048139	2472.685962
697.384276	2593.673654
697.720363	2437.397885
698.056400	2518.056346
698.392388	2467.644808
698.728326	2520.576923
699.064214	2460.083077
699.400053	2492.850577
699.735842	2462.603654
700.071581	2528.138654
700.407270	2444.959615
700.742910	2550.823846
701.078501	2450.000769
701.414042	2460.083077
701.749533	2477.727115
702.084974	2452.521346
702.420366	2470.165385
702.755709	2495.371154
703.091002	2444.959615
703.426246	2533.179808
703.761440	2535.700385
704.096584	2444.959615
704.431679	2533.179808
704.766725	2492.850577
705.101721	2465.124231
705.436668	2472.685962
705.771565	2392.027500
706.106413	2450.000769
706.441212	2470.165385
706.775961	2553.344423
707.110661	2515.535769
707.445311	2490.330000
707.779913	2530.659231
708.114465	2465.124231
708.448967	2500.412308
708.783421	2543.262115
709.117825	2450.000769
709.452180	2434.877308
709.786485	2507.974038
710.120742	2434.877308
710.454949	2460.083077
710.789107	2475.206538
711.123216	2477.727115
711.457275	2507.974038
711.791286	2467.644808
712.125247	2419.753846
712.459159	2538.220962
712.793023	2417.233269
713.126837	2497.891731
713.460602	2462.603654
713.794318	2535.700385
714.127985	2487.809423
714.461602	2543.262115
714.795171	2457.562500
715.128691	2535.700385
715.462162	2477.727115
715.795584	2538.220962
716.128957	2576.029615
716.462281	2523.097500
716.795556	2583.591346
717.128782	2472.685962
717.461960	2472.685962
717.795088	2563.426731
718.128167	2455.041923
718.461198	2475.206538
718.794180	2419.753846
719.127113	2576.029615
719.459997	2520.576923
719.792833	2457.562500
720.125619	2507.974038
720.458357	2470.165385
720.791046	2492.850577
721.123686	2555.865000
721.456278	2427.315577
721.788821	2528.138654
722.121315	2404.630385
722.453761	2404.630385
722.786158	2492.850577
723.118506	2487.809423
723.450805	2417.233269
723.783056	2573.509038
724.115259	2543.262115
724.447412	2500.412308
724.779518	2467.644808
725.111574	2568.467885
725.443582	2490.330000
725.775542	2500.412308
726.107453	2444.959615
726.439315	2457.562500
726.771129	2533.179808
727.102895	2500.412308
727.434612	2495.371154
727.766281	2639.044038
728.097901	2472.685962
728.429473	2525.618077
728.760996	2450.000769
729.092471	2533.179808
729.423897	2507.974038
729.755276	2515.535769
730.086606	2502.932885
730.417887	2485.288846
730.749120	2525.618077
731.080305	2538.220962
731.411442	2452.521346
731.742530	2460.083077
732.073570	2462.603654
732.404562	2452.521346
732.735506	2518.056346
733.066401	2570.988462
733.397249	2565.947308
733.728048	2480.247692
734.058798	2475.206538
734.389501	2523.097500
734.720156	2555.865000
735.050762	2452.521346
735.381320	2495.371154
735.711831	2649.126346
736.042293	2439.918462
736.372707	2497.891731
736.703073	2444.959615
737.033391	2502.932885
737.363661	2477.727115
737.693883	2515.535769
738.024056	2417.233269
738.354182	2533.179808
738.684260	2419.753846
739.014290	2502.932885
739.344272	2543.262115
739.674207	2447.480192
740.004093	2520.576923
740.333931	2515.535769
740.663722	2490.330000
740.993464	2530.659231
741.323159	2533.179808
741.652806	2480.247692
741.982405	2412.192115
742.311956	2409.671538
742.641460	2540.741538
742.970915	2505.453462
743.300323	2525.618077
743.629683	2495.371154
743.958996	2525.618077
744.288260	2515.535769
744.617477	2497.891731
744.946647	2558.385577
745.275768	2543.262115
745.604842	2553.344423
745.933869	2502.932885
746.262847	2553.344423
746.591778	2558.385577
746.920662	2480.247692
747.249498	2455.041923
747.578286	2530.659231
747.907027	2490.330000
748.235720	2538.220962
748.564365	2429.836154
748.892963	2457.562500
749.221514	2455.041923
749.550017	2545.782692
749.878473	2507.974038
750.206881	2450.000769
750.535242	2492.850577
750.863555	2513.015192
751.191821	2497.891731
751.520039	2386.986346
751.848210	2545.782692
752.176334	2444.959615
752.504411	2530.659231
752.832440	2462.603654
753.160421	2472.685962
753.488356	2487.809423
753.816243	2563.426731
754.144082	2465.124231
754.471875	2520.576923
754.799620	2490.330000
755.127318	2518.056346
755.454969	2606.276538
755.782572	2558.385577
756.110129	2460.083077
756.437638	2444.959615
756.765100	2492.850577
757.092515	2507.974038
757.419882	2502.932885
757.747203	2540.741538
758.074477	2472.685962
758.401703	2601.235385
758.728882	2492.850577
759.056014	2520.576923
759.383099	2384.465769
759.710138	2540.741538
760.037129	2530.659231
760.364073	2530.659231
760.690970	2500.412308
761.017820	2477.727115
761.344623	2460.083077
761.671379	2490.330000
761.998088	2475.206538
762.324751	2495.371154
762.651366	2402.109808
762.977935	2490.330000
763.304456	2460.083077
763.630931	2497.891731
763.957359	2442.439038
764.283740	2530.659231
764.610074	2581.070769
764.936362	2505.453462
765.262602	2553.344423
765.588796	2455.041923
765.914943	2414.712692
766.241044	2465.124231
766.567097	2593.673654
766.893104	2485.288846
767.219064	2538.220962
767.544978	2573.509038
767.870845	2507.974038
768.196665	2480.247692
768.522438	2437.397885
768.848165	2487.809423
769.173846	2565.947308
769.499479	2553.344423
769.825066	2455.041923
770.150607	2482.768269
770.476101	2452.521346
770.801548	2523.097500
771.126949	2616.358846
771.452303	2528.138654
771.777611	2500.412308
772.102872	2470.165385
772.428087	2505.453462
772.753256	2533.179808
773.078378	2487.809423
773.403453	2490.330000
773.728482	2540.741538
774.053465	2548.303269
774.378401	2505.453462
774.703291	2477.727115
775.028135	2485.288846
775.352932	2429.836154
775.677683	2492.850577
776.002388	2497.891731
776.327046	2482.768269
776.651658	2482.768269
776.976224	2485.288846
777.300743	2550.823846
777.625216	2467.644808
777.949643	2540.741538
778.274024	2601.235385
778.598359	2553.344423
778.922647	2555.865000
779.246889	2533.179808
779.571086	2555.865000
779.895236	2495.371154
780.219339	2500.412308
780.543397	2523.097500
780.867409	2465.124231
781.191374	2528.138654
781.515294	2492.850577
781.839167	2510.494615
782.162995	2505.453462
782.486776	2472.685962
782.810511	2563.426731
783.134201	2565.947308
783.457844	2505.453462
783.781441	2497.891731
784.104993	2535.700385
784.428498	2455.041923
784.751958	2452.521346
785.075372	2583.591346
785.398739	2487.809423
785.722061	2513.015192
786.045337	2553.344423
786.368568	2485.288846
786.691752	2530.659231
787.014891	2467.644808
787.337983	2465.124231
787.661030	2550.823846
787.984031	2558.385577
788.306987	2480.247692
788.629897	2538.220962
788.952760	2482.768269
789.275579	2465.124231
789.598351	2548.303269
789.921078	2495.371154
790.243759	2507.974038
790.566395	2460.083077
790.888984	2553.344423
791.211529	2487.809423
791.534027	2588.632500
791.856480	2533.179808
792.178888	2460.083077
792.501249	2475.206538
792.823566	2487.809423
793.145836	2457.562500
793.468062	2455.041923
793.790241	2505.453462
794.112375	2492.850577
794.434464	2427.315577
794.756507	2528.138654
795.078505	2467.644808
795.400457	2472.685962
795.722364	2560.906154
796.044226	2462.603654
796.366042	2502.932885
796.687812	2507.974038
797.009538	2520.576923
797.331218	2535.700385
797.652852	2530.659231
797.974442	2460.083077
798.295986	2477.727115
798.617484	2480.247692
798.938938	2477.727115
799.260346	2409.671538
799.581709	2475.206538
799.903026	2523.097500
800.224299	2429.836154
800.545526	2407.150962
800.866708	2545.782692
801.187845	2442.439038
801.508936	2525.618077
801.829983	2505.453462
802.150984	2462.603654
802.471940	2452.521346
802.792851	2389.506923
803.113717	2533.179808
803.434538	2487.809423
803.755314	2520.576923
804.076045	2505.453462
804.396731	2560.906154
804.717372	2510.494615
805.037967	2497.891731
805.358518	2424.795000
805.679024	2497.891731
805.999485	2540.741538
806.319901	2480.247692
806.640272	2412.192115
806.960598	2533.179808
807.280879	2568.467885
807.601115	2515.535769
807.921306	2490.330000
808.241453	2465.124231
808.561554	2444.959615
808.881611	2507.974038
809.201623	2417.233269
809.521590	2540.741538
809.841513	2452.521346
810.161390	2487.809423
810.481223	2472.685962
810.801011	2467.644808
811.120755	2490.330000
811.440453	2480.247692
811.760107	2507.974038
812.079716	2535.700385
812.399281	2381.945192
812.718801	2520.576923
813.038276	2409.671538
813.357707	2492.850577
813.677093	2472.685962
813.996434	2515.535769
814.315731	2560.906154
814.634983	2490.330000
814.954191	2485.288846
815.273354	2455.041923
815.592473	2437.397885
815.911547	2429.836154
816.230577	2515.535769
816.549562	2513.015192
816.868502	2513.015192
817.187399	2528.138654
817.506250	2444.959615
817.825058	2563.426731
818.143821	2439.918462
818.462539	2495.371154
818.781213	2497.891731
819.099843	2422.274423
819.418429	2535.700385
819.736970	2520.576923
820.055466	2492.850577
820.373919	2528.138654
820.692327	2475.206538
821.010691	2472.685962
821.329011	2444.959615
821.647286	2555.865000
821.965517	2467.644808
822.283704	2613.838269
822.601847	2480.247692
822.919945	2523.097500
823.237999	2447.480192
823.556010	2492.850577
823.873976	2434.877308
824.191897	2455.041923
824.509775	2540.741538
824.827609	2467.644808
825.145398	2550.823846
825.463144	2558.385577
825.780845	2513.015192
826.098502	2434.877308
826.416116	2568.467885
826.733685	2570.988462
827.051210	2518.056346
827.368692	2525.618077
827.686129	2412.192115
828.003522	2477.727115
828.320872	2414.712692
828.638177	2487.809423
828.955439	2442.439038
829.272656	2490.330000
829.589830	2523.097500
829.906960	2593.673654
830.224046	2502.932885
830.541088	2545.782692
830.858086	2520.576923
831.175041	2475.206538
831.491952	2475.206538
831.808819	2465.124231
832.125642	2523.097500
832.442421	2530.659231
832.759157	2422.274423
833.075849	2462.603654
833.392497	2588.632500
833.709101	2475.206538
834.025662	2495.371154
834.342179	2555.865000
834.658653	2515.535769
834.975083	2487.809423
835.291469	2457.562500
835.607811	2482.768269
835.924110	2462.603654
836.240366	2482.768269
836.556578	2543.262115
836.872746	2507.974038
837.188871	2525.618077
837.504952	2520.576923
837.820990	2565.947308
838.136984	2540.741538
838.452935	2518.056346
838.768842	2462.603654
839.084706	2520.576923
839.400526	2482.768269
839.716303	2581.070769
840.032037	2467.644808
840.347727	2480.247692
840.663373	2490.330000
840.978977	2500.412308
841.294537	2495.371154
841.610054	2518.056346
841.925527	2495.371154
842.240957	2414.712692
842.556344	2460.083077
842.871687	2462.603654
843.186987	2583.591346
843.502244	2528.138654
843.817458	2412.192115
844.132629	2550.823846
844.447756	2505.453462
844.762840	2505.453462
845.077881	2402.109808
845.392879	2460.083077
845.707833	2409.671538
846.022745	2467.644808
846.337613	2462.603654
846.652438	2495.371154
846.967221	2500.412308
847.281960	2495.371154
847.596656	2548.303269
847.911309	2470.165385
848.225919	2553.344423
848.540485	2520.576923
848.855009	2513.015192
849.169490	2477.727115
849.483928	2520.576923
849.798323	2460.083077
850.112675	2480.247692
850.426984	2450.000769
850.741251	2497.891731
851.055474	2444.959615
851.369654	2465.124231
851.683792	2570.988462
851.997887	2555.865000
852.311938	2492.850577
852.625947	2492.850577
852.939914	2462.603654
853.253837	2424.795000
853.567718	2462.603654
853.881555	2500.412308
854.195350	2540.741538
854.509103	2455.041923
854.822812	2467.644808
855.136479	2601.235385
855.450103	2520.576923
855.763685	2515.535769
856.077224	2412.192115
856.390720	2548.303269
856.704173	2475.206538
857.017584	2540.741538
857.330953	2477.727115
857.644278	2470.165385
857.957561	2533.179808
858.270802	2452.521346
858.584000	2439.918462
858.897155	2477.727115
859.210268	2530.659231
859.523339	2465.124231
859.836367	2439.918462
860.149352	2480.247692
860.462295	2578.550192
860.775195	2475.206538
861.088054	2533.179808
861.400869	2510.494615
861.713642	2409.671538
862.026373	2447.480192
862.339062	2573.509038
862.651708	2465.124231
862.964312	2485.288846
863.276873	2500.412308
863.589392	2467.644808
863.901869	2515.535769
864.214303	2467.644808
864.526696	2462.603654
864.839045	2455.041923
865.151353	2553.344423
865.463619	2558.385577
865.775842	2462.603654
866.088023	2565.947308
866.400162	2422.274423
866.712258	2490.330000
867.024313	2447.480192
867.336325	2414.712692
867.648296	2452.521346
867.960224	2555.865000
868.272110	2460.083077
868.583954	2543.262115
868.895755	2442.439038
869.207515	2505.453462
869.519233	2412.192115
869.830909	2525.618077
870.142542	2545.782692
870.454134	2465.124231
870.765684	2467.644808
871.077191	2409.671538
871.388657	2492.850577
871.700081	2427.315577
872.011463	2553.344423
872.322803	2502.932885
872.634101	2399.589231
872.945357	2480.247692
873.256571	2492.850577
873.567744	2465.124231
873.878874	2465.124231
874.189963	2480.247692
874.501010	2555.865000
874.812015	2525.618077
875.122979	2482.768269
875.433900	2518.056346
875.744780	2530.659231
876.055618	2553.344423
876.366415	2578.550192
876.677169	2550.823846
876.987882	2487.809423
877.298554	2480.247692
877.609183	2505.453462
877.919771	2533.179808
878.230317	2480.247692
878.540822	2487.809423
878.851285	2475.206538
879.161707	2528.138654
879.472087	2530.659231
879.782425	2535.700385
880.092722	2518.056346
880.402977	2553.344423
880.713191	2533.179808
881.023363	2515.535769
881.333494	2467.644808
881.643583	2507.974038
881.953631	2475.206538
882.263637	2485.288846
882.573602	2462.603654
882.883526	2507.974038
883.193408	2447.480192
883.503248	2467.644808
883.813048	2553.344423
884.122806	2500.412308
884.432522	2543.262115
884.742197	2482.768269
885.051831	2528.138654
885.361424	2505.453462
885.670975	2560.906154
885.980485	2480.247692
886.289954	2520.576923
886.599382	2548.303269
886.908768	2437.397885
887.218113	2475.206538
887.527417	2480.247692
887.836680	2535.700385
888.145901	2462.603654
888.455082	2563.426731
888.764221	2518.056346
889.073319	2434.877308
889.382376	2513.015192
889.691392	2424.795000
890.000366	2545.782692
890.309300	2543.262115
890.618193	2523.097500
890.927044	2520.576923
891.235855	2513.015192
891.544625	2497.891731
891.853353	2450.000769
892.162041	2510.494615
892.470687	2424.795000
892.779293	2369.342308
893.087858	2573.509038
893.396381	2500.412308
893.704864	2530.659231
894.013306	2513.015192
894.321707	2470.165385
894.630068	2586.111923
894.938387	2500.412308
895.246665	2596.194231
895.554903	2545.782692
895.863100	2591.153077
896.171256	2558.385577
896.479371	2455.041923
896.787446	2507.974038
897.095480	2518.056346
897.403473	2490.330000
897.711425	2422.274423
898.019336	2528.138654
898.327207	2573.509038
898.635038	2487.809423
898.942827	2475.206538
899.250576	2505.453462
899.558284	2447.480192
899.865952	2596.194231
900.173579	2553.344423
900.481165	2507.974038
900.788711	2518.056346
901.096216	2457.562500
901.403681	2472.685962
901.711105	2475.206538
902.018489	2543.262115
902.325832	2437.397885
902.633135	2558.385577
902.940397	2505.453462
903.247619	2497.891731
903.554800	2510.494615
903.861941	2558.385577
904.169041	2462.603654
904.476101	2412.192115
904.783121	2467.644808
905.090100	2465.124231
905.397039	2452.521346
905.703938	2475.206538
906.010796	2480.247692
906.317614	2507.974038
906.624391	2518.056346
906.931129	2490.330000
907.237826	2497.891731
907.544483	2535.700385
907.851099	2462.603654
908.157675	2543.262115
908.464211	2475.206538
908.770707	2472.685962
909.077163	2442.439038
909.383578	2545.782692
909.689954	2419.753846
909.996289	2477.727115
910.302584	2460.083077
910.608839	2576.029615
910.915054	2472.685962
911.221229	2515.535769
911.527363	2477.727115
911.833458	2480.247692
912.139513	2417.233269
912.445527	2505.453462
912.751502	2502.932885
913.057436	2502.932885
913.363331	2414.712692
913.669186	2507.974038
913.975000	2518.056346
914.280775	2555.865000
914.586510	2515.535769
914.892205	2523.097500
915.197859	2528.138654
915.503475	2467.644808
915.809050	2437.397885
916.114585	2558.385577
916.420081	2535.700385
916.725536	2452.521346
917.030952	2563.426731
917.336328	2543.262115
917.641665	2452.521346
917.946961	2492.850577
918.252218	2444.959615
918.557435	2515.535769
918.862612	2485.288846
919.167750	2515.535769
919.472848	2444.959615
919.777906	2533.179808
920.082925	2558.385577
920.387904	2472.685962
920.692843	2472.685962
920.997743	2457.562500
921.302603	2485.288846
921.607423	2523.097500
921.912204	2444.959615
922.216946	2404.630385
922.521647	2492.850577
922.826310	2518.056346
923.130932	2475.206538
923.435516	2452.521346
923.740059	2462.603654
924.044564	2591.153077
924.349028	2568.467885
924.653454	2538.220962
924.957840	2560.906154
925.262186	2450.000769
925.566493	2369.342308
925.870761	2397.068654
926.174989	2457.562500
926.479178	2540.741538
926.783328	2434.877308
927.087438	2550.823846
927.391509	2417.233269
927.695541	2437.397885
927.999533	2520.576923
928.303486	2497.891731
928.607400	2434.877308
928.911275	2477.727115
929.215110	2407.150962
929.518906	2485.288846
929.822663	2497.891731
930.126381	2558.385577
930.430060	2452.521346
930.733699	2513.015192
931.037299	2543.262115
931.340861	2533.179808
931.644383	2528.138654
931.947866	2510.494615
932.251309	2520.576923
932.554714	2490.330000
932.858080	2500.412308
933.161407	2518.056346
933.464694	2495.371154
933.767943	2500.412308
934.071153	2540.741538
934.374323	2525.618077
934.677455	2507.974038
934.980548	2518.056346
935.283602	2515.535769
935.586617	2550.823846
935.889593	2578.550192
936.192530	2598.714808
936.495428	2497.891731
936.798287	2427.315577
937.101108	2520.576923
937.403890	2402.109808
937.706632	2452.521346
938.009336	2417.233269
938.312002	2543.262115
938.614628	2465.124231
938.917216	2545.782692
939.219765	2510.494615
939.522275	2457.562500
939.824747	2419.753846
940.127179	2472.685962
940.429573	2568.467885
940.731929	2540.741538
941.034246	2487.809423
941.336524	2480.247692
941.638763	2500.412308
941.940964	2507.974038
942.243126	2560.906154
942.545250	2447.480192
942.847335	2576.029615
943.149381	2570.988462
943.451389	2477.727115
943.753359	2399.589231
944.055290	2523.097500
944.357182	2402.109808
944.659036	2439.918462
944.960851	2548.303269
945.262628	2470.165385
945.564367	2505.453462
945.866067	2444.959615
946.167729	2495.371154
946.469352	2402.109808
946.770937	2475.206538
947.072484	2528.138654
947.373992	2487.809423
947.675462	2502.932885
947.976893	2570.988462
948.278286	2427.315577
948.579641	2497.891731
948.880958	2467.644808
949.182236	2510.494615
949.483476	2505.453462
949.784678	2507.974038
950.085841	2477.727115
950.386967	2502.932885
950.688054	2515.535769
950.989103	2472.685962
951.290114	2507.974038
951.591087	2492.850577
951.892021	2495.371154
952.192917	2533.179808
952.493776	2444.959615
952.794596	2442.439038
953.095378	2530.659231
953.396122	2487.809423
953.696828	2525.618077
953.997496	2422.274423
954.298126	2500.412308
954.598718	2470.165385
954.899272	2487.809423
955.199788	2462.603654
955.500266	2500.412308
955.800706	2419.753846
956.101108	2424.795000
956.401472	2467.644808
956.701798	2540.741538
957.002087	2460.083077
957.302337	2414.712692
957.602550	2462.603654
957.902724	2462.603654
958.202861	2490.330000
958.502960	2520.576923
958.803022	2543.262115
959.103045	2480.247692
959.403031	2540.741538
959.702979	2444.959615
960.002889	2434.877308
960.302762	2540.741538
960.602596	2485.288846
960.902393	2450.000769
961.202153	2513.015192
961.501875	2502.932885
961.801559	2515.535769
962.101205	2407.150962
962.400814	2550.823846
962.700385	2570.988462
962.999918	2470.165385
963.299414	2487.809423
963.598873	2502.932885
963.898293	2434.877308
964.197677	2444.959615
964.497022	2545.782692
964.796331	2482.768269
965.095601	2505.453462
965.394835	2497.891731
965.694030	2427.315577
965.993189	2558.385577
966.292309	2450.000769
966.591393	2523.097500
966.890439	2528.138654
967.189447	2538.220962
967.488419	2543.262115
967.787353	2384.465769
968.086249	2530.659231
968.385108	2492.850577
968.683930	2472.685962
968.982714	2475.206538
969.281462	2482.768269
969.580172	2409.671538
969.878844	2429.836154
970.177480	2505.453462
970.476078	2452.521346
970.774639	2444.959615
971.073162	2480.247692
971.371649	2560.906154
971.670098	2467.644808
971.968510	2515.535769
972.266885	2422.274423
972.565223	2515.535769
972.863524	2480.247692
973.161788	2502.932885
973.460014	2457.562500
973.758204	2581.070769
974.056356	2386.986346
974.354471	2475.206538
974.652550	2450.000769
974.950591	2558.385577
975.248595	2460.083077
975.546563	2513.015192
975.844493	2437.397885
976.142386	2505.453462
976.440243	2472.685962
976.738062	2460.083077
977.035845	2525.618077
977.333590	2472.685962
977.631299	2492.850577
977.928971	2495.371154
978.226606	2535.700385
978.524204	2523.097500
978.821765	2444.959615
979.119290	2525.618077
979.416777	2513.015192
979.714228	2487.809423
980.011642	2434.877308
980.309020	2558.385577
980.606360	2482.768269
980.903664	2535.700385
981.200931	2477.727115
981.498162	2548.303269
981.795356	2472.685962
982.092513	2485.288846
982.389633	2497.891731
982.686717	2482.768269
982.983764	2548.303269
983.280775	2460.083077
983.577749	2467.644808
983.874686	2497.891731
984.171587	2545.782692
984.468451	2437.397885
984.765279	2510.494615
985.062070	2457.562500
985.358824	2518.056346
985.655543	2487.809423
985.952224	2417.233269
986.248869	2475.206538
986.545478	2487.809423
986.842050	2462.603654
987.138586	2543.262115
987.435086	2578.550192
987.731549	2507.974038
988.027975	2482.768269
988.324366	2480.247692
988.620719	2495.371154
988.917037	2487.809423
989.213318	2528.138654
989.509563	2555.865000
989.805772	2500.412308
990.101944	2563.426731
990.398080	2507.974038
990.694180	2563.426731
990.990244	2437.397885
991.286271	2560.906154
991.582262	2444.959615
991.878217	2518.056346
992.174136	2480.247692
992.470019	2528.138654
992.765865	2444.959615
993.061676	2518.056346
993.357450	2492.850577
993.653188	2460.083077
993.948890	2467.644808
994.244556	2432.356731
994.540186	2528.138654
994.835780	2480.247692
995.131337	2565.947308
995.426859	2432.356731
995.722345	2409.671538
996.017795	2376.904038
996.313208	2510.494615
996.608586	2513.015192
996.903928	2515.535769
997.199234	2505.453462
997.494504	2482.768269
997.789738	2480.247692
998.084936	2480.247692
998.380099	2447.480192
998.675225	2457.562500
998.970316	2444.959615
999.265371	2495.371154
999.560390	2490.330000
999.855373	2523.097500
1000.150320	2533.179808
1000.445232	2386.986346
1000.740108	2507.974038
1001.034948	2480.247692
1001.329752	2520.576923
1001.624521	2470.165385
1001.919254	2553.344423
1002.213951	2578.550192
1002.508613	2596.194231
1002.803239	2515.535769
1003.097829	2465.124231
1003.392384	2444.959615
1003.686903	2523.097500
1003.981386	2507.974038
1004.275834	2492.850577
1004.570246	2502.932885
1004.864623	2482.768269
1005.158964	2530.659231
1005.453270	2462.603654
1005.747540	2465.124231
1006.041775	2480.247692
1006.335974	2520.576923
1006.630138	2450.000769
1006.924266	2500.412308
1007.218359	2513.015192
1007.512416	2596.194231
1007.806438	2470.165385
1008.100425	2520.576923
1008.394376	2505.453462
1008.688292	2439.918462
1008.982172	2462.603654
1009.276017	2490.330000
1009.569827	2475.206538
1009.863602	2507.974038
1010.157341	2470.165385
1010.451045	2475.206538
1010.744714	2450.000769
1011.038347	2487.809423
1011.331945	2482.768269
1011.625508	2444.959615
1011.919036	2507.974038
1012.212528	2500.412308
1012.505986	2568.467885
1012.799408	2555.865000
1013.092795	2533.179808
1013.386147	2437.397885
1013.679464	2495.371154
1013.972745	2502.932885
1014.265992	2528.138654
1014.559204	2424.795000
1014.852380	2437.397885
1015.145521	2518.056346
1015.438628	2444.959615
1015.731699	2492.850577
1016.024736	2472.685962
1016.317737	2452.521346
1016.610703	2518.056346
1016.903635	2447.480192
1017.196531	2490.330000
1017.489393	2480.247692
1017.782219	2520.576923
1018.075011	2583.591346
1018.367768	2477.727115
1018.660490	2535.700385
1018.953177	2535.700385
1019.245829	2535.700385
