Dividing Wavelength (nm)	Counts (n)	Blue Motor Position (mm): 0.000000	Red Motor Position (mm): 5.700000	
326.493990	2066.873077
326.888308	2066.873077
327.282561	2066.873077
327.676750	2024.023269
328.070874	2079.475962
328.464933	2046.708462
328.858929	2150.052115
329.252859	2109.722885
329.646726	2099.640577
330.040528	2147.531538
330.434265	2127.366923
330.827938	2112.243462
331.221547	2228.190000
331.615091	2187.860769
332.008571	2263.478077
332.401986	2177.778462
332.795338	2155.093269
333.188625	2253.395769
333.581847	2318.930769
333.975006	2316.410192
334.368100	2268.519231
334.761129	2386.986346
335.154095	2336.574808
335.546996	2253.395769
335.939833	2437.397885
336.332606	2439.918462
336.725315	2452.521346
337.117960	2472.685962
337.510540	2513.015192
337.903056	2427.315577
338.295508	2444.959615
338.687896	2485.288846
339.080220	2394.548077
339.472480	2530.659231
339.864676	2467.644808
340.256807	2427.315577
340.648875	2437.397885
341.040879	2487.809423
341.432818	2450.000769
341.824694	2487.809423
342.216506	2437.397885
342.608253	2467.644808
342.999937	2452.521346
343.391557	2369.342308
343.783113	2447.480192
344.174605	2523.097500
344.566033	2477.727115
344.957397	2450.000769
345.348697	2429.836154
345.739934	2543.262115
346.131106	2475.206538
346.522215	2482.768269
346.913260	2490.330000
347.304241	2500.412308
347.695159	2434.877308
348.086012	2513.015192
348.476802	2434.877308
348.867528	2394.548077
349.258191	2369.342308
349.648789	2538.220962
350.039324	2409.671538
350.429796	2417.233269
350.820203	2417.233269
351.210548	2510.494615
351.600828	2442.439038
351.991045	2460.083077
352.381198	2437.397885
352.771288	2437.397885
353.161314	2329.013077
353.551276	2490.330000
353.941175	2414.712692
354.331010	2492.850577
354.720782	2381.945192
355.110490	2485.288846
355.500135	2455.041923
355.889717	2462.603654
356.279235	2439.918462
356.668689	2444.959615
357.058080	2462.603654
357.447408	2336.574808
357.836672	2505.453462
358.225873	2374.383462
358.615010	2412.192115
359.004084	2379.424615
359.393095	2477.727115
359.782043	2457.562500
360.170927	2513.015192
360.559748	2369.342308
360.948505	2379.424615
361.337199	2402.109808
361.725830	2386.986346
362.114398	2389.506923
362.502903	2505.453462
362.891344	2475.206538
363.279722	2364.301154
363.668037	2477.727115
364.056289	2470.165385
364.444478	2467.644808
364.832603	2412.192115
365.220665	2467.644808
365.608665	2457.562500
365.996601	2530.659231
366.384474	2417.233269
366.772284	2540.741538
367.160031	2381.945192
367.547715	2563.426731
367.935336	2525.618077
368.322893	2392.027500
368.710388	2475.206538
369.097820	2399.589231
369.485189	2520.576923
369.872495	2457.562500
370.259738	2450.000769
370.646918	2437.397885
371.034035	2450.000769
371.421090	2505.453462
371.808081	2482.768269
372.195010	2424.795000
372.581875	2523.097500
372.968678	2404.630385
373.355418	2402.109808
373.742096	2470.165385
374.128710	2477.727115
374.515262	2424.795000
374.901751	2447.480192
375.288177	2429.836154
375.674540	2444.959615
376.060841	2563.426731
376.447079	2482.768269
376.833254	2477.727115
377.219367	2550.823846
377.605417	2442.439038
377.991404	2424.795000
378.377329	2465.124231
378.763191	2447.480192
379.148991	2480.247692
379.534727	2500.412308
379.920402	2462.603654
380.306013	2442.439038
380.691563	2462.603654
381.077049	2399.589231
381.462474	2399.589231
381.847835	2500.412308
382.233134	2444.959615
382.618371	2465.124231
383.003545	2500.412308
383.388657	2530.659231
383.773706	2460.083077
384.158693	2437.397885
384.543618	2482.768269
384.928480	2434.877308
385.313280	2495.371154
385.698017	2434.877308
386.082692	2457.562500
386.467305	2384.465769
386.851856	2462.603654
387.236344	2452.521346
387.620770	2432.356731
388.005133	2502.932885
388.389435	2442.439038
388.773674	2444.959615
389.157851	2475.206538
389.541965	2404.630385
389.926018	2475.206538
390.310008	2485.288846
390.693936	2523.097500
391.077802	2452.521346
391.461606	2397.068654
391.845348	2502.932885
392.229027	2523.097500
392.612645	2480.247692
392.996200	2535.700385
393.379694	2452.521346
393.763125	2465.124231
394.146494	2460.083077
394.529801	2424.795000
394.913047	2457.562500
395.296230	2480.247692
395.679351	2422.274423
396.062410	2470.165385
396.445408	2487.809423
396.828343	2477.727115
397.211217	2419.753846
397.594028	2480.247692
397.976778	2510.494615
398.359466	2397.068654
398.742092	2407.150962
399.124656	2450.000769
399.507158	2450.000769
399.889598	2384.465769
400.271977	2528.138654
400.654294	2487.809423
401.036549	2510.494615
401.418742	2429.836154
401.800874	2417.233269
402.182944	2533.179808
402.564952	2442.439038
402.946898	2399.589231
403.328783	2444.959615
403.710606	2487.809423
404.092367	2560.906154
404.474067	2460.083077
404.855705	2369.342308
405.237282	2502.932885
405.618797	2477.727115
406.000250	2520.576923
406.381642	2480.247692
406.762972	2510.494615
407.144240	2480.247692
407.525447	2447.480192
407.906593	2470.165385
408.287677	2434.877308
408.668700	2490.330000
409.049661	2450.000769
409.430560	2442.439038
409.811399	2419.753846
410.192176	2548.303269
410.572891	2515.535769
410.953545	2465.124231
411.334138	2480.247692
411.714669	2470.165385
412.095139	2422.274423
412.475547	2487.809423
412.855894	2442.439038
413.236180	2500.412308
413.616405	2495.371154
413.996568	2581.070769
414.376670	2437.397885
414.756711	2515.535769
415.136691	2480.247692
415.516609	2447.480192
415.896466	2419.753846
416.276262	2528.138654
416.655997	2492.850577
417.035670	2439.918462
417.415283	2457.562500
417.794834	2500.412308
418.174324	2397.068654
418.553753	2470.165385
418.933121	2450.000769
419.312428	2502.932885
419.691674	2570.988462
420.070859	2492.850577
420.449983	2409.671538
420.829045	2439.918462
421.208047	2485.288846
421.586988	2424.795000
421.965867	2515.535769
422.344686	2505.453462
422.723444	2409.671538
423.102141	2417.233269
423.480777	2407.150962
423.859352	2437.397885
424.237866	2442.439038
424.616319	2520.576923
424.994712	2482.768269
425.373044	2518.056346
425.751314	2447.480192
426.129524	2455.041923
426.507673	2450.000769
426.885762	2490.330000
427.263789	2497.891731
427.641756	2452.521346
428.019662	2417.233269
428.397508	2525.618077
428.775292	2515.535769
429.153016	2507.974038
429.530679	2389.506923
429.908282	2482.768269
430.285824	2573.509038
430.663305	2487.809423
431.040726	2472.685962
431.418086	2505.453462
431.795385	2475.206538
432.172624	2450.000769
432.549802	2482.768269
432.926920	2450.000769
433.303977	2502.932885
433.680974	2502.932885
434.057910	2480.247692
434.434786	2450.000769
434.811601	2510.494615
435.188355	2480.247692
435.565050	2505.453462
435.941683	2465.124231
436.318257	2470.165385
436.694770	2364.301154
437.071222	2460.083077
437.447614	2497.891731
437.823946	2523.097500
438.200218	2520.576923
438.576429	2432.356731
438.952580	2439.918462
439.328670	2528.138654
439.704700	2439.918462
440.080670	2444.959615
440.456580	2475.206538
440.832429	2460.083077
441.208218	2502.932885
441.583947	2424.795000
441.959616	2518.056346
442.335224	2507.974038
442.710773	2434.877308
443.086261	2565.947308
443.461689	2447.480192
443.837057	2502.932885
444.212365	2553.344423
444.587612	2497.891731
444.962800	2507.974038
445.337927	2553.344423
445.712995	2419.753846
446.088002	2480.247692
446.462949	2497.891731
446.837837	2502.932885
447.212664	2485.288846
447.587431	2560.906154
447.962139	2414.712692
448.336786	2553.344423
448.711374	2565.947308
449.085901	2497.891731
449.460369	2560.906154
449.834776	2457.562500
450.209124	2530.659231
450.583412	2462.603654
450.957640	2457.562500
451.331808	2555.865000
451.705917	2477.727115
452.079965	2470.165385
452.453954	2520.576923
452.827883	2477.727115
453.201752	2482.768269
453.575562	2477.727115
453.949311	2530.659231
454.323001	2550.823846
454.696632	2482.768269
455.070202	2465.124231
455.443713	2462.603654
455.817164	2560.906154
456.190556	2520.576923
456.563888	2429.836154
456.937160	2482.768269
457.310373	2495.371154
457.683526	2555.865000
458.056619	2475.206538
458.429653	2540.741538
458.802628	2485.288846
459.175542	2447.480192
459.548398	2523.097500
459.921194	2513.015192
460.293930	2480.247692
460.666607	2533.179808
461.039224	2487.809423
461.411782	2545.782692
461.784280	2500.412308
462.156719	2530.659231
462.529099	2394.548077
462.901419	2492.850577
463.273680	2523.097500
463.645882	2444.959615
464.018024	2444.959615
464.390106	2452.521346
464.762130	2586.111923
465.134094	2424.795000
465.505999	2573.509038
465.877845	2472.685962
466.249631	2480.247692
466.621358	2472.685962
466.993026	2507.974038
467.364634	2434.877308
467.736184	2475.206538
468.107674	2591.153077
468.479105	2470.165385
468.850477	2457.562500
469.221790	2472.685962
469.593043	2533.179808
469.964238	2495.371154
470.335373	2500.412308
470.706449	2528.138654
471.077467	2505.453462
471.448425	2455.041923
471.819324	2568.467885
472.190164	2510.494615
472.560945	2578.550192
472.931667	2427.315577
473.302330	2548.303269
473.672934	2528.138654
474.043479	2470.165385
474.413965	2513.015192
474.784393	2447.480192
475.154761	2513.015192
475.525070	2502.932885
475.895321	2510.494615
476.265513	2460.083077
476.635645	2543.262115
477.005719	2444.959615
477.375734	2545.782692
477.745691	2545.782692
478.115588	2455.041923
478.485427	2505.453462
478.855207	2502.932885
479.224928	2497.891731
479.594591	2482.768269
479.964194	2497.891731
480.333739	2452.521346
480.703226	2515.535769
481.072653	2507.974038
481.442022	2540.741538
481.811333	2558.385577
482.180584	2460.083077
482.549777	2502.932885
482.918912	2548.303269
483.287988	2444.959615
483.657005	2477.727115
484.025964	2470.165385
484.394864	2434.877308
484.763706	2467.644808
485.132489	2513.015192
485.501213	2492.850577
485.869879	2510.494615
486.238487	2548.303269
486.607036	2477.727115
486.975527	2490.330000
487.343959	2495.371154
487.712333	2490.330000
488.080648	2502.932885
488.448905	2533.179808
488.817104	2389.506923
489.185244	2528.138654
489.553326	2485.288846
489.921350	2565.947308
490.289315	2490.330000
490.657222	2475.206538
491.025070	2437.397885
491.392861	2482.768269
491.760593	2523.097500
492.128267	2490.330000
492.495883	2477.727115
492.863440	2487.809423
493.230939	2495.371154
493.598380	2510.494615
493.965763	2470.165385
494.333088	2543.262115
494.700354	2432.356731
495.067563	2457.562500
495.434713	2455.041923
495.801805	2520.576923
496.168839	2555.865000
496.535815	2480.247692
496.902733	2487.809423
497.269593	2492.850577
497.636395	2490.330000
498.003139	2502.932885
498.369825	2540.741538
498.736453	2447.480192
499.103023	2525.618077
499.469535	2475.206538
499.835989	2439.918462
500.202385	2510.494615
500.568723	2533.179808
500.935003	2543.262115
501.301226	2422.274423
501.667390	2500.412308
502.033497	2490.330000
502.399546	2530.659231
502.765537	2455.041923
503.131470	2520.576923
503.497345	2510.494615
503.863163	2535.700385
504.228923	2576.029615
504.594625	2573.509038
504.960269	2480.247692
505.325856	2520.576923
505.691385	2528.138654
506.056856	2502.932885
506.422270	2515.535769
506.787625	2399.589231
507.152924	2570.988462
507.518164	2432.356731
507.883347	2500.412308
508.248472	2442.439038
508.613540	2470.165385
508.978550	2414.712692
509.343503	2475.206538
509.708398	2485.288846
510.073236	2525.618077
510.438016	2495.371154
510.802738	2371.862885
511.167403	2528.138654
511.532010	2467.644808
511.896561	2518.056346
512.261053	2482.768269
512.625488	2485.288846
512.989866	2492.850577
513.354186	2563.426731
513.718449	2462.603654
514.082655	2485.288846
514.446803	2563.426731
514.810894	2460.083077
515.174927	2414.712692
515.538904	2540.741538
515.902822	2497.891731
516.266684	2374.383462
516.630488	2475.206538
516.994235	2593.673654
517.357925	2470.165385
517.721558	2492.850577
518.085133	2487.809423
518.448651	2497.891731
518.812112	2550.823846
519.175516	2525.618077
519.538863	2515.535769
519.902152	2472.685962
520.265385	2502.932885
520.628560	2525.618077
520.991678	2492.850577
521.354739	2558.385577
521.717743	2470.165385
522.080690	2480.247692
522.443580	2538.220962
522.806413	2434.877308
523.169189	2477.727115
523.531908	2505.453462
523.894569	2389.506923
524.257174	2568.467885
524.619722	2432.356731
524.982213	2462.603654
525.344647	2452.521346
525.707025	2621.400000
526.069345	2462.603654
526.431608	2480.247692
526.793815	2515.535769
527.155964	2505.453462
527.518057	2475.206538
527.880093	2565.947308
528.242072	2500.412308
528.603995	2548.303269
528.965860	2548.303269
529.327669	2462.603654
529.689421	2482.768269
530.051117	2535.700385
530.412755	2467.644808
530.774337	2563.426731
531.135862	2500.412308
531.497331	2525.618077
531.858743	2533.179808
532.220098	2538.220962
532.581396	2480.247692
532.942638	2465.124231
533.303824	2523.097500
533.664953	2555.865000
534.026025	2528.138654
534.387040	2414.712692
534.747999	2502.932885
535.108902	2520.576923
535.469748	2412.192115
535.830537	2528.138654
536.191270	2472.685962
536.551947	2485.288846
536.912567	2485.288846
537.273131	2475.206538
537.633638	2502.932885
537.994089	2576.029615
538.354483	2472.685962
538.714821	2497.891731
539.075103	2523.097500
539.435328	2545.782692
539.795497	2518.056346
540.155609	2510.494615
540.515665	2472.685962
540.875665	2530.659231
541.235609	2492.850577
541.595496	2381.945192
541.955328	2525.618077
542.315102	2500.412308
542.674821	2490.330000
543.034483	2490.330000
543.394090	2540.741538
543.753640	2472.685962
544.113134	2525.618077
544.472571	2581.070769
544.831953	2555.865000
545.191278	2409.671538
545.550548	2450.000769
545.909761	2507.974038
546.268918	2510.494615
546.628019	2462.603654
546.987064	2500.412308
547.346053	2500.412308
547.704986	2568.467885
548.063863	2414.712692
548.422684	2480.247692
548.781449	2530.659231
549.140158	2525.618077
549.498811	2518.056346
549.857408	2553.344423
550.215949	2455.041923
550.574434	2545.782692
550.932864	2533.179808
551.291237	2457.562500
551.649555	2525.618077
552.007817	2513.015192
552.366022	2447.480192
552.724173	2399.589231
553.082267	2533.179808
553.440305	2518.056346
553.798288	2495.371154
554.156215	2507.974038
554.514086	2495.371154
554.871902	2560.906154
555.229661	2457.562500
555.587365	2462.603654
555.945014	2472.685962
556.302606	2548.303269
556.660143	2490.330000
557.017625	2507.974038
557.375050	2500.412308
557.732421	2465.124231
558.089735	2497.891731
558.446994	2525.618077
558.804197	2538.220962
559.161345	2495.371154
559.518437	2548.303269
559.875474	2487.809423
560.232455	2467.644808
560.589381	2452.521346
560.946251	2518.056346
561.303065	2497.891731
561.659825	2573.509038
562.016528	2422.274423
562.373177	2525.618077
562.729770	2442.439038
563.086307	2518.056346
563.442789	2460.083077
563.799216	2465.124231
564.155587	2477.727115
564.511904	2485.288846
564.868164	2462.603654
565.224370	2500.412308
565.580520	2492.850577
565.936615	2487.809423
566.292654	2513.015192
566.648638	2485.288846
567.004567	2515.535769
567.360441	2495.371154
567.716260	2386.986346
568.072023	2424.795000
568.427732	2472.685962
568.783385	2507.974038
569.138982	2457.562500
569.494525	2497.891731
569.850013	2452.521346
570.205445	2525.618077
570.560823	2457.562500
570.916145	2543.262115
571.271412	2492.850577
571.626625	2510.494615
571.981782	2518.056346
572.336884	2412.192115
572.691931	2530.659231
573.046923	2450.000769
573.401860	2419.753846
573.756743	2502.932885
574.111570	2515.535769
574.466342	2490.330000
574.821059	2515.535769
575.175722	2490.330000
575.530330	2434.877308
575.884882	2568.467885
576.239380	2450.000769
576.593823	2407.150962
576.948211	2495.371154
577.302544	2492.850577
577.656823	2523.097500
578.011047	2495.371154
578.365216	2518.056346
578.719330	2558.385577
579.073389	2460.083077
579.427394	2591.153077
579.781344	2442.439038
580.135239	2487.809423
580.489080	2477.727115
580.842866	2490.330000
581.196597	2485.288846
581.550273	2586.111923
581.903895	2492.850577
582.257463	2497.891731
582.610975	2520.576923
582.964434	2563.426731
583.317837	2523.097500
583.671186	2414.712692
584.024481	2497.891731
584.377721	2465.124231
584.730906	2444.959615
585.084037	2434.877308
585.437113	2472.685962
585.790135	2457.562500
586.143103	2482.768269
586.496016	2492.850577
586.848874	2482.768269
587.201679	2500.412308
587.554428	2533.179808
587.907124	2530.659231
588.259765	2540.741538
588.612352	2515.535769
588.964884	2495.371154
589.317362	2414.712692
589.669786	2505.453462
590.022155	2535.700385
590.374470	2432.356731
590.726731	2477.727115
591.078937	2452.521346
591.431090	2492.850577
591.783188	2422.274423
592.135232	2450.000769
592.487222	2528.138654
592.839157	2596.194231
593.191038	2480.247692
593.542866	2485.288846
593.894639	2419.753846
594.246358	2507.974038
594.598022	2442.439038
594.949633	2475.206538
595.301190	2507.974038
595.652692	2465.124231
596.004141	2457.562500
596.355535	2490.330000
596.706876	2462.603654
597.058162	2523.097500
597.409395	2518.056346
597.760573	2558.385577
598.111698	2450.000769
598.462768	2475.206538
598.813785	2480.247692
599.164748	2487.809423
599.515657	2472.685962
599.866511	2465.124231
600.217312	2583.591346
600.568060	2480.247692
600.918753	2407.150962
601.269392	2525.618077
601.619978	2533.179808
601.970510	2399.589231
602.320988	2480.247692
602.671412	2502.932885
603.021783	2487.809423
603.372100	2490.330000
603.722363	2586.111923
604.072572	2540.741538
604.422728	2520.576923
604.772830	2513.015192
605.122878	2530.659231
605.472872	2583.591346
605.822813	2465.124231
606.172701	2576.029615
606.522534	2429.836154
606.872314	2520.576923
607.222041	2530.659231
607.571714	2543.262115
607.921333	2573.509038
608.270899	2475.206538
608.620411	2535.700385
608.969870	2560.906154
609.319276	2545.782692
609.668627	2500.412308
610.017926	2543.262115
610.367171	2518.056346
610.716362	2480.247692
611.065500	2497.891731
611.414585	2480.247692
611.763616	2419.753846
612.112594	2457.562500
612.461518	2530.659231
612.810389	2558.385577
613.159207	2545.782692
613.507971	2530.659231
613.856682	2553.344423
614.205340	2455.041923
614.553945	2502.932885
614.902496	2462.603654
615.250994	2535.700385
615.599439	2475.206538
615.947830	2533.179808
616.296169	2460.083077
616.644454	2394.548077
616.992686	2417.233269
617.340864	2432.356731
617.688990	2495.371154
618.037063	2475.206538
618.385082	2518.056346
618.733048	2583.591346
619.080961	2560.906154
619.428821	2548.303269
619.776628	2528.138654
620.124382	2507.974038
620.472083	2389.506923
620.819731	2515.535769
621.167326	2457.562500
621.514868	2412.192115
621.862357	2548.303269
622.209793	2535.700385
622.557176	2467.644808
622.904506	2497.891731
623.251783	2510.494615
623.599007	2538.220962
623.946179	2452.521346
624.293297	2507.974038
624.640363	2543.262115
624.987376	2515.535769
625.334336	2467.644808
625.681243	2434.877308
626.028097	2573.509038
626.374899	2570.988462
626.721647	2472.685962
627.068343	2518.056346
627.414987	2523.097500
627.761577	2480.247692
628.108115	2470.165385
628.454600	2535.700385
628.801032	2457.562500
629.147412	2505.453462
629.493739	2535.700385
629.840014	2535.700385
630.186236	2553.344423
630.532405	2407.150962
630.878521	2543.262115
631.224585	2507.974038
631.570597	2492.850577
631.916556	2540.741538
632.262462	2472.685962
632.608316	2510.494615
632.954117	2608.797115
633.299866	2540.741538
633.645562	2500.412308
633.991206	2480.247692
634.336797	2560.906154
634.682336	2442.439038
635.027823	2525.618077
635.373257	2465.124231
635.718639	2550.823846
636.063968	2419.753846
636.409245	2631.482308
636.754470	2452.521346
637.099642	2467.644808
637.444762	2465.124231
637.789829	2510.494615
638.134845	2485.288846
638.479808	2500.412308
638.824719	2452.521346
639.169577	2543.262115
639.514383	2414.712692
639.859137	2553.344423
640.203839	2475.206538
640.548489	2591.153077
640.893086	2465.124231
641.237632	2528.138654
641.582125	2480.247692
641.926566	2477.727115
642.270955	2424.795000
642.615292	2513.015192
642.959576	2482.768269
643.303809	2434.877308
643.647990	2543.262115
643.992118	2482.768269
644.336195	2485.288846
644.680219	2419.753846
645.024192	2502.932885
645.368112	2485.288846
645.711981	2495.371154
646.055797	2664.249808
646.399562	2616.358846
646.743274	2520.576923
647.086935	2502.932885
647.430544	2477.727115
647.774101	2570.988462
648.117606	2502.932885
648.461059	2520.576923
648.804460	2465.124231
649.147810	2497.891731
649.491108	2485.288846
649.834354	2465.124231
650.177548	2515.535769
650.520690	2543.262115
650.863781	2477.727115
651.206820	2558.385577
651.549807	2568.467885
651.892742	2457.562500
652.235626	2515.535769
652.578458	2507.974038
652.921238	2518.056346
653.263967	2472.685962
653.606644	2487.809423
653.949269	2497.891731
654.291843	2573.509038
654.634365	2507.974038
654.976836	2424.795000
655.319255	2467.644808
655.661622	2538.220962
656.003938	2480.247692
656.346203	2472.685962
656.688416	2482.768269
657.030577	2533.179808
657.372687	2437.397885
657.714746	2475.206538
658.056753	2490.330000
658.398708	2475.206538
658.740612	2354.218846
659.082465	2432.356731
659.424266	2457.562500
659.766016	2455.041923
660.107715	2578.550192
660.449362	2497.891731
660.790958	2500.412308
661.132503	2477.727115
661.473996	2568.467885
661.815438	2598.714808
662.156829	2417.233269
662.498168	2465.124231
662.839456	2422.274423
663.180693	2457.562500
663.521879	2462.603654
663.863013	2523.097500
664.204097	2543.262115
664.545129	2505.453462
664.886110	2452.521346
665.227040	2490.330000
665.567918	2485.288846
665.908746	2495.371154
666.249522	2447.480192
666.590248	2555.865000
666.930922	2455.041923
667.271545	2518.056346
667.612118	2502.932885
667.952639	2477.727115
668.293109	2472.685962
668.633528	2528.138654
668.973896	2477.727115
669.314213	2480.247692
669.654480	2528.138654
669.994695	2565.947308
670.334859	2523.097500
670.674973	2487.809423
671.015035	2510.494615
671.355047	2497.891731
671.695008	2482.768269
672.034918	2429.836154
672.374777	2407.150962
672.714585	2535.700385
673.054342	2528.138654
673.394049	2490.330000
673.733705	2510.494615
674.073310	2528.138654
674.412864	2578.550192
674.752368	2467.644808
675.091820	2500.412308
675.431223	2424.795000
675.770574	2472.685962
676.109875	2472.685962
676.449125	2528.138654
676.788324	2444.959615
677.127473	2417.233269
677.466571	2465.124231
677.805619	2434.877308
678.144616	2528.138654
678.483562	2462.603654
678.822458	2523.097500
679.161303	2502.932885
679.500098	2507.974038
679.838842	2518.056346
680.177535	2520.576923
680.516179	2470.165385
680.854771	2460.083077
681.193314	2502.932885
681.531805	2447.480192
681.870247	2460.083077
682.208638	2550.823846
682.546978	2460.083077
682.885268	2525.618077
683.223508	2502.932885
683.561697	2495.371154
683.899836	2465.124231
684.237925	2500.412308
684.575963	2533.179808
684.913951	2444.959615
685.251889	2447.480192
685.589776	2487.809423
685.927614	2490.330000
686.265401	2480.247692
686.603137	2533.179808
686.940824	2543.262115
687.278460	2502.932885
687.616046	2414.712692
687.953582	2419.753846
688.291068	2510.494615
688.628504	2505.453462
688.965889	2470.165385
689.303224	2548.303269
689.640510	2465.124231
689.977745	2480.247692
690.314930	2513.015192
690.652065	2455.041923
690.989150	2462.603654
691.326185	2518.056346
691.663170	2626.441154
692.000105	2500.412308
692.336990	2507.974038
692.673825	2510.494615
693.010610	2492.850577
693.347345	2492.850577
693.684030	2550.823846
694.020665	2492.850577
694.357251	2465.124231
694.693786	2465.124231
695.030272	2510.494615
695.366707	2515.535769
695.703093	2475.206538
696.039429	2578.550192
696.375716	2528.138654
696.711952	2480.247692
697.048139	2538.220962
697.384276	2649.126346
697.720363	2523.097500
698.056400	2548.303269
698.392388	2444.959615
698.728326	2482.768269
699.064214	2497.891731
699.400053	2505.453462
699.735842	2427.315577
700.071581	2603.755962
700.407270	2525.618077
700.742910	2412.192115
701.078501	2518.056346
701.414042	2507.974038
701.749533	2530.659231
702.084974	2422.274423
702.420366	2525.618077
702.755709	2487.809423
703.091002	2518.056346
703.426246	2439.918462
703.761440	2404.630385
704.096584	2482.768269
704.431679	2507.974038
704.766725	2487.809423
705.101721	2475.206538
705.436668	2457.562500
705.771565	2384.465769
706.106413	2457.562500
706.441212	2447.480192
706.775961	2518.056346
707.110661	2482.768269
707.445311	2583.591346
707.779913	2578.550192
708.114465	2513.015192
708.448967	2462.603654
708.783421	2495.371154
709.117825	2505.453462
709.452180	2523.097500
709.786485	2515.535769
710.120742	2560.906154
710.454949	2533.179808
710.789107	2523.097500
711.123216	2505.453462
711.457275	2644.085192
711.791286	2450.000769
712.125247	2535.700385
712.459159	2460.083077
712.793023	2528.138654
713.126837	2465.124231
713.460602	2444.959615
713.794318	2467.644808
714.127985	2424.795000
714.461602	2513.015192
714.795171	2563.426731
715.128691	2447.480192
715.462162	2538.220962
715.795584	2477.727115
716.128957	2444.959615
716.462281	2460.083077
716.795556	2457.562500
717.128782	2538.220962
717.461960	2543.262115
717.795088	2528.138654
718.128167	2439.918462
718.461198	2432.356731
718.794180	2507.974038
719.127113	2455.041923
719.459997	2417.233269
719.792833	2424.795000
720.125619	2510.494615
720.458357	2427.315577
720.791046	2523.097500
721.123686	2447.480192
721.456278	2518.056346
721.788821	2490.330000
722.121315	2502.932885
722.453761	2404.630385
722.786158	2492.850577
723.118506	2523.097500
723.450805	2485.288846
723.783056	2560.906154
724.115259	2507.974038
724.447412	2545.782692
724.779518	2475.206538
725.111574	2518.056346
725.443582	2460.083077
725.775542	2518.056346
726.107453	2588.632500
726.439315	2442.439038
726.771129	2543.262115
727.102895	2525.618077
727.434612	2492.850577
727.766281	2538.220962
728.097901	2429.836154
728.429473	2480.247692
728.760996	2548.303269
729.092471	2515.535769
729.423897	2492.850577
729.755276	2434.877308
730.086606	2505.453462
730.417887	2538.220962
730.749120	2487.809423
731.080305	2555.865000
731.411442	2452.521346
731.742530	2538.220962
732.073570	2482.768269
732.404562	2598.714808
732.735506	2513.015192
733.066401	2465.124231
733.397249	2507.974038
733.728048	2505.453462
734.058798	2462.603654
734.389501	2475.206538
734.720156	2477.727115
735.050762	2563.426731
735.381320	2472.685962
735.711831	2495.371154
736.042293	2477.727115
736.372707	2462.603654
736.703073	2565.947308
737.033391	2545.782692
737.363661	2457.562500
737.693883	2583.591346
738.024056	2515.535769
738.354182	2447.480192
738.684260	2492.850577
739.014290	2528.138654
739.344272	2490.330000
739.674207	2482.768269
740.004093	2472.685962
740.333931	2510.494615
740.663722	2457.562500
740.993464	2520.576923
741.323159	2560.906154
741.652806	2485.288846
741.982405	2495.371154
742.311956	2457.562500
742.641460	2450.000769
742.970915	2525.618077
743.300323	2593.673654
743.629683	2487.809423
743.958996	2457.562500
744.288260	2444.959615
744.617477	2492.850577
744.946647	2480.247692
745.275768	2528.138654
745.604842	2548.303269
745.933869	2427.315577
746.262847	2434.877308
746.591778	2480.247692
746.920662	2417.233269
747.249498	2472.685962
747.578286	2538.220962
747.907027	2432.356731
748.235720	2576.029615
748.564365	2538.220962
748.892963	2485.288846
749.221514	2472.685962
749.550017	2450.000769
749.878473	2513.015192
750.206881	2538.220962
750.535242	2543.262115
750.863555	2439.918462
751.191821	2505.453462
751.520039	2560.906154
751.848210	2452.521346
752.176334	2439.918462
752.504411	2515.535769
752.832440	2492.850577
753.160421	2419.753846
753.488356	2515.535769
753.816243	2510.494615
754.144082	2477.727115
754.471875	2510.494615
754.799620	2560.906154
755.127318	2422.274423
755.454969	2480.247692
755.782572	2497.891731
756.110129	2550.823846
756.437638	2480.247692
756.765100	2520.576923
757.092515	2460.083077
757.419882	2543.262115
757.747203	2475.206538
758.074477	2505.453462
758.401703	2565.947308
758.728882	2444.959615
759.056014	2485.288846
759.383099	2563.426731
759.710138	2543.262115
760.037129	2477.727115
760.364073	2507.974038
760.690970	2467.644808
761.017820	2515.535769
761.344623	2409.671538
761.671379	2533.179808
761.998088	2467.644808
762.324751	2543.262115
762.651366	2558.385577
762.977935	2540.741538
763.304456	2444.959615
763.630931	2477.727115
763.957359	2490.330000
764.283740	2437.397885
764.610074	2515.535769
764.936362	2543.262115
765.262602	2593.673654
765.588796	2470.165385
765.914943	2548.303269
766.241044	2427.315577
766.567097	2560.906154
766.893104	2500.412308
767.219064	2505.453462
767.544978	2482.768269
767.870845	2563.426731
768.196665	2394.548077
768.522438	2520.576923
768.848165	2573.509038
769.173846	2475.206538
769.499479	2485.288846
769.825066	2432.356731
770.150607	2570.988462
770.476101	2520.576923
770.801548	2477.727115
771.126949	2518.056346
771.452303	2555.865000
771.777611	2465.124231
772.102872	2525.618077
772.428087	2472.685962
772.753256	2502.932885
773.078378	2523.097500
773.403453	2543.262115
773.728482	2487.809423
774.053465	2500.412308
774.378401	2444.959615
774.703291	2414.712692
775.028135	2555.865000
775.352932	2417.233269
775.677683	2455.041923
776.002388	2507.974038
776.327046	2487.809423
776.651658	2563.426731
776.976224	2507.974038
777.300743	2472.685962
777.625216	2523.097500
777.949643	2472.685962
778.274024	2530.659231
778.598359	2482.768269
778.922647	2505.453462
779.246889	2535.700385
779.571086	2490.330000
779.895236	2520.576923
780.219339	2520.576923
780.543397	2548.303269
780.867409	2502.932885
781.191374	2475.206538
781.515294	2500.412308
781.839167	2485.288846
782.162995	2482.768269
782.486776	2455.041923
782.810511	2447.480192
783.134201	2515.535769
783.457844	2548.303269
783.781441	2570.988462
784.104993	2528.138654
784.428498	2543.262115
784.751958	2608.797115
785.075372	2502.932885
785.398739	2444.959615
785.722061	2477.727115
786.045337	2470.165385
786.368568	2462.603654
786.691752	2444.959615
787.014891	2492.850577
787.337983	2402.109808
787.661030	2560.906154
787.984031	2394.548077
788.306987	2462.603654
788.629897	2500.412308
788.952760	2460.083077
789.275579	2510.494615
789.598351	2482.768269
789.921078	2434.877308
790.243759	2460.083077
790.566395	2434.877308
790.888984	2500.412308
791.211529	2495.371154
791.534027	2452.521346
791.856480	2530.659231
792.178888	2492.850577
792.501249	2550.823846
792.823566	2437.397885
793.145836	2394.548077
793.468062	2530.659231
793.790241	2616.358846
794.112375	2545.782692
794.434464	2528.138654
794.756507	2523.097500
795.078505	2540.741538
795.400457	2457.562500
795.722364	2497.891731
796.044226	2502.932885
796.366042	2495.371154
796.687812	2495.371154
797.009538	2543.262115
797.331218	2467.644808
797.652852	2500.412308
797.974442	2452.521346
798.295986	2472.685962
798.617484	2550.823846
798.938938	2457.562500
799.260346	2510.494615
799.581709	2414.712692
799.903026	2460.083077
800.224299	2570.988462
800.545526	2417.233269
800.866708	2495.371154
801.187845	2487.809423
801.508936	2490.330000
801.829983	2581.070769
802.150984	2412.192115
802.471940	2518.056346
802.792851	2553.344423
803.113717	2424.795000
803.434538	2475.206538
803.755314	2485.288846
804.076045	2528.138654
804.396731	2465.124231
804.717372	2523.097500
805.037967	2518.056346
805.358518	2573.509038
805.679024	2528.138654
805.999485	2462.603654
806.319901	2455.041923
806.640272	2523.097500
806.960598	2439.918462
807.280879	2538.220962
807.601115	2485.288846
807.921306	2492.850577
808.241453	2480.247692
808.561554	2530.659231
808.881611	2543.262115
809.201623	2462.603654
809.521590	2460.083077
809.841513	2475.206538
810.161390	2470.165385
810.481223	2465.124231
810.801011	2450.000769
811.120755	2465.124231
811.440453	2457.562500
811.760107	2510.494615
812.079716	2578.550192
812.399281	2439.918462
812.718801	2492.850577
813.038276	2482.768269
813.357707	2490.330000
813.677093	2452.521346
813.996434	2495.371154
814.315731	2424.795000
814.634983	2530.659231
814.954191	2525.618077
815.273354	2510.494615
815.592473	2472.685962
815.911547	2548.303269
816.230577	2424.795000
816.549562	2467.644808
816.868502	2470.165385
817.187399	2515.535769
817.506250	2553.344423
817.825058	2472.685962
818.143821	2492.850577
818.462539	2545.782692
818.781213	2447.480192
819.099843	2455.041923
819.418429	2500.412308
819.736970	2515.535769
820.055466	2482.768269
820.373919	2518.056346
820.692327	2518.056346
821.010691	2450.000769
821.329011	2482.768269
821.647286	2515.535769
821.965517	2507.974038
822.283704	2472.685962
822.601847	2586.111923
822.919945	2555.865000
823.237999	2472.685962
823.556010	2513.015192
823.873976	2490.330000
824.191897	2477.727115
824.509775	2482.768269
824.827609	2545.782692
825.145398	2581.070769
825.463144	2460.083077
825.780845	2573.509038
826.098502	2510.494615
826.416116	2422.274423
826.733685	2465.124231
827.051210	2560.906154
827.368692	2520.576923
827.686129	2555.865000
828.003522	2505.453462
828.320872	2543.262115
828.638177	2485.288846
828.955439	2560.906154
829.272656	2497.891731
829.589830	2497.891731
829.906960	2485.288846
830.224046	2497.891731
830.541088	2500.412308
830.858086	2513.015192
831.175041	2452.521346
831.491952	2487.809423
831.808819	2432.356731
832.125642	2500.412308
832.442421	2455.041923
832.759157	2591.153077
833.075849	2477.727115
833.392497	2576.029615
833.709101	2460.083077
834.025662	2548.303269
834.342179	2505.453462
834.658653	2417.233269
834.975083	2422.274423
835.291469	2485.288846
835.607811	2507.974038
835.924110	2472.685962
836.240366	2543.262115
836.556578	2535.700385
836.872746	2502.932885
837.188871	2507.974038
837.504952	2540.741538
837.820990	2540.741538
838.136984	2513.015192
838.452935	2530.659231
838.768842	2497.891731
839.084706	2535.700385
839.400526	2475.206538
839.716303	2444.959615
840.032037	2520.576923
840.347727	2457.562500
840.663373	2558.385577
840.978977	2487.809423
841.294537	2487.809423
841.610054	2460.083077
841.925527	2513.015192
842.240957	2487.809423
842.556344	2477.727115
842.871687	2447.480192
843.186987	2460.083077
843.502244	2434.877308
843.817458	2528.138654
844.132629	2543.262115
844.447756	2442.439038
844.762840	2485.288846
845.077881	2482.768269
845.392879	2487.809423
845.707833	2490.330000
846.022745	2429.836154
846.337613	2523.097500
846.652438	2444.959615
846.967221	2523.097500
847.281960	2465.124231
847.596656	2495.371154
847.911309	2439.918462
848.225919	2528.138654
848.540485	2510.494615
848.855009	2492.850577
849.169490	2518.056346
849.483928	2480.247692
849.798323	2412.192115
850.112675	2550.823846
850.426984	2444.959615
850.741251	2507.974038
851.055474	2505.453462
851.369654	2540.741538
851.683792	2465.124231
851.997887	2497.891731
852.311938	2513.015192
852.625947	2502.932885
852.939914	2444.959615
853.253837	2502.932885
853.567718	2381.945192
853.881555	2465.124231
854.195350	2490.330000
854.509103	2507.974038
854.822812	2555.865000
855.136479	2525.618077
855.450103	2462.603654
855.763685	2455.041923
856.077224	2568.467885
856.390720	2477.727115
856.704173	2528.138654
857.017584	2530.659231
857.330953	2513.015192
857.644278	2412.192115
857.957561	2553.344423
858.270802	2482.768269
858.584000	2525.618077
858.897155	2455.041923
859.210268	2485.288846
859.523339	2540.741538
859.836367	2475.206538
860.149352	2518.056346
860.462295	2477.727115
860.775195	2518.056346
861.088054	2485.288846
861.400869	2543.262115
861.713642	2568.467885
862.026373	2472.685962
862.339062	2533.179808
862.651708	2528.138654
862.964312	2485.288846
863.276873	2432.356731
863.589392	2444.959615
863.901869	2480.247692
864.214303	2442.439038
864.526696	2502.932885
864.839045	2465.124231
865.151353	2558.385577
865.463619	2490.330000
865.775842	2570.988462
866.088023	2500.412308
866.400162	2502.932885
866.712258	2487.809423
867.024313	2495.371154
867.336325	2439.918462
867.648296	2535.700385
867.960224	2434.877308
868.272110	2462.603654
868.583954	2497.891731
868.895755	2510.494615
869.207515	2518.056346
869.519233	2467.644808
869.830909	2510.494615
870.142542	2477.727115
870.454134	2596.194231
870.765684	2412.192115
871.077191	2528.138654
871.388657	2540.741538
871.700081	2462.603654
872.011463	2513.015192
872.322803	2535.700385
872.634101	2502.932885
872.945357	2510.494615
873.256571	2535.700385
873.567744	2520.576923
873.878874	2563.426731
874.189963	2505.453462
874.501010	2515.535769
874.812015	2477.727115
875.122979	2455.041923
875.433900	2515.535769
875.744780	2442.439038
876.055618	2513.015192
876.366415	2497.891731
876.677169	2528.138654
876.987882	2528.138654
877.298554	2505.453462
877.609183	2485.288846
877.919771	2518.056346
878.230317	2523.097500
878.540822	2497.891731
878.851285	2502.932885
879.161707	2502.932885
879.472087	2487.809423
879.782425	2535.700385
880.092722	2477.727115
880.402977	2555.865000
880.713191	2465.124231
881.023363	2437.397885
881.333494	2472.685962
881.643583	2462.603654
881.953631	2598.714808
882.263637	2477.727115
882.573602	2513.015192
882.883526	2429.836154
883.193408	2545.782692
883.503248	2502.932885
883.813048	2482.768269
884.122806	2475.206538
884.432522	2515.535769
884.742197	2588.632500
885.051831	2520.576923
885.361424	2505.453462
885.670975	2513.015192
885.980485	2467.644808
886.289954	2477.727115
886.599382	2540.741538
886.908768	2513.015192
887.218113	2475.206538
887.527417	2447.480192
887.836680	2518.056346
888.145901	2570.988462
888.455082	2530.659231
888.764221	2467.644808
889.073319	2432.356731
889.382376	2477.727115
889.691392	2510.494615
890.000366	2525.618077
890.309300	2487.809423
890.618193	2475.206538
890.927044	2578.550192
891.235855	2480.247692
891.544625	2543.262115
891.853353	2452.521346
892.162041	2518.056346
892.470687	2482.768269
892.779293	2419.753846
893.087858	2354.218846
893.396381	2505.453462
893.704864	2482.768269
894.013306	2545.782692
894.321707	2510.494615
894.630068	2523.097500
894.938387	2533.179808
895.246665	2581.070769
895.554903	2457.562500
895.863100	2596.194231
896.171256	2500.412308
896.479371	2490.330000
896.787446	2530.659231
897.095480	2548.303269
897.403473	2442.439038
897.711425	2465.124231
898.019336	2540.741538
898.327207	2490.330000
898.635038	2513.015192
898.942827	2510.494615
899.250576	2558.385577
899.558284	2505.453462
899.865952	2495.371154
900.173579	2510.494615
900.481165	2545.782692
900.788711	2497.891731
901.096216	2553.344423
901.403681	2497.891731
901.711105	2480.247692
902.018489	2518.056346
902.325832	2593.673654
902.633135	2500.412308
902.940397	2538.220962
903.247619	2500.412308
903.554800	2472.685962
903.861941	2500.412308
904.169041	2535.700385
904.476101	2533.179808
904.783121	2470.165385
905.090100	2424.795000
905.397039	2490.330000
905.703938	2538.220962
906.010796	2480.247692
906.317614	2450.000769
906.624391	2472.685962
906.931129	2540.741538
907.237826	2477.727115
907.544483	2515.535769
907.851099	2475.206538
908.157675	2505.453462
908.464211	2520.576923
908.770707	2432.356731
909.077163	2533.179808
909.383578	2477.727115
909.689954	2507.974038
909.996289	2414.712692
910.302584	2485.288846
910.608839	2550.823846
910.915054	2422.274423
911.221229	2518.056346
911.527363	2447.480192
911.833458	2608.797115
912.139513	2505.453462
912.445527	2460.083077
912.751502	2412.192115
913.057436	2487.809423
913.363331	2523.097500
913.669186	2477.727115
913.975000	2369.342308
914.280775	2490.330000
914.586510	2523.097500
914.892205	2485.288846
915.197859	2502.932885
915.503475	2540.741538
915.809050	2520.576923
916.114585	2480.247692
916.420081	2563.426731
916.725536	2379.424615
917.030952	2515.535769
917.336328	2540.741538
917.641665	2570.988462
917.946961	2465.124231
918.252218	2470.165385
918.557435	2472.685962
918.862612	2515.535769
919.167750	2540.741538
919.472848	2482.768269
919.777906	2535.700385
920.082925	2515.535769
920.387904	2482.768269
920.692843	2490.330000
920.997743	2505.453462
921.302603	2533.179808
921.607423	2513.015192
921.912204	2505.453462
922.216946	2465.124231
922.521647	2603.755962
922.826310	2434.877308
923.130932	2545.782692
923.435516	2457.562500
923.740059	2432.356731
924.044564	2485.288846
924.349028	2477.727115
924.653454	2507.974038
924.957840	2457.562500
925.262186	2525.618077
925.566493	2528.138654
925.870761	2548.303269
926.174989	2497.891731
926.479178	2427.315577
926.783328	2513.015192
927.087438	2447.480192
927.391509	2513.015192
927.695541	2558.385577
927.999533	2538.220962
928.303486	2455.041923
928.607400	2507.974038
928.911275	2460.083077
929.215110	2437.397885
929.518906	2437.397885
929.822663	2538.220962
930.126381	2462.603654
930.430060	2399.589231
930.733699	2497.891731
931.037299	2467.644808
931.340861	2422.274423
931.644383	2485.288846
931.947866	2485.288846
932.251309	2497.891731
932.554714	2528.138654
932.858080	2444.959615
933.161407	2538.220962
933.464694	2462.603654
933.767943	2528.138654
934.071153	2513.015192
934.374323	2472.685962
934.677455	2487.809423
934.980548	2550.823846
935.283602	2427.315577
935.586617	2470.165385
935.889593	2515.535769
936.192530	2507.974038
936.495428	2500.412308
936.798287	2462.603654
937.101108	2480.247692
937.403890	2497.891731
937.706632	2513.015192
938.009336	2475.206538
938.312002	2424.795000
938.614628	2434.877308
938.917216	2543.262115
939.219765	2414.712692
939.522275	2457.562500
939.824747	2507.974038
940.127179	2452.521346
940.429573	2434.877308
940.731929	2502.932885
941.034246	2457.562500
941.336524	2467.644808
941.638763	2465.124231
941.940964	2492.850577
942.243126	2510.494615
942.545250	2492.850577
942.847335	2487.809423
943.149381	2497.891731
943.451389	2490.330000
943.753359	2500.412308
944.055290	2490.330000
944.357182	2457.562500
944.659036	2513.015192
944.960851	2495.371154
945.262628	2500.412308
945.564367	2570.988462
945.866067	2568.467885
946.167729	2455.041923
946.469352	2432.356731
946.770937	2450.000769
947.072484	2394.548077
947.373992	2492.850577
947.675462	2502.932885
947.976893	2434.877308
948.278286	2570.988462
948.579641	2482.768269
948.880958	2429.836154
949.182236	2530.659231
949.483476	2502.932885
949.784678	2460.083077
950.085841	2505.453462
950.386967	2581.070769
950.688054	2409.671538
950.989103	2490.330000
951.290114	2485.288846
951.591087	2523.097500
951.892021	2470.165385
952.192917	2555.865000
952.493776	2434.877308
952.794596	2543.262115
953.095378	2465.124231
953.396122	2530.659231
953.696828	2507.974038
953.997496	2518.056346
954.298126	2444.959615
954.598718	2477.727115
954.899272	2505.453462
955.199788	2497.891731
955.500266	2482.768269
955.800706	2397.068654
956.101108	2538.220962
956.401472	2427.315577
956.701798	2563.426731
957.002087	2535.700385
957.302337	2528.138654
957.602550	2472.685962
957.902724	2523.097500
958.202861	2455.041923
958.502960	2447.480192
958.803022	2467.644808
959.103045	2460.083077
959.403031	2525.618077
959.702979	2548.303269
960.002889	2452.521346
960.302762	2381.945192
960.602596	2525.618077
960.902393	2482.768269
961.202153	2548.303269
961.501875	2465.124231
961.801559	2525.618077
962.101205	2432.356731
962.400814	2434.877308
962.700385	2457.562500
962.999918	2452.521346
963.299414	2492.850577
963.598873	2404.630385
963.898293	2528.138654
964.197677	2487.809423
964.497022	2540.741538
964.796331	2485.288846
965.095601	2523.097500
965.394835	2472.685962
965.694030	2402.109808
965.993189	2434.877308
966.292309	2487.809423
966.591393	2586.111923
966.890439	2450.000769
967.189447	2444.959615
967.488419	2518.056346
967.787353	2472.685962
968.086249	2507.974038
968.385108	2550.823846
968.683930	2452.521346
968.982714	2528.138654
969.281462	2455.041923
969.580172	2497.891731
969.878844	2450.000769
970.177480	2525.618077
970.476078	2472.685962
970.774639	2462.603654
971.073162	2472.685962
971.371649	2485.288846
971.670098	2462.603654
971.968510	2465.124231
972.266885	2490.330000
972.565223	2429.836154
972.863524	2563.426731
973.161788	2530.659231
973.460014	2563.426731
973.758204	2465.124231
974.056356	2495.371154
974.354471	2424.795000
974.652550	2455.041923
974.950591	2500.412308
975.248595	2467.644808
975.546563	2457.562500
975.844493	2492.850577
976.142386	2482.768269
976.440243	2570.988462
976.738062	2477.727115
977.035845	2442.439038
977.333590	2465.124231
977.631299	2470.165385
977.928971	2389.506923
978.226606	2538.220962
978.524204	2429.836154
978.821765	2593.673654
979.119290	2414.712692
979.416777	2540.741538
979.714228	2467.644808
980.011642	2374.383462
980.309020	2470.165385
980.606360	2492.850577
980.903664	2409.671538
981.200931	2477.727115
981.498162	2482.768269
981.795356	2495.371154
982.092513	2495.371154
982.389633	2485.288846
982.686717	2492.850577
982.983764	2460.083077
983.280775	2543.262115
983.577749	2477.727115
983.874686	2442.439038
984.171587	2540.741538
984.468451	2475.206538
984.765279	2485.288846
985.062070	2457.562500
985.358824	2535.700385
985.655543	2424.795000
985.952224	2507.974038
986.248869	2482.768269
986.545478	2467.644808
986.842050	2507.974038
987.138586	2482.768269
987.435086	2553.344423
987.731549	2439.918462
988.027975	2507.974038
988.324366	2502.932885
988.620719	2455.041923
988.917037	2470.165385
989.213318	2450.000769
989.509563	2563.426731
989.805772	2460.083077
990.101944	2472.685962
990.398080	2465.124231
990.694180	2495.371154
990.990244	2434.877308
991.286271	2450.000769
991.582262	2490.330000
991.878217	2467.644808
992.174136	2386.986346
992.470019	2628.961731
992.765865	2439.918462
993.061676	2535.700385
993.357450	2386.986346
993.653188	2507.974038
993.948890	2472.685962
994.244556	2510.494615
994.540186	2492.850577
994.835780	2467.644808
995.131337	2462.603654
995.426859	2530.659231
995.722345	2525.618077
996.017795	2570.988462
996.313208	2507.974038
996.608586	2515.535769
996.903928	2490.330000
997.199234	2452.521346
997.494504	2439.918462
997.789738	2533.179808
998.084936	2513.015192
998.380099	2444.959615
998.675225	2480.247692
998.970316	2460.083077
999.265371	2439.918462
999.560390	2475.206538
999.855373	2457.562500
1000.150320	2359.260000
1000.445232	2450.000769
1000.740108	2439.918462
1001.034948	2412.192115
1001.329752	2502.932885
1001.624521	2515.535769
1001.919254	2475.206538
1002.213951	2455.041923
1002.508613	2535.700385
1002.803239	2439.918462
1003.097829	2507.974038
1003.392384	2447.480192
1003.686903	2482.768269
1003.981386	2462.603654
1004.275834	2545.782692
1004.570246	2447.480192
1004.864623	2482.768269
1005.158964	2394.548077
1005.453270	2565.947308
1005.747540	2422.274423
1006.041775	2392.027500
1006.335974	2510.494615
1006.630138	2467.644808
1006.924266	2442.439038
1007.218359	2460.083077
1007.512416	2535.700385
1007.806438	2465.124231
1008.100425	2573.509038
1008.394376	2490.330000
1008.688292	2429.836154
1008.982172	2497.891731
1009.276017	2462.603654
1009.569827	2475.206538
1009.863602	2545.782692
1010.157341	2515.535769
1010.451045	2533.179808
1010.744714	2485.288846
1011.038347	2573.509038
1011.331945	2457.562500
1011.625508	2538.220962
1011.919036	2434.877308
1012.212528	2417.233269
1012.505986	2490.330000
1012.799408	2462.603654
1013.092795	2462.603654
1013.386147	2568.467885
1013.679464	2467.644808
1013.972745	2565.947308
1014.265992	2480.247692
1014.559204	2505.453462
1014.852380	2472.685962
1015.145521	2502.932885
1015.438628	2462.603654
1015.731699	2565.947308
1016.024736	2402.109808
1016.317737	2515.535769
1016.610703	2500.412308
1016.903635	2510.494615
1017.196531	2538.220962
1017.489393	2470.165385
1017.782219	2492.850577
1018.075011	2424.795000
1018.367768	2500.412308
1018.660490	2497.891731
1018.953177	2497.891731
1019.245829	2497.891731
