Dividing Wavelength (nm)	Counts (n)	Blue Motor Position (mm): 0.000000	Red Motor Position (mm): 1.000000	
326.493990	2213.066538
326.888308	2213.066538
327.282561	2213.066538
327.676750	2192.901923
328.070874	2134.928654
328.464933	2124.846346
328.858929	2170.216731
329.252859	2223.148846
329.646726	2215.587115
330.040528	2210.545962
330.434265	2195.422500
330.827938	2218.107692
331.221547	2180.299038
331.615091	2311.369038
332.008571	2258.436923
332.401986	2190.381346
332.795338	2273.560385
333.188625	2354.218846
333.581847	2303.807308
333.975006	2399.589231
334.368100	2334.054231
334.761129	2412.192115
335.154095	2392.027500
335.546996	2462.603654
335.939833	2510.494615
336.332606	2497.891731
336.725315	2455.041923
337.117960	2409.671538
337.510540	2450.000769
337.903056	2505.453462
338.295508	2467.644808
338.687896	2568.467885
339.080220	2565.947308
339.472480	2510.494615
339.864676	2618.879423
340.256807	2492.850577
340.648875	2578.550192
341.040879	2538.220962
341.432818	2560.906154
341.824694	2563.426731
342.216506	2631.482308
342.608253	2533.179808
342.999937	2659.208654
343.391557	2570.988462
343.783113	2555.865000
344.174605	2560.906154
344.566033	2515.535769
344.957397	2654.167500
345.348697	2550.823846
345.739934	2628.961731
346.131106	2550.823846
346.522215	2628.961731
346.913260	2581.070769
347.304241	2581.070769
347.695159	2628.961731
348.086012	2621.400000
348.476802	2578.550192
348.867528	2550.823846
349.258191	2530.659231
349.648789	2568.467885
350.039324	2535.700385
350.429796	2573.509038
350.820203	2510.494615
351.210548	2525.618077
351.600828	2573.509038
351.991045	2588.632500
352.381198	2560.906154
352.771288	2540.741538
353.161314	2563.426731
353.551276	2550.823846
353.941175	2558.385577
354.331010	2505.453462
354.720782	2576.029615
355.110490	2419.753846
355.500135	2510.494615
355.889717	2518.056346
356.279235	2528.138654
356.668689	2639.044038
357.058080	2631.482308
357.447408	2500.412308
357.836672	2558.385577
358.225873	2598.714808
358.615010	2583.591346
359.004084	2545.782692
359.393095	2490.330000
359.782043	2548.303269
360.170927	2639.044038
360.559748	2611.317692
360.948505	2533.179808
361.337199	2576.029615
361.725830	2523.097500
362.114398	2608.797115
362.502903	2550.823846
362.891344	2560.906154
363.279722	2442.439038
363.668037	2530.659231
364.056289	2513.015192
364.444478	2606.276538
364.832603	2500.412308
365.220665	2510.494615
365.608665	2581.070769
365.996601	2530.659231
366.384474	2548.303269
366.772284	2550.823846
367.160031	2606.276538
367.547715	2525.618077
367.935336	2651.646923
368.322893	2553.344423
368.710388	2606.276538
369.097820	2548.303269
369.485189	2563.426731
369.872495	2495.371154
370.259738	2646.605769
370.646918	2492.850577
371.034035	2563.426731
371.421090	2626.441154
371.808081	2583.591346
372.195010	2618.879423
372.581875	2646.605769
372.968678	2480.247692
373.355418	2578.550192
373.742096	2606.276538
374.128710	2563.426731
374.515262	2568.467885
374.901751	2651.646923
375.288177	2598.714808
375.674540	2533.179808
376.060841	2545.782692
376.447079	2618.879423
376.833254	2560.906154
377.219367	2578.550192
377.605417	2550.823846
377.991404	2608.797115
378.377329	2568.467885
378.763191	2616.358846
379.148991	2538.220962
379.534727	2601.235385
379.920402	2578.550192
380.306013	2618.879423
380.691563	2603.755962
381.077049	2538.220962
381.462474	2565.947308
381.847835	2588.632500
382.233134	2548.303269
382.618371	2586.111923
383.003545	2558.385577
383.388657	2533.179808
383.773706	2583.591346
384.158693	2593.673654
384.543618	2563.426731
384.928480	2588.632500
385.313280	2555.865000
385.698017	2555.865000
386.082692	2581.070769
386.467305	2480.247692
386.851856	2578.550192
387.236344	2523.097500
387.620770	2628.961731
388.005133	2611.317692
388.389435	2646.605769
388.773674	2598.714808
389.157851	2616.358846
389.541965	2538.220962
389.926018	2545.782692
390.310008	2553.344423
390.693936	2679.373269
391.077802	2578.550192
391.461606	2487.809423
391.845348	2523.097500
392.229027	2611.317692
392.612645	2543.262115
392.996200	2578.550192
393.379694	2553.344423
393.763125	2510.494615
394.146494	2641.564615
394.529801	2601.235385
394.913047	2502.932885
395.296230	2565.947308
395.679351	2545.782692
396.062410	2611.317692
396.445408	2510.494615
396.828343	2631.482308
397.211217	2568.467885
397.594028	2623.920577
397.976778	2495.371154
398.359466	2545.782692
398.742092	2631.482308
399.124656	2507.974038
399.507158	2576.029615
399.889598	2523.097500
400.271977	2613.838269
400.654294	2591.153077
401.036549	2593.673654
401.418742	2543.262115
401.800874	2555.865000
402.182944	2596.194231
402.564952	2641.564615
402.946898	2586.111923
403.328783	2555.865000
403.710606	2553.344423
404.092367	2502.932885
404.474067	2586.111923
404.855705	2573.509038
405.237282	2664.249808
405.618797	2550.823846
406.000250	2586.111923
406.381642	2573.509038
406.762972	2576.029615
407.144240	2586.111923
407.525447	2596.194231
407.906593	2538.220962
408.287677	2626.441154
408.668700	2603.755962
409.049661	2613.838269
409.430560	2578.550192
409.811399	2518.056346
410.192176	2603.755962
410.572891	2490.330000
410.953545	2586.111923
411.334138	2487.809423
411.714669	2639.044038
412.095139	2666.770385
412.475547	2560.906154
412.855894	2538.220962
413.236180	2598.714808
413.616405	2618.879423
413.996568	2634.002885
414.376670	2661.729231
414.756711	2588.632500
415.136691	2603.755962
415.516609	2618.879423
415.896466	2611.317692
416.276262	2606.276538
416.655997	2659.208654
417.035670	2631.482308
417.415283	2593.673654
417.794834	2616.358846
418.174324	2593.673654
418.553753	2588.632500
418.933121	2540.741538
419.312428	2495.371154
419.691674	2573.509038
420.070859	2581.070769
420.449983	2548.303269
420.829045	2550.823846
421.208047	2578.550192
421.586988	2666.770385
421.965867	2570.988462
422.344686	2563.426731
422.723444	2631.482308
423.102141	2649.126346
423.480777	2608.797115
423.859352	2621.400000
424.237866	2581.070769
424.616319	2540.741538
424.994712	2598.714808
425.373044	2578.550192
425.751314	2550.823846
426.129524	2616.358846
426.507673	2576.029615
426.885762	2623.920577
427.263789	2644.085192
427.641756	2641.564615
428.019662	2644.085192
428.397508	2588.632500
428.775292	2636.523462
429.153016	2576.029615
429.530679	2661.729231
429.908282	2555.865000
430.285824	2568.467885
430.663305	2644.085192
431.040726	2613.838269
431.418086	2611.317692
431.795385	2634.002885
432.172624	2628.961731
432.549802	2641.564615
432.926920	2621.400000
433.303977	2540.741538
433.680974	2621.400000
434.057910	2538.220962
434.434786	2565.947308
434.811601	2697.017308
435.188355	2626.441154
435.565050	2591.153077
435.941683	2694.496731
436.318257	2618.879423
436.694770	2674.332115
437.071222	2654.167500
437.447614	2570.988462
437.823946	2581.070769
438.200218	2588.632500
438.576429	2656.688077
438.952580	2626.441154
439.328670	2621.400000
439.704700	2702.058462
440.080670	2669.290962
440.456580	2664.249808
440.832429	2760.031731
441.208218	2707.099615
441.583947	2621.400000
441.959616	2770.114038
442.335224	2702.058462
442.710773	2714.661346
443.086261	2765.072885
443.461689	2818.005000
443.837057	2805.402115
444.212365	2843.210769
444.587612	2787.758077
444.962800	2878.498846
445.337927	2881.019423
445.712995	2883.540000
446.088002	2969.239615
446.462949	2976.801346
446.837837	3077.624423
447.212664	3107.871346
447.587431	3226.338462
447.962139	3299.435192
448.336786	3503.601923
448.711374	3543.931154
449.085901	3347.326154
449.460369	3463.272692
449.834776	3594.342692
450.209124	3667.439423
450.583412	3853.962115
450.957640	3977.470385
451.331808	3924.538269
451.705917	3924.538269
452.079965	3909.414808
452.453954	4048.046538
452.827883	4090.896346
453.201752	4244.651538
453.575562	4335.392308
453.949311	4509.312115
454.323001	4554.682500
454.696632	4660.546731
455.070202	4854.631154
455.443713	4849.590000
455.817164	5227.676538
456.190556	5310.855577
456.563888	5464.610769
456.937160	5749.435962
457.310373	5651.133462
457.683526	5794.806346
458.056619	5764.559423
458.429653	5998.973077
458.802628	5988.890769
459.175542	6167.851731
459.548398	6787.913654
459.921194	7085.341731
460.293930	7314.714231
460.666607	7712.965385
461.039224	8522.070577
461.411782	8822.019231
461.784280	8945.527500
462.156719	9207.667500
462.529099	8983.336154
462.901419	8837.142692
463.273680	9013.583077
463.645882	9205.146923
464.018024	9023.665385
464.390106	9421.916538
464.762130	10039.457885
465.134094	10909.056923
465.505999	12426.444231
465.877845	14589.099231
466.249631	16487.093654
466.621358	15993.060577
466.993026	15446.095385
467.364634	15151.187885
467.736184	14775.621923
468.107674	14347.123846
468.479105	14573.975769
468.850477	14321.918077
469.221790	14722.689808
469.593043	14359.726731
469.964238	14271.506538
470.335373	13951.393269
470.706449	15020.117885
471.077467	14861.321538
471.448425	16933.235769
471.819324	20373.823269
472.190164	21114.872885
472.560945	17949.028269
472.931667	16293.009231
473.302330	16471.970192
473.672934	16482.052500
474.043479	16746.713077
474.413965	16832.412692
474.784393	16645.890000
475.154761	17742.340962
475.525070	17142.443654
475.895321	17704.532308
476.265513	18266.620962
476.635645	18697.639615
477.005719	18710.242500
477.375734	19221.919615
477.745691	19448.771538
478.115588	20152.012500
478.485427	21114.872885
478.855207	22294.502885
479.224928	23927.836731
479.594591	26329.946538
479.964194	25354.483269
480.333739	25815.748846
480.703226	25800.625385
481.072653	25851.036923
481.442022	26881.952885
481.811333	27486.891346
482.180584	26866.829423
482.549777	26430.769615
482.918912	26355.152308
483.287988	26062.765385
483.657005	25760.296154
484.025964	25828.351731
484.394864	25546.047115
484.763706	24762.147692
485.132489	24741.983077
485.501213	24585.707308
485.869879	24744.503654
486.238487	24598.310192
486.607036	24520.172308
486.975527	24182.415000
487.343959	24250.470577
487.712333	24167.291538
488.080648	23554.791346
488.448905	24126.962308
488.817104	24079.071346
489.185244	24671.406923
489.553326	24691.571538
489.921350	25483.032692
490.289315	27917.910000
490.657222	28815.235385
491.025070	28739.618077
491.392861	28361.531538
491.760593	27285.245192
492.128267	25951.860000
492.495883	25074.699231
492.863440	24467.240192
493.230939	23431.283077
493.598380	23133.855000
493.965763	22256.694231
494.333088	21616.467692
494.700354	21669.399808
495.067563	21263.586923
495.434713	20540.181346
495.801805	20525.057885
496.168839	20114.203846
496.535815	20048.668846
496.902733	19705.870385
497.269593	19534.471154
497.636395	19395.839423
498.003139	18924.491538
498.369825	18559.007885
498.736453	18569.090192
499.103023	18508.596346
499.469535	18155.715577
499.835989	17951.548846
500.202385	17676.805962
500.568723	17500.365577
500.935003	17001.291346
501.301226	16471.970192
501.667390	16950.879808
502.033497	16408.955769
502.399546	16572.793269
502.765537	15788.893846
503.131470	15892.237500
503.497345	15521.712692
503.863163	15004.994423
504.228923	15040.282500
504.594625	14579.016923
504.960269	14311.835769
505.325856	14359.726731
505.691385	13696.815000
506.056856	13714.459038
506.422270	13797.638077
506.787625	13497.689423
507.152924	13147.329231
507.518164	13023.820962
507.883347	12628.090385
508.248472	12343.265192
508.613540	12116.413269
508.978550	11967.699231
509.343503	11818.985192
509.708398	11456.022115
510.073236	11453.501538
510.438016	11229.170192
510.802738	10863.686538
511.167403	10737.657692
511.532010	10571.299615
511.896561	10480.558846
512.261053	10326.803654
512.625488	10014.252115
512.989866	9830.250000
513.354186	9489.972115
513.718449	9419.395962
514.082655	9386.628462
514.446803	8983.336154
514.810894	8877.471923
515.174927	8806.895769
515.538904	8454.015000
515.902822	8454.015000
516.266684	8101.134231
516.630488	7770.938654
516.994235	7705.403654
517.357925	7861.679423
517.721558	7493.675192
518.085133	7377.728654
518.448651	7251.699808
518.812112	7047.533077
519.175516	6974.436346
519.538863	6931.586538
519.902152	6813.119423
520.265385	6548.458846
520.628560	6543.417692
520.991678	6303.962885
521.354739	6167.851731
521.717743	6188.016346
522.080690	5764.559423
522.443580	5802.368077
522.806413	5666.256923
523.169189	5608.283654
523.531908	5507.460577
523.894569	5260.444038
524.257174	5230.197115
524.619722	5086.524231
524.982213	4960.495385
525.344647	5005.865769
525.707025	5013.427500
526.069345	4751.287500
526.431608	4751.287500
526.793815	4572.326538
527.155964	4595.011731
527.518057	4446.297692
527.880093	4295.063077
528.242072	4380.762692
528.603995	4216.925192
528.965860	4186.678269
529.327669	4007.717308
529.689421	4063.170000
530.051117	4116.102115
530.412755	3947.223462
530.774337	3891.770769
531.135862	3753.139038
531.497331	3750.618462
531.858743	3690.124615
532.220098	3632.151346
532.581396	3649.795385
532.942638	3599.383846
533.303824	3503.601923
533.664953	3468.313846
534.026025	3453.190385
534.387040	3417.902308
534.747999	3327.161538
535.108902	3490.999038
535.469748	3291.873462
535.830537	3198.612115
536.191270	3211.215000
536.551947	3180.968077
536.912567	3271.708846
537.273131	3163.324038
537.633638	3170.885769
537.994089	3122.994808
538.354483	3072.583269
538.714821	3022.171731
539.075103	3112.912500
539.435328	3138.118269
539.795497	3002.007115
540.155609	2981.842500
540.515665	3002.007115
540.875665	2891.101731
541.235609	2933.951538
541.595496	2971.760192
541.955328	2875.978269
542.315102	2926.389808
542.674821	2901.184038
543.034483	2853.293077
543.394090	2926.389808
543.753640	2858.334231
544.113134	2772.634615
544.472571	2760.031731
544.831953	2843.210769
545.191278	2797.840385
545.550548	2870.937115
545.909761	2828.087308
546.268918	2860.854808
546.628019	2818.005000
546.987064	2770.114038
547.346053	2815.484423
547.704986	2729.784808
548.063863	2840.690192
548.422684	2744.908269
548.781449	2679.373269
549.140158	2782.716923
549.498811	2729.784808
549.857408	2775.155192
550.215949	2747.428846
550.574434	2729.784808
550.932864	2676.852692
551.291237	2810.443269
551.649555	2777.675769
552.007817	2739.867115
552.366022	2754.990577
552.724173	2634.002885
553.082267	2684.414423
553.440305	2669.290962
553.798288	2644.085192
554.156215	2767.593462
554.514086	2757.511154
554.871902	2676.852692
555.229661	2785.237500
555.587365	2616.358846
555.945014	2709.620192
556.302606	2628.961731
556.660143	2628.961731
557.017625	2712.140769
557.375050	2694.496731
557.732421	2644.085192
558.089735	2603.755962
558.446994	2749.949423
558.804197	2722.223077
559.161345	2606.276538
559.518437	2686.935000
559.875474	2656.688077
560.232455	2573.509038
560.589381	2631.482308
560.946251	2623.920577
561.303065	2623.920577
561.659825	2649.126346
562.016528	2752.470000
562.373177	2676.852692
562.729770	2611.317692
563.086307	2651.646923
563.442789	2639.044038
563.799216	2707.099615
564.155587	2654.167500
564.511904	2626.441154
564.868164	2621.400000
565.224370	2674.332115
565.580520	2654.167500
565.936615	2707.099615
566.292654	2704.579038
566.648638	2616.358846
567.004567	2702.058462
567.360441	2596.194231
567.716260	2543.262115
568.072023	2691.976154
568.427732	2654.167500
568.783385	2631.482308
569.138982	2699.537885
569.494525	2702.058462
569.850013	2545.782692
570.205445	2661.729231
570.560823	2712.140769
570.916145	2659.208654
571.271412	2727.264231
571.626625	2684.414423
571.981782	2727.264231
572.336884	2676.852692
572.691931	2634.002885
573.046923	2608.797115
573.401860	2661.729231
573.756743	2593.673654
574.111570	2628.961731
574.466342	2621.400000
574.821059	2654.167500
575.175722	2621.400000
575.530330	2581.070769
575.884882	2679.373269
576.239380	2581.070769
576.593823	2525.618077
576.948211	2621.400000
577.302544	2666.770385
577.656823	2684.414423
578.011047	2621.400000
578.365216	2669.290962
578.719330	2545.782692
579.073389	2704.579038
579.427394	2646.605769
579.781344	2646.605769
580.135239	2659.208654
580.489080	2679.373269
580.842866	2646.605769
581.196597	2644.085192
581.550273	2628.961731
581.903895	2538.220962
582.257463	2709.620192
582.610975	2628.961731
582.964434	2661.729231
583.317837	2679.373269
583.671186	2684.414423
584.024481	2578.550192
584.377721	2704.579038
584.730906	2641.564615
585.084037	2553.344423
585.437113	2641.564615
585.790135	2628.961731
586.143103	2626.441154
586.496016	2651.646923
586.848874	2606.276538
587.201679	2606.276538
587.554428	2598.714808
587.907124	2623.920577
588.259765	2656.688077
588.612352	2618.879423
588.964884	2593.673654
589.317362	2618.879423
589.669786	2626.441154
590.022155	2674.332115
590.374470	2548.303269
590.726731	2581.070769
591.078937	2639.044038
591.431090	2674.332115
591.783188	2611.317692
592.135232	2563.426731
592.487222	2576.029615
592.839157	2684.414423
593.191038	2616.358846
593.542866	2631.482308
593.894639	2631.482308
594.246358	2608.797115
594.598022	2576.029615
594.949633	2689.455577
595.301190	2651.646923
595.652692	2631.482308
596.004141	2588.632500
596.355535	2628.961731
596.706876	2649.126346
597.058162	2656.688077
597.409395	2707.099615
597.760573	2608.797115
598.111698	2669.290962
598.462768	2644.085192
598.813785	2704.579038
599.164748	2644.085192
599.515657	2568.467885
599.866511	2563.426731
600.217312	2631.482308
600.568060	2666.770385
600.918753	2591.153077
601.269392	2644.085192
601.619978	2646.605769
601.970510	2626.441154
602.320988	2593.673654
602.671412	2651.646923
603.021783	2591.153077
603.372100	2623.920577
603.722363	2639.044038
604.072572	2560.906154
604.422728	2611.317692
604.772830	2565.947308
605.122878	2576.029615
605.472872	2709.620192
605.822813	2767.593462
606.172701	2641.564615
606.522534	2553.344423
606.872314	2623.920577
607.222041	2593.673654
607.571714	2598.714808
607.921333	2626.441154
608.270899	2616.358846
608.620411	2626.441154
608.969870	2626.441154
609.319276	2649.126346
609.668627	2644.085192
610.017926	2518.056346
610.367171	2654.167500
610.716362	2563.426731
611.065500	2628.961731
611.414585	2611.317692
611.763616	2618.879423
612.112594	2717.181923
612.461518	2686.935000
612.810389	2613.838269
613.159207	2651.646923
613.507971	2659.208654
613.856682	2644.085192
614.205340	2573.509038
614.553945	2611.317692
614.902496	2626.441154
615.250994	2583.591346
615.599439	2621.400000
615.947830	2591.153077
616.296169	2666.770385
616.644454	2598.714808
616.992686	2646.605769
617.340864	2570.988462
617.688990	2616.358846
618.037063	2664.249808
618.385082	2679.373269
618.733048	2608.797115
619.080961	2576.029615
619.428821	2543.262115
619.776628	2596.194231
620.124382	2623.920577
620.472083	2704.579038
620.819731	2684.414423
621.167326	2656.688077
621.514868	2679.373269
621.862357	2626.441154
622.209793	2671.811538
622.557176	2641.564615
622.904506	2588.632500
623.251783	2649.126346
623.599007	2694.496731
623.946179	2611.317692
624.293297	2702.058462
624.640363	2623.920577
624.987376	2664.249808
625.334336	2586.111923
625.681243	2681.893846
626.028097	2621.400000
626.374899	2636.523462
626.721647	2651.646923
627.068343	2664.249808
627.414987	2596.194231
627.761577	2611.317692
628.108115	2709.620192
628.454600	2591.153077
628.801032	2691.976154
629.147412	2765.072885
629.493739	2651.646923
629.840014	2674.332115
630.186236	2621.400000
630.532405	2666.770385
630.878521	2621.400000
631.224585	2676.852692
631.570597	2641.564615
631.916556	2631.482308
632.262462	2628.961731
632.608316	2515.535769
632.954117	2623.920577
633.299866	2626.441154
633.645562	2626.441154
633.991206	2649.126346
634.336797	2588.632500
634.682336	2616.358846
635.027823	2598.714808
635.373257	2669.290962
635.718639	2634.002885
636.063968	2634.002885
636.409245	2487.809423
636.754470	2543.262115
637.099642	2669.290962
637.444762	2606.276538
637.789829	2596.194231
638.134845	2654.167500
638.479808	2576.029615
638.824719	2593.673654
639.169577	2553.344423
639.514383	2588.632500
639.859137	2596.194231
640.203839	2634.002885
640.548489	2565.947308
640.893086	2606.276538
641.237632	2608.797115
641.582125	2623.920577
641.926566	2606.276538
642.270955	2639.044038
642.615292	2568.467885
642.959576	2659.208654
643.303809	2681.893846
643.647990	2543.262115
643.992118	2598.714808
644.336195	2618.879423
644.680219	2603.755962
645.024192	2646.605769
645.368112	2591.153077
645.711981	2644.085192
646.055797	2608.797115
646.399562	2681.893846
646.743274	2659.208654
647.086935	2636.523462
647.430544	2611.317692
647.774101	2608.797115
648.117606	2586.111923
648.461059	2608.797115
648.804460	2674.332115
649.147810	2651.646923
649.491108	2548.303269
649.834354	2669.290962
650.177548	2613.838269
650.520690	2697.017308
650.863781	2631.482308
651.206820	2623.920577
651.549807	2669.290962
651.892742	2611.317692
652.235626	2639.044038
652.578458	2555.865000
652.921238	2591.153077
653.263967	2628.961731
653.606644	2616.358846
653.949269	2679.373269
654.291843	2654.167500
654.634365	2586.111923
654.976836	2558.385577
655.319255	2659.208654
655.661622	2588.632500
656.003938	2681.893846
656.346203	2664.249808
656.688416	2644.085192
657.030577	2598.714808
657.372687	2583.591346
657.714746	2666.770385
658.056753	2616.358846
658.398708	2651.646923
658.740612	2608.797115
659.082465	2586.111923
659.424266	2679.373269
659.766016	2563.426731
660.107715	2656.688077
660.449362	2618.879423
660.790958	2588.632500
661.132503	2639.044038
661.473996	2641.564615
661.815438	2674.332115
662.156829	2649.126346
662.498168	2659.208654
662.839456	2593.673654
663.180693	2616.358846
663.521879	2621.400000
663.863013	2674.332115
664.204097	2684.414423
664.545129	2691.976154
664.886110	2639.044038
665.227040	2621.400000
665.567918	2596.194231
665.908746	2606.276538
666.249522	2676.852692
666.590248	2608.797115
666.930922	2651.646923
667.271545	2684.414423
667.612118	2608.797115
667.952639	2659.208654
668.293109	2684.414423
668.633528	2545.782692
668.973896	2560.906154
669.314213	2593.673654
669.654480	2608.797115
669.994695	2601.235385
670.334859	2628.961731
670.674973	2676.852692
671.015035	2581.070769
671.355047	2649.126346
671.695008	2691.976154
672.034918	2598.714808
672.374777	2664.249808
672.714585	2697.017308
673.054342	2694.496731
673.394049	2616.358846
673.733705	2694.496731
674.073310	2697.017308
674.412864	2704.579038
674.752368	2631.482308
675.091820	2568.467885
675.431223	2631.482308
675.770574	2568.467885
676.109875	2616.358846
676.449125	2591.153077
676.788324	2568.467885
677.127473	2576.029615
677.466571	2598.714808
677.805619	2634.002885
678.144616	2616.358846
678.483562	2649.126346
678.822458	2578.550192
679.161303	2543.262115
679.500098	2661.729231
679.838842	2694.496731
680.177535	2634.002885
680.516179	2523.097500
680.854771	2611.317692
681.193314	2661.729231
681.531805	2621.400000
681.870247	2581.070769
682.208638	2565.947308
682.546978	2636.523462
682.885268	2606.276538
683.223508	2581.070769
683.561697	2666.770385
683.899836	2649.126346
684.237925	2608.797115
684.575963	2568.467885
684.913951	2651.646923
685.251889	2603.755962
685.589776	2558.385577
685.927614	2558.385577
686.265401	2593.673654
686.603137	2631.482308
686.940824	2621.400000
687.278460	2603.755962
687.616046	2699.537885
687.953582	2565.947308
688.291068	2646.605769
688.628504	2656.688077
688.965889	2576.029615
689.303224	2639.044038
689.640510	2634.002885
689.977745	2644.085192
690.314930	2714.661346
690.652065	2583.591346
690.989150	2628.961731
691.326185	2636.523462
691.663170	2702.058462
692.000105	2555.865000
692.336990	2742.387692
692.673825	2613.838269
693.010610	2568.467885
693.347345	2601.235385
693.684030	2659.208654
694.020665	2611.317692
694.357251	2661.729231
694.693786	2679.373269
695.030272	2611.317692
695.366707	2654.167500
695.703093	2671.811538
696.039429	2656.688077
696.375716	2548.303269
696.711952	2636.523462
697.048139	2631.482308
697.384276	2550.823846
697.720363	2593.673654
698.056400	2679.373269
698.392388	2654.167500
698.728326	2621.400000
699.064214	2596.194231
699.400053	2676.852692
699.735842	2583.591346
700.071581	2626.441154
700.407270	2666.770385
700.742910	2608.797115
701.078501	2603.755962
701.414042	2641.564615
701.749533	2618.879423
702.084974	2659.208654
702.420366	2689.455577
702.755709	2626.441154
703.091002	2681.893846
703.426246	2603.755962
703.761440	2684.414423
704.096584	2623.920577
704.431679	2644.085192
704.766725	2601.235385
705.101721	2570.988462
705.436668	2591.153077
705.771565	2646.605769
706.106413	2636.523462
706.441212	2596.194231
706.775961	2570.988462
707.110661	2606.276538
707.445311	2659.208654
707.779913	2588.632500
708.114465	2593.673654
708.448967	2621.400000
708.783421	2664.249808
709.117825	2649.126346
709.452180	2583.591346
709.786485	2702.058462
710.120742	2666.770385
710.454949	2540.741538
710.789107	2593.673654
711.123216	2641.564615
711.457275	2646.605769
711.791286	2568.467885
712.125247	2656.688077
712.459159	2636.523462
712.793023	2606.276538
713.126837	2623.920577
713.460602	2684.414423
713.794318	2523.097500
714.127985	2613.838269
714.461602	2618.879423
714.795171	2646.605769
715.128691	2601.235385
715.462162	2581.070769
715.795584	2601.235385
716.128957	2452.521346
716.462281	2654.167500
716.795556	2555.865000
717.128782	2565.947308
717.461960	2707.099615
717.795088	2626.441154
718.128167	2596.194231
718.461198	2543.262115
718.794180	2634.002885
719.127113	2583.591346
719.459997	2623.920577
719.792833	2578.550192
720.125619	2606.276538
720.458357	2631.482308
720.791046	2621.400000
721.123686	2530.659231
721.456278	2699.537885
721.788821	2684.414423
722.121315	2641.564615
722.453761	2646.605769
722.786158	2661.729231
723.118506	2593.673654
723.450805	2646.605769
723.783056	2676.852692
724.115259	2644.085192
724.447412	2621.400000
724.779518	2581.070769
725.111574	2538.220962
725.443582	2578.550192
725.775542	2621.400000
726.107453	2621.400000
726.439315	2631.482308
726.771129	2679.373269
727.102895	2593.673654
727.434612	2621.400000
727.766281	2606.276538
728.097901	2641.564615
728.429473	2634.002885
728.760996	2671.811538
729.092471	2626.441154
729.423897	2598.714808
729.755276	2646.605769
730.086606	2626.441154
730.417887	2555.865000
730.749120	2507.974038
731.080305	2573.509038
731.411442	2639.044038
731.742530	2583.591346
732.073570	2613.838269
732.404562	2694.496731
732.735506	2611.317692
733.066401	2588.632500
733.397249	2611.317692
733.728048	2651.646923
734.058798	2681.893846
734.389501	2596.194231
734.720156	2669.290962
735.050762	2626.441154
735.381320	2686.935000
735.711831	2656.688077
736.042293	2644.085192
736.372707	2563.426731
736.703073	2563.426731
737.033391	2634.002885
737.363661	2659.208654
737.693883	2636.523462
738.024056	2636.523462
738.354182	2570.988462
738.684260	2686.935000
739.014290	2654.167500
739.344272	2628.961731
739.674207	2623.920577
740.004093	2697.017308
740.333931	2583.591346
740.663722	2666.770385
740.993464	2588.632500
741.323159	2631.482308
741.652806	2603.755962
741.982405	2641.564615
742.311956	2634.002885
742.641460	2669.290962
742.970915	2555.865000
743.300323	2601.235385
743.629683	2641.564615
743.958996	2550.823846
744.288260	2628.961731
744.617477	2644.085192
744.946647	2540.741538
745.275768	2540.741538
745.604842	2641.564615
745.933869	2689.455577
746.262847	2601.235385
746.591778	2611.317692
746.920662	2581.070769
747.249498	2641.564615
747.578286	2573.509038
747.907027	2651.646923
748.235720	2656.688077
748.564365	2565.947308
748.892963	2681.893846
749.221514	2601.235385
749.550017	2686.935000
749.878473	2664.249808
750.206881	2623.920577
750.535242	2666.770385
750.863555	2621.400000
751.191821	2613.838269
751.520039	2641.564615
751.848210	2646.605769
752.176334	2608.797115
752.504411	2560.906154
752.832440	2565.947308
753.160421	2601.235385
753.488356	2628.961731
753.816243	2689.455577
754.144082	2570.988462
754.471875	2669.290962
754.799620	2626.441154
755.127318	2598.714808
755.454969	2634.002885
755.782572	2641.564615
756.110129	2598.714808
756.437638	2634.002885
756.765100	2598.714808
757.092515	2535.700385
757.419882	2656.688077
757.747203	2659.208654
758.074477	2465.124231
758.401703	2618.879423
758.728882	2623.920577
759.056014	2734.825962
759.383099	2694.496731
759.710138	2628.961731
760.037129	2649.126346
760.364073	2570.988462
760.690970	2661.729231
761.017820	2646.605769
761.344623	2608.797115
761.671379	2608.797115
761.998088	2626.441154
762.324751	2611.317692
762.651366	2613.838269
762.977935	2583.591346
763.304456	2608.797115
763.630931	2628.961731
763.957359	2671.811538
764.283740	2586.111923
764.610074	2581.070769
764.936362	2608.797115
765.262602	2628.961731
765.588796	2606.276538
765.914943	2613.838269
766.241044	2611.317692
766.567097	2593.673654
766.893104	2674.332115
767.219064	2623.920577
767.544978	2666.770385
767.870845	2601.235385
768.196665	2616.358846
768.522438	2681.893846
768.848165	2591.153077
769.173846	2628.961731
769.499479	2631.482308
769.825066	2623.920577
770.150607	2591.153077
770.476101	2611.317692
770.801548	2674.332115
771.126949	2666.770385
771.452303	2606.276538
771.777611	2661.729231
772.102872	2581.070769
772.428087	2606.276538
772.753256	2553.344423
773.078378	2623.920577
773.403453	2611.317692
773.728482	2591.153077
774.053465	2598.714808
774.378401	2646.605769
774.703291	2601.235385
775.028135	2616.358846
775.352932	2641.564615
775.677683	2583.591346
776.002388	2598.714808
776.327046	2596.194231
776.651658	2618.879423
776.976224	2636.523462
777.300743	2631.482308
777.625216	2649.126346
777.949643	2598.714808
778.274024	2613.838269
778.598359	2513.015192
778.922647	2565.947308
779.246889	2634.002885
779.571086	2588.632500
779.895236	2616.358846
780.219339	2596.194231
780.543397	2644.085192
780.867409	2606.276538
781.191374	2573.509038
781.515294	2553.344423
781.839167	2639.044038
782.162995	2586.111923
782.486776	2674.332115
782.810511	2565.947308
783.134201	2555.865000
783.457844	2573.509038
783.781441	2593.673654
784.104993	2606.276538
784.428498	2654.167500
784.751958	2578.550192
785.075372	2747.428846
785.398739	2586.111923
785.722061	2623.920577
786.045337	2576.029615
786.368568	2588.632500
786.691752	2573.509038
787.014891	2518.056346
787.337983	2641.564615
787.661030	2644.085192
787.984031	2538.220962
788.306987	2621.400000
788.629897	2598.714808
788.952760	2626.441154
789.275579	2581.070769
789.598351	2598.714808
789.921078	2626.441154
790.243759	2538.220962
790.566395	2639.044038
790.888984	2570.988462
791.211529	2689.455577
791.534027	2639.044038
791.856480	2623.920577
792.178888	2628.961731
792.501249	2611.317692
792.823566	2563.426731
793.145836	2558.385577
793.468062	2636.523462
793.790241	2588.632500
794.112375	2626.441154
794.434464	2560.906154
794.756507	2538.220962
795.078505	2608.797115
795.400457	2659.208654
795.722364	2553.344423
796.044226	2666.770385
796.366042	2497.891731
796.687812	2538.220962
797.009538	2528.138654
797.331218	2621.400000
797.652852	2659.208654
797.974442	2634.002885
798.295986	2598.714808
798.617484	2639.044038
798.938938	2505.453462
799.260346	2608.797115
799.581709	2671.811538
799.903026	2649.126346
800.224299	2548.303269
800.545526	2613.838269
800.866708	2694.496731
801.187845	2616.358846
801.508936	2573.509038
801.829983	2679.373269
802.150984	2555.865000
802.471940	2601.235385
802.792851	2603.755962
803.113717	2646.605769
803.434538	2628.961731
803.755314	2563.426731
804.076045	2636.523462
804.396731	2591.153077
804.717372	2679.373269
805.037967	2563.426731
805.358518	2631.482308
805.679024	2598.714808
805.999485	2581.070769
806.319901	2548.303269
806.640272	2621.400000
806.960598	2626.441154
807.280879	2558.385577
807.601115	2636.523462
807.921306	2603.755962
808.241453	2465.124231
808.561554	2598.714808
808.881611	2533.179808
809.201623	2618.879423
809.521590	2545.782692
809.841513	2593.673654
810.161390	2659.208654
810.481223	2621.400000
810.801011	2649.126346
811.120755	2598.714808
811.440453	2560.906154
811.760107	2563.426731
812.079716	2621.400000
812.399281	2578.550192
812.718801	2578.550192
813.038276	2515.535769
813.357707	2621.400000
813.677093	2621.400000
813.996434	2613.838269
814.315731	2618.879423
814.634983	2603.755962
814.954191	2621.400000
815.273354	2636.523462
815.592473	2596.194231
815.911547	2568.467885
816.230577	2656.688077
816.549562	2525.618077
816.868502	2649.126346
817.187399	2568.467885
817.506250	2623.920577
817.825058	2603.755962
818.143821	2679.373269
818.462539	2659.208654
818.781213	2664.249808
819.099843	2601.235385
819.418429	2560.906154
819.736970	2613.838269
820.055466	2573.509038
820.373919	2611.317692
820.692327	2671.811538
821.010691	2550.823846
821.329011	2601.235385
821.647286	2616.358846
821.965517	2666.770385
822.283704	2626.441154
822.601847	2762.552308
822.919945	2772.634615
823.237999	2628.961731
823.556010	2679.373269
823.873976	2669.290962
824.191897	2626.441154
824.509775	2591.153077
824.827609	2583.591346
825.145398	2699.537885
825.463144	2603.755962
825.780845	2639.044038
826.098502	2581.070769
826.416116	2611.317692
826.733685	2639.044038
827.051210	2676.852692
827.368692	2649.126346
827.686129	2606.276538
828.003522	2596.194231
828.320872	2639.044038
828.638177	2563.426731
828.955439	2613.838269
829.272656	2654.167500
829.589830	2603.755962
829.906960	2533.179808
830.224046	2626.441154
830.541088	2631.482308
830.858086	2601.235385
831.175041	2606.276538
831.491952	2631.482308
831.808819	2613.838269
832.125642	2656.688077
832.442421	2626.441154
832.759157	2603.755962
833.075849	2611.317692
833.392497	2676.852692
833.709101	2709.620192
834.025662	2613.838269
834.342179	2611.317692
834.658653	2697.017308
834.975083	2598.714808
835.291469	2548.303269
835.607811	2631.482308
835.924110	2651.646923
836.240366	2644.085192
836.556578	2588.632500
836.872746	2618.879423
837.188871	2581.070769
837.504952	2525.618077
837.820990	2586.111923
838.136984	2608.797115
838.452935	2568.467885
838.768842	2565.947308
839.084706	2608.797115
839.400526	2613.838269
839.716303	2618.879423
840.032037	2634.002885
840.347727	2639.044038
840.663373	2513.015192
840.978977	2686.935000
841.294537	2603.755962
841.610054	2646.605769
841.925527	2523.097500
842.240957	2631.482308
842.556344	2603.755962
842.871687	2621.400000
843.186987	2603.755962
843.502244	2591.153077
843.817458	2641.564615
844.132629	2616.358846
844.447756	2586.111923
844.762840	2666.770385
845.077881	2681.893846
845.392879	2606.276538
845.707833	2598.714808
846.022745	2679.373269
846.337613	2634.002885
846.652438	2555.865000
846.967221	2593.673654
847.281960	2492.850577
847.596656	2623.920577
847.911309	2621.400000
848.225919	2634.002885
848.540485	2651.646923
848.855009	2621.400000
849.169490	2616.358846
849.483928	2560.906154
849.798323	2545.782692
850.112675	2596.194231
850.426984	2535.700385
850.741251	2649.126346
851.055474	2631.482308
851.369654	2583.591346
851.683792	2634.002885
851.997887	2593.673654
852.311938	2618.879423
852.625947	2586.111923
852.939914	2560.906154
853.253837	2540.741538
853.567718	2626.441154
853.881555	2563.426731
854.195350	2578.550192
854.509103	2550.823846
854.822812	2626.441154
855.136479	2608.797115
855.450103	2606.276538
855.763685	2659.208654
856.077224	2661.729231
856.390720	2578.550192
856.704173	2492.850577
857.017584	2618.879423
857.330953	2563.426731
857.644278	2576.029615
857.957561	2593.673654
858.270802	2631.482308
858.584000	2603.755962
858.897155	2606.276538
859.210268	2623.920577
859.523339	2611.317692
859.836367	2576.029615
860.149352	2611.317692
860.462295	2618.879423
860.775195	2606.276538
861.088054	2581.070769
861.400869	2603.755962
861.713642	2671.811538
862.026373	2487.809423
862.339062	2664.249808
862.651708	2646.605769
862.964312	2560.906154
863.276873	2606.276538
863.589392	2583.591346
863.901869	2581.070769
864.214303	2583.591346
864.526696	2601.235385
864.839045	2553.344423
865.151353	2606.276538
865.463619	2581.070769
865.775842	2570.988462
866.088023	2545.782692
866.400162	2586.111923
866.712258	2639.044038
867.024313	2616.358846
867.336325	2611.317692
867.648296	2588.632500
867.960224	2588.632500
868.272110	2603.755962
868.583954	2613.838269
868.895755	2621.400000
869.207515	2628.961731
869.519233	2603.755962
869.830909	2490.330000
870.142542	2601.235385
870.454134	2651.646923
870.765684	2618.879423
871.077191	2570.988462
871.388657	2586.111923
871.700081	2555.865000
872.011463	2611.317692
872.322803	2568.467885
872.634101	2626.441154
872.945357	2497.891731
873.256571	2583.591346
873.567744	2500.412308
873.878874	2618.879423
874.189963	2563.426731
874.501010	2608.797115
874.812015	2606.276538
875.122979	2616.358846
875.433900	2603.755962
875.744780	2530.659231
876.055618	2654.167500
876.366415	2618.879423
876.677169	2669.290962
876.987882	2560.906154
877.298554	2636.523462
877.609183	2641.564615
877.919771	2649.126346
878.230317	2583.591346
878.540822	2586.111923
878.851285	2558.385577
879.161707	2565.947308
879.472087	2639.044038
879.782425	2621.400000
880.092722	2674.332115
880.402977	2644.085192
880.713191	2618.879423
881.023363	2679.373269
881.333494	2621.400000
881.643583	2636.523462
881.953631	2641.564615
882.263637	2583.591346
882.573602	2664.249808
882.883526	2651.646923
883.193408	2634.002885
883.503248	2591.153077
883.813048	2596.194231
884.122806	2596.194231
884.432522	2611.317692
884.742197	2520.576923
885.051831	2671.811538
885.361424	2553.344423
885.670975	2598.714808
885.980485	2661.729231
886.289954	2616.358846
886.599382	2621.400000
886.908768	2611.317692
887.218113	2623.920577
887.527417	2581.070769
887.836680	2664.249808
888.145901	2646.605769
888.455082	2697.017308
888.764221	2530.659231
889.073319	2586.111923
889.382376	2641.564615
889.691392	2538.220962
890.000366	2628.961731
890.309300	2606.276538
890.618193	2573.509038
890.927044	2631.482308
891.235855	2628.961731
891.544625	2603.755962
891.853353	2613.838269
892.162041	2626.441154
892.470687	2490.330000
892.779293	2649.126346
893.087858	2601.235385
893.396381	2631.482308
893.704864	2568.467885
894.013306	2631.482308
894.321707	2588.632500
894.630068	2596.194231
894.938387	2611.317692
895.246665	2593.673654
895.554903	2576.029615
895.863100	2628.961731
896.171256	2634.002885
896.479371	2581.070769
896.787446	2656.688077
897.095480	2623.920577
897.403473	2613.838269
897.711425	2691.976154
898.019336	2646.605769
898.327207	2558.385577
898.635038	2576.029615
898.942827	2616.358846
899.250576	2656.688077
899.558284	2563.426731
899.865952	2613.838269
900.173579	2588.632500
900.481165	2588.632500
900.788711	2598.714808
901.096216	2601.235385
901.403681	2535.700385
901.711105	2568.467885
902.018489	2583.591346
902.325832	2659.208654
902.633135	2530.659231
902.940397	2598.714808
903.247619	2694.496731
903.554800	2666.770385
903.861941	2578.550192
904.169041	2666.770385
904.476101	2664.249808
904.783121	2570.988462
905.090100	2644.085192
905.397039	2674.332115
905.703938	2608.797115
906.010796	2565.947308
906.317614	2661.729231
906.624391	2631.482308
906.931129	2515.535769
907.237826	2603.755962
907.544483	2583.591346
907.851099	2651.646923
908.157675	2676.852692
908.464211	2588.632500
908.770707	2626.441154
909.077163	2636.523462
909.383578	2480.247692
909.689954	2533.179808
909.996289	2573.509038
910.302584	2623.920577
910.608839	2497.891731
910.915054	2540.741538
911.221229	2591.153077
911.527363	2581.070769
911.833458	2560.906154
912.139513	2548.303269
912.445527	2570.988462
912.751502	2631.482308
913.057436	2616.358846
913.363331	2611.317692
913.669186	2588.632500
913.975000	2596.194231
914.280775	2535.700385
914.586510	2634.002885
914.892205	2500.412308
915.197859	2613.838269
915.503475	2634.002885
915.809050	2538.220962
916.114585	2581.070769
916.420081	2631.482308
916.725536	2621.400000
917.030952	2565.947308
917.336328	2644.085192
917.641665	2495.371154
917.946961	2555.865000
918.252218	2661.729231
918.557435	2578.550192
918.862612	2651.646923
919.167750	2598.714808
919.472848	2669.290962
919.777906	2636.523462
920.082925	2628.961731
920.387904	2550.823846
920.692843	2598.714808
920.997743	2623.920577
921.302603	2623.920577
921.607423	2583.591346
921.912204	2581.070769
922.216946	2669.290962
922.521647	2651.646923
922.826310	2676.852692
923.130932	2545.782692
923.435516	2530.659231
923.740059	2603.755962
924.044564	2475.206538
924.349028	2593.673654
924.653454	2618.879423
924.957840	2535.700385
925.262186	2535.700385
925.566493	2603.755962
925.870761	2631.482308
926.174989	2538.220962
926.479178	2654.167500
926.783328	2628.961731
927.087438	2611.317692
927.391509	2586.111923
927.695541	2583.591346
927.999533	2636.523462
928.303486	2563.426731
928.607400	2636.523462
928.911275	2573.509038
929.215110	2606.276538
929.518906	2583.591346
929.822663	2606.276538
930.126381	2628.961731
930.430060	2611.317692
930.733699	2528.138654
931.037299	2555.865000
931.340861	2563.426731
931.644383	2628.961731
931.947866	2631.482308
932.251309	2583.591346
932.554714	2492.850577
932.858080	2626.441154
933.161407	2639.044038
933.464694	2641.564615
933.767943	2520.576923
934.071153	2540.741538
934.374323	2634.002885
934.677455	2583.591346
934.980548	2591.153077
935.283602	2631.482308
935.586617	2631.482308
935.889593	2570.988462
936.192530	2570.988462
936.495428	2510.494615
936.798287	2586.111923
937.101108	2525.618077
937.403890	2656.688077
937.706632	2596.194231
938.009336	2535.700385
938.312002	2628.961731
938.614628	2593.673654
938.917216	2507.974038
939.219765	2553.344423
939.522275	2593.673654
939.824747	2553.344423
940.127179	2586.111923
940.429573	2553.344423
940.731929	2651.646923
941.034246	2636.523462
941.336524	2646.605769
941.638763	2639.044038
941.940964	2616.358846
942.243126	2596.194231
942.545250	2518.056346
942.847335	2598.714808
943.149381	2578.550192
943.451389	2563.426731
943.753359	2603.755962
944.055290	2684.414423
944.357182	2528.138654
944.659036	2639.044038
944.960851	2616.358846
945.262628	2510.494615
945.564367	2697.017308
945.866067	2593.673654
946.167729	2608.797115
946.469352	2613.838269
946.770937	2601.235385
947.072484	2538.220962
947.373992	2576.029615
947.675462	2598.714808
947.976893	2570.988462
948.278286	2611.317692
948.579641	2578.550192
948.880958	2568.467885
949.182236	2618.879423
949.483476	2576.029615
949.784678	2576.029615
950.085841	2553.344423
950.386967	2502.932885
950.688054	2583.591346
950.989103	2644.085192
951.290114	2644.085192
951.591087	2601.235385
951.892021	2591.153077
952.192917	2586.111923
952.493776	2591.153077
952.794596	2631.482308
953.095378	2591.153077
953.396122	2576.029615
953.696828	2628.961731
953.997496	2570.988462
954.298126	2560.906154
954.598718	2671.811538
954.899272	2634.002885
955.199788	2679.373269
955.500266	2621.400000
955.800706	2560.906154
956.101108	2586.111923
956.401472	2535.700385
956.701798	2603.755962
957.002087	2621.400000
957.302337	2651.646923
957.602550	2598.714808
957.902724	2618.879423
958.202861	2636.523462
958.502960	2565.947308
958.803022	2601.235385
959.103045	2588.632500
959.403031	2507.974038
959.702979	2593.673654
960.002889	2593.673654
960.302762	2631.482308
960.602596	2618.879423
960.902393	2553.344423
961.202153	2621.400000
961.501875	2606.276538
961.801559	2490.330000
962.101205	2578.550192
962.400814	2616.358846
962.700385	2616.358846
962.999918	2593.673654
963.299414	2596.194231
963.598873	2674.332115
963.898293	2634.002885
964.197677	2603.755962
964.497022	2641.564615
964.796331	2563.426731
965.095601	2505.453462
965.394835	2581.070769
965.694030	2576.029615
965.993189	2515.535769
966.292309	2576.029615
966.591393	2553.344423
966.890439	2611.317692
967.189447	2623.920577
967.488419	2487.809423
967.787353	2538.220962
968.086249	2525.618077
968.385108	2626.441154
968.683930	2591.153077
968.982714	2659.208654
969.281462	2654.167500
969.580172	2623.920577
969.878844	2628.961731
970.177480	2581.070769
970.476078	2608.797115
970.774639	2671.811538
971.073162	2606.276538
971.371649	2578.550192
971.670098	2570.988462
971.968510	2578.550192
972.266885	2641.564615
972.565223	2578.550192
972.863524	2674.332115
973.161788	2601.235385
973.460014	2684.414423
973.758204	2490.330000
974.056356	2513.015192
974.354471	2611.317692
974.652550	2591.153077
974.950591	2616.358846
975.248595	2560.906154
975.546563	2646.605769
975.844493	2570.988462
976.142386	2565.947308
976.440243	2568.467885
976.738062	2545.782692
977.035845	2644.085192
977.333590	2570.988462
977.631299	2613.838269
977.928971	2548.303269
978.226606	2518.056346
978.524204	2576.029615
978.821765	2490.330000
979.119290	2601.235385
979.416777	2513.015192
979.714228	2608.797115
980.011642	2603.755962
980.309020	2576.029615
980.606360	2596.194231
980.903664	2586.111923
981.200931	2558.385577
981.498162	2591.153077
981.795356	2507.974038
982.092513	2573.509038
982.389633	2573.509038
982.686717	2644.085192
982.983764	2545.782692
983.280775	2543.262115
983.577749	2550.823846
983.874686	2540.741538
984.171587	2621.400000
984.468451	2573.509038
984.765279	2480.247692
985.062070	2581.070769
985.358824	2500.412308
985.655543	2661.729231
985.952224	2611.317692
986.248869	2550.823846
986.545478	2525.618077
986.842050	2581.070769
987.138586	2565.947308
987.435086	2601.235385
987.731549	2576.029615
988.027975	2482.768269
988.324366	2596.194231
988.620719	2553.344423
988.917037	2565.947308
989.213318	2613.838269
989.509563	2560.906154
989.805772	2528.138654
990.101944	2626.441154
990.398080	2593.673654
990.694180	2596.194231
990.990244	2656.688077
991.286271	2568.467885
991.582262	2538.220962
991.878217	2586.111923
992.174136	2639.044038
992.470019	2628.961731
992.765865	2588.632500
993.061676	2513.015192
993.357450	2568.467885
993.653188	2583.591346
993.948890	2583.591346
994.244556	2593.673654
994.540186	2540.741538
994.835780	2492.850577
995.131337	2581.070769
995.426859	2621.400000
995.722345	2570.988462
996.017795	2616.358846
996.313208	2646.605769
996.608586	2601.235385
996.903928	2636.523462
997.199234	2636.523462
997.494504	2618.879423
997.789738	2603.755962
998.084936	2606.276538
998.380099	2578.550192
998.675225	2598.714808
998.970316	2608.797115
999.265371	2576.029615
999.560390	2634.002885
999.855373	2518.056346
1000.150320	2583.591346
1000.445232	2558.385577
1000.740108	2593.673654
1001.034948	2626.441154
1001.329752	2548.303269
1001.624521	2636.523462
1001.919254	2639.044038
1002.213951	2565.947308
1002.508613	2533.179808
1002.803239	2593.673654
1003.097829	2538.220962
1003.392384	2538.220962
1003.686903	2628.961731
1003.981386	2591.153077
1004.275834	2560.906154
1004.570246	2548.303269
1004.864623	2558.385577
1005.158964	2573.509038
1005.453270	2576.029615
1005.747540	2606.276538
1006.041775	2513.015192
1006.335974	2628.961731
1006.630138	2611.317692
1006.924266	2593.673654
1007.218359	2513.015192
1007.512416	2661.729231
1007.806438	2608.797115
1008.100425	2591.153077
1008.394376	2606.276538
1008.688292	2646.605769
1008.982172	2581.070769
1009.276017	2583.591346
1009.569827	2616.358846
1009.863602	2573.509038
1010.157341	2523.097500
1010.451045	2570.988462
1010.744714	2540.741538
1011.038347	2608.797115
1011.331945	2540.741538
1011.625508	2525.618077
1011.919036	2656.688077
1012.212528	2596.194231
1012.505986	2568.467885
1012.799408	2616.358846
1013.092795	2593.673654
1013.386147	2578.550192
1013.679464	2523.097500
1013.972745	2528.138654
1014.265992	2563.426731
1014.559204	2555.865000
1014.852380	2533.179808
1015.145521	2545.782692
1015.438628	2568.467885
1015.731699	2480.247692
1016.024736	2578.550192
1016.317737	2616.358846
1016.610703	2518.056346
1016.903635	2583.591346
1017.196531	2666.770385
1017.489393	2634.002885
1017.782219	2558.385577
1018.075011	2593.673654
1018.367768	2656.688077
1018.660490	2634.002885
1018.953177	2634.002885
1019.245829	2634.002885
