Dividing Wavelength (nm)	Counts (n)	Blue Motor Position (mm): 0.000000	Red Motor Position (mm): 2.100000	
326.493990	2122.325769
326.888308	2122.325769
327.282561	2122.325769
327.676750	2029.064423
328.070874	2066.873077
328.464933	2044.187885
328.858929	2071.914231
329.252859	2097.120000
329.646726	2066.873077
330.040528	2107.202308
330.434265	2139.969808
330.827938	2099.640577
331.221547	2172.737308
331.615091	2182.819615
332.008571	2223.148846
332.401986	2213.066538
332.795338	2182.819615
333.188625	2286.163269
333.581847	2245.834038
333.975006	2301.286731
334.368100	2281.122115
334.761129	2356.739423
335.154095	2361.780577
335.546996	2321.451346
335.939833	2424.795000
336.332606	2339.095385
336.725315	2346.657115
337.117960	2359.260000
337.510540	2389.506923
337.903056	2417.233269
338.295508	2389.506923
338.687896	2371.862885
339.080220	2515.535769
339.472480	2455.041923
339.864676	2361.780577
340.256807	2419.753846
340.648875	2450.000769
341.040879	2447.480192
341.432818	2518.056346
341.824694	2404.630385
342.216506	2555.865000
342.608253	2550.823846
342.999937	2573.509038
343.391557	2437.397885
343.783113	2518.056346
344.174605	2477.727115
344.566033	2525.618077
344.957397	2444.959615
345.348697	2543.262115
345.739934	2442.439038
346.131106	2467.644808
346.522215	2568.467885
346.913260	2558.385577
347.304241	2394.548077
347.695159	2495.371154
348.086012	2472.685962
348.476802	2346.657115
348.867528	2462.603654
349.258191	2422.274423
349.648789	2432.356731
350.039324	2460.083077
350.429796	2502.932885
350.820203	2384.465769
351.210548	2439.918462
351.600828	2480.247692
351.991045	2384.465769
352.381198	2409.671538
352.771288	2502.932885
353.161314	2455.041923
353.551276	2475.206538
353.941175	2452.521346
354.331010	2409.671538
354.720782	2444.959615
355.110490	2422.274423
355.500135	2533.179808
355.889717	2434.877308
356.279235	2444.959615
356.668689	2492.850577
357.058080	2465.124231
357.447408	2490.330000
357.836672	2518.056346
358.225873	2412.192115
358.615010	2444.959615
359.004084	2366.821731
359.393095	2470.165385
359.782043	2427.315577
360.170927	2334.054231
360.559748	2366.821731
360.948505	2477.727115
361.337199	2475.206538
361.725830	2467.644808
362.114398	2432.356731
362.502903	2417.233269
362.891344	2442.439038
363.279722	2366.821731
363.668037	2487.809423
364.056289	2455.041923
364.444478	2417.233269
364.832603	2510.494615
365.220665	2376.904038
365.608665	2497.891731
365.996601	2513.015192
366.384474	2422.274423
366.772284	2480.247692
367.160031	2482.768269
367.547715	2497.891731
367.935336	2434.877308
368.322893	2485.288846
368.710388	2374.383462
369.097820	2429.836154
369.485189	2518.056346
369.872495	2386.986346
370.259738	2477.727115
370.646918	2442.439038
371.034035	2394.548077
371.421090	2432.356731
371.808081	2432.356731
372.195010	2376.904038
372.581875	2500.412308
372.968678	2417.233269
373.355418	2500.412308
373.742096	2485.288846
374.128710	2538.220962
374.515262	2434.877308
374.901751	2472.685962
375.288177	2439.918462
375.674540	2427.315577
376.060841	2422.274423
376.447079	2371.862885
376.833254	2379.424615
377.219367	2455.041923
377.605417	2472.685962
377.991404	2505.453462
378.377329	2515.535769
378.763191	2429.836154
379.148991	2422.274423
379.534727	2414.712692
379.920402	2432.356731
380.306013	2477.727115
380.691563	2475.206538
381.077049	2525.618077
381.462474	2442.439038
381.847835	2419.753846
382.233134	2432.356731
382.618371	2507.974038
383.003545	2482.768269
383.388657	2379.424615
383.773706	2470.165385
384.158693	2455.041923
384.543618	2447.480192
384.928480	2495.371154
385.313280	2450.000769
385.698017	2439.918462
386.082692	2497.891731
386.467305	2392.027500
386.851856	2417.233269
387.236344	2475.206538
387.620770	2480.247692
388.005133	2507.974038
388.389435	2475.206538
388.773674	2543.262115
389.157851	2407.150962
389.541965	2450.000769
389.926018	2492.850577
390.310008	2472.685962
390.693936	2490.330000
391.077802	2422.274423
391.461606	2485.288846
391.845348	2354.218846
392.229027	2419.753846
392.612645	2460.083077
392.996200	2409.671538
393.379694	2422.274423
393.763125	2492.850577
394.146494	2429.836154
394.529801	2515.535769
394.913047	2545.782692
395.296230	2480.247692
395.679351	2434.877308
396.062410	2444.959615
396.445408	2558.385577
396.828343	2417.233269
397.211217	2465.124231
397.594028	2558.385577
397.976778	2432.356731
398.359466	2457.562500
398.742092	2422.274423
399.124656	2507.974038
399.507158	2447.480192
399.889598	2510.494615
400.271977	2462.603654
400.654294	2354.218846
401.036549	2502.932885
401.418742	2442.439038
401.800874	2414.712692
402.182944	2505.453462
402.564952	2487.809423
402.946898	2500.412308
403.328783	2460.083077
403.710606	2497.891731
404.092367	2467.644808
404.474067	2467.644808
404.855705	2480.247692
405.237282	2384.465769
405.618797	2477.727115
406.000250	2497.891731
406.381642	2432.356731
406.762972	2485.288846
407.144240	2482.768269
407.525447	2402.109808
407.906593	2457.562500
408.287677	2525.618077
408.668700	2523.097500
409.049661	2535.700385
409.430560	2404.630385
409.811399	2518.056346
410.192176	2447.480192
410.572891	2540.741538
410.953545	2482.768269
411.334138	2472.685962
411.714669	2452.521346
412.095139	2518.056346
412.475547	2419.753846
412.855894	2439.918462
413.236180	2540.741538
413.616405	2455.041923
413.996568	2467.644808
414.376670	2470.165385
414.756711	2460.083077
415.136691	2505.453462
415.516609	2462.603654
415.896466	2528.138654
416.276262	2434.877308
416.655997	2480.247692
417.035670	2447.480192
417.415283	2384.465769
417.794834	2538.220962
418.174324	2422.274423
418.553753	2485.288846
418.933121	2513.015192
419.312428	2523.097500
419.691674	2452.521346
420.070859	2455.041923
420.449983	2472.685962
420.829045	2535.700385
421.208047	2444.959615
421.586988	2490.330000
421.965867	2513.015192
422.344686	2530.659231
422.723444	2538.220962
423.102141	2523.097500
423.480777	2394.548077
423.859352	2414.712692
424.237866	2540.741538
424.616319	2548.303269
424.994712	2495.371154
425.373044	2518.056346
425.751314	2457.562500
426.129524	2490.330000
426.507673	2502.932885
426.885762	2487.809423
427.263789	2472.685962
427.641756	2487.809423
428.019662	2500.412308
428.397508	2450.000769
428.775292	2497.891731
429.153016	2460.083077
429.530679	2588.632500
429.908282	2505.453462
430.285824	2510.494615
430.663305	2482.768269
431.040726	2540.741538
431.418086	2548.303269
431.795385	2513.015192
432.172624	2475.206538
432.549802	2465.124231
432.926920	2596.194231
433.303977	2507.974038
433.680974	2480.247692
434.057910	2507.974038
434.434786	2472.685962
434.811601	2462.603654
435.188355	2477.727115
435.565050	2465.124231
435.941683	2442.439038
436.318257	2480.247692
436.694770	2515.535769
437.071222	2487.809423
437.447614	2497.891731
437.823946	2450.000769
438.200218	2525.618077
438.576429	2457.562500
438.952580	2492.850577
439.328670	2472.685962
439.704700	2570.988462
440.080670	2507.974038
440.456580	2472.685962
440.832429	2475.206538
441.208218	2560.906154
441.583947	2515.535769
441.959616	2513.015192
442.335224	2525.618077
442.710773	2523.097500
443.086261	2384.465769
443.461689	2538.220962
443.837057	2460.083077
444.212365	2437.397885
444.587612	2490.330000
444.962800	2427.315577
445.337927	2361.780577
445.712995	2520.576923
446.088002	2462.603654
446.462949	2505.453462
446.837837	2457.562500
447.212664	2434.877308
447.587431	2450.000769
447.962139	2490.330000
448.336786	2371.862885
448.711374	2507.974038
449.085901	2432.356731
449.460369	2500.412308
449.834776	2460.083077
450.209124	2530.659231
450.583412	2462.603654
450.957640	2460.083077
451.331808	2500.412308
451.705917	2535.700385
452.079965	2535.700385
452.453954	2495.371154
452.827883	2520.576923
453.201752	2510.494615
453.575562	2392.027500
453.949311	2417.233269
454.323001	2573.509038
454.696632	2450.000769
455.070202	2540.741538
455.443713	2419.753846
455.817164	2482.768269
456.190556	2500.412308
456.563888	2480.247692
456.937160	2450.000769
457.310373	2424.795000
457.683526	2505.453462
458.056619	2439.918462
458.429653	2485.288846
458.802628	2475.206538
459.175542	2528.138654
459.548398	2497.891731
459.921194	2460.083077
460.293930	2482.768269
460.666607	2442.439038
461.039224	2513.015192
461.411782	2442.439038
461.784280	2510.494615
462.156719	2399.589231
462.529099	2465.124231
462.901419	2434.877308
463.273680	2439.918462
463.645882	2545.782692
464.018024	2515.535769
464.390106	2507.974038
464.762130	2447.480192
465.134094	2525.618077
465.505999	2513.015192
465.877845	2442.439038
466.249631	2578.550192
466.621358	2447.480192
466.993026	2538.220962
467.364634	2550.823846
467.736184	2535.700385
468.107674	2482.768269
468.479105	2482.768269
468.850477	2492.850577
469.221790	2515.535769
469.593043	2538.220962
469.964238	2505.453462
470.335373	2515.535769
470.706449	2540.741538
471.077467	2452.521346
471.448425	2487.809423
471.819324	2487.809423
472.190164	2568.467885
472.560945	2480.247692
472.931667	2434.877308
473.302330	2538.220962
473.672934	2432.356731
474.043479	2482.768269
474.413965	2505.453462
474.784393	2533.179808
475.154761	2492.850577
475.525070	2550.823846
475.895321	2455.041923
476.265513	2492.850577
476.635645	2465.124231
477.005719	2581.070769
477.375734	2470.165385
477.745691	2472.685962
478.115588	2379.424615
478.485427	2528.138654
478.855207	2530.659231
479.224928	2550.823846
479.594591	2465.124231
479.964194	2439.918462
480.333739	2442.439038
480.703226	2490.330000
481.072653	2475.206538
481.442022	2558.385577
481.811333	2596.194231
482.180584	2470.165385
482.549777	2424.795000
482.918912	2417.233269
483.287988	2538.220962
483.657005	2553.344423
484.025964	2460.083077
484.394864	2548.303269
484.763706	2452.521346
485.132489	2452.521346
485.501213	2515.535769
485.869879	2460.083077
486.238487	2497.891731
486.607036	2480.247692
486.975527	2535.700385
487.343959	2477.727115
487.712333	2535.700385
488.080648	2457.562500
488.448905	2465.124231
488.817104	2432.356731
489.185244	2452.521346
489.553326	2482.768269
489.921350	2502.932885
490.289315	2472.685962
490.657222	2444.959615
491.025070	2515.535769
491.392861	2581.070769
491.760593	2490.330000
492.128267	2439.918462
492.495883	2538.220962
492.863440	2528.138654
493.230939	2444.959615
493.598380	2414.712692
493.965763	2444.959615
494.333088	2432.356731
494.700354	2553.344423
495.067563	2482.768269
495.434713	2457.562500
495.801805	2502.932885
496.168839	2495.371154
496.535815	2505.453462
496.902733	2540.741538
497.269593	2502.932885
497.636395	2439.918462
498.003139	2417.233269
498.369825	2437.397885
498.736453	2520.576923
499.103023	2500.412308
499.469535	2515.535769
499.835989	2543.262115
500.202385	2553.344423
500.568723	2540.741538
500.935003	2520.576923
501.301226	2462.603654
501.667390	2495.371154
502.033497	2505.453462
502.399546	2550.823846
502.765537	2520.576923
503.131470	2470.165385
503.497345	2422.274423
503.863163	2548.303269
504.228923	2490.330000
504.594625	2555.865000
504.960269	2535.700385
505.325856	2429.836154
505.691385	2543.262115
506.056856	2520.576923
506.422270	2482.768269
506.787625	2437.397885
507.152924	2500.412308
507.518164	2485.288846
507.883347	2485.288846
508.248472	2424.795000
508.613540	2492.850577
508.978550	2525.618077
509.343503	2467.644808
509.708398	2482.768269
510.073236	2432.356731
510.438016	2525.618077
510.802738	2472.685962
511.167403	2482.768269
511.532010	2505.453462
511.896561	2540.741538
512.261053	2417.233269
512.625488	2510.494615
512.989866	2545.782692
513.354186	2467.644808
513.718449	2460.083077
514.082655	2553.344423
514.446803	2444.959615
514.810894	2502.932885
515.174927	2487.809423
515.538904	2570.988462
515.902822	2475.206538
516.266684	2533.179808
516.630488	2500.412308
516.994235	2497.891731
517.357925	2475.206538
517.721558	2487.809423
518.085133	2450.000769
518.448651	2505.453462
518.812112	2497.891731
519.175516	2427.315577
519.538863	2477.727115
519.902152	2505.453462
520.265385	2482.768269
520.628560	2492.850577
520.991678	2563.426731
521.354739	2558.385577
521.717743	2467.644808
522.080690	2500.412308
522.443580	2505.453462
522.806413	2525.618077
523.169189	2502.932885
523.531908	2513.015192
523.894569	2530.659231
524.257174	2502.932885
524.619722	2497.891731
524.982213	2444.959615
525.344647	2409.671538
525.707025	2601.235385
526.069345	2530.659231
526.431608	2518.056346
526.793815	2437.397885
527.155964	2550.823846
527.518057	2576.029615
527.880093	2455.041923
528.242072	2563.426731
528.603995	2553.344423
528.965860	2560.906154
529.327669	2492.850577
529.689421	2472.685962
530.051117	2444.959615
530.412755	2485.288846
530.774337	2475.206538
531.135862	2475.206538
531.497331	2520.576923
531.858743	2513.015192
532.220098	2497.891731
532.581396	2462.603654
532.942638	2482.768269
533.303824	2485.288846
533.664953	2439.918462
534.026025	2452.521346
534.387040	2470.165385
534.747999	2540.741538
535.108902	2507.974038
535.469748	2495.371154
535.830537	2485.288846
536.191270	2495.371154
536.551947	2480.247692
536.912567	2412.192115
537.273131	2487.809423
537.633638	2487.809423
537.994089	2492.850577
538.354483	2550.823846
538.714821	2480.247692
539.075103	2507.974038
539.435328	2573.509038
539.795497	2480.247692
540.155609	2505.453462
540.515665	2455.041923
540.875665	2538.220962
541.235609	2475.206538
541.595496	2495.371154
541.955328	2518.056346
542.315102	2533.179808
542.674821	2558.385577
543.034483	2533.179808
543.394090	2502.932885
543.753640	2452.521346
544.113134	2545.782692
544.472571	2513.015192
544.831953	2480.247692
545.191278	2545.782692
545.550548	2540.741538
545.909761	2608.797115
546.268918	2550.823846
546.628019	2450.000769
546.987064	2492.850577
547.346053	2465.124231
547.704986	2447.480192
548.063863	2525.618077
548.422684	2520.576923
548.781449	2490.330000
549.140158	2487.809423
549.498811	2497.891731
549.857408	2497.891731
550.215949	2500.412308
550.574434	2535.700385
550.932864	2432.356731
551.291237	2528.138654
551.649555	2513.015192
552.007817	2591.153077
552.366022	2477.727115
552.724173	2515.535769
553.082267	2437.397885
553.440305	2505.453462
553.798288	2439.918462
554.156215	2523.097500
554.514086	2497.891731
554.871902	2502.932885
555.229661	2472.685962
555.587365	2500.412308
555.945014	2480.247692
556.302606	2593.673654
556.660143	2460.083077
557.017625	2475.206538
557.375050	2490.330000
557.732421	2520.576923
558.089735	2490.330000
558.446994	2495.371154
558.804197	2502.932885
559.161345	2460.083077
559.518437	2460.083077
559.875474	2495.371154
560.232455	2528.138654
560.589381	2429.836154
560.946251	2540.741538
561.303065	2495.371154
561.659825	2412.192115
562.016528	2513.015192
562.373177	2475.206538
562.729770	2475.206538
563.086307	2487.809423
563.442789	2490.330000
563.799216	2475.206538
564.155587	2528.138654
564.511904	2427.315577
564.868164	2492.850577
565.224370	2475.206538
565.580520	2548.303269
565.936615	2402.109808
566.292654	2533.179808
566.648638	2465.124231
567.004567	2507.974038
567.360441	2502.932885
567.716260	2470.165385
568.072023	2470.165385
568.427732	2407.150962
568.783385	2482.768269
569.138982	2525.618077
569.494525	2555.865000
569.850013	2475.206538
570.205445	2568.467885
570.560823	2581.070769
570.916145	2452.521346
571.271412	2523.097500
571.626625	2477.727115
571.981782	2497.891731
572.336884	2510.494615
572.691931	2540.741538
573.046923	2455.041923
573.401860	2518.056346
573.756743	2528.138654
574.111570	2550.823846
574.466342	2455.041923
574.821059	2392.027500
575.175722	2457.562500
575.530330	2442.439038
575.884882	2530.659231
576.239380	2502.932885
576.593823	2434.877308
576.948211	2472.685962
577.302544	2485.288846
577.656823	2439.918462
578.011047	2485.288846
578.365216	2472.685962
578.719330	2490.330000
579.073389	2502.932885
579.427394	2450.000769
579.781344	2553.344423
580.135239	2525.618077
580.489080	2520.576923
580.842866	2495.371154
581.196597	2530.659231
581.550273	2560.906154
581.903895	2482.768269
582.257463	2495.371154
582.610975	2492.850577
582.964434	2460.083077
583.317837	2560.906154
583.671186	2505.453462
584.024481	2462.603654
584.377721	2480.247692
584.730906	2434.877308
585.084037	2570.988462
585.437113	2543.262115
585.790135	2520.576923
586.143103	2570.988462
586.496016	2477.727115
586.848874	2429.836154
587.201679	2535.700385
587.554428	2485.288846
587.907124	2490.330000
588.259765	2507.974038
588.612352	2460.083077
588.964884	2502.932885
589.317362	2477.727115
589.669786	2460.083077
590.022155	2513.015192
590.374470	2535.700385
590.726731	2576.029615
591.078937	2523.097500
591.431090	2530.659231
591.783188	2515.535769
592.135232	2477.727115
592.487222	2518.056346
592.839157	2495.371154
593.191038	2414.712692
593.542866	2432.356731
593.894639	2477.727115
594.246358	2513.015192
594.598022	2447.480192
594.949633	2513.015192
595.301190	2545.782692
595.652692	2558.385577
596.004141	2505.453462
596.355535	2442.439038
596.706876	2586.111923
597.058162	2507.974038
597.409395	2437.397885
597.760573	2507.974038
598.111698	2475.206538
598.462768	2482.768269
598.813785	2477.727115
599.164748	2442.439038
599.515657	2497.891731
599.866511	2523.097500
600.217312	2500.412308
600.568060	2528.138654
600.918753	2465.124231
601.269392	2422.274423
601.619978	2565.947308
601.970510	2500.412308
602.320988	2523.097500
602.671412	2533.179808
603.021783	2470.165385
603.372100	2568.467885
603.722363	2470.165385
604.072572	2550.823846
604.422728	2475.206538
604.772830	2485.288846
605.122878	2482.768269
605.472872	2495.371154
605.822813	2485.288846
606.172701	2533.179808
606.522534	2507.974038
606.872314	2460.083077
607.222041	2422.274423
607.571714	2523.097500
607.921333	2465.124231
608.270899	2518.056346
608.620411	2520.576923
608.969870	2565.947308
609.319276	2424.795000
609.668627	2513.015192
610.017926	2447.480192
610.367171	2460.083077
610.716362	2467.644808
611.065500	2432.356731
611.414585	2475.206538
611.763616	2477.727115
612.112594	2596.194231
612.461518	2502.932885
612.810389	2444.959615
613.159207	2427.315577
613.507971	2588.632500
613.856682	2417.233269
614.205340	2414.712692
614.553945	2462.603654
614.902496	2497.891731
615.250994	2533.179808
615.599439	2502.932885
615.947830	2543.262115
616.296169	2535.700385
616.644454	2497.891731
616.992686	2434.877308
617.340864	2475.206538
617.688990	2495.371154
618.037063	2583.591346
618.385082	2573.509038
618.733048	2513.015192
619.080961	2502.932885
619.428821	2487.809423
619.776628	2480.247692
620.124382	2470.165385
620.472083	2515.535769
620.819731	2525.618077
621.167326	2472.685962
621.514868	2515.535769
621.862357	2525.618077
622.209793	2442.439038
622.557176	2397.068654
622.904506	2520.576923
623.251783	2467.644808
623.599007	2563.426731
623.946179	2480.247692
624.293297	2523.097500
624.640363	2460.083077
624.987376	2467.644808
625.334336	2434.877308
625.681243	2530.659231
626.028097	2510.494615
626.374899	2419.753846
626.721647	2437.397885
627.068343	2492.850577
627.414987	2434.877308
627.761577	2455.041923
628.108115	2535.700385
628.454600	2513.015192
628.801032	2545.782692
629.147412	2518.056346
629.493739	2497.891731
629.840014	2507.974038
630.186236	2434.877308
630.532405	2442.439038
630.878521	2422.274423
631.224585	2523.097500
631.570597	2467.644808
631.916556	2381.945192
632.262462	2475.206538
632.608316	2500.412308
632.954117	2500.412308
633.299866	2457.562500
633.645562	2470.165385
633.991206	2533.179808
634.336797	2460.083077
634.682336	2535.700385
635.027823	2492.850577
635.373257	2485.288846
635.718639	2480.247692
636.063968	2490.330000
636.409245	2467.644808
636.754470	2525.618077
637.099642	2472.685962
637.444762	2535.700385
637.789829	2495.371154
638.134845	2543.262115
638.479808	2482.768269
638.824719	2550.823846
639.169577	2442.439038
639.514383	2558.385577
639.859137	2439.918462
640.203839	2520.576923
640.548489	2565.947308
640.893086	2414.712692
641.237632	2437.397885
641.582125	2535.700385
641.926566	2450.000769
642.270955	2462.603654
642.615292	2558.385577
642.959576	2472.685962
643.303809	2543.262115
643.647990	2465.124231
643.992118	2465.124231
644.336195	2432.356731
644.680219	2495.371154
645.024192	2455.041923
645.368112	2477.727115
645.711981	2457.562500
646.055797	2500.412308
646.399562	2462.603654
646.743274	2518.056346
647.086935	2513.015192
647.430544	2558.385577
647.774101	2495.371154
648.117606	2465.124231
648.461059	2492.850577
648.804460	2520.576923
649.147810	2558.385577
649.491108	2492.850577
649.834354	2533.179808
650.177548	2374.383462
650.520690	2505.453462
650.863781	2477.727115
651.206820	2515.535769
651.549807	2550.823846
651.892742	2497.891731
652.235626	2558.385577
652.578458	2467.644808
652.921238	2492.850577
653.263967	2535.700385
653.606644	2442.439038
653.949269	2533.179808
654.291843	2487.809423
654.634365	2515.535769
654.976836	2361.780577
655.319255	2555.865000
655.661622	2520.576923
656.003938	2482.768269
656.346203	2593.673654
656.688416	2455.041923
657.030577	2507.974038
657.372687	2515.535769
657.714746	2555.865000
658.056753	2530.659231
658.398708	2533.179808
658.740612	2437.397885
659.082465	2422.274423
659.424266	2427.315577
659.766016	2475.206538
660.107715	2450.000769
660.449362	2502.932885
660.790958	2465.124231
661.132503	2422.274423
661.473996	2507.974038
661.815438	2475.206538
662.156829	2530.659231
662.498168	2538.220962
662.839456	2535.700385
663.180693	2422.274423
663.521879	2487.809423
663.863013	2429.836154
664.204097	2603.755962
664.545129	2573.509038
664.886110	2500.412308
665.227040	2477.727115
665.567918	2490.330000
665.908746	2520.576923
666.249522	2495.371154
666.590248	2475.206538
666.930922	2492.850577
667.271545	2535.700385
667.612118	2555.865000
667.952639	2482.768269
668.293109	2548.303269
668.633528	2545.782692
668.973896	2472.685962
669.314213	2538.220962
669.654480	2545.782692
669.994695	2487.809423
670.334859	2467.644808
670.674973	2535.700385
671.015035	2497.891731
671.355047	2563.426731
671.695008	2477.727115
672.034918	2543.262115
672.374777	2528.138654
672.714585	2432.356731
673.054342	2565.947308
673.394049	2477.727115
673.733705	2465.124231
674.073310	2553.344423
674.412864	2495.371154
674.752368	2507.974038
675.091820	2437.397885
675.431223	2447.480192
675.770574	2515.535769
676.109875	2518.056346
676.449125	2507.974038
676.788324	2548.303269
677.127473	2457.562500
677.466571	2502.932885
677.805619	2538.220962
678.144616	2477.727115
678.483562	2497.891731
678.822458	2462.603654
679.161303	2576.029615
679.500098	2492.850577
679.838842	2523.097500
680.177535	2452.521346
680.516179	2460.083077
680.854771	2487.809423
681.193314	2510.494615
681.531805	2480.247692
681.870247	2434.877308
682.208638	2495.371154
682.546978	2492.850577
682.885268	2535.700385
683.223508	2444.959615
683.561697	2477.727115
683.899836	2437.397885
684.237925	2434.877308
684.575963	2427.315577
684.913951	2502.932885
685.251889	2548.303269
685.589776	2457.562500
685.927614	2472.685962
686.265401	2422.274423
686.603137	2485.288846
686.940824	2523.097500
687.278460	2457.562500
687.616046	2480.247692
687.953582	2404.630385
688.291068	2533.179808
688.628504	2455.041923
688.965889	2407.150962
689.303224	2475.206538
689.640510	2533.179808
689.977745	2555.865000
690.314930	2528.138654
690.652065	2487.809423
690.989150	2452.521346
691.326185	2495.371154
691.663170	2578.550192
692.000105	2427.315577
692.336990	2462.603654
692.673825	2374.383462
693.010610	2558.385577
693.347345	2578.550192
693.684030	2361.780577
694.020665	2475.206538
694.357251	2397.068654
694.693786	2553.344423
695.030272	2482.768269
695.366707	2520.576923
695.703093	2422.274423
696.039429	2502.932885
696.375716	2586.111923
696.711952	2439.918462
697.048139	2480.247692
697.384276	2465.124231
697.720363	2586.111923
698.056400	2543.262115
698.392388	2419.753846
698.728326	2535.700385
699.064214	2467.644808
699.400053	2432.356731
699.735842	2510.494615
700.071581	2444.959615
700.407270	2528.138654
700.742910	2462.603654
701.078501	2560.906154
701.414042	2465.124231
701.749533	2497.891731
702.084974	2477.727115
702.420366	2520.576923
702.755709	2500.412308
703.091002	2548.303269
703.426246	2528.138654
703.761440	2492.850577
704.096584	2525.618077
704.431679	2485.288846
704.766725	2467.644808
705.101721	2492.850577
705.436668	2545.782692
705.771565	2422.274423
706.106413	2487.809423
706.441212	2402.109808
706.775961	2515.535769
707.110661	2432.356731
707.445311	2525.618077
707.779913	2492.850577
708.114465	2535.700385
708.448967	2513.015192
708.783421	2505.453462
709.117825	2502.932885
709.452180	2480.247692
709.786485	2543.262115
710.120742	2490.330000
710.454949	2528.138654
710.789107	2530.659231
711.123216	2505.453462
711.457275	2525.618077
711.791286	2444.959615
712.125247	2462.603654
712.459159	2490.330000
712.793023	2467.644808
713.126837	2513.015192
713.460602	2523.097500
713.794318	2500.412308
714.127985	2470.165385
714.461602	2472.685962
714.795171	2429.836154
715.128691	2520.576923
715.462162	2470.165385
715.795584	2490.330000
716.128957	2520.576923
716.462281	2480.247692
716.795556	2465.124231
717.128782	2480.247692
717.461960	2525.618077
717.795088	2530.659231
718.128167	2465.124231
718.461198	2502.932885
718.794180	2485.288846
719.127113	2502.932885
719.459997	2570.988462
719.792833	2553.344423
720.125619	2576.029615
720.458357	2487.809423
720.791046	2455.041923
721.123686	2480.247692
721.456278	2565.947308
721.788821	2477.727115
722.121315	2497.891731
722.453761	2457.562500
722.786158	2545.782692
723.118506	2467.644808
723.450805	2497.891731
723.783056	2628.961731
724.115259	2472.685962
724.447412	2457.562500
724.779518	2593.673654
725.111574	2432.356731
725.443582	2543.262115
725.775542	2581.070769
726.107453	2523.097500
726.439315	2530.659231
726.771129	2545.782692
727.102895	2470.165385
727.434612	2399.589231
727.766281	2550.823846
728.097901	2510.494615
728.429473	2523.097500
728.760996	2465.124231
729.092471	2525.618077
729.423897	2530.659231
729.755276	2515.535769
730.086606	2384.465769
730.417887	2568.467885
730.749120	2507.974038
731.080305	2455.041923
731.411442	2482.768269
731.742530	2497.891731
732.073570	2513.015192
732.404562	2477.727115
732.735506	2523.097500
733.066401	2485.288846
733.397249	2497.891731
733.728048	2545.782692
734.058798	2422.274423
734.389501	2414.712692
734.720156	2588.632500
735.050762	2442.439038
735.381320	2497.891731
735.711831	2555.865000
736.042293	2462.603654
736.372707	2513.015192
736.703073	2475.206538
737.033391	2487.809423
737.363661	2467.644808
737.693883	2520.576923
738.024056	2495.371154
738.354182	2487.809423
738.684260	2452.521346
739.014290	2507.974038
739.344272	2409.671538
739.674207	2573.509038
740.004093	2573.509038
740.333931	2540.741538
740.663722	2477.727115
740.993464	2510.494615
741.323159	2560.906154
741.652806	2515.535769
741.982405	2455.041923
742.311956	2477.727115
742.641460	2424.795000
742.970915	2505.453462
743.300323	2447.480192
743.629683	2533.179808
743.958996	2477.727115
744.288260	2573.509038
744.617477	2513.015192
744.946647	2482.768269
745.275768	2475.206538
745.604842	2518.056346
745.933869	2485.288846
746.262847	2545.782692
746.591778	2520.576923
746.920662	2477.727115
747.249498	2452.521346
747.578286	2528.138654
747.907027	2452.521346
748.235720	2525.618077
748.564365	2447.480192
748.892963	2525.618077
749.221514	2523.097500
749.550017	2490.330000
749.878473	2528.138654
750.206881	2538.220962
750.535242	2518.056346
750.863555	2500.412308
751.191821	2434.877308
751.520039	2543.262115
751.848210	2588.632500
752.176334	2462.603654
752.504411	2530.659231
752.832440	2523.097500
753.160421	2470.165385
753.488356	2548.303269
753.816243	2460.083077
754.144082	2434.877308
754.471875	2450.000769
754.799620	2510.494615
755.127318	2492.850577
755.454969	2530.659231
755.782572	2437.397885
756.110129	2520.576923
756.437638	2490.330000
756.765100	2490.330000
757.092515	2545.782692
757.419882	2523.097500
757.747203	2510.494615
758.074477	2480.247692
758.401703	2515.535769
758.728882	2472.685962
759.056014	2480.247692
759.383099	2591.153077
759.710138	2465.124231
760.037129	2402.109808
760.364073	2455.041923
760.690970	2480.247692
761.017820	2455.041923
761.344623	2492.850577
761.671379	2429.836154
761.998088	2538.220962
762.324751	2500.412308
762.651366	2467.644808
762.977935	2500.412308
763.304456	2495.371154
763.630931	2548.303269
763.957359	2439.918462
764.283740	2422.274423
764.610074	2555.865000
764.936362	2568.467885
765.262602	2533.179808
765.588796	2510.494615
765.914943	2545.782692
766.241044	2497.891731
766.567097	2492.850577
766.893104	2480.247692
767.219064	2424.795000
767.544978	2472.685962
767.870845	2482.768269
768.196665	2500.412308
768.522438	2500.412308
768.848165	2507.974038
769.173846	2495.371154
769.499479	2414.712692
769.825066	2530.659231
770.150607	2581.070769
770.476101	2492.850577
770.801548	2538.220962
771.126949	2447.480192
771.452303	2490.330000
771.777611	2485.288846
772.102872	2460.083077
772.428087	2477.727115
772.753256	2452.521346
773.078378	2465.124231
773.403453	2482.768269
773.728482	2455.041923
774.053465	2472.685962
774.378401	2505.453462
774.703291	2467.644808
775.028135	2414.712692
775.352932	2432.356731
775.677683	2555.865000
776.002388	2513.015192
776.327046	2502.932885
776.651658	2432.356731
776.976224	2570.988462
777.300743	2442.439038
777.625216	2480.247692
777.949643	2520.576923
778.274024	2490.330000
778.598359	2444.959615
778.922647	2485.288846
779.246889	2490.330000
779.571086	2500.412308
779.895236	2500.412308
780.219339	2412.192115
780.543397	2442.439038
780.867409	2480.247692
781.191374	2520.576923
781.515294	2530.659231
781.839167	2505.453462
782.162995	2490.330000
782.486776	2409.671538
782.810511	2495.371154
783.134201	2460.083077
783.457844	2487.809423
783.781441	2450.000769
784.104993	2505.453462
784.428498	2467.644808
784.751958	2515.535769
785.075372	2477.727115
785.398739	2606.276538
785.722061	2472.685962
786.045337	2472.685962
786.368568	2417.233269
786.691752	2502.932885
787.014891	2412.192115
787.337983	2475.206538
787.661030	2485.288846
787.984031	2487.809423
788.306987	2555.865000
788.629897	2495.371154
788.952760	2462.603654
789.275579	2507.974038
789.598351	2507.974038
789.921078	2457.562500
790.243759	2497.891731
790.566395	2450.000769
790.888984	2482.768269
791.211529	2543.262115
791.534027	2457.562500
791.856480	2472.685962
792.178888	2475.206538
792.501249	2485.288846
792.823566	2490.330000
793.145836	2452.521346
793.468062	2505.453462
793.790241	2487.809423
794.112375	2538.220962
794.434464	2535.700385
794.756507	2530.659231
795.078505	2422.274423
795.400457	2457.562500
795.722364	2507.974038
796.044226	2432.356731
796.366042	2465.124231
796.687812	2505.453462
797.009538	2513.015192
797.331218	2467.644808
797.652852	2409.671538
797.974442	2482.768269
798.295986	2553.344423
798.617484	2500.412308
798.938938	2477.727115
799.260346	2550.823846
799.581709	2444.959615
799.903026	2515.535769
800.224299	2419.753846
800.545526	2427.315577
800.866708	2540.741538
801.187845	2472.685962
801.508936	2457.562500
801.829983	2470.165385
802.150984	2452.521346
802.471940	2475.206538
802.792851	2480.247692
803.113717	2518.056346
803.434538	2414.712692
803.755314	2535.700385
804.076045	2457.562500
804.396731	2576.029615
804.717372	2523.097500
805.037967	2467.644808
805.358518	2492.850577
805.679024	2457.562500
805.999485	2392.027500
806.319901	2576.029615
806.640272	2553.344423
806.960598	2525.618077
807.280879	2518.056346
807.601115	2505.453462
807.921306	2593.673654
808.241453	2485.288846
808.561554	2538.220962
808.881611	2457.562500
809.201623	2507.974038
809.521590	2515.535769
809.841513	2538.220962
810.161390	2472.685962
810.481223	2467.644808
810.801011	2472.685962
811.120755	2578.550192
811.440453	2487.809423
811.760107	2510.494615
812.079716	2528.138654
812.399281	2520.576923
812.718801	2402.109808
813.038276	2482.768269
813.357707	2480.247692
813.677093	2563.426731
813.996434	2540.741538
814.315731	2485.288846
814.634983	2540.741538
814.954191	2500.412308
815.273354	2515.535769
815.592473	2475.206538
815.911547	2513.015192
816.230577	2525.618077
816.549562	2535.700385
816.868502	2548.303269
817.187399	2392.027500
817.506250	2565.947308
817.825058	2533.179808
818.143821	2492.850577
818.462539	2558.385577
818.781213	2475.206538
819.099843	2497.891731
819.418429	2530.659231
819.736970	2384.465769
820.055466	2462.603654
820.373919	2467.644808
820.692327	2507.974038
821.010691	2475.206538
821.329011	2553.344423
821.647286	2515.535769
821.965517	2548.303269
822.283704	2518.056346
822.601847	2462.603654
822.919945	2475.206538
823.237999	2497.891731
823.556010	2417.233269
823.873976	2482.768269
824.191897	2480.247692
824.509775	2538.220962
824.827609	2492.850577
825.145398	2558.385577
825.463144	2414.712692
825.780845	2480.247692
826.098502	2492.850577
826.416116	2520.576923
826.733685	2528.138654
827.051210	2543.262115
827.368692	2510.494615
827.686129	2535.700385
828.003522	2409.671538
828.320872	2543.262115
828.638177	2444.959615
828.955439	2505.453462
829.272656	2462.603654
829.589830	2409.671538
829.906960	2465.124231
830.224046	2538.220962
830.541088	2472.685962
830.858086	2500.412308
831.175041	2520.576923
831.491952	2487.809423
831.808819	2497.891731
832.125642	2490.330000
832.442421	2495.371154
832.759157	2475.206538
833.075849	2513.015192
833.392497	2452.521346
833.709101	2490.330000
834.025662	2437.397885
834.342179	2538.220962
834.658653	2525.618077
834.975083	2525.618077
835.291469	2465.124231
835.607811	2558.385577
835.924110	2533.179808
836.240366	2528.138654
836.556578	2523.097500
836.872746	2477.727115
837.188871	2452.521346
837.504952	2586.111923
837.820990	2553.344423
838.136984	2510.494615
838.452935	2533.179808
838.768842	2500.412308
839.084706	2397.068654
839.400526	2485.288846
839.716303	2505.453462
840.032037	2495.371154
840.347727	2520.576923
840.663373	2553.344423
840.978977	2492.850577
841.294537	2513.015192
841.610054	2553.344423
841.925527	2535.700385
842.240957	2586.111923
842.556344	2525.618077
842.871687	2490.330000
843.186987	2485.288846
843.502244	2533.179808
843.817458	2462.603654
844.132629	2492.850577
844.447756	2520.576923
844.762840	2492.850577
845.077881	2505.453462
845.392879	2480.247692
845.707833	2434.877308
846.022745	2510.494615
846.337613	2480.247692
846.652438	2472.685962
846.967221	2495.371154
847.281960	2523.097500
847.596656	2439.918462
847.911309	2550.823846
848.225919	2424.795000
848.540485	2397.068654
848.855009	2470.165385
849.169490	2460.083077
849.483928	2520.576923
849.798323	2533.179808
850.112675	2447.480192
850.426984	2500.412308
850.741251	2475.206538
851.055474	2460.083077
851.369654	2535.700385
851.683792	2487.809423
851.997887	2510.494615
852.311938	2437.397885
852.625947	2490.330000
852.939914	2412.192115
853.253837	2477.727115
853.567718	2490.330000
853.881555	2462.603654
854.195350	2525.618077
854.509103	2586.111923
854.822812	2472.685962
855.136479	2470.165385
855.450103	2460.083077
855.763685	2568.467885
856.077224	2482.768269
856.390720	2510.494615
856.704173	2525.618077
857.017584	2460.083077
857.330953	2507.974038
857.644278	2480.247692
857.957561	2570.988462
858.270802	2462.603654
858.584000	2434.877308
858.897155	2538.220962
859.210268	2545.782692
859.523339	2450.000769
859.836367	2535.700385
860.149352	2497.891731
860.462295	2447.480192
860.775195	2467.644808
861.088054	2515.535769
861.400869	2482.768269
861.713642	2528.138654
862.026373	2472.685962
862.339062	2533.179808
862.651708	2523.097500
862.964312	2545.782692
863.276873	2578.550192
863.589392	2515.535769
863.901869	2465.124231
864.214303	2480.247692
864.526696	2442.439038
864.839045	2518.056346
865.151353	2573.509038
865.463619	2482.768269
865.775842	2540.741538
866.088023	2470.165385
866.400162	2432.356731
866.712258	2515.535769
867.024313	2455.041923
867.336325	2550.823846
867.648296	2475.206538
867.960224	2545.782692
868.272110	2482.768269
868.583954	2507.974038
868.895755	2550.823846
869.207515	2578.550192
869.519233	2402.109808
869.830909	2439.918462
870.142542	2482.768269
870.454134	2510.494615
870.765684	2427.315577
871.077191	2530.659231
871.388657	2510.494615
871.700081	2475.206538
872.011463	2424.795000
872.322803	2477.727115
872.634101	2510.494615
872.945357	2455.041923
873.256571	2528.138654
873.567744	2472.685962
873.878874	2472.685962
874.189963	2535.700385
874.501010	2437.397885
874.812015	2538.220962
875.122979	2455.041923
875.433900	2495.371154
875.744780	2452.521346
876.055618	2472.685962
876.366415	2492.850577
876.677169	2558.385577
876.987882	2523.097500
877.298554	2535.700385
877.609183	2480.247692
877.919771	2485.288846
878.230317	2497.891731
878.540822	2525.618077
878.851285	2482.768269
879.161707	2500.412308
879.472087	2492.850577
879.782425	2477.727115
880.092722	2558.385577
880.402977	2535.700385
880.713191	2490.330000
881.023363	2505.453462
881.333494	2502.932885
881.643583	2482.768269
881.953631	2487.809423
882.263637	2505.453462
882.573602	2543.262115
882.883526	2490.330000
883.193408	2530.659231
883.503248	2492.850577
883.813048	2457.562500
884.122806	2530.659231
884.432522	2460.083077
884.742197	2490.330000
885.051831	2535.700385
885.361424	2533.179808
885.670975	2460.083077
885.980485	2570.988462
886.289954	2570.988462
886.599382	2432.356731
886.908768	2550.823846
887.218113	2470.165385
887.527417	2470.165385
887.836680	2384.465769
888.145901	2540.741538
888.455082	2485.288846
888.764221	2495.371154
889.073319	2520.576923
889.382376	2497.891731
889.691392	2540.741538
890.000366	2502.932885
890.309300	2548.303269
890.618193	2570.988462
890.927044	2507.974038
891.235855	2525.618077
891.544625	2490.330000
891.853353	2492.850577
892.162041	2485.288846
892.470687	2528.138654
892.779293	2392.027500
893.087858	2495.371154
893.396381	2434.877308
893.704864	2598.714808
894.013306	2497.891731
894.321707	2565.947308
894.630068	2432.356731
894.938387	2507.974038
895.246665	2422.274423
895.554903	2507.974038
895.863100	2447.480192
896.171256	2444.959615
896.479371	2462.603654
896.787446	2475.206538
897.095480	2497.891731
897.403473	2568.467885
897.711425	2593.673654
898.019336	2434.877308
898.327207	2518.056346
898.635038	2482.768269
898.942827	2477.727115
899.250576	2550.823846
899.558284	2427.315577
899.865952	2477.727115
900.173579	2424.795000
900.481165	2523.097500
900.788711	2434.877308
901.096216	2487.809423
901.403681	2563.426731
901.711105	2407.150962
902.018489	2540.741538
902.325832	2482.768269
902.633135	2487.809423
902.940397	2439.918462
903.247619	2472.685962
903.554800	2424.795000
903.861941	2565.947308
904.169041	2502.932885
904.476101	2530.659231
904.783121	2485.288846
905.090100	2507.974038
905.397039	2548.303269
905.703938	2535.700385
906.010796	2490.330000
906.317614	2573.509038
906.624391	2437.397885
906.931129	2563.426731
907.237826	2523.097500
907.544483	2465.124231
907.851099	2444.959615
908.157675	2538.220962
908.464211	2525.618077
908.770707	2419.753846
909.077163	2497.891731
909.383578	2477.727115
909.689954	2507.974038
909.996289	2427.315577
910.302584	2434.877308
910.608839	2472.685962
910.915054	2538.220962
911.221229	2492.850577
911.527363	2558.385577
911.833458	2513.015192
912.139513	2460.083077
912.445527	2477.727115
912.751502	2560.906154
913.057436	2422.274423
913.363331	2505.453462
913.669186	2485.288846
913.975000	2467.644808
914.280775	2495.371154
914.586510	2490.330000
914.892205	2513.015192
915.197859	2477.727115
915.503475	2533.179808
915.809050	2427.315577
916.114585	2495.371154
916.420081	2450.000769
916.725536	2507.974038
917.030952	2505.453462
917.336328	2502.932885
917.641665	2477.727115
917.946961	2540.741538
918.252218	2513.015192
918.557435	2502.932885
918.862612	2465.124231
919.167750	2518.056346
919.472848	2535.700385
919.777906	2555.865000
920.082925	2485.288846
920.387904	2492.850577
920.692843	2482.768269
920.997743	2538.220962
921.302603	2523.097500
921.607423	2502.932885
921.912204	2576.029615
922.216946	2434.877308
922.521647	2523.097500
922.826310	2465.124231
923.130932	2485.288846
923.435516	2578.550192
923.740059	2477.727115
924.044564	2525.618077
924.349028	2497.891731
924.653454	2573.509038
924.957840	2457.562500
925.262186	2482.768269
925.566493	2462.603654
925.870761	2462.603654
926.174989	2470.165385
926.479178	2487.809423
926.783328	2495.371154
927.087438	2470.165385
927.391509	2480.247692
927.695541	2495.371154
927.999533	2437.397885
928.303486	2487.809423
928.607400	2424.795000
928.911275	2560.906154
929.215110	2467.644808
929.518906	2528.138654
929.822663	2447.480192
930.126381	2452.521346
930.430060	2505.453462
930.733699	2467.644808
931.037299	2558.385577
931.340861	2452.521346
931.644383	2495.371154
931.947866	2452.521346
932.251309	2558.385577
932.554714	2553.344423
932.858080	2475.206538
933.161407	2442.439038
933.464694	2470.165385
933.767943	2487.809423
934.071153	2520.576923
934.374323	2507.974038
934.677455	2500.412308
934.980548	2570.988462
935.283602	2467.644808
935.586617	2510.494615
935.889593	2477.727115
936.192530	2495.371154
936.495428	2450.000769
936.798287	2462.603654
937.101108	2485.288846
937.403890	2447.480192
937.706632	2543.262115
938.009336	2540.741538
938.312002	2455.041923
938.614628	2502.932885
938.917216	2533.179808
939.219765	2500.412308
939.522275	2450.000769
939.824747	2392.027500
940.127179	2475.206538
940.429573	2545.782692
940.731929	2455.041923
941.034246	2560.906154
941.336524	2510.494615
941.638763	2548.303269
941.940964	2497.891731
942.243126	2528.138654
942.545250	2450.000769
942.847335	2444.959615
943.149381	2497.891731
943.451389	2472.685962
943.753359	2518.056346
944.055290	2570.988462
944.357182	2618.879423
944.659036	2513.015192
944.960851	2465.124231
945.262628	2518.056346
945.564367	2495.371154
945.866067	2533.179808
946.167729	2475.206538
946.469352	2447.480192
946.770937	2513.015192
947.072484	2513.015192
947.373992	2520.576923
947.675462	2442.439038
947.976893	2472.685962
948.278286	2394.548077
948.579641	2560.906154
948.880958	2419.753846
949.182236	2470.165385
949.483476	2535.700385
949.784678	2578.550192
950.085841	2555.865000
950.386967	2505.453462
950.688054	2460.083077
950.989103	2442.439038
951.290114	2553.344423
951.591087	2513.015192
951.892021	2477.727115
952.192917	2520.576923
952.493776	2530.659231
952.794596	2444.959615
953.095378	2465.124231
953.396122	2487.809423
953.696828	2570.988462
953.997496	2429.836154
954.298126	2558.385577
954.598718	2467.644808
954.899272	2462.603654
955.199788	2485.288846
955.500266	2576.029615
955.800706	2442.439038
956.101108	2492.850577
956.401472	2510.494615
956.701798	2422.274423
957.002087	2528.138654
957.302337	2510.494615
957.602550	2490.330000
957.902724	2510.494615
958.202861	2505.453462
958.502960	2543.262115
958.803022	2555.865000
959.103045	2455.041923
959.403031	2434.877308
959.702979	2543.262115
960.002889	2460.083077
960.302762	2452.521346
960.602596	2432.356731
960.902393	2427.315577
961.202153	2510.494615
961.501875	2495.371154
961.801559	2545.782692
962.101205	2565.947308
962.400814	2427.315577
962.700385	2500.412308
962.999918	2523.097500
963.299414	2548.303269
963.598873	2523.097500
963.898293	2649.126346
964.197677	2505.453462
964.497022	2480.247692
964.796331	2402.109808
965.095601	2515.535769
965.394835	2492.850577
965.694030	2528.138654
965.993189	2460.083077
966.292309	2550.823846
966.591393	2462.603654
966.890439	2540.741538
967.189447	2477.727115
967.488419	2470.165385
967.787353	2525.618077
968.086249	2530.659231
968.385108	2515.535769
968.683930	2513.015192
968.982714	2555.865000
969.281462	2502.932885
969.580172	2490.330000
969.878844	2447.480192
970.177480	2485.288846
970.476078	2573.509038
970.774639	2465.124231
971.073162	2545.782692
971.371649	2402.109808
971.670098	2487.809423
971.968510	2455.041923
972.266885	2452.521346
972.565223	2412.192115
972.863524	2485.288846
973.161788	2442.439038
973.460014	2568.467885
973.758204	2470.165385
974.056356	2465.124231
974.354471	2482.768269
974.652550	2540.741538
974.950591	2412.192115
975.248595	2520.576923
975.546563	2462.603654
975.844493	2540.741538
976.142386	2495.371154
976.440243	2424.795000
976.738062	2490.330000
977.035845	2475.206538
977.333590	2475.206538
977.631299	2548.303269
977.928971	2528.138654
978.226606	2535.700385
978.524204	2497.891731
978.821765	2437.397885
979.119290	2523.097500
979.416777	2507.974038
979.714228	2417.233269
980.011642	2422.274423
980.309020	2553.344423
980.606360	2480.247692
980.903664	2502.932885
981.200931	2477.727115
981.498162	2480.247692
981.795356	2404.630385
982.092513	2465.124231
982.389633	2545.782692
982.686717	2462.603654
982.983764	2510.494615
983.280775	2477.727115
983.577749	2447.480192
983.874686	2497.891731
984.171587	2550.823846
984.468451	2465.124231
984.765279	2477.727115
985.062070	2447.480192
985.358824	2487.809423
985.655543	2439.918462
985.952224	2538.220962
986.248869	2437.397885
986.545478	2487.809423
986.842050	2462.603654
987.138586	2409.671538
987.435086	2447.480192
987.731549	2543.262115
988.027975	2467.644808
988.324366	2591.153077
988.620719	2485.288846
988.917037	2472.685962
989.213318	2439.918462
989.509563	2513.015192
989.805772	2444.959615
990.101944	2472.685962
990.398080	2520.576923
990.694180	2540.741538
990.990244	2555.865000
991.286271	2477.727115
991.582262	2450.000769
991.878217	2525.618077
992.174136	2419.753846
992.470019	2568.467885
992.765865	2447.480192
993.061676	2460.083077
993.357450	2543.262115
993.653188	2480.247692
993.948890	2477.727115
994.244556	2528.138654
994.540186	2520.576923
994.835780	2480.247692
995.131337	2520.576923
995.426859	2432.356731
995.722345	2548.303269
996.017795	2399.589231
996.313208	2450.000769
996.608586	2465.124231
996.903928	2525.618077
997.199234	2462.603654
997.494504	2460.083077
997.789738	2470.165385
998.084936	2507.974038
998.380099	2427.315577
998.675225	2460.083077
998.970316	2429.836154
999.265371	2465.124231
999.560390	2437.397885
999.855373	2492.850577
1000.150320	2399.589231
1000.445232	2540.741538
1000.740108	2513.015192
1001.034948	2528.138654
1001.329752	2520.576923
1001.624521	2409.671538
1001.919254	2465.124231
1002.213951	2429.836154
1002.508613	2427.315577
1002.803239	2485.288846
1003.097829	2525.618077
1003.392384	2442.439038
1003.686903	2495.371154
1003.981386	2412.192115
1004.275834	2502.932885
1004.570246	2523.097500
1004.864623	2530.659231
1005.158964	2477.727115
1005.453270	2460.083077
1005.747540	2455.041923
1006.041775	2490.330000
1006.335974	2455.041923
1006.630138	2492.850577
1006.924266	2470.165385
1007.218359	2487.809423
1007.512416	2470.165385
1007.806438	2457.562500
1008.100425	2525.618077
1008.394376	2424.795000
1008.688292	2467.644808
1008.982172	2460.083077
1009.276017	2477.727115
1009.569827	2452.521346
1009.863602	2442.439038
1010.157341	2477.727115
1010.451045	2490.330000
1010.744714	2518.056346
1011.038347	2530.659231
1011.331945	2414.712692
1011.625508	2492.850577
1011.919036	2455.041923
1012.212528	2492.850577
1012.505986	2429.836154
1012.799408	2523.097500
1013.092795	2500.412308
1013.386147	2477.727115
1013.679464	2434.877308
1013.972745	2455.041923
1014.265992	2510.494615
1014.559204	2505.453462
1014.852380	2482.768269
1015.145521	2568.467885
1015.438628	2472.685962
1015.731699	2515.535769
1016.024736	2452.521346
1016.317737	2485.288846
1016.610703	2538.220962
1016.903635	2535.700385
1017.196531	2543.262115
1017.489393	2450.000769
1017.782219	2513.015192
1018.075011	2492.850577
1018.367768	2492.850577
1018.660490	2560.906154
1018.953177	2560.906154
1019.245829	2560.906154
