Dividing Wavelength (nm)	Counts (n)	Blue Motor Position (mm): 0.000000	Red Motor Position (mm): 5.400000	
326.493990	2084.517115
326.888308	2084.517115
327.282561	2084.517115
327.676750	2150.052115
328.070874	2092.078846
328.464933	2160.134423
328.858929	2079.475962
329.252859	2152.572692
329.646726	2041.667308
330.040528	2170.216731
330.434265	2102.161154
330.827938	2066.873077
331.221547	2099.640577
331.615091	2170.216731
332.008571	2167.696154
332.401986	2205.504808
332.795338	2263.478077
333.188625	2213.066538
333.581847	2293.725000
333.975006	2218.107692
334.368100	2356.739423
334.761129	2331.533654
335.154095	2351.698269
335.546996	2346.657115
335.939833	2334.054231
336.332606	2381.945192
336.725315	2455.041923
337.117960	2404.630385
337.510540	2427.315577
337.903056	2467.644808
338.295508	2419.753846
338.687896	2427.315577
339.080220	2487.809423
339.472480	2412.192115
339.864676	2548.303269
340.256807	2470.165385
340.648875	2477.727115
341.040879	2432.356731
341.432818	2520.576923
341.824694	2462.603654
342.216506	2495.371154
342.608253	2513.015192
342.999937	2444.959615
343.391557	2510.494615
343.783113	2565.947308
344.174605	2417.233269
344.566033	2419.753846
344.957397	2518.056346
345.348697	2424.795000
345.739934	2497.891731
346.131106	2482.768269
346.522215	2565.947308
346.913260	2563.426731
347.304241	2447.480192
347.695159	2346.657115
348.086012	2455.041923
348.476802	2417.233269
348.867528	2419.753846
349.258191	2472.685962
349.648789	2402.109808
350.039324	2497.891731
350.429796	2442.439038
350.820203	2510.494615
351.210548	2495.371154
351.600828	2510.494615
351.991045	2472.685962
352.381198	2439.918462
352.771288	2465.124231
353.161314	2447.480192
353.551276	2394.548077
353.941175	2394.548077
354.331010	2500.412308
354.720782	2381.945192
355.110490	2437.397885
355.500135	2472.685962
355.889717	2472.685962
356.279235	2444.959615
356.668689	2520.576923
357.058080	2397.068654
357.447408	2490.330000
357.836672	2429.836154
358.225873	2533.179808
358.615010	2379.424615
359.004084	2487.809423
359.393095	2455.041923
359.782043	2404.630385
360.170927	2404.630385
360.559748	2404.630385
360.948505	2482.768269
361.337199	2452.521346
361.725830	2523.097500
362.114398	2472.685962
362.502903	2497.891731
362.891344	2460.083077
363.279722	2399.589231
363.668037	2485.288846
364.056289	2495.371154
364.444478	2417.233269
364.832603	2444.959615
365.220665	2515.535769
365.608665	2502.932885
365.996601	2573.509038
366.384474	2447.480192
366.772284	2402.109808
367.160031	2487.809423
367.547715	2439.918462
367.935336	2450.000769
368.322893	2392.027500
368.710388	2555.865000
369.097820	2548.303269
369.485189	2439.918462
369.872495	2480.247692
370.259738	2480.247692
370.646918	2487.809423
371.034035	2412.192115
371.421090	2434.877308
371.808081	2394.548077
372.195010	2434.877308
372.581875	2472.685962
372.968678	2470.165385
373.355418	2457.562500
373.742096	2447.480192
374.128710	2533.179808
374.515262	2460.083077
374.901751	2455.041923
375.288177	2397.068654
375.674540	2553.344423
376.060841	2470.165385
376.447079	2444.959615
376.833254	2442.439038
377.219367	2472.685962
377.605417	2399.589231
377.991404	2394.548077
378.377329	2513.015192
378.763191	2429.836154
379.148991	2450.000769
379.534727	2485.288846
379.920402	2442.439038
380.306013	2465.124231
380.691563	2490.330000
381.077049	2490.330000
381.462474	2482.768269
381.847835	2444.959615
382.233134	2472.685962
382.618371	2444.959615
383.003545	2409.671538
383.388657	2444.959615
383.773706	2432.356731
384.158693	2535.700385
384.543618	2472.685962
384.928480	2434.877308
385.313280	2497.891731
385.698017	2455.041923
386.082692	2523.097500
386.467305	2460.083077
386.851856	2487.809423
387.236344	2467.644808
387.620770	2543.262115
388.005133	2429.836154
388.389435	2505.453462
388.773674	2462.603654
389.157851	2432.356731
389.541965	2414.712692
389.926018	2389.506923
390.310008	2482.768269
390.693936	2505.453462
391.077802	2419.753846
391.461606	2513.015192
391.845348	2389.506923
392.229027	2490.330000
392.612645	2432.356731
392.996200	2480.247692
393.379694	2480.247692
393.763125	2384.465769
394.146494	2409.671538
394.529801	2460.083077
394.913047	2389.506923
395.296230	2465.124231
395.679351	2492.850577
396.062410	2444.959615
396.445408	2490.330000
396.828343	2424.795000
397.211217	2477.727115
397.594028	2424.795000
397.976778	2487.809423
398.359466	2455.041923
398.742092	2457.562500
399.124656	2518.056346
399.507158	2417.233269
399.889598	2497.891731
400.271977	2533.179808
400.654294	2457.562500
401.036549	2477.727115
401.418742	2507.974038
401.800874	2487.809423
402.182944	2450.000769
402.564952	2407.150962
402.946898	2487.809423
403.328783	2513.015192
403.710606	2472.685962
404.092367	2414.712692
404.474067	2502.932885
404.855705	2573.509038
405.237282	2490.330000
405.618797	2495.371154
406.000250	2482.768269
406.381642	2455.041923
406.762972	2434.877308
407.144240	2424.795000
407.525447	2487.809423
407.906593	2475.206538
408.287677	2427.315577
408.668700	2472.685962
409.049661	2487.809423
409.430560	2477.727115
409.811399	2432.356731
410.192176	2538.220962
410.572891	2389.506923
410.953545	2497.891731
411.334138	2417.233269
411.714669	2495.371154
412.095139	2442.439038
412.475547	2475.206538
412.855894	2447.480192
413.236180	2457.562500
413.616405	2553.344423
413.996568	2500.412308
414.376670	2497.891731
414.756711	2462.603654
415.136691	2487.809423
415.516609	2450.000769
415.896466	2576.029615
416.276262	2447.480192
416.655997	2495.371154
417.035670	2513.015192
417.415283	2444.959615
417.794834	2528.138654
418.174324	2457.562500
418.553753	2427.315577
418.933121	2530.659231
419.312428	2523.097500
419.691674	2467.644808
420.070859	2492.850577
420.449983	2502.932885
420.829045	2495.371154
421.208047	2434.877308
421.586988	2523.097500
421.965867	2470.165385
422.344686	2429.836154
422.723444	2427.315577
423.102141	2376.904038
423.480777	2510.494615
423.859352	2560.906154
424.237866	2419.753846
424.616319	2497.891731
424.994712	2563.426731
425.373044	2520.576923
425.751314	2485.288846
426.129524	2465.124231
426.507673	2412.192115
426.885762	2434.877308
427.263789	2530.659231
427.641756	2482.768269
428.019662	2568.467885
428.397508	2535.700385
428.775292	2447.480192
429.153016	2434.877308
429.530679	2520.576923
429.908282	2477.727115
430.285824	2492.850577
430.663305	2513.015192
431.040726	2452.521346
431.418086	2399.589231
431.795385	2568.467885
432.172624	2520.576923
432.549802	2389.506923
432.926920	2460.083077
433.303977	2535.700385
433.680974	2427.315577
434.057910	2505.453462
434.434786	2510.494615
434.811601	2505.453462
435.188355	2467.644808
435.565050	2492.850577
435.941683	2568.467885
436.318257	2515.535769
436.694770	2472.685962
437.071222	2452.521346
437.447614	2525.618077
437.823946	2442.439038
438.200218	2437.397885
438.576429	2550.823846
438.952580	2555.865000
439.328670	2492.850577
439.704700	2485.288846
440.080670	2452.521346
440.456580	2444.959615
440.832429	2578.550192
441.208218	2500.412308
441.583947	2462.603654
441.959616	2470.165385
442.335224	2472.685962
442.710773	2442.439038
443.086261	2515.535769
443.461689	2444.959615
443.837057	2515.535769
444.212365	2485.288846
444.587612	2505.453462
444.962800	2487.809423
445.337927	2412.192115
445.712995	2417.233269
446.088002	2457.562500
446.462949	2482.768269
446.837837	2492.850577
447.212664	2450.000769
447.587431	2513.015192
447.962139	2462.603654
448.336786	2500.412308
448.711374	2570.988462
449.085901	2475.206538
449.460369	2505.453462
449.834776	2470.165385
450.209124	2480.247692
450.583412	2444.959615
450.957640	2477.727115
451.331808	2482.768269
451.705917	2601.235385
452.079965	2419.753846
452.453954	2487.809423
452.827883	2487.809423
453.201752	2505.453462
453.575562	2510.494615
453.949311	2485.288846
454.323001	2497.891731
454.696632	2548.303269
455.070202	2482.768269
455.443713	2470.165385
455.817164	2548.303269
456.190556	2558.385577
456.563888	2518.056346
456.937160	2505.453462
457.310373	2439.918462
457.683526	2482.768269
458.056619	2578.550192
458.429653	2462.603654
458.802628	2518.056346
459.175542	2560.906154
459.548398	2505.453462
459.921194	2513.015192
460.293930	2490.330000
460.666607	2462.603654
461.039224	2550.823846
461.411782	2533.179808
461.784280	2450.000769
462.156719	2404.630385
462.529099	2515.535769
462.901419	2510.494615
463.273680	2470.165385
463.645882	2460.083077
464.018024	2477.727115
464.390106	2563.426731
464.762130	2470.165385
465.134094	2576.029615
465.505999	2530.659231
465.877845	2523.097500
466.249631	2465.124231
466.621358	2555.865000
466.993026	2472.685962
467.364634	2470.165385
467.736184	2520.576923
468.107674	2462.603654
468.479105	2507.974038
468.850477	2570.988462
469.221790	2475.206538
469.593043	2515.535769
469.964238	2535.700385
470.335373	2543.262115
470.706449	2450.000769
471.077467	2497.891731
471.448425	2563.426731
471.819324	2482.768269
472.190164	2601.235385
472.560945	2545.782692
472.931667	2437.397885
473.302330	2485.288846
473.672934	2475.206538
474.043479	2505.453462
474.413965	2528.138654
474.784393	2523.097500
475.154761	2457.562500
475.525070	2502.932885
475.895321	2472.685962
476.265513	2477.727115
476.635645	2510.494615
477.005719	2487.809423
477.375734	2470.165385
477.745691	2444.959615
478.115588	2533.179808
478.485427	2530.659231
478.855207	2573.509038
479.224928	2455.041923
479.594591	2538.220962
479.964194	2545.782692
480.333739	2520.576923
480.703226	2591.153077
481.072653	2482.768269
481.442022	2472.685962
481.811333	2417.233269
482.180584	2434.877308
482.549777	2565.947308
482.918912	2550.823846
483.287988	2505.453462
483.657005	2523.097500
484.025964	2507.974038
484.394864	2487.809423
484.763706	2465.124231
485.132489	2502.932885
485.501213	2470.165385
485.869879	2472.685962
486.238487	2482.768269
486.607036	2518.056346
486.975527	2540.741538
487.343959	2480.247692
487.712333	2490.330000
488.080648	2500.412308
488.448905	2573.509038
488.817104	2460.083077
489.185244	2500.412308
489.553326	2475.206538
489.921350	2520.576923
490.289315	2460.083077
490.657222	2520.576923
491.025070	2409.671538
491.392861	2528.138654
491.760593	2470.165385
492.128267	2460.083077
492.495883	2485.288846
492.863440	2550.823846
493.230939	2482.768269
493.598380	2480.247692
493.965763	2510.494615
494.333088	2487.809423
494.700354	2490.330000
495.067563	2515.535769
495.434713	2404.630385
495.801805	2460.083077
496.168839	2477.727115
496.535815	2535.700385
496.902733	2497.891731
497.269593	2578.550192
497.636395	2540.741538
498.003139	2497.891731
498.369825	2487.809423
498.736453	2523.097500
499.103023	2588.632500
499.469535	2510.494615
499.835989	2518.056346
500.202385	2558.385577
500.568723	2515.535769
500.935003	2457.562500
501.301226	2485.288846
501.667390	2513.015192
502.033497	2518.056346
502.399546	2402.109808
502.765537	2497.891731
503.131470	2472.685962
503.497345	2565.947308
503.863163	2457.562500
504.228923	2485.288846
504.594625	2548.303269
504.960269	2429.836154
505.325856	2487.809423
505.691385	2482.768269
506.056856	2427.315577
506.422270	2407.150962
506.787625	2535.700385
507.152924	2417.233269
507.518164	2631.482308
507.883347	2482.768269
508.248472	2487.809423
508.613540	2462.603654
508.978550	2427.315577
509.343503	2465.124231
509.708398	2520.576923
510.073236	2437.397885
510.438016	2550.823846
510.802738	2502.932885
511.167403	2513.015192
511.532010	2490.330000
511.896561	2487.809423
512.261053	2570.988462
512.625488	2475.206538
512.989866	2480.247692
513.354186	2444.959615
513.718449	2452.521346
514.082655	2480.247692
514.446803	2568.467885
514.810894	2621.400000
515.174927	2507.974038
515.538904	2460.083077
515.902822	2460.083077
516.266684	2568.467885
516.630488	2434.877308
516.994235	2502.932885
517.357925	2525.618077
517.721558	2455.041923
518.085133	2477.727115
518.448651	2462.603654
518.812112	2555.865000
519.175516	2502.932885
519.538863	2407.150962
519.902152	2452.521346
520.265385	2616.358846
520.628560	2543.262115
520.991678	2520.576923
521.354739	2523.097500
521.717743	2439.918462
522.080690	2447.480192
522.443580	2565.947308
522.806413	2576.029615
523.169189	2540.741538
523.531908	2490.330000
523.894569	2548.303269
524.257174	2548.303269
524.619722	2482.768269
524.982213	2525.618077
525.344647	2485.288846
525.707025	2477.727115
526.069345	2482.768269
526.431608	2389.506923
526.793815	2407.150962
527.155964	2462.603654
527.518057	2482.768269
527.880093	2439.918462
528.242072	2480.247692
528.603995	2523.097500
528.965860	2545.782692
529.327669	2460.083077
529.689421	2525.618077
530.051117	2480.247692
530.412755	2550.823846
530.774337	2603.755962
531.135862	2510.494615
531.497331	2492.850577
531.858743	2495.371154
532.220098	2560.906154
532.581396	2515.535769
532.942638	2545.782692
533.303824	2515.535769
533.664953	2502.932885
534.026025	2490.330000
534.387040	2442.439038
534.747999	2497.891731
535.108902	2538.220962
535.469748	2606.276538
535.830537	2500.412308
536.191270	2495.371154
536.551947	2618.879423
536.912567	2523.097500
537.273131	2487.809423
537.633638	2520.576923
537.994089	2482.768269
538.354483	2497.891731
538.714821	2419.753846
539.075103	2507.974038
539.435328	2465.124231
539.795497	2450.000769
540.155609	2487.809423
540.515665	2560.906154
540.875665	2538.220962
541.235609	2482.768269
541.595496	2500.412308
541.955328	2553.344423
542.315102	2550.823846
542.674821	2482.768269
543.034483	2490.330000
543.394090	2429.836154
543.753640	2530.659231
544.113134	2434.877308
544.472571	2545.782692
544.831953	2515.535769
545.191278	2424.795000
545.550548	2520.576923
545.909761	2487.809423
546.268918	2507.974038
546.628019	2467.644808
546.987064	2482.768269
547.346053	2525.618077
547.704986	2558.385577
548.063863	2518.056346
548.422684	2563.426731
548.781449	2540.741538
549.140158	2472.685962
549.498811	2518.056346
549.857408	2523.097500
550.215949	2465.124231
550.574434	2505.453462
550.932864	2515.535769
551.291237	2467.644808
551.649555	2495.371154
552.007817	2452.521346
552.366022	2543.262115
552.724173	2502.932885
553.082267	2528.138654
553.440305	2432.356731
553.798288	2565.947308
554.156215	2465.124231
554.514086	2470.165385
554.871902	2462.603654
555.229661	2515.535769
555.587365	2487.809423
555.945014	2442.439038
556.302606	2460.083077
556.660143	2520.576923
557.017625	2533.179808
557.375050	2472.685962
557.732421	2525.618077
558.089735	2450.000769
558.446994	2475.206538
558.804197	2550.823846
559.161345	2545.782692
559.518437	2568.467885
559.875474	2500.412308
560.232455	2452.521346
560.589381	2470.165385
560.946251	2523.097500
561.303065	2417.233269
561.659825	2510.494615
562.016528	2505.453462
562.373177	2515.535769
562.729770	2581.070769
563.086307	2528.138654
563.442789	2560.906154
563.799216	2467.644808
564.155587	2502.932885
564.511904	2450.000769
564.868164	2497.891731
565.224370	2434.877308
565.580520	2482.768269
565.936615	2495.371154
566.292654	2540.741538
566.648638	2422.274423
567.004567	2412.192115
567.360441	2485.288846
567.716260	2518.056346
568.072023	2500.412308
568.427732	2540.741538
568.783385	2565.947308
569.138982	2563.426731
569.494525	2538.220962
569.850013	2520.576923
570.205445	2525.618077
570.560823	2497.891731
570.916145	2535.700385
571.271412	2523.097500
571.626625	2570.988462
571.981782	2422.274423
572.336884	2497.891731
572.691931	2457.562500
573.046923	2490.330000
573.401860	2515.535769
573.756743	2515.535769
574.111570	2432.356731
574.466342	2518.056346
574.821059	2550.823846
575.175722	2492.850577
575.530330	2462.603654
575.884882	2596.194231
576.239380	2422.274423
576.593823	2515.535769
576.948211	2465.124231
577.302544	2480.247692
577.656823	2462.603654
578.011047	2550.823846
578.365216	2497.891731
578.719330	2442.439038
579.073389	2450.000769
579.427394	2500.412308
579.781344	2520.576923
580.135239	2563.426731
580.489080	2510.494615
580.842866	2455.041923
581.196597	2525.618077
581.550273	2525.618077
581.903895	2545.782692
582.257463	2495.371154
582.610975	2502.932885
582.964434	2457.562500
583.317837	2502.932885
583.671186	2502.932885
584.024481	2518.056346
584.377721	2439.918462
584.730906	2568.467885
585.084037	2525.618077
585.437113	2510.494615
585.790135	2482.768269
586.143103	2540.741538
586.496016	2437.397885
586.848874	2558.385577
587.201679	2520.576923
587.554428	2505.453462
587.907124	2545.782692
588.259765	2528.138654
588.612352	2472.685962
588.964884	2460.083077
589.317362	2492.850577
589.669786	2487.809423
590.022155	2447.480192
590.374470	2560.906154
590.726731	2545.782692
591.078937	2560.906154
591.431090	2518.056346
591.783188	2507.974038
592.135232	2515.535769
592.487222	2462.603654
592.839157	2475.206538
593.191038	2437.397885
593.542866	2402.109808
593.894639	2442.439038
594.246358	2510.494615
594.598022	2462.603654
594.949633	2417.233269
595.301190	2505.453462
595.652692	2455.041923
596.004141	2470.165385
596.355535	2490.330000
596.706876	2543.262115
597.058162	2482.768269
597.409395	2533.179808
597.760573	2409.671538
598.111698	2505.453462
598.462768	2434.877308
598.813785	2480.247692
599.164748	2510.494615
599.515657	2525.618077
599.866511	2462.603654
600.217312	2482.768269
600.568060	2485.288846
600.918753	2586.111923
601.269392	2507.974038
601.619978	2490.330000
601.970510	2560.906154
602.320988	2477.727115
602.671412	2462.603654
603.021783	2533.179808
603.372100	2470.165385
603.722363	2439.918462
604.072572	2513.015192
604.422728	2530.659231
604.772830	2434.877308
605.122878	2535.700385
605.472872	2455.041923
605.822813	2530.659231
606.172701	2490.330000
606.522534	2457.562500
606.872314	2563.426731
607.222041	2457.562500
607.571714	2515.535769
607.921333	2485.288846
608.270899	2598.714808
608.620411	2550.823846
608.969870	2452.521346
609.319276	2573.509038
609.668627	2432.356731
610.017926	2608.797115
610.367171	2545.782692
610.716362	2545.782692
611.065500	2510.494615
611.414585	2455.041923
611.763616	2497.891731
612.112594	2548.303269
612.461518	2482.768269
612.810389	2470.165385
613.159207	2502.932885
613.507971	2452.521346
613.856682	2513.015192
614.205340	2515.535769
614.553945	2485.288846
614.902496	2530.659231
615.250994	2465.124231
615.599439	2439.918462
615.947830	2518.056346
616.296169	2543.262115
616.644454	2530.659231
616.992686	2563.426731
617.340864	2414.712692
617.688990	2543.262115
618.037063	2470.165385
618.385082	2540.741538
618.733048	2460.083077
619.080961	2447.480192
619.428821	2555.865000
619.776628	2581.070769
620.124382	2490.330000
620.472083	2581.070769
620.819731	2472.685962
621.167326	2528.138654
621.514868	2495.371154
621.862357	2470.165385
622.209793	2419.753846
622.557176	2505.453462
622.904506	2477.727115
623.251783	2462.603654
623.599007	2530.659231
623.946179	2570.988462
624.293297	2457.562500
624.640363	2462.603654
624.987376	2520.576923
625.334336	2545.782692
625.681243	2545.782692
626.028097	2482.768269
626.374899	2505.453462
626.721647	2419.753846
627.068343	2492.850577
627.414987	2518.056346
627.761577	2510.494615
628.108115	2402.109808
628.454600	2505.453462
628.801032	2500.412308
629.147412	2573.509038
629.493739	2465.124231
629.840014	2480.247692
630.186236	2447.480192
630.532405	2560.906154
630.878521	2475.206538
631.224585	2502.932885
631.570597	2470.165385
631.916556	2553.344423
632.262462	2535.700385
632.608316	2467.644808
632.954117	2465.124231
633.299866	2490.330000
633.645562	2505.453462
633.991206	2528.138654
634.336797	2523.097500
634.682336	2477.727115
635.027823	2565.947308
635.373257	2487.809423
635.718639	2487.809423
636.063968	2555.865000
636.409245	2497.891731
636.754470	2518.056346
637.099642	2558.385577
637.444762	2507.974038
637.789829	2523.097500
638.134845	2502.932885
638.479808	2492.850577
638.824719	2543.262115
639.169577	2578.550192
639.514383	2560.906154
639.859137	2460.083077
640.203839	2470.165385
640.548489	2450.000769
640.893086	2573.509038
641.237632	2565.947308
641.582125	2555.865000
641.926566	2485.288846
642.270955	2515.535769
642.615292	2414.712692
642.959576	2452.521346
643.303809	2457.562500
643.647990	2477.727115
643.992118	2507.974038
644.336195	2437.397885
644.680219	2565.947308
645.024192	2518.056346
645.368112	2513.015192
645.711981	2422.274423
646.055797	2502.932885
646.399562	2628.961731
646.743274	2513.015192
647.086935	2475.206538
647.430544	2475.206538
647.774101	2460.083077
648.117606	2407.150962
648.461059	2535.700385
648.804460	2553.344423
649.147810	2513.015192
649.491108	2429.836154
649.834354	2548.303269
650.177548	2528.138654
650.520690	2450.000769
650.863781	2505.453462
651.206820	2465.124231
651.549807	2543.262115
651.892742	2457.562500
652.235626	2384.465769
652.578458	2457.562500
652.921238	2442.439038
653.263967	2530.659231
653.606644	2523.097500
653.949269	2472.685962
654.291843	2518.056346
654.634365	2520.576923
654.976836	2535.700385
655.319255	2565.947308
655.661622	2465.124231
656.003938	2467.644808
656.346203	2434.877308
656.688416	2523.097500
657.030577	2422.274423
657.372687	2533.179808
657.714746	2462.603654
658.056753	2548.303269
658.398708	2565.947308
658.740612	2444.959615
659.082465	2485.288846
659.424266	2424.795000
659.766016	2497.891731
660.107715	2442.439038
660.449362	2543.262115
660.790958	2563.426731
661.132503	2533.179808
661.473996	2467.644808
661.815438	2510.494615
662.156829	2455.041923
662.498168	2470.165385
662.839456	2485.288846
663.180693	2502.932885
663.521879	2485.288846
663.863013	2487.809423
664.204097	2581.070769
664.545129	2442.439038
664.886110	2530.659231
665.227040	2487.809423
665.567918	2502.932885
665.908746	2530.659231
666.249522	2490.330000
666.590248	2465.124231
666.930922	2558.385577
667.271545	2455.041923
667.612118	2520.576923
667.952639	2439.918462
668.293109	2573.509038
668.633528	2447.480192
668.973896	2452.521346
669.314213	2475.206538
669.654480	2601.235385
669.994695	2510.494615
670.334859	2482.768269
670.674973	2439.918462
671.015035	2462.603654
671.355047	2414.712692
671.695008	2455.041923
672.034918	2520.576923
672.374777	2450.000769
672.714585	2470.165385
673.054342	2487.809423
673.394049	2487.809423
673.733705	2500.412308
674.073310	2460.083077
674.412864	2480.247692
674.752368	2482.768269
675.091820	2492.850577
675.431223	2470.165385
675.770574	2470.165385
676.109875	2470.165385
676.449125	2565.947308
676.788324	2500.412308
677.127473	2520.576923
677.466571	2515.535769
677.805619	2490.330000
678.144616	2518.056346
678.483562	2414.712692
678.822458	2500.412308
679.161303	2523.097500
679.500098	2455.041923
679.838842	2533.179808
680.177535	2482.768269
680.516179	2510.494615
680.854771	2480.247692
681.193314	2568.467885
681.531805	2439.918462
681.870247	2530.659231
682.208638	2475.206538
682.546978	2545.782692
682.885268	2558.385577
683.223508	2485.288846
683.561697	2596.194231
683.899836	2492.850577
684.237925	2477.727115
684.575963	2487.809423
684.913951	2497.891731
685.251889	2487.809423
685.589776	2500.412308
685.927614	2578.550192
686.265401	2528.138654
686.603137	2482.768269
686.940824	2568.467885
687.278460	2455.041923
687.616046	2417.233269
687.953582	2402.109808
688.291068	2465.124231
688.628504	2472.685962
688.965889	2497.891731
689.303224	2538.220962
689.640510	2545.782692
689.977745	2482.768269
690.314930	2510.494615
690.652065	2578.550192
690.989150	2457.562500
691.326185	2533.179808
691.663170	2545.782692
692.000105	2455.041923
692.336990	2502.932885
692.673825	2538.220962
693.010610	2510.494615
693.347345	2457.562500
693.684030	2467.644808
694.020665	2515.535769
694.357251	2417.233269
694.693786	2394.548077
695.030272	2563.426731
695.366707	2502.932885
695.703093	2457.562500
696.039429	2472.685962
696.375716	2402.109808
696.711952	2475.206538
697.048139	2439.918462
697.384276	2543.262115
697.720363	2520.576923
698.056400	2424.795000
698.392388	2523.097500
698.728326	2414.712692
699.064214	2495.371154
699.400053	2576.029615
699.735842	2558.385577
700.071581	2465.124231
700.407270	2543.262115
700.742910	2492.850577
701.078501	2518.056346
701.414042	2452.521346
701.749533	2518.056346
702.084974	2485.288846
702.420366	2490.330000
702.755709	2573.509038
703.091002	2515.535769
703.426246	2407.150962
703.761440	2477.727115
704.096584	2465.124231
704.431679	2495.371154
704.766725	2467.644808
705.101721	2452.521346
705.436668	2462.603654
705.771565	2467.644808
706.106413	2452.521346
706.441212	2457.562500
706.775961	2460.083077
707.110661	2515.535769
707.445311	2427.315577
707.779913	2520.576923
708.114465	2533.179808
708.448967	2535.700385
708.783421	2467.644808
709.117825	2563.426731
709.452180	2505.453462
709.786485	2455.041923
710.120742	2502.932885
710.454949	2477.727115
710.789107	2500.412308
711.123216	2513.015192
711.457275	2548.303269
711.791286	2444.959615
712.125247	2477.727115
712.459159	2480.247692
712.793023	2591.153077
713.126837	2417.233269
713.460602	2477.727115
713.794318	2442.439038
714.127985	2490.330000
714.461602	2480.247692
714.795171	2487.809423
715.128691	2538.220962
715.462162	2409.671538
715.795584	2505.453462
716.128957	2500.412308
716.462281	2477.727115
716.795556	2507.974038
717.128782	2495.371154
717.461960	2568.467885
717.795088	2404.630385
718.128167	2502.932885
718.461198	2548.303269
718.794180	2548.303269
719.127113	2472.685962
719.459997	2523.097500
719.792833	2460.083077
720.125619	2502.932885
720.458357	2518.056346
720.791046	2500.412308
721.123686	2616.358846
721.456278	2490.330000
721.788821	2550.823846
722.121315	2472.685962
722.453761	2490.330000
722.786158	2477.727115
723.118506	2565.947308
723.450805	2560.906154
723.783056	2520.576923
724.115259	2434.877308
724.447412	2482.768269
724.779518	2548.303269
725.111574	2475.206538
725.443582	2500.412308
725.775542	2487.809423
726.107453	2444.959615
726.439315	2598.714808
726.771129	2573.509038
727.102895	2409.671538
727.434612	2467.644808
727.766281	2482.768269
728.097901	2507.974038
728.429473	2490.330000
728.760996	2460.083077
729.092471	2528.138654
729.423897	2480.247692
729.755276	2477.727115
730.086606	2581.070769
730.417887	2460.083077
730.749120	2467.644808
731.080305	2409.671538
731.411442	2497.891731
731.742530	2394.548077
732.073570	2510.494615
732.404562	2487.809423
732.735506	2455.041923
733.066401	2467.644808
733.397249	2518.056346
733.728048	2500.412308
734.058798	2472.685962
734.389501	2523.097500
734.720156	2497.891731
735.050762	2477.727115
735.381320	2530.659231
735.711831	2550.823846
736.042293	2455.041923
736.372707	2477.727115
736.703073	2528.138654
737.033391	2480.247692
737.363661	2510.494615
737.693883	2457.562500
738.024056	2558.385577
738.354182	2507.974038
738.684260	2490.330000
739.014290	2485.288846
739.344272	2457.562500
739.674207	2528.138654
740.004093	2518.056346
740.333931	2500.412308
740.663722	2518.056346
740.993464	2482.768269
741.323159	2452.521346
741.652806	2472.685962
741.982405	2460.083077
742.311956	2563.426731
742.641460	2424.795000
742.970915	2470.165385
743.300323	2475.206538
743.629683	2581.070769
743.958996	2470.165385
744.288260	2533.179808
744.617477	2409.671538
744.946647	2528.138654
745.275768	2530.659231
745.604842	2490.330000
745.933869	2450.000769
746.262847	2495.371154
746.591778	2507.974038
746.920662	2550.823846
747.249498	2465.124231
747.578286	2480.247692
747.907027	2649.126346
748.235720	2583.591346
748.564365	2505.453462
748.892963	2492.850577
749.221514	2475.206538
749.550017	2568.467885
749.878473	2460.083077
750.206881	2558.385577
750.535242	2500.412308
750.863555	2432.356731
751.191821	2558.385577
751.520039	2530.659231
751.848210	2477.727115
752.176334	2460.083077
752.504411	2394.548077
752.832440	2528.138654
753.160421	2429.836154
753.488356	2502.932885
753.816243	2480.247692
754.144082	2558.385577
754.471875	2497.891731
754.799620	2460.083077
755.127318	2460.083077
755.454969	2500.412308
755.782572	2513.015192
756.110129	2442.439038
756.437638	2460.083077
756.765100	2465.124231
757.092515	2515.535769
757.419882	2555.865000
757.747203	2530.659231
758.074477	2555.865000
758.401703	2558.385577
758.728882	2447.480192
759.056014	2523.097500
759.383099	2540.741538
759.710138	2462.603654
760.037129	2518.056346
760.364073	2477.727115
760.690970	2530.659231
761.017820	2520.576923
761.344623	2601.235385
761.671379	2523.097500
761.998088	2497.891731
762.324751	2510.494615
762.651366	2470.165385
762.977935	2495.371154
763.304456	2444.959615
763.630931	2548.303269
763.957359	2570.988462
764.283740	2621.400000
764.610074	2492.850577
764.936362	2563.426731
765.262602	2578.550192
765.588796	2495.371154
765.914943	2439.918462
766.241044	2540.741538
766.567097	2450.000769
766.893104	2553.344423
767.219064	2513.015192
767.544978	2581.070769
767.870845	2434.877308
768.196665	2389.506923
768.522438	2591.153077
768.848165	2505.453462
769.173846	2490.330000
769.499479	2548.303269
769.825066	2465.124231
770.150607	2545.782692
770.476101	2513.015192
770.801548	2520.576923
771.126949	2432.356731
771.452303	2523.097500
771.777611	2472.685962
772.102872	2525.618077
772.428087	2510.494615
772.753256	2470.165385
773.078378	2465.124231
773.403453	2439.918462
773.728482	2432.356731
774.053465	2525.618077
774.378401	2576.029615
774.703291	2528.138654
775.028135	2510.494615
775.352932	2455.041923
775.677683	2568.467885
776.002388	2437.397885
776.327046	2427.315577
776.651658	2500.412308
776.976224	2437.397885
777.300743	2482.768269
777.625216	2492.850577
777.949643	2452.521346
778.274024	2500.412308
778.598359	2507.974038
778.922647	2576.029615
779.246889	2560.906154
779.571086	2455.041923
779.895236	2485.288846
780.219339	2518.056346
780.543397	2538.220962
780.867409	2505.453462
781.191374	2518.056346
781.515294	2502.932885
781.839167	2492.850577
782.162995	2492.850577
782.486776	2427.315577
782.810511	2507.974038
783.134201	2530.659231
783.457844	2455.041923
783.781441	2591.153077
784.104993	2507.974038
784.428498	2452.521346
784.751958	2455.041923
785.075372	2563.426731
785.398739	2565.947308
785.722061	2482.768269
786.045337	2450.000769
786.368568	2497.891731
786.691752	2495.371154
787.014891	2437.397885
787.337983	2540.741538
787.661030	2444.959615
787.984031	2528.138654
788.306987	2467.644808
788.629897	2543.262115
788.952760	2500.412308
789.275579	2502.932885
789.598351	2492.850577
789.921078	2492.850577
790.243759	2424.795000
790.566395	2576.029615
790.888984	2500.412308
791.211529	2520.576923
791.534027	2439.918462
791.856480	2472.685962
792.178888	2523.097500
792.501249	2490.330000
792.823566	2530.659231
793.145836	2535.700385
793.468062	2475.206538
793.790241	2520.576923
794.112375	2490.330000
794.434464	2510.494615
794.756507	2467.644808
795.078505	2487.809423
795.400457	2520.576923
795.722364	2601.235385
796.044226	2500.412308
796.366042	2432.356731
796.687812	2487.809423
797.009538	2465.124231
797.331218	2510.494615
797.652852	2470.165385
797.974442	2455.041923
798.295986	2482.768269
798.617484	2523.097500
798.938938	2495.371154
799.260346	2495.371154
799.581709	2487.809423
799.903026	2444.959615
800.224299	2560.906154
800.545526	2482.768269
800.866708	2528.138654
801.187845	2583.591346
801.508936	2513.015192
801.829983	2500.412308
802.150984	2500.412308
802.471940	2528.138654
802.792851	2500.412308
803.113717	2550.823846
803.434538	2505.453462
803.755314	2510.494615
804.076045	2533.179808
804.396731	2485.288846
804.717372	2460.083077
805.037967	2467.644808
805.358518	2555.865000
805.679024	2465.124231
805.999485	2497.891731
806.319901	2490.330000
806.640272	2513.015192
806.960598	2578.550192
807.280879	2563.426731
807.601115	2492.850577
807.921306	2465.124231
808.241453	2495.371154
808.561554	2518.056346
808.881611	2530.659231
809.201623	2505.453462
809.521590	2462.603654
809.841513	2507.974038
810.161390	2518.056346
810.481223	2555.865000
810.801011	2518.056346
811.120755	2515.535769
811.440453	2477.727115
811.760107	2497.891731
812.079716	2482.768269
812.399281	2518.056346
812.718801	2472.685962
813.038276	2447.480192
813.357707	2452.521346
813.677093	2480.247692
813.996434	2386.986346
814.315731	2404.630385
814.634983	2467.644808
814.954191	2465.124231
815.273354	2480.247692
815.592473	2442.439038
815.911547	2482.768269
816.230577	2568.467885
816.549562	2502.932885
816.868502	2480.247692
817.187399	2394.548077
817.506250	2631.482308
817.825058	2477.727115
818.143821	2535.700385
818.462539	2485.288846
818.781213	2507.974038
819.099843	2520.576923
819.418429	2376.904038
819.736970	2472.685962
820.055466	2472.685962
820.373919	2492.850577
820.692327	2444.959615
821.010691	2548.303269
821.329011	2530.659231
821.647286	2500.412308
821.965517	2434.877308
822.283704	2482.768269
822.601847	2482.768269
822.919945	2520.576923
823.237999	2560.906154
823.556010	2437.397885
823.873976	2515.535769
824.191897	2515.535769
824.509775	2434.877308
824.827609	2399.589231
825.145398	2528.138654
825.463144	2452.521346
825.780845	2467.644808
826.098502	2452.521346
826.416116	2495.371154
826.733685	2492.850577
827.051210	2576.029615
827.368692	2533.179808
827.686129	2490.330000
828.003522	2482.768269
828.320872	2475.206538
828.638177	2422.274423
828.955439	2444.959615
829.272656	2495.371154
829.589830	2515.535769
829.906960	2593.673654
830.224046	2505.453462
830.541088	2492.850577
830.858086	2432.356731
831.175041	2442.439038
831.491952	2515.535769
831.808819	2502.932885
832.125642	2485.288846
832.442421	2591.153077
832.759157	2520.576923
833.075849	2462.603654
833.392497	2429.836154
833.709101	2513.015192
834.025662	2460.083077
834.342179	2510.494615
834.658653	2444.959615
834.975083	2480.247692
835.291469	2510.494615
835.607811	2535.700385
835.924110	2470.165385
836.240366	2518.056346
836.556578	2419.753846
836.872746	2520.576923
837.188871	2487.809423
837.504952	2429.836154
837.820990	2437.397885
838.136984	2460.083077
838.452935	2419.753846
838.768842	2477.727115
839.084706	2460.083077
839.400526	2513.015192
839.716303	2465.124231
840.032037	2480.247692
840.347727	2598.714808
840.663373	2505.453462
840.978977	2555.865000
841.294537	2457.562500
841.610054	2520.576923
841.925527	2507.974038
842.240957	2507.974038
842.556344	2437.397885
842.871687	2558.385577
843.186987	2450.000769
843.502244	2502.932885
843.817458	2568.467885
844.132629	2548.303269
844.447756	2487.809423
844.762840	2540.741538
845.077881	2570.988462
845.392879	2528.138654
845.707833	2588.632500
846.022745	2467.644808
846.337613	2485.288846
846.652438	2465.124231
846.967221	2487.809423
847.281960	2553.344423
847.596656	2518.056346
847.911309	2543.262115
848.225919	2588.632500
848.540485	2583.591346
848.855009	2424.795000
849.169490	2538.220962
849.483928	2520.576923
849.798323	2548.303269
850.112675	2409.671538
850.426984	2482.768269
850.741251	2467.644808
851.055474	2530.659231
851.369654	2472.685962
851.683792	2500.412308
851.997887	2470.165385
852.311938	2558.385577
852.625947	2530.659231
852.939914	2510.494615
853.253837	2555.865000
853.567718	2455.041923
853.881555	2538.220962
854.195350	2540.741538
854.509103	2525.618077
854.822812	2523.097500
855.136479	2523.097500
855.450103	2462.603654
855.763685	2429.836154
856.077224	2497.891731
856.390720	2414.712692
856.704173	2525.618077
857.017584	2419.753846
857.330953	2525.618077
857.644278	2417.233269
857.957561	2538.220962
858.270802	2497.891731
858.584000	2439.918462
858.897155	2467.644808
859.210268	2543.262115
859.523339	2487.809423
859.836367	2457.562500
860.149352	2525.618077
860.462295	2492.850577
860.775195	2530.659231
861.088054	2452.521346
861.400869	2507.974038
861.713642	2472.685962
862.026373	2505.453462
862.339062	2480.247692
862.651708	2444.959615
862.964312	2432.356731
863.276873	2540.741538
863.589392	2392.027500
863.901869	2520.576923
864.214303	2437.397885
864.526696	2475.206538
864.839045	2560.906154
865.151353	2505.453462
865.463619	2470.165385
865.775842	2407.150962
866.088023	2583.591346
866.400162	2470.165385
866.712258	2457.562500
867.024313	2480.247692
867.336325	2472.685962
867.648296	2439.918462
867.960224	2429.836154
868.272110	2533.179808
868.583954	2515.535769
868.895755	2570.988462
869.207515	2500.412308
869.519233	2490.330000
869.830909	2480.247692
870.142542	2467.644808
870.454134	2490.330000
870.765684	2424.795000
871.077191	2439.918462
871.388657	2530.659231
871.700081	2507.974038
872.011463	2455.041923
872.322803	2502.932885
872.634101	2439.918462
872.945357	2480.247692
873.256571	2467.644808
873.567744	2518.056346
873.878874	2535.700385
874.189963	2465.124231
874.501010	2530.659231
874.812015	2518.056346
875.122979	2518.056346
875.433900	2462.603654
875.744780	2568.467885
876.055618	2424.795000
876.366415	2513.015192
876.677169	2568.467885
876.987882	2389.506923
877.298554	2467.644808
877.609183	2523.097500
877.919771	2460.083077
878.230317	2487.809423
878.540822	2505.453462
878.851285	2563.426731
879.161707	2465.124231
879.472087	2450.000769
879.782425	2533.179808
880.092722	2482.768269
880.402977	2540.741538
880.713191	2482.768269
881.023363	2545.782692
881.333494	2550.823846
881.643583	2485.288846
881.953631	2495.371154
882.263637	2525.618077
882.573602	2407.150962
882.883526	2565.947308
883.193408	2497.891731
883.503248	2548.303269
883.813048	2513.015192
884.122806	2543.262115
884.432522	2472.685962
884.742197	2507.974038
885.051831	2507.974038
885.361424	2470.165385
885.670975	2434.877308
885.980485	2555.865000
886.289954	2533.179808
886.599382	2558.385577
886.908768	2581.070769
887.218113	2507.974038
887.527417	2528.138654
887.836680	2500.412308
888.145901	2487.809423
888.455082	2389.506923
888.764221	2427.315577
889.073319	2502.932885
889.382376	2545.782692
889.691392	2447.480192
890.000366	2485.288846
890.309300	2497.891731
890.618193	2540.741538
890.927044	2422.274423
891.235855	2462.603654
891.544625	2482.768269
891.853353	2563.426731
892.162041	2465.124231
892.470687	2505.453462
892.779293	2475.206538
893.087858	2505.453462
893.396381	2475.206538
893.704864	2492.850577
894.013306	2442.439038
894.321707	2477.727115
894.630068	2467.644808
894.938387	2397.068654
895.246665	2560.906154
895.554903	2450.000769
895.863100	2573.509038
896.171256	2513.015192
896.479371	2518.056346
896.787446	2500.412308
897.095480	2525.618077
897.403473	2470.165385
897.711425	2439.918462
898.019336	2543.262115
898.327207	2444.959615
898.635038	2417.233269
898.942827	2540.741538
899.250576	2439.918462
899.558284	2480.247692
899.865952	2467.644808
900.173579	2538.220962
900.481165	2530.659231
900.788711	2500.412308
901.096216	2485.288846
901.403681	2492.850577
901.711105	2563.426731
902.018489	2530.659231
902.325832	2450.000769
902.633135	2543.262115
902.940397	2586.111923
903.247619	2550.823846
903.554800	2505.453462
903.861941	2450.000769
904.169041	2530.659231
904.476101	2477.727115
904.783121	2530.659231
905.090100	2533.179808
905.397039	2439.918462
905.703938	2444.959615
906.010796	2472.685962
906.317614	2490.330000
906.624391	2439.918462
906.931129	2480.247692
907.237826	2497.891731
907.544483	2450.000769
907.851099	2495.371154
908.157675	2565.947308
908.464211	2414.712692
908.770707	2422.274423
909.077163	2505.453462
909.383578	2497.891731
909.689954	2513.015192
909.996289	2447.480192
910.302584	2510.494615
910.608839	2482.768269
910.915054	2437.397885
911.221229	2495.371154
911.527363	2538.220962
911.833458	2576.029615
912.139513	2550.823846
912.445527	2513.015192
912.751502	2477.727115
913.057436	2477.727115
913.363331	2452.521346
913.669186	2525.618077
913.975000	2500.412308
914.280775	2407.150962
914.586510	2513.015192
914.892205	2475.206538
915.197859	2563.426731
915.503475	2500.412308
915.809050	2558.385577
916.114585	2525.618077
916.420081	2497.891731
916.725536	2515.535769
917.030952	2419.753846
917.336328	2507.974038
917.641665	2497.891731
917.946961	2442.439038
918.252218	2422.274423
918.557435	2565.947308
918.862612	2523.097500
919.167750	2502.932885
919.472848	2565.947308
919.777906	2470.165385
920.082925	2518.056346
920.387904	2545.782692
920.692843	2490.330000
920.997743	2472.685962
921.302603	2570.988462
921.607423	2533.179808
921.912204	2502.932885
922.216946	2495.371154
922.521647	2434.877308
922.826310	2530.659231
923.130932	2570.988462
923.435516	2404.630385
923.740059	2472.685962
924.044564	2487.809423
924.349028	2475.206538
924.653454	2565.947308
924.957840	2432.356731
925.262186	2465.124231
925.566493	2386.986346
925.870761	2447.480192
926.174989	2497.891731
926.479178	2444.959615
926.783328	2432.356731
927.087438	2497.891731
927.391509	2417.233269
927.695541	2513.015192
927.999533	2472.685962
928.303486	2465.124231
928.607400	2538.220962
928.911275	2513.015192
929.215110	2510.494615
929.518906	2444.959615
929.822663	2523.097500
930.126381	2437.397885
930.430060	2455.041923
930.733699	2611.317692
931.037299	2346.657115
931.340861	2480.247692
931.644383	2422.274423
931.947866	2447.480192
932.251309	2485.288846
932.554714	2412.192115
932.858080	2475.206538
933.161407	2475.206538
933.464694	2452.521346
933.767943	2457.562500
934.071153	2515.535769
934.374323	2507.974038
934.677455	2492.850577
934.980548	2545.782692
935.283602	2472.685962
935.586617	2518.056346
935.889593	2422.274423
936.192530	2495.371154
936.495428	2467.644808
936.798287	2550.823846
937.101108	2477.727115
937.403890	2495.371154
937.706632	2487.809423
938.009336	2523.097500
938.312002	2495.371154
938.614628	2558.385577
938.917216	2462.603654
939.219765	2528.138654
939.522275	2576.029615
939.824747	2578.550192
940.127179	2487.809423
940.429573	2465.124231
940.731929	2457.562500
941.034246	2472.685962
941.336524	2563.426731
941.638763	2477.727115
941.940964	2553.344423
942.243126	2462.603654
942.545250	2480.247692
942.847335	2540.741538
943.149381	2407.150962
943.451389	2565.947308
943.753359	2485.288846
944.055290	2525.618077
944.357182	2490.330000
944.659036	2523.097500
944.960851	2427.315577
945.262628	2548.303269
945.564367	2528.138654
945.866067	2485.288846
946.167729	2485.288846
946.469352	2462.603654
946.770937	2487.809423
947.072484	2487.809423
947.373992	2528.138654
947.675462	2533.179808
947.976893	2399.589231
948.278286	2427.315577
948.579641	2487.809423
948.880958	2477.727115
949.182236	2490.330000
949.483476	2596.194231
949.784678	2462.603654
950.085841	2482.768269
950.386967	2482.768269
950.688054	2565.947308
950.989103	2513.015192
951.290114	2510.494615
951.591087	2535.700385
951.892021	2460.083077
952.192917	2513.015192
952.493776	2424.795000
952.794596	2535.700385
953.095378	2482.768269
953.396122	2535.700385
953.696828	2414.712692
953.997496	2502.932885
954.298126	2472.685962
954.598718	2520.576923
954.899272	2487.809423
955.199788	2563.426731
955.500266	2450.000769
955.800706	2450.000769
956.101108	2434.877308
956.401472	2543.262115
956.701798	2475.206538
957.002087	2520.576923
957.302337	2480.247692
957.602550	2487.809423
957.902724	2444.959615
958.202861	2497.891731
958.502960	2455.041923
958.803022	2545.782692
959.103045	2548.303269
959.403031	2502.932885
959.702979	2507.974038
960.002889	2538.220962
960.302762	2437.397885
960.602596	2487.809423
960.902393	2550.823846
961.202153	2432.356731
961.501875	2492.850577
961.801559	2558.385577
962.101205	2507.974038
962.400814	2510.494615
962.700385	2520.576923
962.999918	2444.959615
963.299414	2462.603654
963.598873	2533.179808
963.898293	2485.288846
964.197677	2465.124231
964.497022	2462.603654
964.796331	2500.412308
965.095601	2555.865000
965.394835	2447.480192
965.694030	2528.138654
965.993189	2530.659231
966.292309	2495.371154
966.591393	2477.727115
966.890439	2482.768269
967.189447	2447.480192
967.488419	2399.589231
967.787353	2492.850577
968.086249	2502.932885
968.385108	2480.247692
968.683930	2462.603654
968.982714	2545.782692
969.281462	2601.235385
969.580172	2455.041923
969.878844	2444.959615
970.177480	2434.877308
970.476078	2457.562500
970.774639	2480.247692
971.073162	2487.809423
971.371649	2452.521346
971.670098	2346.657115
971.968510	2533.179808
972.266885	2450.000769
972.565223	2432.356731
972.863524	2495.371154
973.161788	2407.150962
973.460014	2424.795000
973.758204	2444.959615
974.056356	2450.000769
974.354471	2467.644808
974.652550	2502.932885
974.950591	2487.809423
975.248595	2507.974038
975.546563	2439.918462
975.844493	2497.891731
976.142386	2429.836154
976.440243	2507.974038
976.738062	2452.521346
977.035845	2515.535769
977.333590	2553.344423
977.631299	2455.041923
977.928971	2543.262115
978.226606	2520.576923
978.524204	2462.603654
978.821765	2535.700385
979.119290	2573.509038
979.416777	2470.165385
979.714228	2389.506923
980.011642	2530.659231
980.309020	2487.809423
980.606360	2520.576923
980.903664	2535.700385
981.200931	2530.659231
981.498162	2439.918462
981.795356	2528.138654
982.092513	2434.877308
982.389633	2518.056346
982.686717	2500.412308
982.983764	2520.576923
983.280775	2492.850577
983.577749	2452.521346
983.874686	2492.850577
984.171587	2490.330000
984.468451	2530.659231
984.765279	2515.535769
985.062070	2429.836154
985.358824	2550.823846
985.655543	2515.535769
985.952224	2495.371154
986.248869	2422.274423
986.545478	2495.371154
986.842050	2470.165385
987.138586	2538.220962
987.435086	2442.439038
987.731549	2530.659231
988.027975	2457.562500
988.324366	2475.206538
988.620719	2553.344423
988.917037	2470.165385
989.213318	2500.412308
989.509563	2563.426731
989.805772	2472.685962
990.101944	2455.041923
990.398080	2586.111923
990.694180	2465.124231
990.990244	2495.371154
991.286271	2429.836154
991.582262	2467.644808
991.878217	2497.891731
992.174136	2518.056346
992.470019	2533.179808
992.765865	2475.206538
993.061676	2417.233269
993.357450	2482.768269
993.653188	2482.768269
993.948890	2480.247692
994.244556	2497.891731
994.540186	2497.891731
994.835780	2570.988462
995.131337	2525.618077
995.426859	2510.494615
995.722345	2442.439038
996.017795	2497.891731
996.313208	2465.124231
996.608586	2492.850577
996.903928	2550.823846
997.199234	2480.247692
997.494504	2457.562500
997.789738	2523.097500
998.084936	2485.288846
998.380099	2475.206538
998.675225	2429.836154
998.970316	2432.356731
999.265371	2485.288846
999.560390	2457.562500
999.855373	2507.974038
1000.150320	2460.083077
1000.445232	2540.741538
1000.740108	2553.344423
1001.034948	2472.685962
1001.329752	2528.138654
1001.624521	2475.206538
1001.919254	2470.165385
1002.213951	2485.288846
1002.508613	2555.865000
1002.803239	2502.932885
1003.097829	2558.385577
1003.392384	2500.412308
1003.686903	2513.015192
1003.981386	2513.015192
1004.275834	2606.276538
1004.570246	2523.097500
1004.864623	2505.453462
1005.158964	2434.877308
1005.453270	2500.412308
1005.747540	2417.233269
1006.041775	2480.247692
1006.335974	2523.097500
1006.630138	2472.685962
1006.924266	2570.988462
1007.218359	2452.521346
1007.512416	2555.865000
1007.806438	2490.330000
1008.100425	2500.412308
1008.394376	2455.041923
1008.688292	2525.618077
1008.982172	2518.056346
1009.276017	2444.959615
1009.569827	2424.795000
1009.863602	2482.768269
1010.157341	2437.397885
1010.451045	2472.685962
1010.744714	2563.426731
1011.038347	2467.644808
1011.331945	2470.165385
1011.625508	2467.644808
1011.919036	2495.371154
1012.212528	2485.288846
1012.505986	2533.179808
1012.799408	2465.124231
1013.092795	2513.015192
1013.386147	2407.150962
1013.679464	2407.150962
1013.972745	2510.494615
1014.265992	2477.727115
1014.559204	2475.206538
1014.852380	2518.056346
1015.145521	2472.685962
1015.438628	2460.083077
1015.731699	2608.797115
1016.024736	2588.632500
1016.317737	2462.603654
1016.610703	2465.124231
1016.903635	2439.918462
1017.196531	2477.727115
1017.489393	2457.562500
1017.782219	2545.782692
1018.075011	2513.015192
1018.367768	2374.383462
1018.660490	2513.015192
1018.953177	2513.015192
1019.245829	2513.015192
