Dividing Wavelength (nm)	Counts (n)	Blue Motor Position (mm): 0.000000	Red Motor Position (mm): 7.500000	
326.493990	2089.558269
326.888308	2089.558269
327.282561	2089.558269
327.676750	2044.187885
328.070874	2127.366923
328.464933	2076.955385
328.858929	2076.955385
329.252859	2112.243462
329.646726	2114.764038
330.040528	2071.914231
330.434265	2071.914231
330.827938	2132.408077
331.221547	2124.846346
331.615091	2124.846346
332.008571	2145.010962
332.401986	2225.669423
332.795338	2205.504808
333.188625	2260.957500
333.581847	2240.792885
333.975006	2225.669423
334.368100	2286.163269
334.761129	2250.875192
335.154095	2354.218846
335.546996	2339.095385
335.939833	2376.904038
336.332606	2341.615962
336.725315	2394.548077
337.117960	2366.821731
337.510540	2460.083077
337.903056	2432.356731
338.295508	2429.836154
338.687896	2412.192115
339.080220	2417.233269
339.472480	2475.206538
339.864676	2495.371154
340.256807	2424.795000
340.648875	2424.795000
341.040879	2507.974038
341.432818	2417.233269
341.824694	2492.850577
342.216506	2472.685962
342.608253	2407.150962
342.999937	2523.097500
343.391557	2417.233269
343.783113	2495.371154
344.174605	2450.000769
344.566033	2472.685962
344.957397	2470.165385
345.348697	2462.603654
345.739934	2538.220962
346.131106	2434.877308
346.522215	2530.659231
346.913260	2419.753846
347.304241	2495.371154
347.695159	2492.850577
348.086012	2462.603654
348.476802	2399.589231
348.867528	2434.877308
349.258191	2497.891731
349.648789	2455.041923
350.039324	2434.877308
350.429796	2389.506923
350.820203	2422.274423
351.210548	2386.986346
351.600828	2487.809423
351.991045	2412.192115
352.381198	2384.465769
352.771288	2505.453462
353.161314	2442.439038
353.551276	2361.780577
353.941175	2485.288846
354.331010	2432.356731
354.720782	2422.274423
355.110490	2344.136538
355.500135	2470.165385
355.889717	2447.480192
356.279235	2404.630385
356.668689	2505.453462
357.058080	2371.862885
357.447408	2480.247692
357.836672	2482.768269
358.225873	2351.698269
358.615010	2356.739423
359.004084	2389.506923
359.393095	2470.165385
359.782043	2485.288846
360.170927	2470.165385
360.559748	2386.986346
360.948505	2404.630385
361.337199	2404.630385
361.725830	2487.809423
362.114398	2439.918462
362.502903	2467.644808
362.891344	2487.809423
363.279722	2447.480192
363.668037	2427.315577
364.056289	2485.288846
364.444478	2442.439038
364.832603	2407.150962
365.220665	2462.603654
365.608665	2452.521346
365.996601	2432.356731
366.384474	2439.918462
366.772284	2467.644808
367.160031	2490.330000
367.547715	2525.618077
367.935336	2505.453462
368.322893	2495.371154
368.710388	2407.150962
369.097820	2409.671538
369.485189	2417.233269
369.872495	2523.097500
370.259738	2376.904038
370.646918	2381.945192
371.034035	2485.288846
371.421090	2507.974038
371.808081	2409.671538
372.195010	2447.480192
372.581875	2434.877308
372.968678	2513.015192
373.355418	2366.821731
373.742096	2439.918462
374.128710	2397.068654
374.515262	2472.685962
374.901751	2404.630385
375.288177	2492.850577
375.674540	2515.535769
376.060841	2462.603654
376.447079	2586.111923
376.833254	2432.356731
377.219367	2444.959615
377.605417	2452.521346
377.991404	2394.548077
378.377329	2472.685962
378.763191	2439.918462
379.148991	2442.439038
379.534727	2500.412308
379.920402	2457.562500
380.306013	2424.795000
380.691563	2495.371154
381.077049	2424.795000
381.462474	2485.288846
381.847835	2487.809423
382.233134	2432.356731
382.618371	2452.521346
383.003545	2432.356731
383.388657	2492.850577
383.773706	2412.192115
384.158693	2429.836154
384.543618	2439.918462
384.928480	2419.753846
385.313280	2510.494615
385.698017	2429.836154
386.082692	2460.083077
386.467305	2601.235385
386.851856	2480.247692
387.236344	2434.877308
387.620770	2419.753846
388.005133	2455.041923
388.389435	2450.000769
388.773674	2389.506923
389.157851	2402.109808
389.541965	2495.371154
389.926018	2376.904038
390.310008	2444.959615
390.693936	2439.918462
391.077802	2409.671538
391.461606	2563.426731
391.845348	2417.233269
392.229027	2417.233269
392.612645	2505.453462
392.996200	2414.712692
393.379694	2505.453462
393.763125	2477.727115
394.146494	2497.891731
394.529801	2477.727115
394.913047	2518.056346
395.296230	2376.904038
395.679351	2422.274423
396.062410	2548.303269
396.445408	2462.603654
396.828343	2502.932885
397.211217	2437.397885
397.594028	2419.753846
397.976778	2412.192115
398.359466	2490.330000
398.742092	2429.836154
399.124656	2462.603654
399.507158	2439.918462
399.889598	2450.000769
400.271977	2460.083077
400.654294	2530.659231
401.036549	2470.165385
401.418742	2465.124231
401.800874	2404.630385
402.182944	2475.206538
402.564952	2485.288846
402.946898	2434.877308
403.328783	2507.974038
403.710606	2497.891731
404.092367	2381.945192
404.474067	2507.974038
404.855705	2543.262115
405.237282	2457.562500
405.618797	2477.727115
406.000250	2455.041923
406.381642	2507.974038
406.762972	2510.494615
407.144240	2538.220962
407.525447	2407.150962
407.906593	2467.644808
408.287677	2497.891731
408.668700	2535.700385
409.049661	2568.467885
409.430560	2437.397885
409.811399	2482.768269
410.192176	2452.521346
410.572891	2462.603654
410.953545	2507.974038
411.334138	2397.068654
411.714669	2455.041923
412.095139	2404.630385
412.475547	2581.070769
412.855894	2528.138654
413.236180	2482.768269
413.616405	2563.426731
413.996568	2487.809423
414.376670	2500.412308
414.756711	2437.397885
415.136691	2500.412308
415.516609	2485.288846
415.896466	2487.809423
416.276262	2480.247692
416.655997	2528.138654
417.035670	2455.041923
417.415283	2518.056346
417.794834	2467.644808
418.174324	2490.330000
418.553753	2462.603654
418.933121	2462.603654
419.312428	2482.768269
419.691674	2462.603654
420.070859	2570.988462
420.449983	2444.959615
420.829045	2540.741538
421.208047	2495.371154
421.586988	2520.576923
421.965867	2444.959615
422.344686	2457.562500
422.723444	2525.618077
423.102141	2482.768269
423.480777	2450.000769
423.859352	2412.192115
424.237866	2427.315577
424.616319	2437.397885
424.994712	2505.453462
425.373044	2505.453462
425.751314	2470.165385
426.129524	2487.809423
426.507673	2462.603654
426.885762	2462.603654
427.263789	2543.262115
427.641756	2495.371154
428.019662	2497.891731
428.397508	2565.947308
428.775292	2510.494615
429.153016	2475.206538
429.530679	2523.097500
429.908282	2472.685962
430.285824	2442.439038
430.663305	2555.865000
431.040726	2482.768269
431.418086	2500.412308
431.795385	2510.494615
432.172624	2530.659231
432.549802	2492.850577
432.926920	2490.330000
433.303977	2480.247692
433.680974	2515.535769
434.057910	2510.494615
434.434786	2404.630385
434.811601	2460.083077
435.188355	2465.124231
435.565050	2543.262115
435.941683	2500.412308
436.318257	2502.932885
436.694770	2439.918462
437.071222	2482.768269
437.447614	2354.218846
437.823946	2520.576923
438.200218	2535.700385
438.576429	2480.247692
438.952580	2520.576923
439.328670	2487.809423
439.704700	2545.782692
440.080670	2482.768269
440.456580	2525.618077
440.832429	2485.288846
441.208218	2528.138654
441.583947	2437.397885
441.959616	2560.906154
442.335224	2407.150962
442.710773	2492.850577
443.086261	2452.521346
443.461689	2412.192115
443.837057	2470.165385
444.212365	2447.480192
444.587612	2429.836154
444.962800	2525.618077
445.337927	2596.194231
445.712995	2490.330000
446.088002	2568.467885
446.462949	2510.494615
446.837837	2492.850577
447.212664	2427.315577
447.587431	2424.795000
447.962139	2502.932885
448.336786	2495.371154
448.711374	2465.124231
449.085901	2366.821731
449.460369	2492.850577
449.834776	2444.959615
450.209124	2523.097500
450.583412	2477.727115
450.957640	2492.850577
451.331808	2465.124231
451.705917	2392.027500
452.079965	2414.712692
452.453954	2543.262115
452.827883	2545.782692
453.201752	2442.439038
453.575562	2444.959615
453.949311	2528.138654
454.323001	2485.288846
454.696632	2492.850577
455.070202	2485.288846
455.443713	2457.562500
455.817164	2492.850577
456.190556	2528.138654
456.563888	2545.782692
456.937160	2477.727115
457.310373	2543.262115
457.683526	2439.918462
458.056619	2518.056346
458.429653	2513.015192
458.802628	2492.850577
459.175542	2550.823846
459.548398	2490.330000
459.921194	2492.850577
460.293930	2460.083077
460.666607	2530.659231
461.039224	2429.836154
461.411782	2439.918462
461.784280	2510.494615
462.156719	2565.947308
462.529099	2510.494615
462.901419	2470.165385
463.273680	2495.371154
463.645882	2525.618077
464.018024	2497.891731
464.390106	2545.782692
464.762130	2495.371154
465.134094	2492.850577
465.505999	2533.179808
465.877845	2452.521346
466.249631	2518.056346
466.621358	2457.562500
466.993026	2455.041923
467.364634	2520.576923
467.736184	2515.535769
468.107674	2487.809423
468.479105	2427.315577
468.850477	2528.138654
469.221790	2545.782692
469.593043	2548.303269
469.964238	2518.056346
470.335373	2482.768269
470.706449	2528.138654
471.077467	2417.233269
471.448425	2447.480192
471.819324	2472.685962
472.190164	2470.165385
472.560945	2497.891731
472.931667	2497.891731
473.302330	2513.015192
473.672934	2490.330000
474.043479	2510.494615
474.413965	2462.603654
474.784393	2523.097500
475.154761	2510.494615
475.525070	2510.494615
475.895321	2555.865000
476.265513	2495.371154
476.635645	2510.494615
477.005719	2515.535769
477.375734	2414.712692
477.745691	2457.562500
478.115588	2497.891731
478.485427	2480.247692
478.855207	2518.056346
479.224928	2427.315577
479.594591	2502.932885
479.964194	2543.262115
480.333739	2480.247692
480.703226	2548.303269
481.072653	2432.356731
481.442022	2535.700385
481.811333	2540.741538
482.180584	2490.330000
482.549777	2538.220962
482.918912	2545.782692
483.287988	2528.138654
483.657005	2455.041923
484.025964	2520.576923
484.394864	2573.509038
484.763706	2437.397885
485.132489	2518.056346
485.501213	2407.150962
485.869879	2510.494615
486.238487	2424.795000
486.607036	2422.274423
486.975527	2507.974038
487.343959	2538.220962
487.712333	2475.206538
488.080648	2442.439038
488.448905	2550.823846
488.817104	2593.673654
489.185244	2467.644808
489.553326	2523.097500
489.921350	2500.412308
490.289315	2505.453462
490.657222	2555.865000
491.025070	2492.850577
491.392861	2470.165385
491.760593	2485.288846
492.128267	2492.850577
492.495883	2502.932885
492.863440	2535.700385
493.230939	2500.412308
493.598380	2472.685962
493.965763	2500.412308
494.333088	2485.288846
494.700354	2482.768269
495.067563	2581.070769
495.434713	2565.947308
495.801805	2480.247692
496.168839	2502.932885
496.535815	2450.000769
496.902733	2480.247692
497.269593	2523.097500
497.636395	2505.453462
498.003139	2475.206538
498.369825	2485.288846
498.736453	2470.165385
499.103023	2495.371154
499.469535	2553.344423
499.835989	2518.056346
500.202385	2528.138654
500.568723	2535.700385
500.935003	2568.467885
501.301226	2485.288846
501.667390	2487.809423
502.033497	2432.356731
502.399546	2472.685962
502.765537	2447.480192
503.131470	2497.891731
503.497345	2497.891731
503.863163	2434.877308
504.228923	2565.947308
504.594625	2472.685962
504.960269	2558.385577
505.325856	2487.809423
505.691385	2543.262115
506.056856	2523.097500
506.422270	2560.906154
506.787625	2553.344423
507.152924	2548.303269
507.518164	2439.918462
507.883347	2470.165385
508.248472	2344.136538
508.613540	2520.576923
508.978550	2507.974038
509.343503	2465.124231
509.708398	2515.535769
510.073236	2513.015192
510.438016	2450.000769
510.802738	2497.891731
511.167403	2462.603654
511.532010	2492.850577
511.896561	2444.959615
512.261053	2455.041923
512.625488	2462.603654
512.989866	2535.700385
513.354186	2434.877308
513.718449	2507.974038
514.082655	2482.768269
514.446803	2581.070769
514.810894	2477.727115
515.174927	2452.521346
515.538904	2497.891731
515.902822	2515.535769
516.266684	2465.124231
516.630488	2507.974038
516.994235	2520.576923
517.357925	2467.644808
517.721558	2502.932885
518.085133	2533.179808
518.448651	2492.850577
518.812112	2465.124231
519.175516	2507.974038
519.538863	2465.124231
519.902152	2475.206538
520.265385	2550.823846
520.628560	2457.562500
520.991678	2507.974038
521.354739	2487.809423
521.717743	2482.768269
522.080690	2490.330000
522.443580	2492.850577
522.806413	2497.891731
523.169189	2518.056346
523.531908	2460.083077
523.894569	2485.288846
524.257174	2429.836154
524.619722	2518.056346
524.982213	2462.603654
525.344647	2616.358846
525.707025	2513.015192
526.069345	2485.288846
526.431608	2492.850577
526.793815	2510.494615
527.155964	2513.015192
527.518057	2530.659231
527.880093	2487.809423
528.242072	2591.153077
528.603995	2455.041923
528.965860	2586.111923
529.327669	2480.247692
529.689421	2523.097500
530.051117	2530.659231
530.412755	2472.685962
530.774337	2502.932885
531.135862	2379.424615
531.497331	2495.371154
531.858743	2515.535769
532.220098	2510.494615
532.581396	2550.823846
532.942638	2581.070769
533.303824	2502.932885
533.664953	2502.932885
534.026025	2550.823846
534.387040	2480.247692
534.747999	2434.877308
535.108902	2510.494615
535.469748	2495.371154
535.830537	2399.589231
536.191270	2394.548077
536.551947	2492.850577
536.912567	2475.206538
537.273131	2457.562500
537.633638	2439.918462
537.994089	2462.603654
538.354483	2505.453462
538.714821	2487.809423
539.075103	2467.644808
539.435328	2520.576923
539.795497	2581.070769
540.155609	2467.644808
540.515665	2573.509038
540.875665	2452.521346
541.235609	2515.535769
541.595496	2495.371154
541.955328	2447.480192
542.315102	2535.700385
542.674821	2429.836154
543.034483	2518.056346
543.394090	2553.344423
543.753640	2472.685962
544.113134	2472.685962
544.472571	2429.836154
544.831953	2462.603654
545.191278	2565.947308
545.550548	2606.276538
545.909761	2500.412308
546.268918	2485.288846
546.628019	2490.330000
546.987064	2513.015192
547.346053	2513.015192
547.704986	2540.741538
548.063863	2427.315577
548.422684	2465.124231
548.781449	2424.795000
549.140158	2404.630385
549.498811	2530.659231
549.857408	2513.015192
550.215949	2467.644808
550.574434	2462.603654
550.932864	2417.233269
551.291237	2480.247692
551.649555	2455.041923
552.007817	2492.850577
552.366022	2414.712692
552.724173	2477.727115
553.082267	2510.494615
553.440305	2432.356731
553.798288	2475.206538
554.156215	2568.467885
554.514086	2513.015192
554.871902	2515.535769
555.229661	2540.741538
555.587365	2578.550192
555.945014	2523.097500
556.302606	2581.070769
556.660143	2482.768269
557.017625	2596.194231
557.375050	2462.603654
557.732421	2490.330000
558.089735	2495.371154
558.446994	2535.700385
558.804197	2442.439038
559.161345	2470.165385
559.518437	2601.235385
559.875474	2422.274423
560.232455	2543.262115
560.589381	2465.124231
560.946251	2444.959615
561.303065	2439.918462
561.659825	2505.453462
562.016528	2540.741538
562.373177	2507.974038
562.729770	2598.714808
563.086307	2510.494615
563.442789	2513.015192
563.799216	2581.070769
564.155587	2497.891731
564.511904	2502.932885
564.868164	2439.918462
565.224370	2555.865000
565.580520	2485.288846
565.936615	2467.644808
566.292654	2480.247692
566.648638	2485.288846
567.004567	2452.521346
567.360441	2583.591346
567.716260	2397.068654
568.072023	2495.371154
568.427732	2482.768269
568.783385	2560.906154
569.138982	2434.877308
569.494525	2477.727115
569.850013	2472.685962
570.205445	2490.330000
570.560823	2465.124231
570.916145	2538.220962
571.271412	2543.262115
571.626625	2490.330000
571.981782	2490.330000
572.336884	2578.550192
572.691931	2487.809423
573.046923	2414.712692
573.401860	2470.165385
573.756743	2470.165385
574.111570	2523.097500
574.466342	2507.974038
574.821059	2533.179808
575.175722	2565.947308
575.530330	2505.453462
575.884882	2581.070769
576.239380	2487.809423
576.593823	2540.741538
576.948211	2568.467885
577.302544	2452.521346
577.656823	2434.877308
578.011047	2381.945192
578.365216	2505.453462
578.719330	2472.685962
579.073389	2475.206538
579.427394	2543.262115
579.781344	2520.576923
580.135239	2482.768269
580.489080	2550.823846
580.842866	2412.192115
581.196597	2490.330000
581.550273	2419.753846
581.903895	2611.317692
582.257463	2500.412308
582.610975	2565.947308
582.964434	2500.412308
583.317837	2576.029615
583.671186	2495.371154
584.024481	2434.877308
584.377721	2502.932885
584.730906	2581.070769
585.084037	2502.932885
585.437113	2502.932885
585.790135	2523.097500
586.143103	2439.918462
586.496016	2530.659231
586.848874	2480.247692
587.201679	2520.576923
587.554428	2455.041923
587.907124	2540.741538
588.259765	2465.124231
588.612352	2424.795000
588.964884	2525.618077
589.317362	2578.550192
589.669786	2505.453462
590.022155	2548.303269
590.374470	2432.356731
590.726731	2467.644808
591.078937	2442.439038
591.431090	2538.220962
591.783188	2543.262115
592.135232	2460.083077
592.487222	2502.932885
592.839157	2480.247692
593.191038	2528.138654
593.542866	2495.371154
593.894639	2475.206538
594.246358	2455.041923
594.598022	2515.535769
594.949633	2558.385577
595.301190	2553.344423
595.652692	2608.797115
596.004141	2563.426731
596.355535	2467.644808
596.706876	2452.521346
597.058162	2434.877308
597.409395	2397.068654
597.760573	2475.206538
598.111698	2553.344423
598.462768	2545.782692
598.813785	2543.262115
599.164748	2432.356731
599.515657	2543.262115
599.866511	2555.865000
600.217312	2402.109808
600.568060	2495.371154
600.918753	2510.494615
601.269392	2470.165385
601.619978	2553.344423
601.970510	2495.371154
602.320988	2467.644808
602.671412	2576.029615
603.021783	2510.494615
603.372100	2545.782692
603.722363	2533.179808
604.072572	2533.179808
604.422728	2452.521346
604.772830	2520.576923
605.122878	2497.891731
605.472872	2429.836154
605.822813	2520.576923
606.172701	2485.288846
606.522534	2581.070769
606.872314	2467.644808
607.222041	2409.671538
607.571714	2490.330000
607.921333	2507.974038
608.270899	2439.918462
608.620411	2513.015192
608.969870	2515.535769
609.319276	2520.576923
609.668627	2573.509038
610.017926	2490.330000
610.367171	2470.165385
610.716362	2452.521346
611.065500	2495.371154
611.414585	2490.330000
611.763616	2525.618077
612.112594	2450.000769
612.461518	2525.618077
612.810389	2533.179808
613.159207	2384.465769
613.507971	2528.138654
613.856682	2525.618077
614.205340	2457.562500
614.553945	2550.823846
614.902496	2523.097500
615.250994	2497.891731
615.599439	2578.550192
615.947830	2518.056346
616.296169	2495.371154
616.644454	2404.630385
616.992686	2507.974038
617.340864	2477.727115
617.688990	2452.521346
618.037063	2477.727115
618.385082	2528.138654
618.733048	2513.015192
619.080961	2507.974038
619.428821	2480.247692
619.776628	2573.509038
620.124382	2432.356731
620.472083	2429.836154
620.819731	2523.097500
621.167326	2444.959615
621.514868	2460.083077
621.862357	2465.124231
622.209793	2460.083077
622.557176	2399.589231
622.904506	2558.385577
623.251783	2500.412308
623.599007	2482.768269
623.946179	2515.535769
624.293297	2495.371154
624.640363	2618.879423
624.987376	2485.288846
625.334336	2470.165385
625.681243	2386.986346
626.028097	2507.974038
626.374899	2447.480192
626.721647	2558.385577
627.068343	2510.494615
627.414987	2538.220962
627.761577	2583.591346
628.108115	2578.550192
628.454600	2427.315577
628.801032	2550.823846
629.147412	2518.056346
629.493739	2480.247692
629.840014	2472.685962
630.186236	2588.632500
630.532405	2525.618077
630.878521	2467.644808
631.224585	2525.618077
631.570597	2465.124231
631.916556	2502.932885
632.262462	2462.603654
632.608316	2507.974038
632.954117	2472.685962
633.299866	2507.974038
633.645562	2485.288846
633.991206	2439.918462
634.336797	2417.233269
634.682336	2470.165385
635.027823	2507.974038
635.373257	2472.685962
635.718639	2460.083077
636.063968	2538.220962
636.409245	2475.206538
636.754470	2538.220962
637.099642	2450.000769
637.444762	2495.371154
637.789829	2568.467885
638.134845	2462.603654
638.479808	2502.932885
638.824719	2636.523462
639.169577	2487.809423
639.514383	2513.015192
639.859137	2500.412308
640.203839	2485.288846
640.548489	2457.562500
640.893086	2523.097500
641.237632	2545.782692
641.582125	2515.535769
641.926566	2528.138654
642.270955	2502.932885
642.615292	2520.576923
642.959576	2502.932885
643.303809	2528.138654
643.647990	2477.727115
643.992118	2480.247692
644.336195	2480.247692
644.680219	2500.412308
645.024192	2487.809423
645.368112	2457.562500
645.711981	2505.453462
646.055797	2419.753846
646.399562	2505.453462
646.743274	2502.932885
647.086935	2528.138654
647.430544	2442.439038
647.774101	2545.782692
648.117606	2432.356731
648.461059	2535.700385
648.804460	2558.385577
649.147810	2455.041923
649.491108	2422.274423
649.834354	2490.330000
650.177548	2563.426731
650.520690	2543.262115
650.863781	2502.932885
651.206820	2439.918462
651.549807	2495.371154
651.892742	2460.083077
652.235626	2530.659231
652.578458	2480.247692
652.921238	2429.836154
653.263967	2543.262115
653.606644	2500.412308
653.949269	2404.630385
654.291843	2530.659231
654.634365	2490.330000
654.976836	2429.836154
655.319255	2560.906154
655.661622	2452.521346
656.003938	2550.823846
656.346203	2525.618077
656.688416	2530.659231
657.030577	2560.906154
657.372687	2570.988462
657.714746	2510.494615
658.056753	2518.056346
658.398708	2515.535769
658.740612	2535.700385
659.082465	2470.165385
659.424266	2495.371154
659.766016	2457.562500
660.107715	2513.015192
660.449362	2507.974038
660.790958	2424.795000
661.132503	2578.550192
661.473996	2492.850577
661.815438	2525.618077
662.156829	2467.644808
662.498168	2462.603654
662.839456	2497.891731
663.180693	2465.124231
663.521879	2548.303269
663.863013	2462.603654
664.204097	2505.453462
664.545129	2528.138654
664.886110	2543.262115
665.227040	2568.467885
665.567918	2540.741538
665.908746	2432.356731
666.249522	2432.356731
666.590248	2520.576923
666.930922	2518.056346
667.271545	2505.453462
667.612118	2475.206538
667.952639	2465.124231
668.293109	2485.288846
668.633528	2523.097500
668.973896	2462.603654
669.314213	2548.303269
669.654480	2538.220962
669.994695	2477.727115
670.334859	2505.453462
670.674973	2505.453462
671.015035	2523.097500
671.355047	2502.932885
671.695008	2528.138654
672.034918	2407.150962
672.374777	2548.303269
672.714585	2485.288846
673.054342	2520.576923
673.394049	2467.644808
673.733705	2472.685962
674.073310	2497.891731
674.412864	2553.344423
674.752368	2530.659231
675.091820	2472.685962
675.431223	2555.865000
675.770574	2518.056346
676.109875	2560.906154
676.449125	2510.494615
676.788324	2505.453462
677.127473	2412.192115
677.466571	2492.850577
677.805619	2404.630385
678.144616	2535.700385
678.483562	2583.591346
678.822458	2530.659231
679.161303	2535.700385
679.500098	2452.521346
679.838842	2472.685962
680.177535	2525.618077
680.516179	2530.659231
680.854771	2477.727115
681.193314	2560.906154
681.531805	2480.247692
681.870247	2462.603654
682.208638	2555.865000
682.546978	2482.768269
682.885268	2460.083077
683.223508	2510.494615
683.561697	2444.959615
683.899836	2502.932885
684.237925	2535.700385
684.575963	2535.700385
684.913951	2404.630385
685.251889	2518.056346
685.589776	2439.918462
685.927614	2528.138654
686.265401	2452.521346
686.603137	2447.480192
686.940824	2427.315577
687.278460	2515.535769
687.616046	2477.727115
687.953582	2545.782692
688.291068	2452.521346
688.628504	2523.097500
688.965889	2487.809423
689.303224	2543.262115
689.640510	2533.179808
689.977745	2555.865000
690.314930	2475.206538
690.652065	2543.262115
690.989150	2450.000769
691.326185	2495.371154
691.663170	2472.685962
692.000105	2467.644808
692.336990	2429.836154
692.673825	2444.959615
693.010610	2462.603654
693.347345	2545.782692
693.684030	2472.685962
694.020665	2490.330000
694.357251	2538.220962
694.693786	2419.753846
695.030272	2427.315577
695.366707	2495.371154
695.703093	2560.906154
696.039429	2502.932885
696.375716	2535.700385
696.711952	2427.315577
697.048139	2538.220962
697.384276	2636.523462
697.720363	2591.153077
698.056400	2518.056346
698.392388	2492.850577
698.728326	2497.891731
699.064214	2487.809423
699.400053	2480.247692
699.735842	2462.603654
700.071581	2490.330000
700.407270	2422.274423
700.742910	2513.015192
701.078501	2510.494615
701.414042	2606.276538
701.749533	2545.782692
702.084974	2455.041923
702.420366	2570.988462
702.755709	2505.453462
703.091002	2467.644808
703.426246	2513.015192
703.761440	2568.467885
704.096584	2490.330000
704.431679	2513.015192
704.766725	2437.397885
705.101721	2570.988462
705.436668	2437.397885
705.771565	2409.671538
706.106413	2510.494615
706.441212	2477.727115
706.775961	2485.288846
707.110661	2472.685962
707.445311	2439.918462
707.779913	2495.371154
708.114465	2598.714808
708.448967	2497.891731
708.783421	2480.247692
709.117825	2480.247692
709.452180	2452.521346
709.786485	2492.850577
710.120742	2447.480192
710.454949	2434.877308
710.789107	2424.795000
711.123216	2505.453462
711.457275	2490.330000
711.791286	2528.138654
712.125247	2487.809423
712.459159	2447.480192
712.793023	2452.521346
713.126837	2530.659231
713.460602	2568.467885
713.794318	2588.632500
714.127985	2472.685962
714.461602	2465.124231
714.795171	2450.000769
715.128691	2376.904038
715.462162	2502.932885
715.795584	2530.659231
716.128957	2442.439038
716.462281	2490.330000
716.795556	2452.521346
717.128782	2505.453462
717.461960	2530.659231
717.795088	2500.412308
718.128167	2450.000769
718.461198	2525.618077
718.794180	2523.097500
719.127113	2576.029615
719.459997	2525.618077
719.792833	2530.659231
720.125619	2422.274423
720.458357	2520.576923
720.791046	2487.809423
721.123686	2543.262115
721.456278	2424.795000
721.788821	2485.288846
722.121315	2510.494615
722.453761	2492.850577
722.786158	2450.000769
723.118506	2386.986346
723.450805	2502.932885
723.783056	2485.288846
724.115259	2485.288846
724.447412	2480.247692
724.779518	2528.138654
725.111574	2505.453462
725.443582	2543.262115
725.775542	2513.015192
726.107453	2414.712692
726.439315	2543.262115
726.771129	2578.550192
727.102895	2444.959615
727.434612	2439.918462
727.766281	2543.262115
728.097901	2470.165385
728.429473	2548.303269
728.760996	2472.685962
729.092471	2444.959615
729.423897	2444.959615
729.755276	2500.412308
730.086606	2553.344423
730.417887	2460.083077
730.749120	2507.974038
731.080305	2452.521346
731.411442	2545.782692
731.742530	2434.877308
732.073570	2545.782692
732.404562	2457.562500
732.735506	2525.618077
733.066401	2442.439038
733.397249	2467.644808
733.728048	2497.891731
734.058798	2482.768269
734.389501	2477.727115
734.720156	2434.877308
735.050762	2432.356731
735.381320	2402.109808
735.711831	2560.906154
736.042293	2457.562500
736.372707	2452.521346
736.703073	2565.947308
737.033391	2495.371154
737.363661	2429.836154
737.693883	2533.179808
738.024056	2450.000769
738.354182	2487.809423
738.684260	2492.850577
739.014290	2505.453462
739.344272	2450.000769
739.674207	2434.877308
740.004093	2497.891731
740.333931	2510.494615
740.663722	2487.809423
740.993464	2444.959615
741.323159	2538.220962
741.652806	2427.315577
741.982405	2576.029615
742.311956	2407.150962
742.641460	2492.850577
742.970915	2482.768269
743.300323	2543.262115
743.629683	2467.644808
743.958996	2482.768269
744.288260	2515.535769
744.617477	2465.124231
744.946647	2581.070769
745.275768	2492.850577
745.604842	2500.412308
745.933869	2477.727115
746.262847	2482.768269
746.591778	2450.000769
746.920662	2560.906154
747.249498	2495.371154
747.578286	2497.891731
747.907027	2475.206538
748.235720	2444.959615
748.564365	2480.247692
748.892963	2538.220962
749.221514	2548.303269
749.550017	2528.138654
749.878473	2563.426731
750.206881	2500.412308
750.535242	2502.932885
750.863555	2472.685962
751.191821	2487.809423
751.520039	2540.741538
751.848210	2475.206538
752.176334	2495.371154
752.504411	2409.671538
752.832440	2452.521346
753.160421	2470.165385
753.488356	2528.138654
753.816243	2467.644808
754.144082	2540.741538
754.471875	2460.083077
754.799620	2510.494615
755.127318	2442.439038
755.454969	2528.138654
755.782572	2409.671538
756.110129	2475.206538
756.437638	2535.700385
756.765100	2530.659231
757.092515	2523.097500
757.419882	2540.741538
757.747203	2472.685962
758.074477	2558.385577
758.401703	2399.589231
758.728882	2535.700385
759.056014	2439.918462
759.383099	2485.288846
759.710138	2487.809423
760.037129	2500.412308
760.364073	2502.932885
760.690970	2490.330000
761.017820	2533.179808
761.344623	2487.809423
761.671379	2540.741538
761.998088	2540.741538
762.324751	2535.700385
762.651366	2460.083077
762.977935	2538.220962
763.304456	2540.741538
763.630931	2414.712692
763.957359	2568.467885
764.283740	2570.988462
764.610074	2452.521346
764.936362	2495.371154
765.262602	2482.768269
765.588796	2477.727115
765.914943	2490.330000
766.241044	2450.000769
766.567097	2603.755962
766.893104	2495.371154
767.219064	2518.056346
767.544978	2470.165385
767.870845	2550.823846
768.196665	2535.700385
768.522438	2543.262115
768.848165	2447.480192
769.173846	2586.111923
769.499479	2444.959615
769.825066	2507.974038
770.150607	2530.659231
770.476101	2472.685962
770.801548	2492.850577
771.126949	2366.821731
771.452303	2528.138654
771.777611	2470.165385
772.102872	2535.700385
772.428087	2505.453462
772.753256	2523.097500
773.078378	2482.768269
773.403453	2495.371154
773.728482	2523.097500
774.053465	2442.439038
774.378401	2520.576923
774.703291	2485.288846
775.028135	2523.097500
775.352932	2616.358846
775.677683	2434.877308
776.002388	2470.165385
776.327046	2487.809423
776.651658	2530.659231
776.976224	2477.727115
777.300743	2523.097500
777.625216	2409.671538
777.949643	2452.521346
778.274024	2500.412308
778.598359	2513.015192
778.922647	2525.618077
779.246889	2374.383462
779.571086	2465.124231
779.895236	2525.618077
780.219339	2550.823846
780.543397	2427.315577
780.867409	2487.809423
781.191374	2487.809423
781.515294	2492.850577
781.839167	2530.659231
782.162995	2427.315577
782.486776	2482.768269
782.810511	2538.220962
783.134201	2485.288846
783.457844	2495.371154
783.781441	2513.015192
784.104993	2500.412308
784.428498	2452.521346
784.751958	2507.974038
785.075372	2452.521346
785.398739	2596.194231
785.722061	2565.947308
786.045337	2480.247692
786.368568	2543.262115
786.691752	2520.576923
787.014891	2548.303269
787.337983	2442.439038
787.661030	2515.535769
787.984031	2465.124231
788.306987	2530.659231
788.629897	2492.850577
788.952760	2480.247692
789.275579	2518.056346
789.598351	2467.644808
789.921078	2570.988462
790.243759	2475.206538
790.566395	2570.988462
790.888984	2462.603654
791.211529	2563.426731
791.534027	2540.741538
791.856480	2553.344423
792.178888	2596.194231
792.501249	2510.494615
792.823566	2565.947308
793.145836	2495.371154
793.468062	2550.823846
793.790241	2462.603654
794.112375	2560.906154
794.434464	2467.644808
794.756507	2502.932885
795.078505	2394.548077
795.400457	2505.453462
795.722364	2520.576923
796.044226	2492.850577
796.366042	2540.741538
796.687812	2502.932885
797.009538	2487.809423
797.331218	2535.700385
797.652852	2500.412308
797.974442	2495.371154
798.295986	2480.247692
798.617484	2457.562500
798.938938	2507.974038
799.260346	2510.494615
799.581709	2558.385577
799.903026	2500.412308
800.224299	2538.220962
800.545526	2376.904038
800.866708	2480.247692
801.187845	2513.015192
801.508936	2500.412308
801.829983	2528.138654
802.150984	2482.768269
802.471940	2555.865000
802.792851	2525.618077
803.113717	2490.330000
803.434538	2462.603654
803.755314	2465.124231
804.076045	2523.097500
804.396731	2492.850577
804.717372	2414.712692
805.037967	2455.041923
805.358518	2402.109808
805.679024	2530.659231
805.999485	2545.782692
806.319901	2417.233269
806.640272	2518.056346
806.960598	2409.671538
807.280879	2460.083077
807.601115	2507.974038
807.921306	2578.550192
808.241453	2462.603654
808.561554	2460.083077
808.881611	2550.823846
809.201623	2487.809423
809.521590	2462.603654
809.841513	2586.111923
810.161390	2555.865000
810.481223	2399.589231
810.801011	2558.385577
811.120755	2465.124231
811.440453	2568.467885
811.760107	2487.809423
812.079716	2550.823846
812.399281	2447.480192
812.718801	2543.262115
813.038276	2487.809423
813.357707	2513.015192
813.677093	2450.000769
813.996434	2412.192115
814.315731	2460.083077
814.634983	2467.644808
814.954191	2490.330000
815.273354	2505.453462
815.592473	2530.659231
815.911547	2480.247692
816.230577	2452.521346
816.549562	2505.453462
816.868502	2513.015192
817.187399	2485.288846
817.506250	2434.877308
817.825058	2565.947308
818.143821	2507.974038
818.462539	2520.576923
818.781213	2518.056346
819.099843	2513.015192
819.418429	2528.138654
819.736970	2442.439038
820.055466	2460.083077
820.373919	2472.685962
820.692327	2545.782692
821.010691	2392.027500
821.329011	2495.371154
821.647286	2480.247692
821.965517	2475.206538
822.283704	2502.932885
822.601847	2490.330000
822.919945	2437.397885
823.237999	2540.741538
823.556010	2482.768269
823.873976	2545.782692
824.191897	2439.918462
824.509775	2467.644808
824.827609	2490.330000
825.145398	2505.453462
825.463144	2553.344423
825.780845	2465.124231
826.098502	2452.521346
826.416116	2510.494615
826.733685	2462.603654
827.051210	2505.453462
827.368692	2422.274423
827.686129	2480.247692
828.003522	2414.712692
828.320872	2530.659231
828.638177	2482.768269
828.955439	2470.165385
829.272656	2510.494615
829.589830	2507.974038
829.906960	2465.124231
830.224046	2505.453462
830.541088	2555.865000
830.858086	2465.124231
831.175041	2497.891731
831.491952	2523.097500
831.808819	2492.850577
832.125642	2502.932885
832.442421	2502.932885
832.759157	2533.179808
833.075849	2480.247692
833.392497	2485.288846
833.709101	2550.823846
834.025662	2460.083077
834.342179	2495.371154
834.658653	2424.795000
834.975083	2457.562500
835.291469	2515.535769
835.607811	2576.029615
835.924110	2482.768269
836.240366	2497.891731
836.556578	2432.356731
836.872746	2533.179808
837.188871	2452.521346
837.504952	2525.618077
837.820990	2497.891731
838.136984	2525.618077
838.452935	2460.083077
838.768842	2490.330000
839.084706	2442.439038
839.400526	2487.809423
839.716303	2518.056346
840.032037	2525.618077
840.347727	2530.659231
840.663373	2525.618077
840.978977	2507.974038
841.294537	2497.891731
841.610054	2513.015192
841.925527	2490.330000
842.240957	2457.562500
842.556344	2528.138654
842.871687	2482.768269
843.186987	2515.535769
843.502244	2460.083077
843.817458	2487.809423
844.132629	2482.768269
844.447756	2540.741538
844.762840	2462.603654
845.077881	2500.412308
845.392879	2432.356731
845.707833	2510.494615
846.022745	2439.918462
846.337613	2460.083077
846.652438	2520.576923
846.967221	2550.823846
847.281960	2530.659231
847.596656	2465.124231
847.911309	2495.371154
848.225919	2480.247692
848.540485	2510.494615
848.855009	2470.165385
849.169490	2538.220962
849.483928	2533.179808
849.798323	2505.453462
850.112675	2535.700385
850.426984	2510.494615
850.741251	2513.015192
851.055474	2530.659231
851.369654	2457.562500
851.683792	2533.179808
851.997887	2444.959615
852.311938	2525.618077
852.625947	2465.124231
852.939914	2497.891731
853.253837	2495.371154
853.567718	2467.644808
853.881555	2427.315577
854.195350	2518.056346
854.509103	2482.768269
854.822812	2472.685962
855.136479	2427.315577
855.450103	2513.015192
855.763685	2472.685962
856.077224	2460.083077
856.390720	2535.700385
856.704173	2523.097500
857.017584	2545.782692
857.330953	2515.535769
857.644278	2530.659231
857.957561	2513.015192
858.270802	2560.906154
858.584000	2447.480192
858.897155	2553.344423
859.210268	2424.795000
859.523339	2439.918462
859.836367	2535.700385
860.149352	2507.974038
860.462295	2545.782692
860.775195	2467.644808
861.088054	2485.288846
861.400869	2482.768269
861.713642	2553.344423
862.026373	2457.562500
862.339062	2528.138654
862.651708	2558.385577
862.964312	2480.247692
863.276873	2510.494615
863.589392	2427.315577
863.901869	2462.603654
864.214303	2528.138654
864.526696	2495.371154
864.839045	2520.576923
865.151353	2482.768269
865.463619	2520.576923
865.775842	2447.480192
866.088023	2432.356731
866.400162	2450.000769
866.712258	2439.918462
867.024313	2555.865000
867.336325	2452.521346
867.648296	2495.371154
867.960224	2475.206538
868.272110	2540.741538
868.583954	2492.850577
868.895755	2515.535769
869.207515	2482.768269
869.519233	2462.603654
869.830909	2450.000769
870.142542	2540.741538
870.454134	2417.233269
870.765684	2596.194231
871.077191	2460.083077
871.388657	2555.865000
871.700081	2485.288846
872.011463	2523.097500
872.322803	2593.673654
872.634101	2520.576923
872.945357	2477.727115
873.256571	2507.974038
873.567744	2470.165385
873.878874	2470.165385
874.189963	2525.618077
874.501010	2462.603654
874.812015	2497.891731
875.122979	2495.371154
875.433900	2540.741538
875.744780	2487.809423
876.055618	2515.535769
876.366415	2487.809423
876.677169	2492.850577
876.987882	2485.288846
877.298554	2513.015192
877.609183	2472.685962
877.919771	2487.809423
878.230317	2455.041923
878.540822	2487.809423
878.851285	2434.877308
879.161707	2480.247692
879.472087	2472.685962
879.782425	2462.603654
880.092722	2492.850577
880.402977	2497.891731
880.713191	2500.412308
881.023363	2374.383462
881.333494	2475.206538
881.643583	2500.412308
881.953631	2477.727115
882.263637	2495.371154
882.573602	2447.480192
882.883526	2538.220962
883.193408	2450.000769
883.503248	2462.603654
883.813048	2487.809423
884.122806	2533.179808
884.432522	2487.809423
884.742197	2485.288846
885.051831	2439.918462
885.361424	2523.097500
885.670975	2444.959615
885.980485	2412.192115
886.289954	2462.603654
886.599382	2570.988462
886.908768	2434.877308
887.218113	2502.932885
887.527417	2505.453462
887.836680	2520.576923
888.145901	2485.288846
888.455082	2528.138654
888.764221	2475.206538
889.073319	2578.550192
889.382376	2510.494615
889.691392	2578.550192
890.000366	2533.179808
890.309300	2553.344423
890.618193	2507.974038
890.927044	2465.124231
891.235855	2492.850577
891.544625	2475.206538
891.853353	2444.959615
892.162041	2482.768269
892.470687	2467.644808
892.779293	2485.288846
893.087858	2487.809423
893.396381	2583.591346
893.704864	2480.247692
894.013306	2558.385577
894.321707	2492.850577
894.630068	2472.685962
894.938387	2439.918462
895.246665	2414.712692
895.554903	2482.768269
895.863100	2485.288846
896.171256	2530.659231
896.479371	2465.124231
896.787446	2543.262115
897.095480	2475.206538
897.403473	2477.727115
897.711425	2460.083077
898.019336	2467.644808
898.327207	2495.371154
898.635038	2487.809423
898.942827	2588.632500
899.250576	2545.782692
899.558284	2457.562500
899.865952	2412.192115
900.173579	2513.015192
900.481165	2523.097500
900.788711	2497.891731
901.096216	2467.644808
901.403681	2525.618077
901.711105	2419.753846
902.018489	2419.753846
902.325832	2477.727115
902.633135	2462.603654
902.940397	2442.439038
903.247619	2460.083077
903.554800	2429.836154
903.861941	2523.097500
904.169041	2475.206538
904.476101	2535.700385
904.783121	2475.206538
905.090100	2535.700385
905.397039	2500.412308
905.703938	2639.044038
906.010796	2497.891731
906.317614	2507.974038
906.624391	2422.274423
906.931129	2560.906154
907.237826	2371.862885
907.544483	2543.262115
907.851099	2533.179808
908.157675	2560.906154
908.464211	2460.083077
908.770707	2581.070769
909.077163	2465.124231
909.383578	2444.959615
909.689954	2414.712692
909.996289	2510.494615
910.302584	2525.618077
910.608839	2477.727115
910.915054	2543.262115
911.221229	2442.439038
911.527363	2470.165385
911.833458	2437.397885
912.139513	2462.603654
912.445527	2495.371154
912.751502	2444.959615
913.057436	2480.247692
913.363331	2492.850577
913.669186	2510.494615
913.975000	2402.109808
914.280775	2507.974038
914.586510	2455.041923
914.892205	2525.618077
915.197859	2485.288846
915.503475	2485.288846
915.809050	2543.262115
916.114585	2533.179808
916.420081	2533.179808
916.725536	2492.850577
917.030952	2497.891731
917.336328	2505.453462
917.641665	2505.453462
917.946961	2500.412308
918.252218	2510.494615
918.557435	2502.932885
918.862612	2447.480192
919.167750	2583.591346
919.472848	2465.124231
919.777906	2505.453462
920.082925	2470.165385
920.387904	2523.097500
920.692843	2485.288846
920.997743	2472.685962
921.302603	2371.862885
921.607423	2480.247692
921.912204	2495.371154
922.216946	2487.809423
922.521647	2470.165385
922.826310	2439.918462
923.130932	2611.317692
923.435516	2497.891731
923.740059	2533.179808
924.044564	2460.083077
924.349028	2540.741538
924.653454	2480.247692
924.957840	2502.932885
925.262186	2450.000769
925.566493	2460.083077
925.870761	2344.136538
926.174989	2550.823846
926.479178	2545.782692
926.783328	2475.206538
927.087438	2480.247692
927.391509	2487.809423
927.695541	2565.947308
927.999533	2518.056346
928.303486	2482.768269
928.607400	2450.000769
928.911275	2472.685962
929.215110	2528.138654
929.518906	2553.344423
929.822663	2500.412308
930.126381	2470.165385
930.430060	2505.453462
930.733699	2497.891731
931.037299	2520.576923
931.340861	2535.700385
931.644383	2394.548077
931.947866	2518.056346
932.251309	2538.220962
932.554714	2510.494615
932.858080	2558.385577
933.161407	2502.932885
933.464694	2467.644808
933.767943	2477.727115
934.071153	2505.453462
934.374323	2518.056346
934.677455	2460.083077
934.980548	2583.591346
935.283602	2432.356731
935.586617	2442.439038
935.889593	2523.097500
936.192530	2505.453462
936.495428	2515.535769
936.798287	2460.083077
937.101108	2570.988462
937.403890	2480.247692
937.706632	2487.809423
938.009336	2568.467885
938.312002	2465.124231
938.614628	2419.753846
938.917216	2535.700385
939.219765	2502.932885
939.522275	2497.891731
939.824747	2553.344423
940.127179	2470.165385
940.429573	2417.233269
940.731929	2500.412308
941.034246	2417.233269
941.336524	2480.247692
941.638763	2470.165385
941.940964	2462.603654
942.243126	2434.877308
942.545250	2457.562500
942.847335	2450.000769
943.149381	2510.494615
943.451389	2485.288846
943.753359	2492.850577
944.055290	2502.932885
944.357182	2439.918462
944.659036	2439.918462
944.960851	2533.179808
945.262628	2450.000769
945.564367	2384.465769
945.866067	2500.412308
946.167729	2470.165385
946.469352	2490.330000
946.770937	2505.453462
947.072484	2437.397885
947.373992	2565.947308
947.675462	2500.412308
947.976893	2480.247692
948.278286	2507.974038
948.579641	2513.015192
948.880958	2502.932885
949.182236	2570.988462
949.483476	2434.877308
949.784678	2583.591346
950.085841	2434.877308
950.386967	2455.041923
950.688054	2565.947308
950.989103	2502.932885
951.290114	2485.288846
951.591087	2538.220962
951.892021	2477.727115
952.192917	2603.755962
952.493776	2626.441154
952.794596	2548.303269
953.095378	2422.274423
953.396122	2502.932885
953.696828	2470.165385
953.997496	2432.356731
954.298126	2422.274423
954.598718	2490.330000
954.899272	2404.630385
955.199788	2515.535769
955.500266	2495.371154
955.800706	2530.659231
956.101108	2450.000769
956.401472	2427.315577
956.701798	2492.850577
957.002087	2437.397885
957.302337	2450.000769
957.602550	2490.330000
957.902724	2487.809423
958.202861	2444.959615
958.502960	2502.932885
958.803022	2419.753846
959.103045	2495.371154
959.403031	2487.809423
959.702979	2497.891731
960.002889	2490.330000
960.302762	2500.412308
960.602596	2407.150962
960.902393	2447.480192
961.202153	2417.233269
961.501875	2389.506923
961.801559	2520.576923
962.101205	2513.015192
962.400814	2482.768269
962.700385	2543.262115
962.999918	2444.959615
963.299414	2485.288846
963.598873	2450.000769
963.898293	2450.000769
964.197677	2475.206538
964.497022	2568.467885
964.796331	2573.509038
965.095601	2475.206538
965.394835	2510.494615
965.694030	2467.644808
965.993189	2452.521346
966.292309	2450.000769
966.591393	2513.015192
966.890439	2560.906154
967.189447	2477.727115
967.488419	2460.083077
967.787353	2510.494615
968.086249	2490.330000
968.385108	2500.412308
968.683930	2442.439038
968.982714	2444.959615
969.281462	2364.301154
969.580172	2490.330000
969.878844	2530.659231
970.177480	2434.877308
970.476078	2502.932885
970.774639	2518.056346
971.073162	2450.000769
971.371649	2535.700385
971.670098	2457.562500
971.968510	2470.165385
972.266885	2462.603654
972.565223	2460.083077
972.863524	2477.727115
973.161788	2482.768269
973.460014	2505.453462
973.758204	2540.741538
974.056356	2444.959615
974.354471	2447.480192
974.652550	2460.083077
974.950591	2528.138654
975.248595	2535.700385
975.546563	2523.097500
975.844493	2523.097500
976.142386	2485.288846
976.440243	2492.850577
976.738062	2487.809423
977.035845	2565.947308
977.333590	2439.918462
977.631299	2482.768269
977.928971	2480.247692
978.226606	2447.480192
978.524204	2447.480192
978.821765	2439.918462
979.119290	2490.330000
979.416777	2470.165385
979.714228	2497.891731
980.011642	2543.262115
980.309020	2480.247692
980.606360	2480.247692
980.903664	2475.206538
981.200931	2548.303269
981.498162	2475.206538
981.795356	2535.700385
982.092513	2485.288846
982.389633	2513.015192
982.686717	2386.986346
982.983764	2608.797115
983.280775	2402.109808
983.577749	2407.150962
983.874686	2535.700385
984.171587	2442.439038
984.468451	2573.509038
984.765279	2490.330000
985.062070	2563.426731
985.358824	2538.220962
985.655543	2530.659231
985.952224	2530.659231
986.248869	2490.330000
986.545478	2414.712692
986.842050	2558.385577
987.138586	2500.412308
987.435086	2389.506923
987.731549	2409.671538
988.027975	2523.097500
988.324366	2548.303269
988.620719	2495.371154
988.917037	2450.000769
989.213318	2515.535769
989.509563	2465.124231
989.805772	2376.904038
990.101944	2477.727115
990.398080	2485.288846
990.694180	2467.644808
990.990244	2573.509038
991.286271	2553.344423
991.582262	2487.809423
991.878217	2462.603654
992.174136	2528.138654
992.470019	2505.453462
992.765865	2439.918462
993.061676	2583.591346
993.357450	2399.589231
993.653188	2487.809423
993.948890	2482.768269
994.244556	2399.589231
994.540186	2515.535769
994.835780	2450.000769
995.131337	2533.179808
995.426859	2414.712692
995.722345	2535.700385
996.017795	2548.303269
996.313208	2520.576923
996.608586	2475.206538
996.903928	2407.150962
997.199234	2518.056346
997.494504	2412.192115
997.789738	2520.576923
998.084936	2437.397885
998.380099	2467.644808
998.675225	2513.015192
998.970316	2565.947308
999.265371	2535.700385
999.560390	2492.850577
999.855373	2482.768269
1000.150320	2460.083077
1000.445232	2487.809423
1000.740108	2598.714808
1001.034948	2475.206538
1001.329752	2495.371154
1001.624521	2444.959615
1001.919254	2528.138654
1002.213951	2432.356731
1002.508613	2523.097500
1002.803239	2523.097500
1003.097829	2477.727115
1003.392384	2568.467885
1003.686903	2450.000769
1003.981386	2460.083077
1004.275834	2470.165385
1004.570246	2477.727115
1004.864623	2573.509038
1005.158964	2485.288846
1005.453270	2535.700385
1005.747540	2515.535769
1006.041775	2447.480192
1006.335974	2480.247692
1006.630138	2442.439038
1006.924266	2472.685962
1007.218359	2513.015192
1007.512416	2472.685962
1007.806438	2444.959615
1008.100425	2444.959615
1008.394376	2465.124231
1008.688292	2480.247692
1008.982172	2460.083077
1009.276017	2442.439038
1009.569827	2412.192115
1009.863602	2523.097500
1010.157341	2535.700385
1010.451045	2500.412308
1010.744714	2480.247692
1011.038347	2490.330000
1011.331945	2434.877308
1011.625508	2492.850577
1011.919036	2555.865000
1012.212528	2419.753846
1012.505986	2505.453462
1012.799408	2442.439038
1013.092795	2560.906154
1013.386147	2482.768269
1013.679464	2535.700385
1013.972745	2487.809423
1014.265992	2490.330000
1014.559204	2409.671538
1014.852380	2560.906154
1015.145521	2513.015192
1015.438628	2563.426731
1015.731699	2429.836154
1016.024736	2434.877308
1016.317737	2444.959615
1016.610703	2500.412308
1016.903635	2455.041923
1017.196531	2455.041923
1017.489393	2351.698269
1017.782219	2593.673654
1018.075011	2596.194231
1018.367768	2432.356731
1018.660490	2502.932885
1018.953177	2502.932885
1019.245829	2502.932885
