Dividing Wavelength (nm)	Counts (n)	Blue Motor Position (mm): 0.000000	Red Motor Position (mm): 4.700000	
326.493990	2029.064423
326.888308	2029.064423
327.282561	2029.064423
327.676750	2112.243462
328.070874	2046.708462
328.464933	2092.078846
328.858929	2016.461538
329.252859	2145.010962
329.646726	2079.475962
330.040528	2107.202308
330.434265	2054.270192
330.827938	2127.366923
331.221547	2215.587115
331.615091	2097.120000
332.008571	2162.655000
332.401986	2210.545962
332.795338	2177.778462
333.188625	2175.257885
333.581847	2233.231154
333.975006	2271.039808
334.368100	2218.107692
334.761129	2369.342308
335.154095	2336.574808
335.546996	2326.492500
335.939833	2379.424615
336.332606	2369.342308
336.725315	2364.301154
337.117960	2346.657115
337.510540	2392.027500
337.903056	2439.918462
338.295508	2349.177692
338.687896	2507.974038
339.080220	2397.068654
339.472480	2414.712692
339.864676	2419.753846
340.256807	2540.741538
340.648875	2543.262115
341.040879	2492.850577
341.432818	2507.974038
341.824694	2525.618077
342.216506	2530.659231
342.608253	2444.959615
342.999937	2470.165385
343.391557	2432.356731
343.783113	2442.439038
344.174605	2490.330000
344.566033	2467.644808
344.957397	2460.083077
345.348697	2525.618077
345.739934	2570.988462
346.131106	2455.041923
346.522215	2492.850577
346.913260	2399.589231
347.304241	2543.262115
347.695159	2480.247692
348.086012	2492.850577
348.476802	2591.153077
348.867528	2460.083077
349.258191	2409.671538
349.648789	2424.795000
350.039324	2480.247692
350.429796	2470.165385
350.820203	2495.371154
351.210548	2485.288846
351.600828	2432.356731
351.991045	2354.218846
352.381198	2460.083077
352.771288	2417.233269
353.161314	2502.932885
353.551276	2394.548077
353.941175	2432.356731
354.331010	2480.247692
354.720782	2452.521346
355.110490	2359.260000
355.500135	2336.574808
355.889717	2439.918462
356.279235	2465.124231
356.668689	2505.453462
357.058080	2444.959615
357.447408	2417.233269
357.836672	2424.795000
358.225873	2442.439038
358.615010	2457.562500
359.004084	2457.562500
359.393095	2427.315577
359.782043	2402.109808
360.170927	2455.041923
360.559748	2447.480192
360.948505	2452.521346
361.337199	2442.439038
361.725830	2520.576923
362.114398	2452.521346
362.502903	2472.685962
362.891344	2444.959615
363.279722	2510.494615
363.668037	2444.959615
364.056289	2429.836154
364.444478	2485.288846
364.832603	2482.768269
365.220665	2475.206538
365.608665	2513.015192
365.996601	2414.712692
366.384474	2528.138654
366.772284	2510.494615
367.160031	2366.821731
367.547715	2505.453462
367.935336	2402.109808
368.322893	2402.109808
368.710388	2465.124231
369.097820	2528.138654
369.485189	2386.986346
369.872495	2530.659231
370.259738	2500.412308
370.646918	2427.315577
371.034035	2397.068654
371.421090	2432.356731
371.808081	2475.206538
372.195010	2419.753846
372.581875	2422.274423
372.968678	2452.521346
373.355418	2439.918462
373.742096	2482.768269
374.128710	2460.083077
374.515262	2510.494615
374.901751	2434.877308
375.288177	2434.877308
375.674540	2485.288846
376.060841	2475.206538
376.447079	2535.700385
376.833254	2422.274423
377.219367	2407.150962
377.605417	2513.015192
377.991404	2513.015192
378.377329	2422.274423
378.763191	2419.753846
379.148991	2447.480192
379.534727	2409.671538
379.920402	2565.947308
380.306013	2455.041923
380.691563	2480.247692
381.077049	2427.315577
381.462474	2490.330000
381.847835	2407.150962
382.233134	2457.562500
382.618371	2444.959615
383.003545	2507.974038
383.388657	2450.000769
383.773706	2462.603654
384.158693	2361.780577
384.543618	2457.562500
384.928480	2447.480192
385.313280	2389.506923
385.698017	2495.371154
386.082692	2419.753846
386.467305	2467.644808
386.851856	2412.192115
387.236344	2414.712692
387.620770	2462.603654
388.005133	2424.795000
388.389435	2432.356731
388.773674	2424.795000
389.157851	2437.397885
389.541965	2455.041923
389.926018	2402.109808
390.310008	2480.247692
390.693936	2467.644808
391.077802	2452.521346
391.461606	2386.986346
391.845348	2480.247692
392.229027	2490.330000
392.612645	2462.603654
392.996200	2409.671538
393.379694	2482.768269
393.763125	2485.288846
394.146494	2495.371154
394.529801	2550.823846
394.913047	2581.070769
395.296230	2490.330000
395.679351	2573.509038
396.062410	2442.439038
396.445408	2520.576923
396.828343	2530.659231
397.211217	2439.918462
397.594028	2545.782692
397.976778	2530.659231
398.359466	2540.741538
398.742092	2550.823846
399.124656	2475.206538
399.507158	2437.397885
399.889598	2460.083077
400.271977	2520.576923
400.654294	2414.712692
401.036549	2502.932885
401.418742	2497.891731
401.800874	2505.453462
402.182944	2460.083077
402.564952	2523.097500
402.946898	2565.947308
403.328783	2381.945192
403.710606	2533.179808
404.092367	2434.877308
404.474067	2505.453462
404.855705	2397.068654
405.237282	2444.959615
405.618797	2555.865000
406.000250	2452.521346
406.381642	2397.068654
406.762972	2457.562500
407.144240	2462.603654
407.525447	2492.850577
407.906593	2450.000769
408.287677	2467.644808
408.668700	2462.603654
409.049661	2444.959615
409.430560	2444.959615
409.811399	2530.659231
410.192176	2437.397885
410.572891	2465.124231
410.953545	2412.192115
411.334138	2497.891731
411.714669	2455.041923
412.095139	2507.974038
412.475547	2497.891731
412.855894	2500.412308
413.236180	2523.097500
413.616405	2518.056346
413.996568	2407.150962
414.376670	2533.179808
414.756711	2434.877308
415.136691	2404.630385
415.516609	2578.550192
415.896466	2523.097500
416.276262	2540.741538
416.655997	2442.439038
417.035670	2457.562500
417.415283	2492.850577
417.794834	2576.029615
418.174324	2444.959615
418.553753	2485.288846
418.933121	2538.220962
419.312428	2475.206538
419.691674	2467.644808
420.070859	2518.056346
420.449983	2553.344423
420.829045	2477.727115
421.208047	2543.262115
421.586988	2412.192115
421.965867	2507.974038
422.344686	2510.494615
422.723444	2407.150962
423.102141	2424.795000
423.480777	2565.947308
423.859352	2462.603654
424.237866	2510.494615
424.616319	2482.768269
424.994712	2482.768269
425.373044	2432.356731
425.751314	2465.124231
426.129524	2540.741538
426.507673	2495.371154
426.885762	2429.836154
427.263789	2434.877308
427.641756	2457.562500
428.019662	2495.371154
428.397508	2497.891731
428.775292	2439.918462
429.153016	2487.809423
429.530679	2593.673654
429.908282	2447.480192
430.285824	2548.303269
430.663305	2515.535769
431.040726	2523.097500
431.418086	2465.124231
431.795385	2452.521346
432.172624	2412.192115
432.549802	2492.850577
432.926920	2520.576923
433.303977	2427.315577
433.680974	2404.630385
434.057910	2500.412308
434.434786	2565.947308
434.811601	2460.083077
435.188355	2472.685962
435.565050	2492.850577
435.941683	2475.206538
436.318257	2462.603654
436.694770	2525.618077
437.071222	2490.330000
437.447614	2475.206538
437.823946	2442.439038
438.200218	2460.083077
438.576429	2507.974038
438.952580	2450.000769
439.328670	2422.274423
439.704700	2424.795000
440.080670	2560.906154
440.456580	2447.480192
440.832429	2591.153077
441.208218	2434.877308
441.583947	2462.603654
441.959616	2490.330000
442.335224	2477.727115
442.710773	2505.453462
443.086261	2523.097500
443.461689	2485.288846
443.837057	2540.741538
444.212365	2533.179808
444.587612	2487.809423
444.962800	2510.494615
445.337927	2482.768269
445.712995	2560.906154
446.088002	2480.247692
446.462949	2487.809423
446.837837	2495.371154
447.212664	2485.288846
447.587431	2434.877308
447.962139	2495.371154
448.336786	2538.220962
448.711374	2533.179808
449.085901	2422.274423
449.460369	2492.850577
449.834776	2452.521346
450.209124	2538.220962
450.583412	2444.959615
450.957640	2520.576923
451.331808	2424.795000
451.705917	2424.795000
452.079965	2412.192115
452.453954	2538.220962
452.827883	2424.795000
453.201752	2457.562500
453.575562	2417.233269
453.949311	2500.412308
454.323001	2467.644808
454.696632	2513.015192
455.070202	2502.932885
455.443713	2452.521346
455.817164	2525.618077
456.190556	2447.480192
456.563888	2485.288846
456.937160	2480.247692
457.310373	2470.165385
457.683526	2513.015192
458.056619	2497.891731
458.429653	2412.192115
458.802628	2530.659231
459.175542	2515.535769
459.548398	2465.124231
459.921194	2507.974038
460.293930	2465.124231
460.666607	2515.535769
461.039224	2467.644808
461.411782	2472.685962
461.784280	2507.974038
462.156719	2502.932885
462.529099	2538.220962
462.901419	2543.262115
463.273680	2505.453462
463.645882	2462.603654
464.018024	2530.659231
464.390106	2553.344423
464.762130	2439.918462
465.134094	2462.603654
465.505999	2450.000769
465.877845	2429.836154
466.249631	2510.494615
466.621358	2535.700385
466.993026	2576.029615
467.364634	2545.782692
467.736184	2460.083077
468.107674	2510.494615
468.479105	2497.891731
468.850477	2548.303269
469.221790	2487.809423
469.593043	2480.247692
469.964238	2535.700385
470.335373	2502.932885
470.706449	2523.097500
471.077467	2492.850577
471.448425	2510.494615
471.819324	2472.685962
472.190164	2525.618077
472.560945	2450.000769
472.931667	2404.630385
473.302330	2515.535769
473.672934	2465.124231
474.043479	2538.220962
474.413965	2515.535769
474.784393	2502.932885
475.154761	2492.850577
475.525070	2482.768269
475.895321	2422.274423
476.265513	2523.097500
476.635645	2465.124231
477.005719	2520.576923
477.375734	2570.988462
477.745691	2409.671538
478.115588	2455.041923
478.485427	2472.685962
478.855207	2525.618077
479.224928	2601.235385
479.594591	2495.371154
479.964194	2437.397885
480.333739	2510.494615
480.703226	2457.562500
481.072653	2510.494615
481.442022	2427.315577
481.811333	2533.179808
482.180584	2525.618077
482.549777	2447.480192
482.918912	2419.753846
483.287988	2432.356731
483.657005	2540.741538
484.025964	2507.974038
484.394864	2417.233269
484.763706	2409.671538
485.132489	2444.959615
485.501213	2455.041923
485.869879	2533.179808
486.238487	2492.850577
486.607036	2505.453462
486.975527	2482.768269
487.343959	2472.685962
487.712333	2429.836154
488.080648	2495.371154
488.448905	2497.891731
488.817104	2555.865000
489.185244	2520.576923
489.553326	2530.659231
489.921350	2422.274423
490.289315	2452.521346
490.657222	2528.138654
491.025070	2434.877308
491.392861	2500.412308
491.760593	2570.988462
492.128267	2510.494615
492.495883	2563.426731
492.863440	2487.809423
493.230939	2505.453462
493.598380	2565.947308
493.965763	2535.700385
494.333088	2490.330000
494.700354	2528.138654
495.067563	2386.986346
495.434713	2507.974038
495.801805	2613.838269
496.168839	2439.918462
496.535815	2482.768269
496.902733	2502.932885
497.269593	2533.179808
497.636395	2550.823846
498.003139	2510.494615
498.369825	2545.782692
498.736453	2439.918462
499.103023	2520.576923
499.469535	2505.453462
499.835989	2530.659231
500.202385	2482.768269
500.568723	2495.371154
500.935003	2480.247692
501.301226	2472.685962
501.667390	2460.083077
502.033497	2455.041923
502.399546	2392.027500
502.765537	2444.959615
503.131470	2596.194231
503.497345	2560.906154
503.863163	2502.932885
504.228923	2550.823846
504.594625	2482.768269
504.960269	2467.644808
505.325856	2475.206538
505.691385	2505.453462
506.056856	2455.041923
506.422270	2510.494615
506.787625	2457.562500
507.152924	2538.220962
507.518164	2437.397885
507.883347	2417.233269
508.248472	2495.371154
508.613540	2487.809423
508.978550	2487.809423
509.343503	2457.562500
509.708398	2563.426731
510.073236	2492.850577
510.438016	2518.056346
510.802738	2523.097500
511.167403	2528.138654
511.532010	2475.206538
511.896561	2439.918462
512.261053	2492.850577
512.625488	2485.288846
512.989866	2613.838269
513.354186	2502.932885
513.718449	2480.247692
514.082655	2515.535769
514.446803	2462.603654
514.810894	2455.041923
515.174927	2424.795000
515.538904	2540.741538
515.902822	2558.385577
516.266684	2535.700385
516.630488	2447.480192
516.994235	2518.056346
517.357925	2545.782692
517.721558	2543.262115
518.085133	2533.179808
518.448651	2528.138654
518.812112	2518.056346
519.175516	2462.603654
519.538863	2495.371154
519.902152	2555.865000
520.265385	2452.521346
520.628560	2588.632500
520.991678	2565.947308
521.354739	2497.891731
521.717743	2593.673654
522.080690	2490.330000
522.443580	2477.727115
522.806413	2492.850577
523.169189	2528.138654
523.531908	2505.453462
523.894569	2455.041923
524.257174	2487.809423
524.619722	2520.576923
524.982213	2538.220962
525.344647	2427.315577
525.707025	2492.850577
526.069345	2502.932885
526.431608	2505.453462
526.793815	2482.768269
527.155964	2497.891731
527.518057	2525.618077
527.880093	2465.124231
528.242072	2548.303269
528.603995	2475.206538
528.965860	2447.480192
529.327669	2472.685962
529.689421	2502.932885
530.051117	2502.932885
530.412755	2437.397885
530.774337	2528.138654
531.135862	2530.659231
531.497331	2535.700385
531.858743	2480.247692
532.220098	2497.891731
532.581396	2482.768269
532.942638	2414.712692
533.303824	2487.809423
533.664953	2485.288846
534.026025	2513.015192
534.387040	2565.947308
534.747999	2487.809423
535.108902	2533.179808
535.469748	2487.809423
535.830537	2560.906154
536.191270	2437.397885
536.551947	2568.467885
536.912567	2444.959615
537.273131	2533.179808
537.633638	2550.823846
537.994089	2533.179808
538.354483	2492.850577
538.714821	2533.179808
539.075103	2434.877308
539.435328	2576.029615
539.795497	2470.165385
540.155609	2500.412308
540.515665	2530.659231
540.875665	2513.015192
541.235609	2588.632500
541.595496	2560.906154
541.955328	2520.576923
542.315102	2535.700385
542.674821	2475.206538
543.034483	2497.891731
543.394090	2515.535769
543.753640	2500.412308
544.113134	2472.685962
544.472571	2477.727115
544.831953	2472.685962
545.191278	2432.356731
545.550548	2450.000769
545.909761	2480.247692
546.268918	2538.220962
546.628019	2586.111923
546.987064	2560.906154
547.346053	2560.906154
547.704986	2515.535769
548.063863	2472.685962
548.422684	2573.509038
548.781449	2455.041923
549.140158	2530.659231
549.498811	2487.809423
549.857408	2525.618077
550.215949	2525.618077
550.574434	2462.603654
550.932864	2500.412308
551.291237	2427.315577
551.649555	2553.344423
552.007817	2523.097500
552.366022	2525.618077
552.724173	2555.865000
553.082267	2457.562500
553.440305	2500.412308
553.798288	2475.206538
554.156215	2472.685962
554.514086	2553.344423
554.871902	2477.727115
555.229661	2470.165385
555.587365	2497.891731
555.945014	2485.288846
556.302606	2576.029615
556.660143	2568.467885
557.017625	2424.795000
557.375050	2482.768269
557.732421	2487.809423
558.089735	2442.439038
558.446994	2533.179808
558.804197	2533.179808
559.161345	2414.712692
559.518437	2538.220962
559.875474	2505.453462
560.232455	2424.795000
560.589381	2530.659231
560.946251	2523.097500
561.303065	2492.850577
561.659825	2598.714808
562.016528	2533.179808
562.373177	2505.453462
562.729770	2535.700385
563.086307	2455.041923
563.442789	2502.932885
563.799216	2515.535769
564.155587	2452.521346
564.511904	2497.891731
564.868164	2507.974038
565.224370	2490.330000
565.580520	2457.562500
565.936615	2560.906154
566.292654	2487.809423
566.648638	2513.015192
567.004567	2530.659231
567.360441	2553.344423
567.716260	2520.576923
568.072023	2518.056346
568.427732	2490.330000
568.783385	2490.330000
569.138982	2480.247692
569.494525	2520.576923
569.850013	2507.974038
570.205445	2500.412308
570.560823	2515.535769
570.916145	2570.988462
571.271412	2490.330000
571.626625	2477.727115
571.981782	2490.330000
572.336884	2482.768269
572.691931	2576.029615
573.046923	2515.535769
573.401860	2518.056346
573.756743	2450.000769
574.111570	2500.412308
574.466342	2432.356731
574.821059	2467.644808
575.175722	2452.521346
575.530330	2545.782692
575.884882	2500.412308
576.239380	2495.371154
576.593823	2487.809423
576.948211	2520.576923
577.302544	2477.727115
577.656823	2550.823846
578.011047	2447.480192
578.365216	2553.344423
578.719330	2490.330000
579.073389	2467.644808
579.427394	2444.959615
579.781344	2477.727115
580.135239	2434.877308
580.489080	2535.700385
580.842866	2462.603654
581.196597	2513.015192
581.550273	2472.685962
581.903895	2553.344423
582.257463	2502.932885
582.610975	2510.494615
582.964434	2505.453462
583.317837	2530.659231
583.671186	2520.576923
584.024481	2480.247692
584.377721	2465.124231
584.730906	2518.056346
585.084037	2434.877308
585.437113	2520.576923
585.790135	2409.671538
586.143103	2573.509038
586.496016	2518.056346
586.848874	2528.138654
587.201679	2530.659231
587.554428	2500.412308
587.907124	2444.959615
588.259765	2467.644808
588.612352	2523.097500
588.964884	2510.494615
589.317362	2520.576923
589.669786	2548.303269
590.022155	2518.056346
590.374470	2555.865000
590.726731	2470.165385
591.078937	2535.700385
591.431090	2427.315577
591.783188	2432.356731
592.135232	2523.097500
592.487222	2480.247692
592.839157	2472.685962
593.191038	2502.932885
593.542866	2581.070769
593.894639	2470.165385
594.246358	2510.494615
594.598022	2530.659231
594.949633	2465.124231
595.301190	2530.659231
595.652692	2505.453462
596.004141	2550.823846
596.355535	2394.548077
596.706876	2422.274423
597.058162	2399.589231
597.409395	2472.685962
597.760573	2460.083077
598.111698	2452.521346
598.462768	2500.412308
598.813785	2434.877308
599.164748	2586.111923
599.515657	2525.618077
599.866511	2490.330000
600.217312	2460.083077
600.568060	2437.397885
600.918753	2639.044038
601.269392	2467.644808
601.619978	2545.782692
601.970510	2495.371154
602.320988	2497.891731
602.671412	2502.932885
603.021783	2538.220962
603.372100	2482.768269
603.722363	2543.262115
604.072572	2432.356731
604.422728	2510.494615
604.772830	2497.891731
605.122878	2439.918462
605.472872	2495.371154
605.822813	2455.041923
606.172701	2475.206538
606.522534	2442.439038
606.872314	2510.494615
607.222041	2543.262115
607.571714	2482.768269
607.921333	2422.274423
608.270899	2434.877308
608.620411	2591.153077
608.969870	2520.576923
609.319276	2525.618077
609.668627	2495.371154
610.017926	2608.797115
610.367171	2460.083077
610.716362	2495.371154
611.065500	2543.262115
611.414585	2467.644808
611.763616	2452.521346
612.112594	2485.288846
612.461518	2472.685962
612.810389	2515.535769
613.159207	2412.192115
613.507971	2475.206538
613.856682	2543.262115
614.205340	2510.494615
614.553945	2452.521346
614.902496	2581.070769
615.250994	2507.974038
615.599439	2515.535769
615.947830	2500.412308
616.296169	2465.124231
616.644454	2505.453462
616.992686	2558.385577
617.340864	2502.932885
617.688990	2490.330000
618.037063	2513.015192
618.385082	2507.974038
618.733048	2472.685962
619.080961	2450.000769
619.428821	2460.083077
619.776628	2540.741538
620.124382	2482.768269
620.472083	2540.741538
620.819731	2409.671538
621.167326	2439.918462
621.514868	2500.412308
621.862357	2455.041923
622.209793	2500.412308
622.557176	2555.865000
622.904506	2520.576923
623.251783	2490.330000
623.599007	2558.385577
623.946179	2505.453462
624.293297	2477.727115
624.640363	2500.412308
624.987376	2490.330000
625.334336	2452.521346
625.681243	2513.015192
626.028097	2412.192115
626.374899	2515.535769
626.721647	2495.371154
627.068343	2500.412308
627.414987	2495.371154
627.761577	2505.453462
628.108115	2528.138654
628.454600	2437.397885
628.801032	2505.453462
629.147412	2518.056346
629.493739	2533.179808
629.840014	2518.056346
630.186236	2523.097500
630.532405	2412.192115
630.878521	2497.891731
631.224585	2586.111923
631.570597	2472.685962
631.916556	2500.412308
632.262462	2480.247692
632.608316	2583.591346
632.954117	2462.603654
633.299866	2576.029615
633.645562	2475.206538
633.991206	2510.494615
634.336797	2460.083077
634.682336	2545.782692
635.027823	2518.056346
635.373257	2497.891731
635.718639	2550.823846
636.063968	2485.288846
636.409245	2548.303269
636.754470	2568.467885
637.099642	2442.439038
637.444762	2485.288846
637.789829	2452.521346
638.134845	2497.891731
638.479808	2477.727115
638.824719	2570.988462
639.169577	2497.891731
639.514383	2470.165385
639.859137	2543.262115
640.203839	2467.644808
640.548489	2485.288846
640.893086	2442.439038
641.237632	2500.412308
641.582125	2485.288846
641.926566	2583.591346
642.270955	2497.891731
642.615292	2500.412308
642.959576	2480.247692
643.303809	2442.439038
643.647990	2525.618077
643.992118	2467.644808
644.336195	2550.823846
644.680219	2450.000769
645.024192	2455.041923
645.368112	2533.179808
645.711981	2573.509038
646.055797	2545.782692
646.399562	2344.136538
646.743274	2417.233269
647.086935	2520.576923
647.430544	2515.535769
647.774101	2497.891731
648.117606	2523.097500
648.461059	2497.891731
648.804460	2510.494615
649.147810	2507.974038
649.491108	2528.138654
649.834354	2540.741538
650.177548	2533.179808
650.520690	2465.124231
650.863781	2462.603654
651.206820	2573.509038
651.549807	2480.247692
651.892742	2515.535769
652.235626	2472.685962
652.578458	2515.535769
652.921238	2545.782692
653.263967	2545.782692
653.606644	2518.056346
653.949269	2500.412308
654.291843	2603.755962
654.634365	2462.603654
654.976836	2457.562500
655.319255	2467.644808
655.661622	2404.630385
656.003938	2465.124231
656.346203	2500.412308
656.688416	2523.097500
657.030577	2487.809423
657.372687	2477.727115
657.714746	2523.097500
658.056753	2535.700385
658.398708	2525.618077
658.740612	2386.986346
659.082465	2482.768269
659.424266	2500.412308
659.766016	2497.891731
660.107715	2583.591346
660.449362	2548.303269
660.790958	2500.412308
661.132503	2525.618077
661.473996	2543.262115
661.815438	2480.247692
662.156829	2492.850577
662.498168	2500.412308
662.839456	2573.509038
663.180693	2530.659231
663.521879	2505.453462
663.863013	2530.659231
664.204097	2550.823846
664.545129	2555.865000
664.886110	2409.671538
665.227040	2538.220962
665.567918	2525.618077
665.908746	2565.947308
666.249522	2513.015192
666.590248	2540.741538
666.930922	2442.439038
667.271545	2507.974038
667.612118	2518.056346
667.952639	2510.494615
668.293109	2480.247692
668.633528	2470.165385
668.973896	2412.192115
669.314213	2528.138654
669.654480	2510.494615
669.994695	2535.700385
670.334859	2565.947308
670.674973	2434.877308
671.015035	2563.426731
671.355047	2535.700385
671.695008	2548.303269
672.034918	2467.644808
672.374777	2548.303269
672.714585	2520.576923
673.054342	2548.303269
673.394049	2462.603654
673.733705	2472.685962
674.073310	2452.521346
674.412864	2581.070769
674.752368	2472.685962
675.091820	2490.330000
675.431223	2444.959615
675.770574	2490.330000
676.109875	2399.589231
676.449125	2485.288846
676.788324	2490.330000
677.127473	2417.233269
677.466571	2510.494615
677.805619	2505.453462
678.144616	2543.262115
678.483562	2520.576923
678.822458	2417.233269
679.161303	2485.288846
679.500098	2472.685962
679.838842	2545.782692
680.177535	2500.412308
680.516179	2518.056346
680.854771	2543.262115
681.193314	2465.124231
681.531805	2523.097500
681.870247	2525.618077
682.208638	2518.056346
682.546978	2485.288846
682.885268	2533.179808
683.223508	2465.124231
683.561697	2538.220962
683.899836	2457.562500
684.237925	2578.550192
684.575963	2480.247692
684.913951	2573.509038
685.251889	2553.344423
685.589776	2502.932885
685.927614	2497.891731
686.265401	2576.029615
686.603137	2439.918462
686.940824	2525.618077
687.278460	2515.535769
687.616046	2502.932885
687.953582	2462.603654
688.291068	2439.918462
688.628504	2563.426731
688.965889	2482.768269
689.303224	2500.412308
689.640510	2465.124231
689.977745	2460.083077
690.314930	2470.165385
690.652065	2495.371154
690.989150	2525.618077
691.326185	2603.755962
691.663170	2414.712692
692.000105	2570.988462
692.336990	2492.850577
692.673825	2563.426731
693.010610	2495.371154
693.347345	2442.439038
693.684030	2460.083077
694.020665	2586.111923
694.357251	2475.206538
694.693786	2558.385577
695.030272	2505.453462
695.366707	2500.412308
695.703093	2523.097500
696.039429	2518.056346
696.375716	2457.562500
696.711952	2528.138654
697.048139	2500.412308
697.384276	2535.700385
697.720363	2578.550192
698.056400	2457.562500
698.392388	2543.262115
698.728326	2535.700385
699.064214	2427.315577
699.400053	2563.426731
699.735842	2518.056346
700.071581	2429.836154
700.407270	2513.015192
700.742910	2568.467885
701.078501	2434.877308
701.414042	2518.056346
701.749533	2439.918462
702.084974	2510.494615
702.420366	2467.644808
702.755709	2523.097500
703.091002	2452.521346
703.426246	2485.288846
703.761440	2470.165385
704.096584	2553.344423
704.431679	2480.247692
704.766725	2455.041923
705.101721	2487.809423
705.436668	2480.247692
705.771565	2480.247692
706.106413	2515.535769
706.441212	2507.974038
706.775961	2497.891731
707.110661	2555.865000
707.445311	2530.659231
707.779913	2538.220962
708.114465	2538.220962
708.448967	2513.015192
708.783421	2664.249808
709.117825	2530.659231
709.452180	2523.097500
709.786485	2528.138654
710.120742	2475.206538
710.454949	2565.947308
710.789107	2576.029615
711.123216	2576.029615
711.457275	2588.632500
711.791286	2472.685962
712.125247	2462.603654
712.459159	2432.356731
712.793023	2538.220962
713.126837	2523.097500
713.460602	2485.288846
713.794318	2560.906154
714.127985	2450.000769
714.461602	2457.562500
714.795171	2470.165385
715.128691	2538.220962
715.462162	2525.618077
715.795584	2545.782692
716.128957	2502.932885
716.462281	2460.083077
716.795556	2467.644808
717.128782	2452.521346
717.461960	2442.439038
717.795088	2530.659231
718.128167	2434.877308
718.461198	2457.562500
718.794180	2424.795000
719.127113	2460.083077
719.459997	2439.918462
719.792833	2442.439038
720.125619	2482.768269
720.458357	2518.056346
720.791046	2540.741538
721.123686	2510.494615
721.456278	2515.535769
721.788821	2505.453462
722.121315	2598.714808
722.453761	2510.494615
722.786158	2555.865000
723.118506	2502.932885
723.450805	2452.521346
723.783056	2492.850577
724.115259	2455.041923
724.447412	2558.385577
724.779518	2475.206538
725.111574	2429.836154
725.443582	2520.576923
725.775542	2513.015192
726.107453	2482.768269
726.439315	2462.603654
726.771129	2409.671538
727.102895	2560.906154
727.434612	2465.124231
727.766281	2540.741538
728.097901	2465.124231
728.429473	2535.700385
728.760996	2505.453462
729.092471	2492.850577
729.423897	2450.000769
729.755276	2563.426731
730.086606	2447.480192
730.417887	2533.179808
730.749120	2465.124231
731.080305	2490.330000
731.411442	2439.918462
731.742530	2452.521346
732.073570	2510.494615
732.404562	2452.521346
732.735506	2500.412308
733.066401	2550.823846
733.397249	2495.371154
733.728048	2505.453462
734.058798	2424.795000
734.389501	2465.124231
734.720156	2470.165385
735.050762	2457.562500
735.381320	2573.509038
735.711831	2437.397885
736.042293	2502.932885
736.372707	2460.083077
736.703073	2452.521346
737.033391	2520.576923
737.363661	2472.685962
737.693883	2545.782692
738.024056	2429.836154
738.354182	2500.412308
738.684260	2475.206538
739.014290	2500.412308
739.344272	2528.138654
739.674207	2495.371154
740.004093	2565.947308
740.333931	2447.480192
740.663722	2520.576923
740.993464	2482.768269
741.323159	2533.179808
741.652806	2437.397885
741.982405	2402.109808
742.311956	2495.371154
742.641460	2419.753846
742.970915	2530.659231
743.300323	2472.685962
743.629683	2545.782692
743.958996	2472.685962
744.288260	2404.630385
744.617477	2525.618077
744.946647	2510.494615
745.275768	2477.727115
745.604842	2444.959615
745.933869	2507.974038
746.262847	2467.644808
746.591778	2480.247692
746.920662	2437.397885
747.249498	2553.344423
747.578286	2558.385577
747.907027	2502.932885
748.235720	2570.988462
748.564365	2472.685962
748.892963	2540.741538
749.221514	2437.397885
749.550017	2540.741538
749.878473	2530.659231
750.206881	2535.700385
750.535242	2470.165385
750.863555	2553.344423
751.191821	2444.959615
751.520039	2480.247692
751.848210	2598.714808
752.176334	2485.288846
752.504411	2555.865000
752.832440	2427.315577
753.160421	2550.823846
753.488356	2477.727115
753.816243	2462.603654
754.144082	2417.233269
754.471875	2513.015192
754.799620	2490.330000
755.127318	2502.932885
755.454969	2404.630385
755.782572	2482.768269
756.110129	2465.124231
756.437638	2560.906154
756.765100	2535.700385
757.092515	2528.138654
757.419882	2465.124231
757.747203	2487.809423
758.074477	2545.782692
758.401703	2548.303269
758.728882	2467.644808
759.056014	2482.768269
759.383099	2457.562500
759.710138	2432.356731
760.037129	2548.303269
760.364073	2553.344423
760.690970	2455.041923
761.017820	2402.109808
761.344623	2530.659231
761.671379	2442.439038
761.998088	2485.288846
762.324751	2432.356731
762.651366	2480.247692
762.977935	2495.371154
763.304456	2490.330000
763.630931	2543.262115
763.957359	2409.671538
764.283740	2555.865000
764.610074	2502.932885
764.936362	2525.618077
765.262602	2455.041923
765.588796	2535.700385
765.914943	2467.644808
766.241044	2480.247692
766.567097	2518.056346
766.893104	2502.932885
767.219064	2543.262115
767.544978	2482.768269
767.870845	2500.412308
768.196665	2513.015192
768.522438	2515.535769
768.848165	2429.836154
769.173846	2480.247692
769.499479	2485.288846
769.825066	2495.371154
770.150607	2507.974038
770.476101	2495.371154
770.801548	2444.959615
771.126949	2523.097500
771.452303	2462.603654
771.777611	2538.220962
772.102872	2523.097500
772.428087	2437.397885
772.753256	2510.494615
773.078378	2485.288846
773.403453	2573.509038
773.728482	2424.795000
774.053465	2533.179808
774.378401	2424.795000
774.703291	2502.932885
775.028135	2505.453462
775.352932	2548.303269
775.677683	2470.165385
776.002388	2477.727115
776.327046	2505.453462
776.651658	2497.891731
776.976224	2502.932885
777.300743	2490.330000
777.625216	2548.303269
777.949643	2477.727115
778.274024	2502.932885
778.598359	2520.576923
778.922647	2485.288846
779.246889	2497.891731
779.571086	2502.932885
779.895236	2470.165385
780.219339	2540.741538
780.543397	2563.426731
780.867409	2452.521346
781.191374	2450.000769
781.515294	2480.247692
781.839167	2500.412308
782.162995	2490.330000
782.486776	2596.194231
782.810511	2485.288846
783.134201	2565.947308
783.457844	2495.371154
783.781441	2540.741538
784.104993	2472.685962
784.428498	2482.768269
784.751958	2437.397885
785.075372	2543.262115
785.398739	2475.206538
785.722061	2450.000769
786.045337	2505.453462
786.368568	2523.097500
786.691752	2505.453462
787.014891	2523.097500
787.337983	2540.741538
787.661030	2457.562500
787.984031	2485.288846
788.306987	2497.891731
788.629897	2475.206538
788.952760	2455.041923
789.275579	2497.891731
789.598351	2452.521346
789.921078	2432.356731
790.243759	2523.097500
790.566395	2507.974038
790.888984	2502.932885
791.211529	2510.494615
791.534027	2510.494615
791.856480	2520.576923
792.178888	2507.974038
792.501249	2470.165385
792.823566	2540.741538
793.145836	2419.753846
793.468062	2550.823846
793.790241	2442.439038
794.112375	2510.494615
794.434464	2525.618077
794.756507	2525.618077
795.078505	2460.083077
795.400457	2570.988462
795.722364	2414.712692
796.044226	2518.056346
796.366042	2528.138654
796.687812	2450.000769
797.009538	2520.576923
797.331218	2412.192115
797.652852	2472.685962
797.974442	2507.974038
798.295986	2565.947308
798.617484	2570.988462
798.938938	2565.947308
799.260346	2429.836154
799.581709	2518.056346
799.903026	2457.562500
800.224299	2530.659231
800.545526	2407.150962
800.866708	2515.535769
801.187845	2467.644808
801.508936	2482.768269
801.829983	2460.083077
802.150984	2548.303269
802.471940	2482.768269
802.792851	2457.562500
803.113717	2450.000769
803.434538	2500.412308
803.755314	2442.439038
804.076045	2520.576923
804.396731	2543.262115
804.717372	2485.288846
805.037967	2480.247692
805.358518	2581.070769
805.679024	2424.795000
805.999485	2525.618077
806.319901	2412.192115
806.640272	2450.000769
806.960598	2515.535769
807.280879	2518.056346
807.601115	2528.138654
807.921306	2545.782692
808.241453	2540.741538
808.561554	2492.850577
808.881611	2523.097500
809.201623	2477.727115
809.521590	2477.727115
809.841513	2570.988462
810.161390	2490.330000
810.481223	2586.111923
810.801011	2482.768269
811.120755	2497.891731
811.440453	2404.630385
811.760107	2500.412308
812.079716	2467.644808
812.399281	2485.288846
812.718801	2437.397885
813.038276	2442.439038
813.357707	2404.630385
813.677093	2482.768269
813.996434	2447.480192
814.315731	2563.426731
814.634983	2480.247692
814.954191	2487.809423
815.273354	2540.741538
815.592473	2442.439038
815.911547	2500.412308
816.230577	2570.988462
816.549562	2492.850577
816.868502	2455.041923
817.187399	2470.165385
817.506250	2545.782692
817.825058	2515.535769
818.143821	2510.494615
818.462539	2477.727115
818.781213	2444.959615
819.099843	2588.632500
819.418429	2477.727115
819.736970	2500.412308
820.055466	2482.768269
820.373919	2518.056346
820.692327	2412.192115
821.010691	2573.509038
821.329011	2439.918462
821.647286	2525.618077
821.965517	2457.562500
822.283704	2555.865000
822.601847	2515.535769
822.919945	2520.576923
823.237999	2477.727115
823.556010	2487.809423
823.873976	2543.262115
824.191897	2407.150962
824.509775	2460.083077
824.827609	2477.727115
825.145398	2518.056346
825.463144	2475.206538
825.780845	2447.480192
826.098502	2510.494615
826.416116	2528.138654
826.733685	2472.685962
827.051210	2412.192115
827.368692	2447.480192
827.686129	2465.124231
828.003522	2538.220962
828.320872	2520.576923
828.638177	2510.494615
828.955439	2523.097500
829.272656	2502.932885
829.589830	2487.809423
829.906960	2480.247692
830.224046	2535.700385
830.541088	2505.453462
830.858086	2444.959615
831.175041	2507.974038
831.491952	2500.412308
831.808819	2492.850577
832.125642	2467.644808
832.442421	2492.850577
832.759157	2497.891731
833.075849	2530.659231
833.392497	2424.795000
833.709101	2523.097500
834.025662	2495.371154
834.342179	2507.974038
834.658653	2570.988462
834.975083	2553.344423
835.291469	2510.494615
835.607811	2533.179808
835.924110	2492.850577
836.240366	2535.700385
836.556578	2460.083077
836.872746	2565.947308
837.188871	2439.918462
837.504952	2404.630385
837.820990	2502.932885
838.136984	2515.535769
838.452935	2462.603654
838.768842	2500.412308
839.084706	2528.138654
839.400526	2515.535769
839.716303	2462.603654
840.032037	2480.247692
840.347727	2460.083077
840.663373	2613.838269
840.978977	2432.356731
841.294537	2485.288846
841.610054	2455.041923
841.925527	2409.671538
842.240957	2470.165385
842.556344	2505.453462
842.871687	2518.056346
843.186987	2482.768269
843.502244	2565.947308
843.817458	2480.247692
844.132629	2513.015192
844.447756	2523.097500
844.762840	2490.330000
845.077881	2533.179808
845.392879	2560.906154
845.707833	2434.877308
846.022745	2515.535769
846.337613	2470.165385
846.652438	2505.453462
846.967221	2591.153077
847.281960	2452.521346
847.596656	2467.644808
847.911309	2505.453462
848.225919	2452.521346
848.540485	2510.494615
848.855009	2404.630385
849.169490	2462.603654
849.483928	2507.974038
849.798323	2419.753846
850.112675	2525.618077
850.426984	2437.397885
850.741251	2530.659231
851.055474	2497.891731
851.369654	2540.741538
851.683792	2487.809423
851.997887	2477.727115
852.311938	2475.206538
852.625947	2482.768269
852.939914	2490.330000
853.253837	2518.056346
853.567718	2548.303269
853.881555	2442.439038
854.195350	2444.959615
854.509103	2475.206538
854.822812	2502.932885
855.136479	2487.809423
855.450103	2490.330000
855.763685	2588.632500
856.077224	2528.138654
856.390720	2540.741538
856.704173	2563.426731
857.017584	2510.494615
857.330953	2528.138654
857.644278	2518.056346
857.957561	2495.371154
858.270802	2520.576923
858.584000	2581.070769
858.897155	2507.974038
859.210268	2523.097500
859.523339	2523.097500
859.836367	2460.083077
860.149352	2545.782692
860.462295	2472.685962
860.775195	2525.618077
861.088054	2455.041923
861.400869	2394.548077
861.713642	2518.056346
862.026373	2505.453462
862.339062	2523.097500
862.651708	2492.850577
862.964312	2528.138654
863.276873	2528.138654
863.589392	2492.850577
863.901869	2500.412308
864.214303	2490.330000
864.526696	2462.603654
864.839045	2553.344423
865.151353	2500.412308
865.463619	2601.235385
865.775842	2434.877308
866.088023	2505.453462
866.400162	2424.795000
866.712258	2429.836154
867.024313	2530.659231
867.336325	2518.056346
867.648296	2543.262115
867.960224	2487.809423
868.272110	2450.000769
868.583954	2525.618077
868.895755	2417.233269
869.207515	2490.330000
869.519233	2523.097500
869.830909	2455.041923
870.142542	2563.426731
870.454134	2507.974038
870.765684	2500.412308
871.077191	2480.247692
871.388657	2457.562500
871.700081	2414.712692
872.011463	2487.809423
872.322803	2495.371154
872.634101	2470.165385
872.945357	2513.015192
873.256571	2482.768269
873.567744	2533.179808
873.878874	2563.426731
874.189963	2465.124231
874.501010	2555.865000
874.812015	2460.083077
875.122979	2530.659231
875.433900	2450.000769
875.744780	2507.974038
876.055618	2538.220962
876.366415	2470.165385
876.677169	2525.618077
876.987882	2535.700385
877.298554	2563.426731
877.609183	2533.179808
877.919771	2535.700385
878.230317	2507.974038
878.540822	2472.685962
878.851285	2490.330000
879.161707	2616.358846
879.472087	2452.521346
879.782425	2482.768269
880.092722	2550.823846
880.402977	2455.041923
880.713191	2548.303269
881.023363	2510.494615
881.333494	2470.165385
881.643583	2434.877308
881.953631	2462.603654
882.263637	2492.850577
882.573602	2490.330000
882.883526	2450.000769
883.193408	2558.385577
883.503248	2485.288846
883.813048	2505.453462
884.122806	2555.865000
884.432522	2409.671538
884.742197	2487.809423
885.051831	2543.262115
885.361424	2467.644808
885.670975	2502.932885
885.980485	2455.041923
886.289954	2518.056346
886.599382	2495.371154
886.908768	2462.603654
887.218113	2520.576923
887.527417	2533.179808
887.836680	2447.480192
888.145901	2442.439038
888.455082	2545.782692
888.764221	2586.111923
889.073319	2576.029615
889.382376	2513.015192
889.691392	2535.700385
890.000366	2422.274423
890.309300	2502.932885
890.618193	2442.439038
890.927044	2495.371154
891.235855	2482.768269
891.544625	2485.288846
891.853353	2439.918462
892.162041	2480.247692
892.470687	2392.027500
892.779293	2510.494615
893.087858	2497.891731
893.396381	2500.412308
893.704864	2419.753846
894.013306	2470.165385
894.321707	2450.000769
894.630068	2553.344423
894.938387	2525.618077
895.246665	2540.741538
895.554903	2495.371154
895.863100	2460.083077
896.171256	2480.247692
896.479371	2538.220962
896.787446	2500.412308
897.095480	2548.303269
897.403473	2439.918462
897.711425	2560.906154
898.019336	2447.480192
898.327207	2490.330000
898.635038	2422.274423
898.942827	2485.288846
899.250576	2500.412308
899.558284	2507.974038
899.865952	2460.083077
900.173579	2404.630385
900.481165	2477.727115
900.788711	2510.494615
901.096216	2457.562500
901.403681	2495.371154
901.711105	2492.850577
902.018489	2528.138654
902.325832	2470.165385
902.633135	2623.920577
902.940397	2538.220962
903.247619	2535.700385
903.554800	2548.303269
903.861941	2480.247692
904.169041	2530.659231
904.476101	2447.480192
904.783121	2518.056346
905.090100	2558.385577
905.397039	2535.700385
905.703938	2525.618077
906.010796	2497.891731
906.317614	2482.768269
906.624391	2513.015192
906.931129	2442.439038
907.237826	2528.138654
907.544483	2457.562500
907.851099	2404.630385
908.157675	2505.453462
908.464211	2555.865000
908.770707	2507.974038
909.077163	2462.603654
909.383578	2558.385577
909.689954	2447.480192
909.996289	2563.426731
910.302584	2523.097500
910.608839	2510.494615
910.915054	2482.768269
911.221229	2457.562500
911.527363	2490.330000
911.833458	2490.330000
912.139513	2545.782692
912.445527	2515.535769
912.751502	2568.467885
913.057436	2470.165385
913.363331	2530.659231
913.669186	2593.673654
913.975000	2422.274423
914.280775	2543.262115
914.586510	2490.330000
914.892205	2475.206538
915.197859	2434.877308
915.503475	2525.618077
915.809050	2419.753846
916.114585	2444.959615
916.420081	2528.138654
916.725536	2548.303269
917.030952	2533.179808
917.336328	2399.589231
917.641665	2548.303269
917.946961	2432.356731
918.252218	2548.303269
918.557435	2485.288846
918.862612	2495.371154
919.167750	2462.603654
919.472848	2550.823846
919.777906	2462.603654
920.082925	2472.685962
920.387904	2523.097500
920.692843	2444.959615
920.997743	2515.535769
921.302603	2505.453462
921.607423	2460.083077
921.912204	2450.000769
922.216946	2452.521346
922.521647	2502.932885
922.826310	2518.056346
923.130932	2525.618077
923.435516	2520.576923
923.740059	2460.083077
924.044564	2429.836154
924.349028	2598.714808
924.653454	2457.562500
924.957840	2530.659231
925.262186	2434.877308
925.566493	2520.576923
925.870761	2482.768269
926.174989	2543.262115
926.479178	2429.836154
926.783328	2507.974038
927.087438	2565.947308
927.391509	2480.247692
927.695541	2490.330000
927.999533	2530.659231
928.303486	2482.768269
928.607400	2543.262115
928.911275	2429.836154
929.215110	2455.041923
929.518906	2450.000769
929.822663	2429.836154
930.126381	2434.877308
930.430060	2429.836154
930.733699	2543.262115
931.037299	2460.083077
931.340861	2540.741538
931.644383	2437.397885
931.947866	2495.371154
932.251309	2470.165385
932.554714	2565.947308
932.858080	2510.494615
933.161407	2528.138654
933.464694	2492.850577
933.767943	2510.494615
934.071153	2477.727115
934.374323	2500.412308
934.677455	2533.179808
934.980548	2485.288846
935.283602	2545.782692
935.586617	2497.891731
935.889593	2550.823846
936.192530	2455.041923
936.495428	2467.644808
936.798287	2528.138654
937.101108	2528.138654
937.403890	2495.371154
937.706632	2502.932885
938.009336	2497.891731
938.312002	2452.521346
938.614628	2502.932885
938.917216	2477.727115
939.219765	2495.371154
939.522275	2472.685962
939.824747	2429.836154
940.127179	2450.000769
940.429573	2538.220962
940.731929	2568.467885
941.034246	2525.618077
941.336524	2545.782692
941.638763	2555.865000
941.940964	2472.685962
942.243126	2422.274423
942.545250	2513.015192
942.847335	2487.809423
943.149381	2507.974038
943.451389	2540.741538
943.753359	2414.712692
944.055290	2545.782692
944.357182	2472.685962
944.659036	2497.891731
944.960851	2500.412308
945.262628	2437.397885
945.564367	2437.397885
945.866067	2439.918462
946.167729	2518.056346
946.469352	2399.589231
946.770937	2482.768269
947.072484	2402.109808
947.373992	2591.153077
947.675462	2482.768269
947.976893	2586.111923
948.278286	2485.288846
948.579641	2480.247692
948.880958	2429.836154
949.182236	2520.576923
949.483476	2502.932885
949.784678	2553.344423
950.085841	2485.288846
950.386967	2505.453462
950.688054	2505.453462
950.989103	2545.782692
951.290114	2495.371154
951.591087	2502.932885
951.892021	2593.673654
952.192917	2457.562500
952.493776	2528.138654
952.794596	2507.974038
953.095378	2520.576923
953.396122	2495.371154
953.696828	2402.109808
953.997496	2417.233269
954.298126	2558.385577
954.598718	2520.576923
954.899272	2513.015192
955.199788	2444.959615
955.500266	2442.439038
955.800706	2422.274423
956.101108	2555.865000
956.401472	2525.618077
956.701798	2462.603654
957.002087	2470.165385
957.302337	2490.330000
957.602550	2477.727115
957.902724	2427.315577
958.202861	2510.494615
958.502960	2419.753846
958.803022	2515.535769
959.103045	2533.179808
959.403031	2543.262115
959.702979	2500.412308
960.002889	2475.206538
960.302762	2492.850577
960.602596	2581.070769
960.902393	2495.371154
961.202153	2485.288846
961.501875	2452.521346
961.801559	2505.453462
962.101205	2495.371154
962.400814	2518.056346
962.700385	2528.138654
962.999918	2490.330000
963.299414	2497.891731
963.598873	2523.097500
963.898293	2452.521346
964.197677	2502.932885
964.497022	2460.083077
964.796331	2497.891731
965.095601	2409.671538
965.394835	2475.206538
965.694030	2505.453462
965.993189	2414.712692
966.292309	2422.274423
966.591393	2450.000769
966.890439	2477.727115
967.189447	2528.138654
967.488419	2437.397885
967.787353	2490.330000
968.086249	2485.288846
968.385108	2497.891731
968.683930	2568.467885
968.982714	2381.945192
969.281462	2444.959615
969.580172	2462.603654
969.878844	2437.397885
970.177480	2412.192115
970.476078	2565.947308
970.774639	2482.768269
971.073162	2525.618077
971.371649	2422.274423
971.670098	2515.535769
971.968510	2422.274423
972.266885	2485.288846
972.565223	2452.521346
972.863524	2530.659231
973.161788	2452.521346
973.460014	2455.041923
973.758204	2422.274423
974.056356	2450.000769
974.354471	2520.576923
974.652550	2455.041923
974.950591	2477.727115
975.248595	2540.741538
975.546563	2560.906154
975.844493	2444.959615
976.142386	2482.768269
976.440243	2513.015192
976.738062	2460.083077
977.035845	2470.165385
977.333590	2462.603654
977.631299	2510.494615
977.928971	2520.576923
978.226606	2500.412308
978.524204	2500.412308
978.821765	2470.165385
979.119290	2560.906154
979.416777	2505.453462
979.714228	2439.918462
980.011642	2379.424615
980.309020	2424.795000
980.606360	2525.618077
980.903664	2482.768269
981.200931	2520.576923
981.498162	2520.576923
981.795356	2497.891731
982.092513	2563.426731
982.389633	2465.124231
982.686717	2485.288846
982.983764	2455.041923
983.280775	2553.344423
983.577749	2495.371154
983.874686	2518.056346
984.171587	2477.727115
984.468451	2457.562500
984.765279	2616.358846
985.062070	2558.385577
985.358824	2447.480192
985.655543	2477.727115
985.952224	2573.509038
986.248869	2558.385577
986.545478	2538.220962
986.842050	2558.385577
987.138586	2371.862885
987.435086	2505.453462
987.731549	2452.521346
988.027975	2462.603654
988.324366	2502.932885
988.620719	2475.206538
988.917037	2432.356731
989.213318	2495.371154
989.509563	2490.330000
989.805772	2530.659231
990.101944	2457.562500
990.398080	2404.630385
990.694180	2533.179808
990.990244	2465.124231
991.286271	2455.041923
991.582262	2528.138654
991.878217	2548.303269
992.174136	2576.029615
992.470019	2452.521346
992.765865	2467.644808
993.061676	2507.974038
993.357450	2543.262115
993.653188	2432.356731
993.948890	2485.288846
994.244556	2472.685962
994.540186	2467.644808
994.835780	2520.576923
995.131337	2510.494615
995.426859	2497.891731
995.722345	2520.576923
996.017795	2462.603654
996.313208	2414.712692
996.608586	2465.124231
996.903928	2513.015192
997.199234	2485.288846
997.494504	2485.288846
997.789738	2487.809423
998.084936	2492.850577
998.380099	2444.959615
998.675225	2477.727115
998.970316	2533.179808
999.265371	2548.303269
999.560390	2525.618077
999.855373	2528.138654
1000.150320	2523.097500
1000.445232	2505.453462
1000.740108	2437.397885
1001.034948	2452.521346
1001.329752	2472.685962
1001.624521	2505.453462
1001.919254	2639.044038
1002.213951	2427.315577
1002.508613	2465.124231
1002.803239	2515.535769
1003.097829	2492.850577
1003.392384	2497.891731
1003.686903	2467.644808
1003.981386	2467.644808
1004.275834	2482.768269
1004.570246	2470.165385
1004.864623	2497.891731
1005.158964	2447.480192
1005.453270	2407.150962
1005.747540	2555.865000
1006.041775	2485.288846
1006.335974	2462.603654
1006.630138	2482.768269
1006.924266	2507.974038
1007.218359	2487.809423
1007.512416	2386.986346
1007.806438	2490.330000
1008.100425	2394.548077
1008.394376	2492.850577
1008.688292	2573.509038
1008.982172	2437.397885
1009.276017	2505.453462
1009.569827	2573.509038
1009.863602	2424.795000
1010.157341	2424.795000
1010.451045	2482.768269
1010.744714	2533.179808
1011.038347	2510.494615
1011.331945	2588.632500
1011.625508	2513.015192
1011.919036	2470.165385
1012.212528	2404.630385
1012.505986	2485.288846
1012.799408	2482.768269
1013.092795	2470.165385
1013.386147	2404.630385
1013.679464	2452.521346
1013.972745	2482.768269
1014.265992	2419.753846
1014.559204	2475.206538
1014.852380	2523.097500
1015.145521	2515.535769
1015.438628	2455.041923
1015.731699	2560.906154
1016.024736	2447.480192
1016.317737	2565.947308
1016.610703	2497.891731
1016.903635	2427.315577
1017.196531	2450.000769
1017.489393	2381.945192
1017.782219	2482.768269
1018.075011	2467.644808
1018.367768	2548.303269
1018.660490	2505.453462
1018.953177	2505.453462
1019.245829	2505.453462
