Dividing Wavelength (nm)	Counts (n)	Blue Motor Position (mm): 0.000000	Red Motor Position (mm): 5.600000	
326.493990	2127.366923
326.888308	2127.366923
327.282561	2127.366923
327.676750	2046.708462
328.070874	2084.517115
328.464933	2097.120000
328.858929	2039.146731
329.252859	2107.202308
329.646726	2036.626154
330.040528	2109.722885
330.434265	2087.037692
330.827938	2152.572692
331.221547	2147.531538
331.615091	2157.613846
332.008571	2122.325769
332.401986	2152.572692
332.795338	2306.327885
333.188625	2223.148846
333.581847	2228.190000
333.975006	2306.327885
334.368100	2417.233269
334.761129	2341.615962
335.154095	2376.904038
335.546996	2409.671538
335.939833	2361.780577
336.332606	2366.821731
336.725315	2374.383462
337.117960	2407.150962
337.510540	2394.548077
337.903056	2480.247692
338.295508	2386.986346
338.687896	2437.397885
339.080220	2497.891731
339.472480	2452.521346
339.864676	2394.548077
340.256807	2528.138654
340.648875	2467.644808
341.040879	2462.603654
341.432818	2439.918462
341.824694	2538.220962
342.216506	2432.356731
342.608253	2447.480192
342.999937	2495.371154
343.391557	2434.877308
343.783113	2518.056346
344.174605	2460.083077
344.566033	2477.727115
344.957397	2437.397885
345.348697	2442.439038
345.739934	2513.015192
346.131106	2465.124231
346.522215	2452.521346
346.913260	2417.233269
347.304241	2515.535769
347.695159	2439.918462
348.086012	2402.109808
348.476802	2424.795000
348.867528	2487.809423
349.258191	2452.521346
349.648789	2460.083077
350.039324	2399.589231
350.429796	2457.562500
350.820203	2366.821731
351.210548	2450.000769
351.600828	2434.877308
351.991045	2439.918462
352.381198	2437.397885
352.771288	2361.780577
353.161314	2414.712692
353.551276	2437.397885
353.941175	2384.465769
354.331010	2492.850577
354.720782	2434.877308
355.110490	2467.644808
355.500135	2402.109808
355.889717	2407.150962
356.279235	2424.795000
356.668689	2472.685962
357.058080	2427.315577
357.447408	2500.412308
357.836672	2407.150962
358.225873	2513.015192
358.615010	2399.589231
359.004084	2442.439038
359.393095	2429.836154
359.782043	2538.220962
360.170927	2444.959615
360.559748	2520.576923
360.948505	2429.836154
361.337199	2520.576923
361.725830	2442.439038
362.114398	2417.233269
362.502903	2480.247692
362.891344	2510.494615
363.279722	2505.453462
363.668037	2475.206538
364.056289	2386.986346
364.444478	2424.795000
364.832603	2424.795000
365.220665	2417.233269
365.608665	2427.315577
365.996601	2472.685962
366.384474	2523.097500
366.772284	2442.439038
367.160031	2417.233269
367.547715	2533.179808
367.935336	2424.795000
368.322893	2349.177692
368.710388	2419.753846
369.097820	2487.809423
369.485189	2429.836154
369.872495	2533.179808
370.259738	2444.959615
370.646918	2490.330000
371.034035	2447.480192
371.421090	2414.712692
371.808081	2455.041923
372.195010	2392.027500
372.581875	2480.247692
372.968678	2437.397885
373.355418	2437.397885
373.742096	2457.562500
374.128710	2495.371154
374.515262	2439.918462
374.901751	2482.768269
375.288177	2422.274423
375.674540	2412.192115
376.060841	2427.315577
376.447079	2470.165385
376.833254	2480.247692
377.219367	2434.877308
377.605417	2414.712692
377.991404	2457.562500
378.377329	2465.124231
378.763191	2404.630385
379.148991	2467.644808
379.534727	2371.862885
379.920402	2397.068654
380.306013	2513.015192
380.691563	2492.850577
381.077049	2402.109808
381.462474	2475.206538
381.847835	2462.603654
382.233134	2439.918462
382.618371	2485.288846
383.003545	2389.506923
383.388657	2412.192115
383.773706	2510.494615
384.158693	2485.288846
384.543618	2563.426731
384.928480	2485.288846
385.313280	2455.041923
385.698017	2414.712692
386.082692	2422.274423
386.467305	2510.494615
386.851856	2407.150962
387.236344	2487.809423
387.620770	2477.727115
388.005133	2550.823846
388.389435	2455.041923
388.773674	2452.521346
389.157851	2437.397885
389.541965	2422.274423
389.926018	2409.671538
390.310008	2407.150962
390.693936	2465.124231
391.077802	2477.727115
391.461606	2455.041923
391.845348	2444.959615
392.229027	2452.521346
392.612645	2472.685962
392.996200	2437.397885
393.379694	2492.850577
393.763125	2427.315577
394.146494	2450.000769
394.529801	2490.330000
394.913047	2442.439038
395.296230	2424.795000
395.679351	2452.521346
396.062410	2480.247692
396.445408	2550.823846
396.828343	2475.206538
397.211217	2533.179808
397.594028	2450.000769
397.976778	2570.988462
398.359466	2465.124231
398.742092	2518.056346
399.124656	2450.000769
399.507158	2500.412308
399.889598	2434.877308
400.271977	2467.644808
400.654294	2523.097500
401.036549	2429.836154
401.418742	2455.041923
401.800874	2497.891731
402.182944	2462.603654
402.564952	2520.576923
402.946898	2535.700385
403.328783	2472.685962
403.710606	2402.109808
404.092367	2444.959615
404.474067	2505.453462
404.855705	2432.356731
405.237282	2500.412308
405.618797	2434.877308
406.000250	2467.644808
406.381642	2543.262115
406.762972	2429.836154
407.144240	2510.494615
407.525447	2477.727115
407.906593	2462.603654
408.287677	2444.959615
408.668700	2450.000769
409.049661	2495.371154
409.430560	2533.179808
409.811399	2525.618077
410.192176	2412.192115
410.572891	2475.206538
410.953545	2502.932885
411.334138	2404.630385
411.714669	2447.480192
412.095139	2475.206538
412.475547	2447.480192
412.855894	2550.823846
413.236180	2457.562500
413.616405	2513.015192
413.996568	2467.644808
414.376670	2402.109808
414.756711	2455.041923
415.136691	2412.192115
415.516609	2500.412308
415.896466	2442.439038
416.276262	2475.206538
416.655997	2432.356731
417.035670	2510.494615
417.415283	2470.165385
417.794834	2349.177692
418.174324	2492.850577
418.553753	2550.823846
418.933121	2460.083077
419.312428	2510.494615
419.691674	2470.165385
420.070859	2505.453462
420.449983	2450.000769
420.829045	2525.618077
421.208047	2510.494615
421.586988	2505.453462
421.965867	2402.109808
422.344686	2490.330000
422.723444	2543.262115
423.102141	2520.576923
423.480777	2513.015192
423.859352	2444.959615
424.237866	2480.247692
424.616319	2490.330000
424.994712	2485.288846
425.373044	2414.712692
425.751314	2472.685962
426.129524	2505.453462
426.507673	2555.865000
426.885762	2548.303269
427.263789	2487.809423
427.641756	2525.618077
428.019662	2558.385577
428.397508	2442.439038
428.775292	2507.974038
429.153016	2381.945192
429.530679	2553.344423
429.908282	2482.768269
430.285824	2470.165385
430.663305	2528.138654
431.040726	2490.330000
431.418086	2444.959615
431.795385	2495.371154
432.172624	2450.000769
432.549802	2427.315577
432.926920	2455.041923
433.303977	2487.809423
433.680974	2523.097500
434.057910	2475.206538
434.434786	2568.467885
434.811601	2568.467885
435.188355	2502.932885
435.565050	2434.877308
435.941683	2467.644808
436.318257	2538.220962
436.694770	2492.850577
437.071222	2576.029615
437.447614	2462.603654
437.823946	2457.562500
438.200218	2381.945192
438.576429	2565.947308
438.952580	2533.179808
439.328670	2475.206538
439.704700	2523.097500
440.080670	2434.877308
440.456580	2397.068654
440.832429	2465.124231
441.208218	2528.138654
441.583947	2429.836154
441.959616	2442.439038
442.335224	2528.138654
442.710773	2528.138654
443.086261	2462.603654
443.461689	2490.330000
443.837057	2525.618077
444.212365	2507.974038
444.587612	2513.015192
444.962800	2490.330000
445.337927	2465.124231
445.712995	2482.768269
446.088002	2492.850577
446.462949	2439.918462
446.837837	2500.412308
447.212664	2513.015192
447.587431	2480.247692
447.962139	2450.000769
448.336786	2419.753846
448.711374	2515.535769
449.085901	2510.494615
449.460369	2465.124231
449.834776	2389.506923
450.209124	2409.671538
450.583412	2538.220962
450.957640	2530.659231
451.331808	2477.727115
451.705917	2500.412308
452.079965	2434.877308
452.453954	2482.768269
452.827883	2444.959615
453.201752	2543.262115
453.575562	2505.453462
453.949311	2477.727115
454.323001	2434.877308
454.696632	2492.850577
455.070202	2495.371154
455.443713	2558.385577
455.817164	2538.220962
456.190556	2518.056346
456.563888	2505.453462
456.937160	2502.932885
457.310373	2487.809423
457.683526	2452.521346
458.056619	2492.850577
458.429653	2477.727115
458.802628	2525.618077
459.175542	2538.220962
459.548398	2560.906154
459.921194	2520.576923
460.293930	2513.015192
460.666607	2462.603654
461.039224	2513.015192
461.411782	2439.918462
461.784280	2500.412308
462.156719	2434.877308
462.529099	2429.836154
462.901419	2470.165385
463.273680	2525.618077
463.645882	2455.041923
464.018024	2462.603654
464.390106	2505.453462
464.762130	2525.618077
465.134094	2432.356731
465.505999	2477.727115
465.877845	2510.494615
466.249631	2467.644808
466.621358	2507.974038
466.993026	2500.412308
467.364634	2432.356731
467.736184	2470.165385
468.107674	2492.850577
468.479105	2502.932885
468.850477	2495.371154
469.221790	2525.618077
469.593043	2535.700385
469.964238	2535.700385
470.335373	2409.671538
470.706449	2457.562500
471.077467	2437.397885
471.448425	2487.809423
471.819324	2492.850577
472.190164	2545.782692
472.560945	2457.562500
472.931667	2507.974038
473.302330	2457.562500
473.672934	2505.453462
474.043479	2533.179808
474.413965	2523.097500
474.784393	2518.056346
475.154761	2487.809423
475.525070	2644.085192
475.895321	2470.165385
476.265513	2455.041923
476.635645	2457.562500
477.005719	2513.015192
477.375734	2480.247692
477.745691	2490.330000
478.115588	2437.397885
478.485427	2482.768269
478.855207	2545.782692
479.224928	2495.371154
479.594591	2470.165385
479.964194	2553.344423
480.333739	2505.453462
480.703226	2548.303269
481.072653	2412.192115
481.442022	2495.371154
481.811333	2586.111923
482.180584	2563.426731
482.549777	2513.015192
482.918912	2434.877308
483.287988	2533.179808
483.657005	2518.056346
484.025964	2500.412308
484.394864	2495.371154
484.763706	2513.015192
485.132489	2444.959615
485.501213	2412.192115
485.869879	2510.494615
486.238487	2482.768269
486.607036	2394.548077
486.975527	2533.179808
487.343959	2475.206538
487.712333	2455.041923
488.080648	2500.412308
488.448905	2518.056346
488.817104	2490.330000
489.185244	2467.644808
489.553326	2467.644808
489.921350	2465.124231
490.289315	2437.397885
490.657222	2490.330000
491.025070	2477.727115
491.392861	2477.727115
491.760593	2422.274423
492.128267	2492.850577
492.495883	2480.247692
492.863440	2492.850577
493.230939	2502.932885
493.598380	2500.412308
493.965763	2424.795000
494.333088	2389.506923
494.700354	2480.247692
495.067563	2455.041923
495.434713	2500.412308
495.801805	2477.727115
496.168839	2475.206538
496.535815	2505.453462
496.902733	2533.179808
497.269593	2470.165385
497.636395	2528.138654
498.003139	2452.521346
498.369825	2487.809423
498.736453	2439.918462
499.103023	2515.535769
499.469535	2548.303269
499.835989	2505.453462
500.202385	2533.179808
500.568723	2530.659231
500.935003	2568.467885
501.301226	2578.550192
501.667390	2507.974038
502.033497	2510.494615
502.399546	2444.959615
502.765537	2528.138654
503.131470	2518.056346
503.497345	2417.233269
503.863163	2570.988462
504.228923	2487.809423
504.594625	2543.262115
504.960269	2523.097500
505.325856	2422.274423
505.691385	2505.453462
506.056856	2518.056346
506.422270	2510.494615
506.787625	2540.741538
507.152924	2570.988462
507.518164	2467.644808
507.883347	2492.850577
508.248472	2530.659231
508.613540	2490.330000
508.978550	2515.535769
509.343503	2513.015192
509.708398	2540.741538
510.073236	2540.741538
510.438016	2424.795000
510.802738	2487.809423
511.167403	2500.412308
511.532010	2515.535769
511.896561	2500.412308
512.261053	2507.974038
512.625488	2513.015192
512.989866	2495.371154
513.354186	2533.179808
513.718449	2450.000769
514.082655	2543.262115
514.446803	2384.465769
514.810894	2402.109808
515.174927	2530.659231
515.538904	2591.153077
515.902822	2465.124231
516.266684	2528.138654
516.630488	2510.494615
516.994235	2550.823846
517.357925	2434.877308
517.721558	2487.809423
518.085133	2412.192115
518.448651	2520.576923
518.812112	2450.000769
519.175516	2528.138654
519.538863	2548.303269
519.902152	2550.823846
520.265385	2581.070769
520.628560	2530.659231
520.991678	2523.097500
521.354739	2523.097500
521.717743	2505.453462
522.080690	2550.823846
522.443580	2450.000769
522.806413	2495.371154
523.169189	2565.947308
523.531908	2452.521346
523.894569	2429.836154
524.257174	2570.988462
524.619722	2467.644808
524.982213	2452.521346
525.344647	2394.548077
525.707025	2490.330000
526.069345	2444.959615
526.431608	2422.274423
526.793815	2470.165385
527.155964	2513.015192
527.518057	2439.918462
527.880093	2477.727115
528.242072	2510.494615
528.603995	2470.165385
528.965860	2565.947308
529.327669	2495.371154
529.689421	2523.097500
530.051117	2505.453462
530.412755	2545.782692
530.774337	2417.233269
531.135862	2533.179808
531.497331	2444.959615
531.858743	2502.932885
532.220098	2452.521346
532.581396	2533.179808
532.942638	2485.288846
533.303824	2472.685962
533.664953	2601.235385
534.026025	2450.000769
534.387040	2591.153077
534.747999	2568.467885
535.108902	2439.918462
535.469748	2555.865000
535.830537	2601.235385
536.191270	2455.041923
536.551947	2518.056346
536.912567	2616.358846
537.273131	2452.521346
537.633638	2545.782692
537.994089	2497.891731
538.354483	2417.233269
538.714821	2573.509038
539.075103	2500.412308
539.435328	2507.974038
539.795497	2543.262115
540.155609	2528.138654
540.515665	2490.330000
540.875665	2500.412308
541.235609	2558.385577
541.595496	2576.029615
541.955328	2523.097500
542.315102	2495.371154
542.674821	2530.659231
543.034483	2538.220962
543.394090	2462.603654
543.753640	2500.412308
544.113134	2432.356731
544.472571	2414.712692
544.831953	2482.768269
545.191278	2570.988462
545.550548	2414.712692
545.909761	2515.535769
546.268918	2553.344423
546.628019	2470.165385
546.987064	2550.823846
547.346053	2507.974038
547.704986	2477.727115
548.063863	2570.988462
548.422684	2540.741538
548.781449	2525.618077
549.140158	2558.385577
549.498811	2492.850577
549.857408	2455.041923
550.215949	2515.535769
550.574434	2482.768269
550.932864	2543.262115
551.291237	2460.083077
551.649555	2477.727115
552.007817	2502.932885
552.366022	2419.753846
552.724173	2424.795000
553.082267	2495.371154
553.440305	2548.303269
553.798288	2510.494615
554.156215	2535.700385
554.514086	2492.850577
554.871902	2563.426731
555.229661	2502.932885
555.587365	2500.412308
555.945014	2487.809423
556.302606	2500.412308
556.660143	2505.453462
557.017625	2530.659231
557.375050	2576.029615
557.732421	2548.303269
558.089735	2444.959615
558.446994	2588.632500
558.804197	2470.165385
559.161345	2523.097500
559.518437	2634.002885
559.875474	2487.809423
560.232455	2507.974038
560.589381	2535.700385
560.946251	2450.000769
561.303065	2581.070769
561.659825	2402.109808
562.016528	2447.480192
562.373177	2422.274423
562.729770	2555.865000
563.086307	2510.494615
563.442789	2505.453462
563.799216	2513.015192
564.155587	2465.124231
564.511904	2533.179808
564.868164	2460.083077
565.224370	2523.097500
565.580520	2495.371154
565.936615	2452.521346
566.292654	2495.371154
566.648638	2470.165385
567.004567	2409.671538
567.360441	2502.932885
567.716260	2530.659231
568.072023	2513.015192
568.427732	2550.823846
568.783385	2500.412308
569.138982	2429.836154
569.494525	2379.424615
569.850013	2500.412308
570.205445	2576.029615
570.560823	2460.083077
570.916145	2550.823846
571.271412	2470.165385
571.626625	2480.247692
571.981782	2502.932885
572.336884	2520.576923
572.691931	2505.453462
573.046923	2480.247692
573.401860	2520.576923
573.756743	2465.124231
574.111570	2490.330000
574.466342	2422.274423
574.821059	2545.782692
575.175722	2439.918462
575.530330	2487.809423
575.884882	2535.700385
576.239380	2505.453462
576.593823	2487.809423
576.948211	2424.795000
577.302544	2447.480192
577.656823	2457.562500
578.011047	2533.179808
578.365216	2568.467885
578.719330	2467.644808
579.073389	2482.768269
579.427394	2497.891731
579.781344	2475.206538
580.135239	2628.961731
580.489080	2482.768269
580.842866	2535.700385
581.196597	2477.727115
581.550273	2497.891731
581.903895	2548.303269
582.257463	2485.288846
582.610975	2518.056346
582.964434	2568.467885
583.317837	2533.179808
583.671186	2538.220962
584.024481	2482.768269
584.377721	2518.056346
584.730906	2538.220962
585.084037	2505.453462
585.437113	2497.891731
585.790135	2470.165385
586.143103	2457.562500
586.496016	2518.056346
586.848874	2457.562500
587.201679	2457.562500
587.554428	2475.206538
587.907124	2482.768269
588.259765	2432.356731
588.612352	2518.056346
588.964884	2467.644808
589.317362	2482.768269
589.669786	2455.041923
590.022155	2535.700385
590.374470	2417.233269
590.726731	2518.056346
591.078937	2500.412308
591.431090	2507.974038
591.783188	2432.356731
592.135232	2492.850577
592.487222	2538.220962
592.839157	2560.906154
593.191038	2558.385577
593.542866	2530.659231
593.894639	2505.453462
594.246358	2497.891731
594.598022	2470.165385
594.949633	2518.056346
595.301190	2475.206538
595.652692	2533.179808
596.004141	2492.850577
596.355535	2434.877308
596.706876	2462.603654
597.058162	2447.480192
597.409395	2525.618077
597.760573	2485.288846
598.111698	2472.685962
598.462768	2475.206538
598.813785	2523.097500
599.164748	2467.644808
599.515657	2543.262115
599.866511	2465.124231
600.217312	2558.385577
600.568060	2525.618077
600.918753	2573.509038
601.269392	2520.576923
601.619978	2523.097500
601.970510	2467.644808
602.320988	2538.220962
602.671412	2444.959615
603.021783	2465.124231
603.372100	2444.959615
603.722363	2462.603654
604.072572	2497.891731
604.422728	2528.138654
604.772830	2533.179808
605.122878	2538.220962
605.472872	2540.741538
605.822813	2412.192115
606.172701	2497.891731
606.522534	2470.165385
606.872314	2482.768269
607.222041	2540.741538
607.571714	2450.000769
607.921333	2487.809423
608.270899	2429.836154
608.620411	2560.906154
608.969870	2470.165385
609.319276	2490.330000
609.668627	2583.591346
610.017926	2480.247692
610.367171	2470.165385
610.716362	2444.959615
611.065500	2475.206538
611.414585	2460.083077
611.763616	2495.371154
612.112594	2525.618077
612.461518	2447.480192
612.810389	2558.385577
613.159207	2480.247692
613.507971	2518.056346
613.856682	2497.891731
614.205340	2588.632500
614.553945	2538.220962
614.902496	2439.918462
615.250994	2548.303269
615.599439	2523.097500
615.947830	2558.385577
616.296169	2487.809423
616.644454	2520.576923
616.992686	2467.644808
617.340864	2495.371154
617.688990	2477.727115
618.037063	2507.974038
618.385082	2510.494615
618.733048	2573.509038
619.080961	2477.727115
619.428821	2507.974038
619.776628	2528.138654
620.124382	2490.330000
620.472083	2535.700385
620.819731	2402.109808
621.167326	2437.397885
621.514868	2467.644808
621.862357	2540.741538
622.209793	2538.220962
622.557176	2591.153077
622.904506	2518.056346
623.251783	2412.192115
623.599007	2510.494615
623.946179	2558.385577
624.293297	2414.712692
624.640363	2437.397885
624.987376	2525.618077
625.334336	2490.330000
625.681243	2477.727115
626.028097	2442.439038
626.374899	2462.603654
626.721647	2518.056346
627.068343	2550.823846
627.414987	2553.344423
627.761577	2439.918462
628.108115	2505.453462
628.454600	2462.603654
628.801032	2490.330000
629.147412	2414.712692
629.493739	2465.124231
629.840014	2457.562500
630.186236	2480.247692
630.532405	2429.836154
630.878521	2472.685962
631.224585	2518.056346
631.570597	2467.644808
631.916556	2550.823846
632.262462	2530.659231
632.608316	2485.288846
632.954117	2432.356731
633.299866	2507.974038
633.645562	2470.165385
633.991206	2535.700385
634.336797	2588.632500
634.682336	2505.453462
635.027823	2528.138654
635.373257	2540.741538
635.718639	2472.685962
636.063968	2447.480192
636.409245	2548.303269
636.754470	2558.385577
637.099642	2510.494615
637.444762	2560.906154
637.789829	2432.356731
638.134845	2472.685962
638.479808	2573.509038
638.824719	2510.494615
639.169577	2480.247692
639.514383	2495.371154
639.859137	2480.247692
640.203839	2495.371154
640.548489	2455.041923
640.893086	2510.494615
641.237632	2603.755962
641.582125	2460.083077
641.926566	2528.138654
642.270955	2533.179808
642.615292	2495.371154
642.959576	2520.576923
643.303809	2460.083077
643.647990	2386.986346
643.992118	2530.659231
644.336195	2472.685962
644.680219	2520.576923
645.024192	2470.165385
645.368112	2513.015192
645.711981	2555.865000
646.055797	2555.865000
646.399562	2505.453462
646.743274	2565.947308
647.086935	2460.083077
647.430544	2487.809423
647.774101	2543.262115
648.117606	2507.974038
648.461059	2457.562500
648.804460	2560.906154
649.147810	2482.768269
649.491108	2450.000769
649.834354	2467.644808
650.177548	2482.768269
650.520690	2540.741538
650.863781	2485.288846
651.206820	2505.453462
651.549807	2477.727115
651.892742	2505.453462
652.235626	2500.412308
652.578458	2507.974038
652.921238	2447.480192
653.263967	2502.932885
653.606644	2502.932885
653.949269	2439.918462
654.291843	2518.056346
654.634365	2432.356731
654.976836	2555.865000
655.319255	2480.247692
655.661622	2480.247692
656.003938	2437.397885
656.346203	2505.453462
656.688416	2543.262115
657.030577	2450.000769
657.372687	2490.330000
657.714746	2487.809423
658.056753	2507.974038
658.398708	2525.618077
658.740612	2550.823846
659.082465	2439.918462
659.424266	2538.220962
659.766016	2442.439038
660.107715	2477.727115
660.449362	2515.535769
660.790958	2535.700385
661.132503	2432.356731
661.473996	2429.836154
661.815438	2472.685962
662.156829	2588.632500
662.498168	2462.603654
662.839456	2520.576923
663.180693	2485.288846
663.521879	2515.535769
663.863013	2523.097500
664.204097	2424.795000
664.545129	2450.000769
664.886110	2543.262115
665.227040	2583.591346
665.567918	2429.836154
665.908746	2543.262115
666.249522	2470.165385
666.590248	2409.671538
666.930922	2424.795000
667.271545	2455.041923
667.612118	2480.247692
667.952639	2444.959615
668.293109	2540.741538
668.633528	2502.932885
668.973896	2492.850577
669.314213	2500.412308
669.654480	2543.262115
669.994695	2475.206538
670.334859	2434.877308
670.674973	2495.371154
671.015035	2500.412308
671.355047	2535.700385
671.695008	2457.562500
672.034918	2543.262115
672.374777	2487.809423
672.714585	2560.906154
673.054342	2477.727115
673.394049	2447.480192
673.733705	2475.206538
674.073310	2467.644808
674.412864	2460.083077
674.752368	2482.768269
675.091820	2507.974038
675.431223	2447.480192
675.770574	2452.521346
676.109875	2525.618077
676.449125	2480.247692
676.788324	2608.797115
677.127473	2518.056346
677.466571	2510.494615
677.805619	2452.521346
678.144616	2470.165385
678.483562	2472.685962
678.822458	2497.891731
679.161303	2455.041923
679.500098	2545.782692
679.838842	2485.288846
680.177535	2490.330000
680.516179	2462.603654
680.854771	2507.974038
681.193314	2553.344423
681.531805	2588.632500
681.870247	2379.424615
682.208638	2439.918462
682.546978	2528.138654
682.885268	2429.836154
683.223508	2507.974038
683.561697	2434.877308
683.899836	2500.412308
684.237925	2472.685962
684.575963	2525.618077
684.913951	2528.138654
685.251889	2533.179808
685.589776	2429.836154
685.927614	2505.453462
686.265401	2492.850577
686.603137	2583.591346
686.940824	2450.000769
687.278460	2495.371154
687.616046	2442.439038
687.953582	2480.247692
688.291068	2444.959615
688.628504	2525.618077
688.965889	2502.932885
689.303224	2530.659231
689.640510	2505.453462
689.977745	2487.809423
690.314930	2477.727115
690.652065	2500.412308
690.989150	2444.959615
691.326185	2467.644808
691.663170	2462.603654
692.000105	2518.056346
692.336990	2520.576923
692.673825	2487.809423
693.010610	2482.768269
693.347345	2414.712692
693.684030	2497.891731
694.020665	2495.371154
694.357251	2543.262115
694.693786	2540.741538
695.030272	2487.809423
695.366707	2528.138654
695.703093	2457.562500
696.039429	2480.247692
696.375716	2505.453462
696.711952	2523.097500
697.048139	2437.397885
697.384276	2583.591346
697.720363	2460.083077
698.056400	2482.768269
698.392388	2434.877308
698.728326	2528.138654
699.064214	2495.371154
699.400053	2465.124231
699.735842	2540.741538
700.071581	2533.179808
700.407270	2513.015192
700.742910	2563.426731
701.078501	2548.303269
701.414042	2540.741538
701.749533	2429.836154
702.084974	2460.083077
702.420366	2495.371154
702.755709	2533.179808
703.091002	2470.165385
703.426246	2490.330000
703.761440	2465.124231
704.096584	2482.768269
704.431679	2450.000769
704.766725	2510.494615
705.101721	2555.865000
705.436668	2523.097500
705.771565	2500.412308
706.106413	2470.165385
706.441212	2399.589231
706.775961	2538.220962
707.110661	2399.589231
707.445311	2450.000769
707.779913	2520.576923
708.114465	2485.288846
708.448967	2482.768269
708.783421	2565.947308
709.117825	2525.618077
709.452180	2550.823846
709.786485	2543.262115
710.120742	2515.535769
710.454949	2447.480192
710.789107	2462.603654
711.123216	2490.330000
711.457275	2535.700385
711.791286	2467.644808
712.125247	2553.344423
712.459159	2490.330000
712.793023	2495.371154
713.126837	2447.480192
713.460602	2533.179808
713.794318	2444.959615
714.127985	2470.165385
714.461602	2457.562500
714.795171	2518.056346
715.128691	2490.330000
715.462162	2573.509038
715.795584	2515.535769
716.128957	2472.685962
716.462281	2366.821731
716.795556	2535.700385
717.128782	2540.741538
717.461960	2588.632500
717.795088	2480.247692
718.128167	2437.397885
718.461198	2452.521346
718.794180	2465.124231
719.127113	2492.850577
719.459997	2505.453462
719.792833	2563.426731
720.125619	2586.111923
720.458357	2432.356731
720.791046	2394.548077
721.123686	2548.303269
721.456278	2500.412308
721.788821	2513.015192
722.121315	2475.206538
722.453761	2568.467885
722.786158	2482.768269
723.118506	2576.029615
723.450805	2495.371154
723.783056	2442.439038
724.115259	2518.056346
724.447412	2535.700385
724.779518	2528.138654
725.111574	2422.274423
725.443582	2560.906154
725.775542	2432.356731
726.107453	2472.685962
726.439315	2442.439038
726.771129	2550.823846
727.102895	2389.506923
727.434612	2520.576923
727.766281	2520.576923
728.097901	2581.070769
728.429473	2444.959615
728.760996	2535.700385
729.092471	2429.836154
729.423897	2495.371154
729.755276	2490.330000
730.086606	2497.891731
730.417887	2568.467885
730.749120	2535.700385
731.080305	2528.138654
731.411442	2475.206538
731.742530	2467.644808
732.073570	2533.179808
732.404562	2442.439038
732.735506	2502.932885
733.066401	2472.685962
733.397249	2518.056346
733.728048	2596.194231
734.058798	2455.041923
734.389501	2475.206538
734.720156	2515.535769
735.050762	2497.891731
735.381320	2467.644808
735.711831	2462.603654
736.042293	2492.850577
736.372707	2487.809423
736.703073	2467.644808
737.033391	2502.932885
737.363661	2591.153077
737.693883	2495.371154
738.024056	2452.521346
738.354182	2507.974038
738.684260	2444.959615
739.014290	2455.041923
739.344272	2482.768269
739.674207	2490.330000
740.004093	2492.850577
740.333931	2518.056346
740.663722	2472.685962
740.993464	2510.494615
741.323159	2460.083077
741.652806	2535.700385
741.982405	2518.056346
742.311956	2505.453462
742.641460	2444.959615
742.970915	2500.412308
743.300323	2492.850577
743.629683	2548.303269
743.958996	2452.521346
744.288260	2487.809423
744.617477	2429.836154
744.946647	2535.700385
745.275768	2507.974038
745.604842	2490.330000
745.933869	2538.220962
746.262847	2490.330000
746.591778	2523.097500
746.920662	2412.192115
747.249498	2490.330000
747.578286	2422.274423
747.907027	2525.618077
748.235720	2444.959615
748.564365	2429.836154
748.892963	2480.247692
749.221514	2439.918462
749.550017	2513.015192
749.878473	2447.480192
750.206881	2510.494615
750.535242	2470.165385
750.863555	2414.712692
751.191821	2535.700385
751.520039	2533.179808
751.848210	2500.412308
752.176334	2560.906154
752.504411	2558.385577
752.832440	2538.220962
753.160421	2505.453462
753.488356	2490.330000
753.816243	2485.288846
754.144082	2402.109808
754.471875	2538.220962
754.799620	2437.397885
755.127318	2510.494615
755.454969	2432.356731
755.782572	2525.618077
756.110129	2482.768269
756.437638	2381.945192
756.765100	2606.276538
757.092515	2419.753846
757.419882	2558.385577
757.747203	2475.206538
758.074477	2444.959615
758.401703	2553.344423
758.728882	2455.041923
759.056014	2502.932885
759.383099	2462.603654
759.710138	2573.509038
760.037129	2439.918462
760.364073	2452.521346
760.690970	2460.083077
761.017820	2535.700385
761.344623	2500.412308
761.671379	2490.330000
761.998088	2465.124231
762.324751	2455.041923
762.651366	2492.850577
762.977935	2545.782692
763.304456	2444.959615
763.630931	2437.397885
763.957359	2518.056346
764.283740	2444.959615
764.610074	2573.509038
764.936362	2477.727115
765.262602	2533.179808
765.588796	2432.356731
765.914943	2578.550192
766.241044	2530.659231
766.567097	2548.303269
766.893104	2520.576923
767.219064	2505.453462
767.544978	2528.138654
767.870845	2515.535769
768.196665	2543.262115
768.522438	2505.453462
768.848165	2507.974038
769.173846	2467.644808
769.499479	2583.591346
769.825066	2555.865000
770.150607	2628.961731
770.476101	2457.562500
770.801548	2533.179808
771.126949	2434.877308
771.452303	2528.138654
771.777611	2482.768269
772.102872	2608.797115
772.428087	2450.000769
772.753256	2528.138654
773.078378	2518.056346
773.403453	2505.453462
773.728482	2513.015192
774.053465	2530.659231
774.378401	2452.521346
774.703291	2487.809423
775.028135	2462.603654
775.352932	2530.659231
775.677683	2535.700385
776.002388	2394.548077
776.327046	2513.015192
776.651658	2470.165385
776.976224	2525.618077
777.300743	2538.220962
777.625216	2543.262115
777.949643	2490.330000
778.274024	2515.535769
778.598359	2457.562500
778.922647	2477.727115
779.246889	2485.288846
779.571086	2419.753846
779.895236	2472.685962
780.219339	2548.303269
780.543397	2492.850577
780.867409	2502.932885
781.191374	2480.247692
781.515294	2490.330000
781.839167	2462.603654
782.162995	2475.206538
782.486776	2555.865000
782.810511	2505.453462
783.134201	2470.165385
783.457844	2505.453462
783.781441	2482.768269
784.104993	2477.727115
784.428498	2523.097500
784.751958	2525.618077
785.075372	2432.356731
785.398739	2485.288846
785.722061	2482.768269
786.045337	2540.741538
786.368568	2437.397885
786.691752	2570.988462
787.014891	2472.685962
787.337983	2475.206538
787.661030	2535.700385
787.984031	2487.809423
788.306987	2490.330000
788.629897	2455.041923
788.952760	2366.821731
789.275579	2422.274423
789.598351	2553.344423
789.921078	2460.083077
790.243759	2482.768269
790.566395	2568.467885
790.888984	2570.988462
791.211529	2560.906154
791.534027	2460.083077
791.856480	2540.741538
792.178888	2523.097500
792.501249	2530.659231
792.823566	2419.753846
793.145836	2414.712692
793.468062	2576.029615
793.790241	2465.124231
794.112375	2555.865000
794.434464	2465.124231
794.756507	2523.097500
795.078505	2563.426731
795.400457	2482.768269
795.722364	2507.974038
796.044226	2437.397885
796.366042	2495.371154
796.687812	2480.247692
797.009538	2560.906154
797.331218	2518.056346
797.652852	2523.097500
797.974442	2427.315577
798.295986	2525.618077
798.617484	2510.494615
798.938938	2528.138654
799.260346	2565.947308
799.581709	2497.891731
799.903026	2457.562500
800.224299	2470.165385
800.545526	2432.356731
800.866708	2472.685962
801.187845	2538.220962
801.508936	2487.809423
801.829983	2520.576923
802.150984	2480.247692
802.471940	2550.823846
802.792851	2502.932885
803.113717	2492.850577
803.434538	2520.576923
803.755314	2601.235385
804.076045	2520.576923
804.396731	2495.371154
804.717372	2444.959615
805.037967	2480.247692
805.358518	2525.618077
805.679024	2525.618077
805.999485	2558.385577
806.319901	2507.974038
806.640272	2409.671538
806.960598	2397.068654
807.280879	2482.768269
807.601115	2472.685962
807.921306	2502.932885
808.241453	2510.494615
808.561554	2492.850577
808.881611	2495.371154
809.201623	2540.741538
809.521590	2470.165385
809.841513	2485.288846
810.161390	2434.877308
810.481223	2487.809423
810.801011	2576.029615
811.120755	2475.206538
811.440453	2553.344423
811.760107	2432.356731
812.079716	2477.727115
812.399281	2427.315577
812.718801	2427.315577
813.038276	2510.494615
813.357707	2515.535769
813.677093	2432.356731
813.996434	2518.056346
814.315731	2462.603654
814.634983	2444.959615
814.954191	2502.932885
815.273354	2384.465769
815.592473	2437.397885
815.911547	2500.412308
816.230577	2518.056346
816.549562	2495.371154
816.868502	2518.056346
817.187399	2523.097500
817.506250	2450.000769
817.825058	2397.068654
818.143821	2528.138654
818.462539	2553.344423
818.781213	2429.836154
819.099843	2444.959615
819.418429	2492.850577
819.736970	2462.603654
820.055466	2570.988462
820.373919	2485.288846
820.692327	2513.015192
821.010691	2429.836154
821.329011	2490.330000
821.647286	2439.918462
821.965517	2533.179808
822.283704	2550.823846
822.601847	2535.700385
822.919945	2525.618077
823.237999	2505.453462
823.556010	2495.371154
823.873976	2570.988462
824.191897	2482.768269
824.509775	2513.015192
824.827609	2457.562500
825.145398	2523.097500
825.463144	2505.453462
825.780845	2460.083077
826.098502	2455.041923
826.416116	2528.138654
826.733685	2495.371154
827.051210	2452.521346
827.368692	2500.412308
827.686129	2538.220962
828.003522	2477.727115
828.320872	2482.768269
828.638177	2475.206538
828.955439	2505.453462
829.272656	2497.891731
829.589830	2502.932885
829.906960	2480.247692
830.224046	2502.932885
830.541088	2437.397885
830.858086	2452.521346
831.175041	2439.918462
831.491952	2500.412308
831.808819	2470.165385
832.125642	2507.974038
832.442421	2570.988462
832.759157	2450.000769
833.075849	2490.330000
833.392497	2505.453462
833.709101	2533.179808
834.025662	2419.753846
834.342179	2510.494615
834.658653	2465.124231
834.975083	2543.262115
835.291469	2475.206538
835.607811	2475.206538
835.924110	2535.700385
836.240366	2422.274423
836.556578	2540.741538
836.872746	2482.768269
837.188871	2402.109808
837.504952	2482.768269
837.820990	2535.700385
838.136984	2424.795000
838.452935	2480.247692
838.768842	2565.947308
839.084706	2490.330000
839.400526	2467.644808
839.716303	2447.480192
840.032037	2450.000769
840.347727	2553.344423
840.663373	2475.206538
840.978977	2538.220962
841.294537	2472.685962
841.610054	2429.836154
841.925527	2505.453462
842.240957	2452.521346
842.556344	2518.056346
842.871687	2460.083077
843.186987	2480.247692
843.502244	2482.768269
843.817458	2419.753846
844.132629	2528.138654
844.447756	2465.124231
844.762840	2510.494615
845.077881	2540.741538
845.392879	2505.453462
845.707833	2568.467885
846.022745	2533.179808
846.337613	2530.659231
846.652438	2455.041923
846.967221	2507.974038
847.281960	2432.356731
847.596656	2576.029615
847.911309	2520.576923
848.225919	2507.974038
848.540485	2452.521346
848.855009	2465.124231
849.169490	2518.056346
849.483928	2490.330000
849.798323	2472.685962
850.112675	2444.959615
850.426984	2502.932885
850.741251	2477.727115
851.055474	2560.906154
851.369654	2540.741538
851.683792	2528.138654
851.997887	2490.330000
852.311938	2427.315577
852.625947	2470.165385
852.939914	2465.124231
853.253837	2502.932885
853.567718	2394.548077
853.881555	2492.850577
854.195350	2455.041923
854.509103	2467.644808
854.822812	2429.836154
855.136479	2543.262115
855.450103	2439.918462
855.763685	2442.439038
856.077224	2487.809423
856.390720	2565.947308
856.704173	2520.576923
857.017584	2525.618077
857.330953	2495.371154
857.644278	2523.097500
857.957561	2543.262115
858.270802	2424.795000
858.584000	2497.891731
858.897155	2528.138654
859.210268	2460.083077
859.523339	2500.412308
859.836367	2452.521346
860.149352	2563.426731
860.462295	2482.768269
860.775195	2520.576923
861.088054	2399.589231
861.400869	2545.782692
861.713642	2434.877308
862.026373	2540.741538
862.339062	2530.659231
862.651708	2606.276538
862.964312	2513.015192
863.276873	2533.179808
863.589392	2515.535769
863.901869	2495.371154
864.214303	2528.138654
864.526696	2525.618077
864.839045	2570.988462
865.151353	2477.727115
865.463619	2482.768269
865.775842	2533.179808
866.088023	2502.932885
866.400162	2460.083077
866.712258	2502.932885
867.024313	2515.535769
867.336325	2495.371154
867.648296	2404.630385
867.960224	2495.371154
868.272110	2439.918462
868.583954	2432.356731
868.895755	2568.467885
869.207515	2422.274423
869.519233	2457.562500
869.830909	2545.782692
870.142542	2555.865000
870.454134	2497.891731
870.765684	2460.083077
871.077191	2543.262115
871.388657	2487.809423
871.700081	2462.603654
872.011463	2447.480192
872.322803	2500.412308
872.634101	2485.288846
872.945357	2513.015192
873.256571	2434.877308
873.567744	2497.891731
873.878874	2550.823846
874.189963	2543.262115
874.501010	2540.741538
874.812015	2528.138654
875.122979	2573.509038
875.433900	2480.247692
875.744780	2444.959615
876.055618	2475.206538
876.366415	2402.109808
876.677169	2525.618077
876.987882	2520.576923
877.298554	2507.974038
877.609183	2472.685962
877.919771	2429.836154
878.230317	2447.480192
878.540822	2515.535769
878.851285	2432.356731
879.161707	2480.247692
879.472087	2490.330000
879.782425	2492.850577
880.092722	2573.509038
880.402977	2465.124231
880.713191	2525.618077
881.023363	2429.836154
881.333494	2570.988462
881.643583	2500.412308
881.953631	2477.727115
882.263637	2467.644808
882.573602	2434.877308
882.883526	2500.412308
883.193408	2404.630385
883.503248	2568.467885
883.813048	2513.015192
884.122806	2523.097500
884.432522	2500.412308
884.742197	2528.138654
885.051831	2457.562500
885.361424	2591.153077
885.670975	2414.712692
885.980485	2500.412308
886.289954	2442.439038
886.599382	2497.891731
886.908768	2596.194231
887.218113	2452.521346
887.527417	2439.918462
887.836680	2515.535769
888.145901	2482.768269
888.455082	2462.603654
888.764221	2429.836154
889.073319	2550.823846
889.382376	2442.439038
889.691392	2570.988462
890.000366	2465.124231
890.309300	2465.124231
890.618193	2444.959615
890.927044	2510.494615
891.235855	2399.589231
891.544625	2492.850577
891.853353	2452.521346
892.162041	2497.891731
892.470687	2465.124231
892.779293	2460.083077
893.087858	2455.041923
893.396381	2505.453462
893.704864	2563.426731
894.013306	2447.480192
894.321707	2490.330000
894.630068	2497.891731
894.938387	2518.056346
895.246665	2444.959615
895.554903	2563.426731
895.863100	2485.288846
896.171256	2417.233269
896.479371	2447.480192
896.787446	2502.932885
897.095480	2520.576923
897.403473	2442.439038
897.711425	2492.850577
898.019336	2472.685962
898.327207	2520.576923
898.635038	2515.535769
898.942827	2500.412308
899.250576	2500.412308
899.558284	2525.618077
899.865952	2535.700385
900.173579	2548.303269
900.481165	2606.276538
900.788711	2535.700385
901.096216	2462.603654
901.403681	2502.932885
901.711105	2518.056346
902.018489	2422.274423
902.325832	2523.097500
902.633135	2394.548077
902.940397	2485.288846
903.247619	2432.356731
903.554800	2480.247692
903.861941	2460.083077
904.169041	2523.097500
904.476101	2477.727115
904.783121	2545.782692
905.090100	2555.865000
905.397039	2460.083077
905.703938	2565.947308
906.010796	2507.974038
906.317614	2437.397885
906.624391	2563.426731
906.931129	2570.988462
907.237826	2457.562500
907.544483	2447.480192
907.851099	2422.274423
908.157675	2510.494615
908.464211	2495.371154
908.770707	2558.385577
909.077163	2598.714808
909.383578	2505.453462
909.689954	2450.000769
909.996289	2518.056346
910.302584	2573.509038
910.608839	2482.768269
910.915054	2518.056346
911.221229	2450.000769
911.527363	2513.015192
911.833458	2480.247692
912.139513	2490.330000
912.445527	2477.727115
912.751502	2545.782692
913.057436	2490.330000
913.363331	2389.506923
913.669186	2550.823846
913.975000	2477.727115
914.280775	2482.768269
914.586510	2444.959615
914.892205	2450.000769
915.197859	2515.535769
915.503475	2422.274423
915.809050	2470.165385
916.114585	2507.974038
916.420081	2530.659231
916.725536	2518.056346
917.030952	2500.412308
917.336328	2485.288846
917.641665	2487.809423
917.946961	2475.206538
918.252218	2417.233269
918.557435	2520.576923
918.862612	2457.562500
919.167750	2422.274423
919.472848	2452.521346
919.777906	2518.056346
920.082925	2460.083077
920.387904	2462.603654
920.692843	2460.083077
920.997743	2455.041923
921.302603	2432.356731
921.607423	2621.400000
921.912204	2530.659231
922.216946	2500.412308
922.521647	2497.891731
922.826310	2495.371154
923.130932	2515.535769
923.435516	2500.412308
923.740059	2470.165385
924.044564	2472.685962
924.349028	2477.727115
924.653454	2553.344423
924.957840	2505.453462
925.262186	2480.247692
925.566493	2545.782692
925.870761	2492.850577
926.174989	2535.700385
926.479178	2467.644808
926.783328	2525.618077
927.087438	2497.891731
927.391509	2560.906154
927.695541	2452.521346
927.999533	2427.315577
928.303486	2447.480192
928.607400	2482.768269
928.911275	2515.535769
929.215110	2439.918462
929.518906	2543.262115
929.822663	2402.109808
930.126381	2530.659231
930.430060	2442.439038
930.733699	2480.247692
931.037299	2480.247692
931.340861	2455.041923
931.644383	2439.918462
931.947866	2460.083077
932.251309	2490.330000
932.554714	2500.412308
932.858080	2502.932885
933.161407	2444.959615
933.464694	2520.576923
933.767943	2505.453462
934.071153	2439.918462
934.374323	2591.153077
934.677455	2467.644808
934.980548	2480.247692
935.283602	2447.480192
935.586617	2515.535769
935.889593	2520.576923
936.192530	2467.644808
936.495428	2570.988462
936.798287	2457.562500
937.101108	2588.632500
937.403890	2465.124231
937.706632	2538.220962
938.009336	2470.165385
938.312002	2518.056346
938.614628	2518.056346
938.917216	2533.179808
939.219765	2497.891731
939.522275	2475.206538
939.824747	2492.850577
940.127179	2518.056346
940.429573	2490.330000
940.731929	2502.932885
941.034246	2467.644808
941.336524	2475.206538
941.638763	2538.220962
941.940964	2480.247692
942.243126	2565.947308
942.545250	2447.480192
942.847335	2548.303269
943.149381	2533.179808
943.451389	2581.070769
943.753359	2457.562500
944.055290	2492.850577
944.357182	2588.632500
944.659036	2470.165385
944.960851	2505.453462
945.262628	2447.480192
945.564367	2495.371154
945.866067	2477.727115
946.167729	2525.618077
946.469352	2407.150962
946.770937	2538.220962
947.072484	2452.521346
947.373992	2518.056346
947.675462	2417.233269
947.976893	2492.850577
948.278286	2432.356731
948.579641	2510.494615
948.880958	2437.397885
949.182236	2507.974038
949.483476	2480.247692
949.784678	2480.247692
950.085841	2570.988462
950.386967	2467.644808
950.688054	2467.644808
950.989103	2490.330000
951.290114	2460.083077
951.591087	2520.576923
951.892021	2477.727115
952.192917	2472.685962
952.493776	2475.206538
952.794596	2475.206538
953.095378	2444.959615
953.396122	2528.138654
953.696828	2540.741538
953.997496	2518.056346
954.298126	2578.550192
954.598718	2518.056346
954.899272	2502.932885
955.199788	2520.576923
955.500266	2472.685962
955.800706	2492.850577
956.101108	2477.727115
956.401472	2570.988462
956.701798	2510.494615
957.002087	2500.412308
957.302337	2460.083077
957.602550	2507.974038
957.902724	2419.753846
958.202861	2540.741538
958.502960	2450.000769
958.803022	2485.288846
959.103045	2462.603654
959.403031	2515.535769
959.702979	2470.165385
960.002889	2555.865000
960.302762	2502.932885
960.602596	2505.453462
960.902393	2518.056346
961.202153	2470.165385
961.501875	2452.521346
961.801559	2550.823846
962.101205	2462.603654
962.400814	2457.562500
962.700385	2480.247692
962.999918	2434.877308
963.299414	2434.877308
963.598873	2490.330000
963.898293	2457.562500
964.197677	2550.823846
964.497022	2457.562500
964.796331	2407.150962
965.095601	2520.576923
965.394835	2462.603654
965.694030	2495.371154
965.993189	2442.439038
966.292309	2472.685962
966.591393	2470.165385
966.890439	2560.906154
967.189447	2452.521346
967.488419	2465.124231
967.787353	2515.535769
968.086249	2460.083077
968.385108	2510.494615
968.683930	2485.288846
968.982714	2482.768269
969.281462	2528.138654
969.580172	2419.753846
969.878844	2424.795000
970.177480	2447.480192
970.476078	2434.877308
970.774639	2381.945192
971.073162	2500.412308
971.371649	2467.644808
971.670098	2487.809423
971.968510	2472.685962
972.266885	2455.041923
972.565223	2465.124231
972.863524	2457.562500
973.161788	2502.932885
973.460014	2515.535769
973.758204	2518.056346
974.056356	2482.768269
974.354471	2502.932885
974.652550	2444.959615
974.950591	2502.932885
975.248595	2477.727115
975.546563	2535.700385
975.844493	2399.589231
976.142386	2533.179808
976.440243	2510.494615
976.738062	2477.727115
977.035845	2452.521346
977.333590	2439.918462
977.631299	2490.330000
977.928971	2505.453462
978.226606	2513.015192
978.524204	2505.453462
978.821765	2515.535769
979.119290	2455.041923
979.416777	2452.521346
979.714228	2500.412308
980.011642	2528.138654
980.309020	2538.220962
980.606360	2558.385577
980.903664	2409.671538
981.200931	2505.453462
981.498162	2598.714808
981.795356	2442.439038
982.092513	2568.467885
982.389633	2455.041923
982.686717	2513.015192
982.983764	2513.015192
983.280775	2460.083077
983.577749	2538.220962
983.874686	2477.727115
984.171587	2450.000769
984.468451	2500.412308
984.765279	2455.041923
985.062070	2513.015192
985.358824	2528.138654
985.655543	2470.165385
985.952224	2490.330000
986.248869	2523.097500
986.545478	2495.371154
986.842050	2472.685962
987.138586	2490.330000
987.435086	2439.918462
987.731549	2414.712692
988.027975	2417.233269
988.324366	2444.959615
988.620719	2455.041923
988.917037	2434.877308
989.213318	2518.056346
989.509563	2452.521346
989.805772	2482.768269
990.101944	2432.356731
990.398080	2543.262115
990.694180	2487.809423
990.990244	2480.247692
991.286271	2586.111923
991.582262	2545.782692
991.878217	2510.494615
992.174136	2492.850577
992.470019	2525.618077
992.765865	2553.344423
993.061676	2482.768269
993.357450	2495.371154
993.653188	2485.288846
993.948890	2502.932885
994.244556	2480.247692
994.540186	2530.659231
994.835780	2553.344423
995.131337	2477.727115
995.426859	2505.453462
995.722345	2414.712692
996.017795	2550.823846
996.313208	2540.741538
996.608586	2482.768269
996.903928	2507.974038
997.199234	2502.932885
997.494504	2565.947308
997.789738	2419.753846
998.084936	2525.618077
998.380099	2578.550192
998.675225	2480.247692
998.970316	2427.315577
999.265371	2465.124231
999.560390	2528.138654
999.855373	2447.480192
1000.150320	2520.576923
1000.445232	2366.821731
1000.740108	2523.097500
1001.034948	2442.439038
1001.329752	2518.056346
1001.624521	2520.576923
1001.919254	2513.015192
1002.213951	2480.247692
1002.508613	2470.165385
1002.803239	2452.521346
1003.097829	2450.000769
1003.392384	2581.070769
1003.686903	2485.288846
1003.981386	2460.083077
1004.275834	2439.918462
1004.570246	2520.576923
1004.864623	2364.301154
1005.158964	2507.974038
1005.453270	2465.124231
1005.747540	2525.618077
1006.041775	2450.000769
1006.335974	2487.809423
1006.630138	2432.356731
1006.924266	2568.467885
1007.218359	2482.768269
1007.512416	2525.618077
1007.806438	2477.727115
1008.100425	2525.618077
1008.394376	2447.480192
1008.688292	2450.000769
1008.982172	2518.056346
1009.276017	2507.974038
1009.569827	2548.303269
1009.863602	2437.397885
1010.157341	2500.412308
1010.451045	2447.480192
1010.744714	2528.138654
1011.038347	2482.768269
1011.331945	2523.097500
1011.625508	2500.412308
1011.919036	2502.932885
1012.212528	2487.809423
1012.505986	2460.083077
1012.799408	2485.288846
1013.092795	2490.330000
1013.386147	2510.494615
1013.679464	2533.179808
1013.972745	2480.247692
1014.265992	2487.809423
1014.559204	2450.000769
1014.852380	2475.206538
1015.145521	2500.412308
1015.438628	2555.865000
1015.731699	2497.891731
1016.024736	2570.988462
1016.317737	2528.138654
1016.610703	2439.918462
1016.903635	2467.644808
1017.196531	2507.974038
1017.489393	2545.782692
1017.782219	2492.850577
1018.075011	2460.083077
1018.367768	2437.397885
1018.660490	2513.015192
1018.953177	2513.015192
1019.245829	2513.015192
