Dividing Wavelength (nm)	Counts (n)	Blue Motor Position (mm): 0.000000	Red Motor Position (mm): 9.900000	
326.493990	2145.010962
326.888308	2145.010962
327.282561	2145.010962
327.676750	2117.284615
328.070874	2132.408077
328.464933	2079.475962
328.858929	2074.434808
329.252859	2134.928654
329.646726	2132.408077
330.040528	2059.311346
330.434265	2147.531538
330.827938	2170.216731
331.221547	2134.928654
331.615091	2205.504808
332.008571	2167.696154
332.401986	2243.313462
332.795338	2218.107692
333.188625	2250.875192
333.581847	2311.369038
333.975006	2258.436923
334.368100	2260.957500
334.761129	2344.136538
335.154095	2354.218846
335.546996	2369.342308
335.939833	2329.013077
336.332606	2359.260000
336.725315	2417.233269
337.117960	2371.862885
337.510540	2409.671538
337.903056	2465.124231
338.295508	2439.918462
338.687896	2412.192115
339.080220	2389.506923
339.472480	2460.083077
339.864676	2462.603654
340.256807	2530.659231
340.648875	2465.124231
341.040879	2545.782692
341.432818	2450.000769
341.824694	2444.959615
342.216506	2409.671538
342.608253	2427.315577
342.999937	2528.138654
343.391557	2480.247692
343.783113	2482.768269
344.174605	2414.712692
344.566033	2482.768269
344.957397	2492.850577
345.348697	2470.165385
345.739934	2495.371154
346.131106	2487.809423
346.522215	2475.206538
346.913260	2444.959615
347.304241	2434.877308
347.695159	2482.768269
348.086012	2457.562500
348.476802	2538.220962
348.867528	2538.220962
349.258191	2381.945192
349.648789	2500.412308
350.039324	2497.891731
350.429796	2407.150962
350.820203	2402.109808
351.210548	2419.753846
351.600828	2414.712692
351.991045	2427.315577
352.381198	2381.945192
352.771288	2475.206538
353.161314	2495.371154
353.551276	2518.056346
353.941175	2462.603654
354.331010	2500.412308
354.720782	2492.850577
355.110490	2422.274423
355.500135	2407.150962
355.889717	2525.618077
356.279235	2500.412308
356.668689	2424.795000
357.058080	2404.630385
357.447408	2452.521346
357.836672	2472.685962
358.225873	2439.918462
358.615010	2427.315577
359.004084	2472.685962
359.393095	2424.795000
359.782043	2490.330000
360.170927	2465.124231
360.559748	2482.768269
360.948505	2495.371154
361.337199	2497.891731
361.725830	2444.959615
362.114398	2502.932885
362.502903	2550.823846
362.891344	2442.439038
363.279722	2452.521346
363.668037	2457.562500
364.056289	2389.506923
364.444478	2409.671538
364.832603	2465.124231
365.220665	2465.124231
365.608665	2497.891731
365.996601	2465.124231
366.384474	2460.083077
366.772284	2492.850577
367.160031	2412.192115
367.547715	2407.150962
367.935336	2341.615962
368.322893	2540.741538
368.710388	2399.589231
369.097820	2480.247692
369.485189	2492.850577
369.872495	2475.206538
370.259738	2439.918462
370.646918	2429.836154
371.034035	2439.918462
371.421090	2419.753846
371.808081	2538.220962
372.195010	2419.753846
372.581875	2495.371154
372.968678	2465.124231
373.355418	2475.206538
373.742096	2432.356731
374.128710	2480.247692
374.515262	2376.904038
374.901751	2452.521346
375.288177	2432.356731
375.674540	2470.165385
376.060841	2490.330000
376.447079	2376.904038
376.833254	2455.041923
377.219367	2460.083077
377.605417	2394.548077
377.991404	2495.371154
378.377329	2543.262115
378.763191	2407.150962
379.148991	2525.618077
379.534727	2452.521346
379.920402	2457.562500
380.306013	2429.836154
380.691563	2507.974038
381.077049	2412.192115
381.462474	2455.041923
381.847835	2432.356731
382.233134	2379.424615
382.618371	2492.850577
383.003545	2475.206538
383.388657	2447.480192
383.773706	2475.206538
384.158693	2460.083077
384.543618	2535.700385
384.928480	2452.521346
385.313280	2402.109808
385.698017	2467.644808
386.082692	2505.453462
386.467305	2427.315577
386.851856	2404.630385
387.236344	2535.700385
387.620770	2427.315577
388.005133	2427.315577
388.389435	2437.397885
388.773674	2442.439038
389.157851	2513.015192
389.541965	2482.768269
389.926018	2442.439038
390.310008	2422.274423
390.693936	2475.206538
391.077802	2419.753846
391.461606	2470.165385
391.845348	2470.165385
392.229027	2399.589231
392.612645	2502.932885
392.996200	2444.959615
393.379694	2520.576923
393.763125	2576.029615
394.146494	2404.630385
394.529801	2510.494615
394.913047	2442.439038
395.296230	2465.124231
395.679351	2457.562500
396.062410	2548.303269
396.445408	2465.124231
396.828343	2495.371154
397.211217	2432.356731
397.594028	2432.356731
397.976778	2513.015192
398.359466	2447.480192
398.742092	2528.138654
399.124656	2429.836154
399.507158	2475.206538
399.889598	2344.136538
400.271977	2533.179808
400.654294	2477.727115
401.036549	2525.618077
401.418742	2472.685962
401.800874	2427.315577
402.182944	2530.659231
402.564952	2447.480192
402.946898	2538.220962
403.328783	2419.753846
403.710606	2477.727115
404.092367	2540.741538
404.474067	2472.685962
404.855705	2487.809423
405.237282	2465.124231
405.618797	2513.015192
406.000250	2460.083077
406.381642	2500.412308
406.762972	2492.850577
407.144240	2482.768269
407.525447	2394.548077
407.906593	2404.630385
408.287677	2515.535769
408.668700	2535.700385
409.049661	2465.124231
409.430560	2518.056346
409.811399	2457.562500
410.192176	2487.809423
410.572891	2472.685962
410.953545	2492.850577
411.334138	2457.562500
411.714669	2518.056346
412.095139	2457.562500
412.475547	2500.412308
412.855894	2535.700385
413.236180	2497.891731
413.616405	2442.439038
413.996568	2457.562500
414.376670	2480.247692
414.756711	2523.097500
415.136691	2477.727115
415.516609	2555.865000
415.896466	2472.685962
416.276262	2460.083077
416.655997	2450.000769
417.035670	2497.891731
417.415283	2427.315577
417.794834	2465.124231
418.174324	2465.124231
418.553753	2444.959615
418.933121	2452.521346
419.312428	2432.356731
419.691674	2518.056346
420.070859	2482.768269
420.449983	2482.768269
420.829045	2510.494615
421.208047	2515.535769
421.586988	2467.644808
421.965867	2545.782692
422.344686	2535.700385
422.723444	2460.083077
423.102141	2457.562500
423.480777	2477.727115
423.859352	2422.274423
424.237866	2497.891731
424.616319	2450.000769
424.994712	2432.356731
425.373044	2533.179808
425.751314	2409.671538
426.129524	2402.109808
426.507673	2485.288846
426.885762	2545.782692
427.263789	2500.412308
427.641756	2540.741538
428.019662	2455.041923
428.397508	2477.727115
428.775292	2507.974038
429.153016	2530.659231
429.530679	2530.659231
429.908282	2482.768269
430.285824	2502.932885
430.663305	2528.138654
431.040726	2429.836154
431.418086	2515.535769
431.795385	2444.959615
432.172624	2505.453462
432.549802	2407.150962
432.926920	2389.506923
433.303977	2487.809423
433.680974	2523.097500
434.057910	2487.809423
434.434786	2538.220962
434.811601	2540.741538
435.188355	2452.521346
435.565050	2485.288846
435.941683	2482.768269
436.318257	2467.644808
436.694770	2490.330000
437.071222	2570.988462
437.447614	2502.932885
437.823946	2490.330000
438.200218	2502.932885
438.576429	2394.548077
438.952580	2550.823846
439.328670	2455.041923
439.704700	2419.753846
440.080670	2465.124231
440.456580	2452.521346
440.832429	2525.618077
441.208218	2452.521346
441.583947	2485.288846
441.959616	2472.685962
442.335224	2490.330000
442.710773	2507.974038
443.086261	2485.288846
443.461689	2482.768269
443.837057	2545.782692
444.212365	2434.877308
444.587612	2482.768269
444.962800	2392.027500
445.337927	2485.288846
445.712995	2452.521346
446.088002	2467.644808
446.462949	2525.618077
446.837837	2470.165385
447.212664	2477.727115
447.587431	2601.235385
447.962139	2462.603654
448.336786	2513.015192
448.711374	2490.330000
449.085901	2513.015192
449.460369	2470.165385
449.834776	2490.330000
450.209124	2429.836154
450.583412	2525.618077
450.957640	2444.959615
451.331808	2530.659231
451.705917	2485.288846
452.079965	2465.124231
452.453954	2467.644808
452.827883	2487.809423
453.201752	2530.659231
453.575562	2518.056346
453.949311	2437.397885
454.323001	2543.262115
454.696632	2457.562500
455.070202	2515.535769
455.443713	2568.467885
455.817164	2492.850577
456.190556	2465.124231
456.563888	2412.192115
456.937160	2437.397885
457.310373	2518.056346
457.683526	2515.535769
458.056619	2538.220962
458.429653	2465.124231
458.802628	2472.685962
459.175542	2442.439038
459.548398	2487.809423
459.921194	2427.315577
460.293930	2407.150962
460.666607	2470.165385
461.039224	2485.288846
461.411782	2603.755962
461.784280	2487.809423
462.156719	2437.397885
462.529099	2525.618077
462.901419	2447.480192
463.273680	2465.124231
463.645882	2502.932885
464.018024	2492.850577
464.390106	2538.220962
464.762130	2502.932885
465.134094	2442.439038
465.505999	2455.041923
465.877845	2450.000769
466.249631	2507.974038
466.621358	2586.111923
466.993026	2500.412308
467.364634	2402.109808
467.736184	2444.959615
468.107674	2502.932885
468.479105	2442.439038
468.850477	2570.988462
469.221790	2414.712692
469.593043	2553.344423
469.964238	2460.083077
470.335373	2475.206538
470.706449	2480.247692
471.077467	2467.644808
471.448425	2465.124231
471.819324	2409.671538
472.190164	2472.685962
472.560945	2404.630385
472.931667	2497.891731
473.302330	2538.220962
473.672934	2495.371154
474.043479	2565.947308
474.413965	2432.356731
474.784393	2417.233269
475.154761	2568.467885
475.525070	2462.603654
475.895321	2487.809423
476.265513	2414.712692
476.635645	2487.809423
477.005719	2482.768269
477.375734	2490.330000
477.745691	2558.385577
478.115588	2407.150962
478.485427	2487.809423
478.855207	2505.453462
479.224928	2429.836154
479.594591	2507.974038
479.964194	2477.727115
480.333739	2472.685962
480.703226	2528.138654
481.072653	2530.659231
481.442022	2482.768269
481.811333	2487.809423
482.180584	2424.795000
482.549777	2452.521346
482.918912	2475.206538
483.287988	2444.959615
483.657005	2497.891731
484.025964	2447.480192
484.394864	2465.124231
484.763706	2543.262115
485.132489	2492.850577
485.501213	2543.262115
485.869879	2528.138654
486.238487	2523.097500
486.607036	2520.576923
486.975527	2455.041923
487.343959	2510.494615
487.712333	2477.727115
488.080648	2525.618077
488.448905	2525.618077
488.817104	2437.397885
489.185244	2490.330000
489.553326	2477.727115
489.921350	2477.727115
490.289315	2492.850577
490.657222	2538.220962
491.025070	2596.194231
491.392861	2518.056346
491.760593	2533.179808
492.128267	2465.124231
492.495883	2538.220962
492.863440	2482.768269
493.230939	2613.838269
493.598380	2480.247692
493.965763	2492.850577
494.333088	2578.550192
494.700354	2525.618077
495.067563	2505.453462
495.434713	2505.453462
495.801805	2500.412308
496.168839	2427.315577
496.535815	2442.439038
496.902733	2497.891731
497.269593	2432.356731
497.636395	2576.029615
498.003139	2447.480192
498.369825	2444.959615
498.736453	2447.480192
499.103023	2465.124231
499.469535	2513.015192
499.835989	2482.768269
500.202385	2518.056346
500.568723	2528.138654
500.935003	2538.220962
501.301226	2450.000769
501.667390	2570.988462
502.033497	2548.303269
502.399546	2442.439038
502.765537	2502.932885
503.131470	2570.988462
503.497345	2525.618077
503.863163	2553.344423
504.228923	2515.535769
504.594625	2540.741538
504.960269	2500.412308
505.325856	2543.262115
505.691385	2601.235385
506.056856	2548.303269
506.422270	2550.823846
506.787625	2505.453462
507.152924	2525.618077
507.518164	2470.165385
507.883347	2523.097500
508.248472	2576.029615
508.613540	2523.097500
508.978550	2533.179808
509.343503	2550.823846
509.708398	2470.165385
510.073236	2518.056346
510.438016	2434.877308
510.802738	2515.535769
511.167403	2389.506923
511.532010	2490.330000
511.896561	2457.562500
512.261053	2482.768269
512.625488	2543.262115
512.989866	2505.453462
513.354186	2540.741538
513.718449	2487.809423
514.082655	2460.083077
514.446803	2475.206538
514.810894	2472.685962
515.174927	2495.371154
515.538904	2518.056346
515.902822	2581.070769
516.266684	2538.220962
516.630488	2465.124231
516.994235	2457.562500
517.357925	2492.850577
517.721558	2475.206538
518.085133	2462.603654
518.448651	2432.356731
518.812112	2523.097500
519.175516	2450.000769
519.538863	2533.179808
519.902152	2515.535769
520.265385	2434.877308
520.628560	2485.288846
520.991678	2535.700385
521.354739	2485.288846
521.717743	2492.850577
522.080690	2472.685962
522.443580	2502.932885
522.806413	2492.850577
523.169189	2482.768269
523.531908	2455.041923
523.894569	2515.535769
524.257174	2576.029615
524.619722	2515.535769
524.982213	2439.918462
525.344647	2432.356731
525.707025	2477.727115
526.069345	2513.015192
526.431608	2487.809423
526.793815	2490.330000
527.155964	2444.959615
527.518057	2487.809423
527.880093	2470.165385
528.242072	2513.015192
528.603995	2500.412308
528.965860	2487.809423
529.327669	2538.220962
529.689421	2480.247692
530.051117	2520.576923
530.412755	2450.000769
530.774337	2548.303269
531.135862	2477.727115
531.497331	2520.576923
531.858743	2520.576923
532.220098	2439.918462
532.581396	2528.138654
532.942638	2462.603654
533.303824	2480.247692
533.664953	2525.618077
534.026025	2505.453462
534.387040	2422.274423
534.747999	2530.659231
535.108902	2560.906154
535.469748	2386.986346
535.830537	2407.150962
536.191270	2530.659231
536.551947	2439.918462
536.912567	2510.494615
537.273131	2472.685962
537.633638	2447.480192
537.994089	2520.576923
538.354483	2540.741538
538.714821	2490.330000
539.075103	2530.659231
539.435328	2497.891731
539.795497	2500.412308
540.155609	2429.836154
540.515665	2460.083077
540.875665	2465.124231
541.235609	2548.303269
541.595496	2505.453462
541.955328	2591.153077
542.315102	2576.029615
542.674821	2472.685962
543.034483	2472.685962
543.394090	2573.509038
543.753640	2480.247692
544.113134	2507.974038
544.472571	2470.165385
544.831953	2480.247692
545.191278	2475.206538
545.550548	2470.165385
545.909761	2578.550192
546.268918	2465.124231
546.628019	2439.918462
546.987064	2467.644808
547.346053	2480.247692
547.704986	2548.303269
548.063863	2477.727115
548.422684	2470.165385
548.781449	2533.179808
549.140158	2500.412308
549.498811	2462.603654
549.857408	2502.932885
550.215949	2505.453462
550.574434	2500.412308
550.932864	2606.276538
551.291237	2460.083077
551.649555	2505.453462
552.007817	2442.439038
552.366022	2505.453462
552.724173	2437.397885
553.082267	2555.865000
553.440305	2497.891731
553.798288	2520.576923
554.156215	2417.233269
554.514086	2497.891731
554.871902	2427.315577
555.229661	2492.850577
555.587365	2470.165385
555.945014	2487.809423
556.302606	2497.891731
556.660143	2553.344423
557.017625	2470.165385
557.375050	2465.124231
557.732421	2467.644808
558.089735	2513.015192
558.446994	2535.700385
558.804197	2439.918462
559.161345	2513.015192
559.518437	2573.509038
559.875474	2581.070769
560.232455	2432.356731
560.589381	2565.947308
560.946251	2409.671538
561.303065	2485.288846
561.659825	2510.494615
562.016528	2424.795000
562.373177	2457.562500
562.729770	2470.165385
563.086307	2563.426731
563.442789	2490.330000
563.799216	2518.056346
564.155587	2432.356731
564.511904	2596.194231
564.868164	2450.000769
565.224370	2525.618077
565.580520	2472.685962
565.936615	2505.453462
566.292654	2558.385577
566.648638	2470.165385
567.004567	2467.644808
567.360441	2470.165385
567.716260	2457.562500
568.072023	2437.397885
568.427732	2450.000769
568.783385	2497.891731
569.138982	2570.988462
569.494525	2513.015192
569.850013	2583.591346
570.205445	2505.453462
570.560823	2417.233269
570.916145	2520.576923
571.271412	2399.589231
571.626625	2550.823846
571.981782	2507.974038
572.336884	2583.591346
572.691931	2450.000769
573.046923	2470.165385
573.401860	2460.083077
573.756743	2513.015192
574.111570	2505.453462
574.466342	2495.371154
574.821059	2485.288846
575.175722	2419.753846
575.530330	2560.906154
575.884882	2548.303269
576.239380	2477.727115
576.593823	2467.644808
576.948211	2570.988462
577.302544	2485.288846
577.656823	2462.603654
578.011047	2523.097500
578.365216	2442.439038
578.719330	2505.453462
579.073389	2543.262115
579.427394	2490.330000
579.781344	2570.988462
580.135239	2485.288846
580.489080	2497.891731
580.842866	2450.000769
581.196597	2535.700385
581.550273	2444.959615
581.903895	2543.262115
582.257463	2502.932885
582.610975	2419.753846
582.964434	2462.603654
583.317837	2523.097500
583.671186	2596.194231
584.024481	2439.918462
584.377721	2480.247692
584.730906	2520.576923
585.084037	2505.453462
585.437113	2593.673654
585.790135	2525.618077
586.143103	2560.906154
586.496016	2560.906154
586.848874	2497.891731
587.201679	2535.700385
587.554428	2492.850577
587.907124	2510.494615
588.259765	2389.506923
588.612352	2558.385577
588.964884	2477.727115
589.317362	2525.618077
589.669786	2475.206538
590.022155	2530.659231
590.374470	2402.109808
590.726731	2568.467885
591.078937	2588.632500
591.431090	2462.603654
591.783188	2505.453462
592.135232	2424.795000
592.487222	2543.262115
592.839157	2442.439038
593.191038	2525.618077
593.542866	2502.932885
593.894639	2523.097500
594.246358	2545.782692
594.598022	2495.371154
594.949633	2492.850577
595.301190	2485.288846
595.652692	2530.659231
596.004141	2492.850577
596.355535	2482.768269
596.706876	2500.412308
597.058162	2462.603654
597.409395	2455.041923
597.760573	2490.330000
598.111698	2490.330000
598.462768	2525.618077
598.813785	2450.000769
599.164748	2487.809423
599.515657	2485.288846
599.866511	2475.206538
600.217312	2568.467885
600.568060	2470.165385
600.918753	2467.644808
601.269392	2548.303269
601.619978	2558.385577
601.970510	2578.550192
602.320988	2591.153077
602.671412	2538.220962
603.021783	2386.986346
603.372100	2442.439038
603.722363	2457.562500
604.072572	2480.247692
604.422728	2437.397885
604.772830	2497.891731
605.122878	2550.823846
605.472872	2487.809423
605.822813	2364.301154
606.172701	2417.233269
606.522534	2437.397885
606.872314	2510.494615
607.222041	2427.315577
607.571714	2452.521346
607.921333	2477.727115
608.270899	2553.344423
608.620411	2455.041923
608.969870	2447.480192
609.319276	2530.659231
609.668627	2457.562500
610.017926	2389.506923
610.367171	2528.138654
610.716362	2437.397885
611.065500	2444.959615
611.414585	2568.467885
611.763616	2480.247692
612.112594	2523.097500
612.461518	2457.562500
612.810389	2548.303269
613.159207	2427.315577
613.507971	2565.947308
613.856682	2500.412308
614.205340	2507.974038
614.553945	2513.015192
614.902496	2467.644808
615.250994	2533.179808
615.599439	2480.247692
615.947830	2523.097500
616.296169	2500.412308
616.644454	2558.385577
616.992686	2465.124231
617.340864	2565.947308
617.688990	2450.000769
618.037063	2460.083077
618.385082	2518.056346
618.733048	2553.344423
619.080961	2507.974038
619.428821	2510.494615
619.776628	2470.165385
620.124382	2427.315577
620.472083	2470.165385
620.819731	2472.685962
621.167326	2495.371154
621.514868	2550.823846
621.862357	2467.644808
622.209793	2500.412308
622.557176	2530.659231
622.904506	2402.109808
623.251783	2505.453462
623.599007	2502.932885
623.946179	2505.453462
624.293297	2490.330000
624.640363	2520.576923
624.987376	2462.603654
625.334336	2530.659231
625.681243	2442.439038
626.028097	2505.453462
626.374899	2424.795000
626.721647	2470.165385
627.068343	2611.317692
627.414987	2475.206538
627.761577	2588.632500
628.108115	2437.397885
628.454600	2525.618077
628.801032	2535.700385
629.147412	2518.056346
629.493739	2513.015192
629.840014	2553.344423
630.186236	2568.467885
630.532405	2563.426731
630.878521	2523.097500
631.224585	2535.700385
631.570597	2480.247692
631.916556	2472.685962
632.262462	2545.782692
632.608316	2500.412308
632.954117	2538.220962
633.299866	2444.959615
633.645562	2389.506923
633.991206	2513.015192
634.336797	2555.865000
634.682336	2432.356731
635.027823	2548.303269
635.373257	2470.165385
635.718639	2490.330000
636.063968	2548.303269
636.409245	2455.041923
636.754470	2538.220962
637.099642	2500.412308
637.444762	2540.741538
637.789829	2528.138654
638.134845	2447.480192
638.479808	2558.385577
638.824719	2505.453462
639.169577	2515.535769
639.514383	2548.303269
639.859137	2538.220962
640.203839	2507.974038
640.548489	2472.685962
640.893086	2528.138654
641.237632	2457.562500
641.582125	2563.426731
641.926566	2518.056346
642.270955	2455.041923
642.615292	2462.603654
642.959576	2482.768269
643.303809	2475.206538
643.647990	2507.974038
643.992118	2502.932885
644.336195	2429.836154
644.680219	2490.330000
645.024192	2472.685962
645.368112	2477.727115
645.711981	2490.330000
646.055797	2409.671538
646.399562	2495.371154
646.743274	2606.276538
647.086935	2487.809423
647.430544	2555.865000
647.774101	2404.630385
648.117606	2472.685962
648.461059	2528.138654
648.804460	2457.562500
649.147810	2528.138654
649.491108	2558.385577
649.834354	2555.865000
650.177548	2417.233269
650.520690	2583.591346
650.863781	2568.467885
651.206820	2412.192115
651.549807	2467.644808
651.892742	2553.344423
652.235626	2560.906154
652.578458	2467.644808
652.921238	2500.412308
653.263967	2447.480192
653.606644	2475.206538
653.949269	2475.206538
654.291843	2492.850577
654.634365	2450.000769
654.976836	2528.138654
655.319255	2497.891731
655.661622	2513.015192
656.003938	2525.618077
656.346203	2525.618077
656.688416	2492.850577
657.030577	2507.974038
657.372687	2424.795000
657.714746	2407.150962
658.056753	2452.521346
658.398708	2455.041923
658.740612	2502.932885
659.082465	2502.932885
659.424266	2513.015192
659.766016	2495.371154
660.107715	2487.809423
660.449362	2525.618077
660.790958	2419.753846
661.132503	2535.700385
661.473996	2513.015192
661.815438	2482.768269
662.156829	2472.685962
662.498168	2505.453462
662.839456	2573.509038
663.180693	2424.795000
663.521879	2576.029615
663.863013	2495.371154
664.204097	2457.562500
664.545129	2515.535769
664.886110	2447.480192
665.227040	2472.685962
665.567918	2492.850577
665.908746	2427.315577
666.249522	2553.344423
666.590248	2427.315577
666.930922	2470.165385
667.271545	2439.918462
667.612118	2543.262115
667.952639	2490.330000
668.293109	2502.932885
668.633528	2505.453462
668.973896	2460.083077
669.314213	2535.700385
669.654480	2429.836154
669.994695	2530.659231
670.334859	2528.138654
670.674973	2530.659231
671.015035	2457.562500
671.355047	2540.741538
671.695008	2485.288846
672.034918	2548.303269
672.374777	2414.712692
672.714585	2472.685962
673.054342	2510.494615
673.394049	2558.385577
673.733705	2376.904038
674.073310	2553.344423
674.412864	2500.412308
674.752368	2434.877308
675.091820	2472.685962
675.431223	2457.562500
675.770574	2485.288846
676.109875	2550.823846
676.449125	2487.809423
676.788324	2570.988462
677.127473	2482.768269
677.466571	2538.220962
677.805619	2424.795000
678.144616	2598.714808
678.483562	2460.083077
678.822458	2470.165385
679.161303	2533.179808
679.500098	2497.891731
679.838842	2533.179808
680.177535	2460.083077
680.516179	2520.576923
680.854771	2545.782692
681.193314	2462.603654
681.531805	2515.535769
681.870247	2450.000769
682.208638	2576.029615
682.546978	2528.138654
682.885268	2510.494615
683.223508	2487.809423
683.561697	2414.712692
683.899836	2568.467885
684.237925	2462.603654
684.575963	2515.535769
684.913951	2548.303269
685.251889	2422.274423
685.589776	2533.179808
685.927614	2520.576923
686.265401	2502.932885
686.603137	2472.685962
686.940824	2470.165385
687.278460	2545.782692
687.616046	2444.959615
687.953582	2450.000769
688.291068	2480.247692
688.628504	2535.700385
688.965889	2462.603654
689.303224	2513.015192
689.640510	2470.165385
689.977745	2515.535769
690.314930	2507.974038
690.652065	2515.535769
690.989150	2485.288846
691.326185	2450.000769
691.663170	2472.685962
692.000105	2558.385577
692.336990	2528.138654
692.673825	2507.974038
693.010610	2490.330000
693.347345	2419.753846
693.684030	2447.480192
694.020665	2507.974038
694.357251	2467.644808
694.693786	2470.165385
695.030272	2530.659231
695.366707	2548.303269
695.703093	2492.850577
696.039429	2427.315577
696.375716	2465.124231
696.711952	2565.947308
697.048139	2523.097500
697.384276	2510.494615
697.720363	2523.097500
698.056400	2543.262115
698.392388	2497.891731
698.728326	2460.083077
699.064214	2550.823846
699.400053	2505.453462
699.735842	2560.906154
700.071581	2523.097500
700.407270	2621.400000
700.742910	2560.906154
701.078501	2477.727115
701.414042	2520.576923
701.749533	2500.412308
702.084974	2450.000769
702.420366	2540.741538
702.755709	2497.891731
703.091002	2525.618077
703.426246	2490.330000
703.761440	2505.453462
704.096584	2439.918462
704.431679	2563.426731
704.766725	2472.685962
705.101721	2510.494615
705.436668	2497.891731
705.771565	2520.576923
706.106413	2444.959615
706.441212	2475.206538
706.775961	2545.782692
707.110661	2447.480192
707.445311	2505.453462
707.779913	2502.932885
708.114465	2427.315577
708.448967	2543.262115
708.783421	2548.303269
709.117825	2457.562500
709.452180	2581.070769
709.786485	2487.809423
710.120742	2611.317692
710.454949	2502.932885
710.789107	2487.809423
711.123216	2525.618077
711.457275	2513.015192
711.791286	2404.630385
712.125247	2540.741538
712.459159	2417.233269
712.793023	2523.097500
713.126837	2535.700385
713.460602	2412.192115
713.794318	2505.453462
714.127985	2492.850577
714.461602	2465.124231
714.795171	2487.809423
715.128691	2500.412308
715.462162	2487.809423
715.795584	2570.988462
716.128957	2533.179808
716.462281	2487.809423
716.795556	2545.782692
717.128782	2477.727115
717.461960	2570.988462
717.795088	2475.206538
718.128167	2457.562500
718.461198	2593.673654
718.794180	2477.727115
719.127113	2465.124231
719.459997	2553.344423
719.792833	2533.179808
720.125619	2500.412308
720.458357	2573.509038
720.791046	2583.591346
721.123686	2540.741538
721.456278	2439.918462
721.788821	2450.000769
722.121315	2555.865000
722.453761	2525.618077
722.786158	2545.782692
723.118506	2399.589231
723.450805	2515.535769
723.783056	2608.797115
724.115259	2543.262115
724.447412	2392.027500
724.779518	2490.330000
725.111574	2427.315577
725.443582	2548.303269
725.775542	2475.206538
726.107453	2505.453462
726.439315	2515.535769
726.771129	2528.138654
727.102895	2462.603654
727.434612	2472.685962
727.766281	2497.891731
728.097901	2528.138654
728.429473	2548.303269
728.760996	2465.124231
729.092471	2465.124231
729.423897	2543.262115
729.755276	2472.685962
730.086606	2533.179808
730.417887	2442.439038
730.749120	2538.220962
731.080305	2495.371154
731.411442	2565.947308
731.742530	2550.823846
732.073570	2470.165385
732.404562	2462.603654
732.735506	2573.509038
733.066401	2412.192115
733.397249	2555.865000
733.728048	2515.535769
734.058798	2505.453462
734.389501	2439.918462
734.720156	2480.247692
735.050762	2487.809423
735.381320	2442.439038
735.711831	2482.768269
736.042293	2455.041923
736.372707	2565.947308
736.703073	2381.945192
737.033391	2500.412308
737.363661	2490.330000
737.693883	2558.385577
738.024056	2472.685962
738.354182	2560.906154
738.684260	2460.083077
739.014290	2439.918462
739.344272	2563.426731
739.674207	2581.070769
740.004093	2455.041923
740.333931	2515.535769
740.663722	2470.165385
740.993464	2500.412308
741.323159	2581.070769
741.652806	2523.097500
741.982405	2492.850577
742.311956	2485.288846
742.641460	2424.795000
742.970915	2455.041923
743.300323	2485.288846
743.629683	2520.576923
743.958996	2578.550192
744.288260	2482.768269
744.617477	2553.344423
744.946647	2392.027500
745.275768	2495.371154
745.604842	2497.891731
745.933869	2550.823846
746.262847	2545.782692
746.591778	2384.465769
746.920662	2477.727115
747.249498	2573.509038
747.578286	2550.823846
747.907027	2417.233269
748.235720	2543.262115
748.564365	2533.179808
748.892963	2495.371154
749.221514	2444.959615
749.550017	2492.850577
749.878473	2530.659231
750.206881	2460.083077
750.535242	2427.315577
750.863555	2563.426731
751.191821	2515.535769
751.520039	2520.576923
751.848210	2565.947308
752.176334	2472.685962
752.504411	2480.247692
752.832440	2523.097500
753.160421	2525.618077
753.488356	2528.138654
753.816243	2465.124231
754.144082	2480.247692
754.471875	2409.671538
754.799620	2422.274423
755.127318	2427.315577
755.454969	2588.632500
755.782572	2525.618077
756.110129	2515.535769
756.437638	2490.330000
756.765100	2538.220962
757.092515	2573.509038
757.419882	2502.932885
757.747203	2553.344423
758.074477	2525.618077
758.401703	2462.603654
758.728882	2500.412308
759.056014	2570.988462
759.383099	2500.412308
759.710138	2528.138654
760.037129	2550.823846
760.364073	2560.906154
760.690970	2510.494615
761.017820	2409.671538
761.344623	2543.262115
761.671379	2470.165385
761.998088	2510.494615
762.324751	2470.165385
762.651366	2490.330000
762.977935	2510.494615
763.304456	2505.453462
763.630931	2540.741538
763.957359	2475.206538
764.283740	2560.906154
764.610074	2515.535769
764.936362	2492.850577
765.262602	2490.330000
765.588796	2487.809423
765.914943	2525.618077
766.241044	2523.097500
766.567097	2515.535769
766.893104	2490.330000
767.219064	2437.397885
767.544978	2548.303269
767.870845	2520.576923
768.196665	2518.056346
768.522438	2434.877308
768.848165	2487.809423
769.173846	2477.727115
769.499479	2485.288846
769.825066	2467.644808
770.150607	2497.891731
770.476101	2563.426731
770.801548	2558.385577
771.126949	2502.932885
771.452303	2533.179808
771.777611	2412.192115
772.102872	2540.741538
772.428087	2518.056346
772.753256	2505.453462
773.078378	2379.424615
773.403453	2444.959615
773.728482	2434.877308
774.053465	2583.591346
774.378401	2492.850577
774.703291	2535.700385
775.028135	2538.220962
775.352932	2447.480192
775.677683	2485.288846
776.002388	2500.412308
776.327046	2568.467885
776.651658	2528.138654
776.976224	2518.056346
777.300743	2427.315577
777.625216	2540.741538
777.949643	2487.809423
778.274024	2502.932885
778.598359	2568.467885
778.922647	2502.932885
779.246889	2515.535769
779.571086	2472.685962
779.895236	2480.247692
780.219339	2427.315577
780.543397	2485.288846
780.867409	2427.315577
781.191374	2414.712692
781.515294	2490.330000
781.839167	2467.644808
782.162995	2563.426731
782.486776	2533.179808
782.810511	2497.891731
783.134201	2510.494615
783.457844	2417.233269
783.781441	2515.535769
784.104993	2591.153077
784.428498	2568.467885
784.751958	2510.494615
785.075372	2497.891731
785.398739	2452.521346
785.722061	2450.000769
786.045337	2523.097500
786.368568	2520.576923
786.691752	2593.673654
787.014891	2586.111923
787.337983	2475.206538
787.661030	2540.741538
787.984031	2450.000769
788.306987	2495.371154
788.629897	2543.262115
788.952760	2477.727115
789.275579	2399.589231
789.598351	2515.535769
789.921078	2487.809423
790.243759	2535.700385
790.566395	2533.179808
790.888984	2555.865000
791.211529	2457.562500
791.534027	2507.974038
791.856480	2533.179808
792.178888	2460.083077
792.501249	2472.685962
792.823566	2487.809423
793.145836	2533.179808
793.468062	2475.206538
793.790241	2545.782692
794.112375	2450.000769
794.434464	2513.015192
794.756507	2455.041923
795.078505	2513.015192
795.400457	2487.809423
795.722364	2495.371154
796.044226	2460.083077
796.366042	2533.179808
796.687812	2470.165385
797.009538	2497.891731
797.331218	2472.685962
797.652852	2510.494615
797.974442	2424.795000
798.295986	2465.124231
798.617484	2442.439038
798.938938	2550.823846
799.260346	2550.823846
799.581709	2523.097500
799.903026	2492.850577
800.224299	2465.124231
800.545526	2490.330000
800.866708	2485.288846
801.187845	2485.288846
801.508936	2530.659231
801.829983	2487.809423
802.150984	2424.795000
802.471940	2492.850577
802.792851	2437.397885
803.113717	2565.947308
803.434538	2563.426731
803.755314	2502.932885
804.076045	2500.412308
804.396731	2487.809423
804.717372	2417.233269
805.037967	2586.111923
805.358518	2450.000769
805.679024	2555.865000
805.999485	2523.097500
806.319901	2492.850577
806.640272	2507.974038
806.960598	2505.453462
807.280879	2472.685962
807.601115	2475.206538
807.921306	2460.083077
808.241453	2588.632500
808.561554	2457.562500
808.881611	2505.453462
809.201623	2427.315577
809.521590	2444.959615
809.841513	2497.891731
810.161390	2447.480192
810.481223	2467.644808
810.801011	2452.521346
811.120755	2482.768269
811.440453	2402.109808
811.760107	2523.097500
812.079716	2502.932885
812.399281	2530.659231
812.718801	2414.712692
813.038276	2490.330000
813.357707	2475.206538
813.677093	2515.535769
813.996434	2470.165385
814.315731	2487.809423
814.634983	2444.959615
814.954191	2482.768269
815.273354	2502.932885
815.592473	2424.795000
815.911547	2563.426731
816.230577	2457.562500
816.549562	2525.618077
816.868502	2606.276538
817.187399	2467.644808
817.506250	2495.371154
817.825058	2492.850577
818.143821	2513.015192
818.462539	2502.932885
818.781213	2578.550192
819.099843	2558.385577
819.418429	2475.206538
819.736970	2480.247692
820.055466	2505.453462
820.373919	2472.685962
820.692327	2487.809423
821.010691	2518.056346
821.329011	2515.535769
821.647286	2487.809423
821.965517	2495.371154
822.283704	2523.097500
822.601847	2528.138654
822.919945	2467.644808
823.237999	2442.439038
823.556010	2467.644808
823.873976	2520.576923
824.191897	2477.727115
824.509775	2578.550192
824.827609	2510.494615
825.145398	2543.262115
825.463144	2601.235385
825.780845	2472.685962
826.098502	2472.685962
826.416116	2520.576923
826.733685	2500.412308
827.051210	2515.535769
827.368692	2399.589231
827.686129	2550.823846
828.003522	2485.288846
828.320872	2490.330000
828.638177	2437.397885
828.955439	2404.630385
829.272656	2439.918462
829.589830	2518.056346
829.906960	2495.371154
830.224046	2497.891731
830.541088	2588.632500
830.858086	2389.506923
831.175041	2502.932885
831.491952	2507.974038
831.808819	2518.056346
832.125642	2523.097500
832.442421	2530.659231
832.759157	2545.782692
833.075849	2538.220962
833.392497	2487.809423
833.709101	2505.453462
834.025662	2480.247692
834.342179	2507.974038
834.658653	2427.315577
834.975083	2447.480192
835.291469	2467.644808
835.607811	2570.988462
835.924110	2548.303269
836.240366	2568.467885
836.556578	2608.797115
836.872746	2487.809423
837.188871	2490.330000
837.504952	2467.644808
837.820990	2412.192115
838.136984	2482.768269
838.452935	2487.809423
838.768842	2570.988462
839.084706	2487.809423
839.400526	2510.494615
839.716303	2505.453462
840.032037	2472.685962
840.347727	2560.906154
840.663373	2538.220962
840.978977	2450.000769
841.294537	2528.138654
841.610054	2565.947308
841.925527	2460.083077
842.240957	2538.220962
842.556344	2470.165385
842.871687	2558.385577
843.186987	2487.809423
843.502244	2460.083077
843.817458	2538.220962
844.132629	2470.165385
844.447756	2518.056346
844.762840	2583.591346
845.077881	2495.371154
845.392879	2558.385577
845.707833	2485.288846
846.022745	2452.521346
846.337613	2560.906154
846.652438	2482.768269
846.967221	2472.685962
847.281960	2467.644808
847.596656	2565.947308
847.911309	2545.782692
848.225919	2490.330000
848.540485	2485.288846
848.855009	2528.138654
849.169490	2457.562500
849.483928	2502.932885
849.798323	2500.412308
850.112675	2407.150962
850.426984	2447.480192
850.741251	2507.974038
851.055474	2450.000769
851.369654	2550.823846
851.683792	2533.179808
851.997887	2523.097500
852.311938	2558.385577
852.625947	2480.247692
852.939914	2460.083077
853.253837	2490.330000
853.567718	2450.000769
853.881555	2447.480192
854.195350	2570.988462
854.509103	2530.659231
854.822812	2490.330000
855.136479	2480.247692
855.450103	2518.056346
855.763685	2444.959615
856.077224	2540.741538
856.390720	2530.659231
856.704173	2510.494615
857.017584	2598.714808
857.330953	2452.521346
857.644278	2480.247692
857.957561	2460.083077
858.270802	2399.589231
858.584000	2361.780577
858.897155	2515.535769
859.210268	2450.000769
859.523339	2485.288846
859.836367	2515.535769
860.149352	2429.836154
860.462295	2447.480192
860.775195	2460.083077
861.088054	2477.727115
861.400869	2467.644808
861.713642	2450.000769
862.026373	2477.727115
862.339062	2530.659231
862.651708	2472.685962
862.964312	2467.644808
863.276873	2570.988462
863.589392	2553.344423
863.901869	2460.083077
864.214303	2424.795000
864.526696	2518.056346
864.839045	2450.000769
865.151353	2616.358846
865.463619	2455.041923
865.775842	2492.850577
866.088023	2528.138654
866.400162	2560.906154
866.712258	2467.644808
867.024313	2487.809423
867.336325	2515.535769
867.648296	2492.850577
867.960224	2510.494615
868.272110	2437.397885
868.583954	2548.303269
868.895755	2528.138654
869.207515	2581.070769
869.519233	2444.959615
869.830909	2457.562500
870.142542	2528.138654
870.454134	2548.303269
870.765684	2530.659231
871.077191	2462.603654
871.388657	2402.109808
871.700081	2538.220962
872.011463	2518.056346
872.322803	2485.288846
872.634101	2525.618077
872.945357	2545.782692
873.256571	2422.274423
873.567744	2513.015192
873.878874	2507.974038
874.189963	2402.109808
874.501010	2492.850577
874.812015	2490.330000
875.122979	2434.877308
875.433900	2523.097500
875.744780	2480.247692
876.055618	2520.576923
876.366415	2525.618077
876.677169	2497.891731
876.987882	2520.576923
877.298554	2475.206538
877.609183	2439.918462
877.919771	2523.097500
878.230317	2502.932885
878.540822	2530.659231
878.851285	2513.015192
879.161707	2470.165385
879.472087	2505.453462
879.782425	2545.782692
880.092722	2490.330000
880.402977	2570.988462
880.713191	2505.453462
881.023363	2477.727115
881.333494	2548.303269
881.643583	2439.918462
881.953631	2480.247692
882.263637	2507.974038
882.573602	2588.632500
882.883526	2502.932885
883.193408	2520.576923
883.503248	2530.659231
883.813048	2457.562500
884.122806	2477.727115
884.432522	2550.823846
884.742197	2424.795000
885.051831	2510.494615
885.361424	2487.809423
885.670975	2528.138654
885.980485	2424.795000
886.289954	2523.097500
886.599382	2490.330000
886.908768	2548.303269
887.218113	2523.097500
887.527417	2447.480192
887.836680	2480.247692
888.145901	2530.659231
888.455082	2563.426731
888.764221	2520.576923
889.073319	2487.809423
889.382376	2419.753846
889.691392	2505.453462
890.000366	2510.494615
890.309300	2500.412308
890.618193	2513.015192
890.927044	2490.330000
891.235855	2507.974038
891.544625	2404.630385
891.853353	2611.317692
892.162041	2510.494615
892.470687	2586.111923
892.779293	2543.262115
893.087858	2452.521346
893.396381	2490.330000
893.704864	2434.877308
894.013306	2538.220962
894.321707	2460.083077
894.630068	2530.659231
894.938387	2495.371154
895.246665	2563.426731
895.554903	2427.315577
895.863100	2510.494615
896.171256	2485.288846
896.479371	2533.179808
896.787446	2601.235385
897.095480	2487.809423
897.403473	2530.659231
897.711425	2457.562500
898.019336	2429.836154
898.327207	2520.576923
898.635038	2467.644808
898.942827	2510.494615
899.250576	2548.303269
899.558284	2434.877308
899.865952	2495.371154
900.173579	2432.356731
900.481165	2530.659231
900.788711	2543.262115
901.096216	2487.809423
901.403681	2492.850577
901.711105	2455.041923
902.018489	2535.700385
902.325832	2581.070769
902.633135	2513.015192
902.940397	2419.753846
903.247619	2583.591346
903.554800	2497.891731
903.861941	2535.700385
904.169041	2465.124231
904.476101	2581.070769
904.783121	2470.165385
905.090100	2507.974038
905.397039	2538.220962
905.703938	2437.397885
906.010796	2510.494615
906.317614	2455.041923
906.624391	2482.768269
906.931129	2492.850577
907.237826	2523.097500
907.544483	2510.494615
907.851099	2502.932885
908.157675	2485.288846
908.464211	2540.741538
908.770707	2555.865000
909.077163	2394.548077
909.383578	2560.906154
909.689954	2543.262115
909.996289	2555.865000
910.302584	2432.356731
910.608839	2513.015192
910.915054	2450.000769
911.221229	2570.988462
911.527363	2482.768269
911.833458	2555.865000
912.139513	2439.918462
912.445527	2490.330000
912.751502	2450.000769
913.057436	2485.288846
913.363331	2442.439038
913.669186	2505.453462
913.975000	2379.424615
914.280775	2475.206538
914.586510	2497.891731
914.892205	2560.906154
915.197859	2477.727115
915.503475	2530.659231
915.809050	2457.562500
916.114585	2538.220962
916.420081	2439.918462
916.725536	2457.562500
917.030952	2475.206538
917.336328	2417.233269
917.641665	2533.179808
917.946961	2414.712692
918.252218	2507.974038
918.557435	2472.685962
918.862612	2528.138654
919.167750	2515.535769
919.472848	2472.685962
919.777906	2482.768269
920.082925	2565.947308
920.387904	2432.356731
920.692843	2573.509038
920.997743	2520.576923
921.302603	2475.206538
921.607423	2518.056346
921.912204	2424.795000
922.216946	2560.906154
922.521647	2550.823846
922.826310	2467.644808
923.130932	2507.974038
923.435516	2477.727115
923.740059	2495.371154
924.044564	2480.247692
924.349028	2482.768269
924.653454	2528.138654
924.957840	2507.974038
925.262186	2528.138654
925.566493	2576.029615
925.870761	2485.288846
926.174989	2376.904038
926.479178	2573.509038
926.783328	2477.727115
927.087438	2538.220962
927.391509	2507.974038
927.695541	2543.262115
927.999533	2460.083077
928.303486	2502.932885
928.607400	2593.673654
928.911275	2502.932885
929.215110	2460.083077
929.518906	2545.782692
929.822663	2419.753846
930.126381	2460.083077
930.430060	2444.959615
930.733699	2490.330000
931.037299	2452.521346
931.340861	2586.111923
931.644383	2510.494615
931.947866	2492.850577
932.251309	2515.535769
932.554714	2485.288846
932.858080	2538.220962
933.161407	2480.247692
933.464694	2525.618077
933.767943	2457.562500
934.071153	2543.262115
934.374323	2402.109808
934.677455	2500.412308
934.980548	2543.262115
935.283602	2437.397885
935.586617	2485.288846
935.889593	2475.206538
936.192530	2540.741538
936.495428	2485.288846
936.798287	2447.480192
937.101108	2467.644808
937.403890	2558.385577
937.706632	2465.124231
938.009336	2497.891731
938.312002	2447.480192
938.614628	2427.315577
938.917216	2467.644808
939.219765	2482.768269
939.522275	2553.344423
939.824747	2502.932885
940.127179	2507.974038
940.429573	2477.727115
940.731929	2455.041923
941.034246	2540.741538
941.336524	2520.576923
941.638763	2477.727115
941.940964	2502.932885
942.243126	2472.685962
942.545250	2490.330000
942.847335	2480.247692
943.149381	2477.727115
943.451389	2465.124231
943.753359	2500.412308
944.055290	2485.288846
944.357182	2535.700385
944.659036	2578.550192
944.960851	2518.056346
945.262628	2414.712692
945.564367	2548.303269
945.866067	2432.356731
946.167729	2502.932885
946.469352	2422.274423
946.770937	2462.603654
947.072484	2432.356731
947.373992	2500.412308
947.675462	2490.330000
947.976893	2450.000769
948.278286	2545.782692
948.579641	2545.782692
948.880958	2545.782692
949.182236	2409.671538
949.483476	2525.618077
949.784678	2482.768269
950.085841	2482.768269
950.386967	2427.315577
950.688054	2495.371154
950.989103	2487.809423
951.290114	2510.494615
951.591087	2505.453462
951.892021	2417.233269
952.192917	2518.056346
952.493776	2452.521346
952.794596	2470.165385
953.095378	2452.521346
953.396122	2548.303269
953.696828	2608.797115
953.997496	2485.288846
954.298126	2414.712692
954.598718	2465.124231
954.899272	2432.356731
955.199788	2553.344423
955.500266	2543.262115
955.800706	2472.685962
956.101108	2548.303269
956.401472	2470.165385
956.701798	2455.041923
957.002087	2535.700385
957.302337	2520.576923
957.602550	2472.685962
957.902724	2500.412308
958.202861	2538.220962
958.502960	2457.562500
958.803022	2550.823846
959.103045	2419.753846
959.403031	2540.741538
959.702979	2502.932885
960.002889	2482.768269
960.302762	2470.165385
960.602596	2530.659231
960.902393	2455.041923
961.202153	2525.618077
961.501875	2540.741538
961.801559	2470.165385
962.101205	2500.412308
962.400814	2487.809423
962.700385	2543.262115
962.999918	2495.371154
963.299414	2490.330000
963.598873	2545.782692
963.898293	2487.809423
964.197677	2510.494615
964.497022	2432.356731
964.796331	2470.165385
965.095601	2392.027500
965.394835	2548.303269
965.694030	2460.083077
965.993189	2490.330000
966.292309	2455.041923
966.591393	2525.618077
966.890439	2417.233269
967.189447	2384.465769
967.488419	2480.247692
967.787353	2513.015192
968.086249	2497.891731
968.385108	2462.603654
968.683930	2492.850577
968.982714	2490.330000
969.281462	2515.535769
969.580172	2513.015192
969.878844	2419.753846
970.177480	2510.494615
970.476078	2424.795000
970.774639	2538.220962
971.073162	2510.494615
971.371649	2419.753846
971.670098	2424.795000
971.968510	2502.932885
972.266885	2528.138654
972.565223	2434.877308
972.863524	2515.535769
973.161788	2513.015192
973.460014	2419.753846
973.758204	2497.891731
974.056356	2533.179808
974.354471	2492.850577
974.652550	2475.206538
974.950591	2505.453462
975.248595	2457.562500
975.546563	2429.836154
975.844493	2560.906154
976.142386	2538.220962
976.440243	2447.480192
976.738062	2513.015192
977.035845	2520.576923
977.333590	2460.083077
977.631299	2518.056346
977.928971	2502.932885
978.226606	2455.041923
978.524204	2465.124231
978.821765	2530.659231
979.119290	2528.138654
979.416777	2500.412308
979.714228	2482.768269
980.011642	2482.768269
980.309020	2525.618077
980.606360	2477.727115
980.903664	2505.453462
981.200931	2455.041923
981.498162	2429.836154
981.795356	2492.850577
982.092513	2472.685962
982.389633	2492.850577
982.686717	2507.974038
982.983764	2439.918462
983.280775	2505.453462
983.577749	2339.095385
983.874686	2540.741538
984.171587	2482.768269
984.468451	2485.288846
984.765279	2472.685962
985.062070	2475.206538
985.358824	2545.782692
985.655543	2485.288846
985.952224	2502.932885
986.248869	2485.288846
986.545478	2563.426731
986.842050	2513.015192
987.138586	2502.932885
987.435086	2439.918462
987.731549	2477.727115
988.027975	2439.918462
988.324366	2510.494615
988.620719	2510.494615
988.917037	2465.124231
989.213318	2543.262115
989.509563	2555.865000
989.805772	2550.823846
990.101944	2490.330000
990.398080	2457.562500
990.694180	2510.494615
990.990244	2482.768269
991.286271	2495.371154
991.582262	2450.000769
991.878217	2588.632500
992.174136	2419.753846
992.470019	2470.165385
992.765865	2467.644808
993.061676	2450.000769
993.357450	2477.727115
993.653188	2439.918462
993.948890	2485.288846
994.244556	2371.862885
994.540186	2485.288846
994.835780	2457.562500
995.131337	2480.247692
995.426859	2442.439038
995.722345	2495.371154
996.017795	2492.850577
996.313208	2593.673654
996.608586	2555.865000
996.903928	2555.865000
997.199234	2518.056346
997.494504	2455.041923
997.789738	2515.535769
998.084936	2417.233269
998.380099	2533.179808
998.675225	2412.192115
998.970316	2487.809423
999.265371	2457.562500
999.560390	2447.480192
999.855373	2429.836154
1000.150320	2490.330000
1000.445232	2442.439038
1000.740108	2492.850577
1001.034948	2442.439038
1001.329752	2515.535769
1001.624521	2525.618077
1001.919254	2500.412308
1002.213951	2525.618077
1002.508613	2525.618077
1002.803239	2427.315577
1003.097829	2518.056346
1003.392384	2510.494615
1003.686903	2482.768269
1003.981386	2538.220962
1004.275834	2447.480192
1004.570246	2548.303269
1004.864623	2450.000769
1005.158964	2490.330000
1005.453270	2568.467885
1005.747540	2523.097500
1006.041775	2492.850577
1006.335974	2470.165385
1006.630138	2560.906154
1006.924266	2513.015192
1007.218359	2455.041923
1007.512416	2505.453462
1007.806438	2490.330000
1008.100425	2490.330000
1008.394376	2465.124231
1008.688292	2467.644808
1008.982172	2447.480192
1009.276017	2470.165385
1009.569827	2545.782692
1009.863602	2563.426731
1010.157341	2442.439038
1010.451045	2497.891731
1010.744714	2530.659231
1011.038347	2502.932885
1011.331945	2550.823846
1011.625508	2520.576923
1011.919036	2417.233269
1012.212528	2535.700385
1012.505986	2485.288846
1012.799408	2470.165385
1013.092795	2414.712692
1013.386147	2518.056346
1013.679464	2533.179808
1013.972745	2533.179808
1014.265992	2495.371154
1014.559204	2462.603654
1014.852380	2538.220962
1015.145521	2450.000769
1015.438628	2500.412308
1015.731699	2553.344423
1016.024736	2485.288846
1016.317737	2482.768269
1016.610703	2475.206538
1016.903635	2444.959615
1017.196531	2475.206538
1017.489393	2447.480192
1017.782219	2520.576923
1018.075011	2578.550192
1018.367768	2563.426731
1018.660490	2422.274423
1018.953177	2422.274423
1019.245829	2422.274423
