Dividing Wavelength (nm)	Counts (n)	Blue Motor Position (mm): 0.000000	Red Motor Position (mm): 10.000000	
326.493990	2205.504808
326.888308	2205.504808
327.282561	2205.504808
327.676750	2134.928654
328.070874	2122.325769
328.464933	2200.463654
328.858929	2170.216731
329.252859	2233.231154
329.646726	2180.299038
330.040528	2175.257885
330.434265	2192.901923
330.827938	2187.860769
331.221547	2281.122115
331.615091	2273.560385
332.008571	2225.669423
332.401986	2316.410192
332.795338	2404.630385
333.188625	2313.889615
333.581847	2381.945192
333.975006	2351.698269
334.368100	2336.574808
334.761129	2417.233269
335.154095	2447.480192
335.546996	2374.383462
335.939833	2455.041923
336.332606	2487.809423
336.725315	2528.138654
337.117960	2518.056346
337.510540	2452.521346
337.903056	2538.220962
338.295508	2558.385577
338.687896	2492.850577
339.080220	2588.632500
339.472480	2586.111923
339.864676	2472.685962
340.256807	2628.961731
340.648875	2611.317692
341.040879	2533.179808
341.432818	2598.714808
341.824694	2505.453462
342.216506	2593.673654
342.608253	2550.823846
342.999937	2626.441154
343.391557	2593.673654
343.783113	2613.838269
344.174605	2626.441154
344.566033	2555.865000
344.957397	2558.385577
345.348697	2576.029615
345.739934	2586.111923
346.131106	2513.015192
346.522215	2608.797115
346.913260	2588.632500
347.304241	2487.809423
347.695159	2497.891731
348.086012	2545.782692
348.476802	2568.467885
348.867528	2578.550192
349.258191	2543.262115
349.648789	2558.385577
350.039324	2578.550192
350.429796	2563.426731
350.820203	2628.961731
351.210548	2601.235385
351.600828	2528.138654
351.991045	2477.727115
352.381198	2545.782692
352.771288	2548.303269
353.161314	2490.330000
353.551276	2603.755962
353.941175	2578.550192
354.331010	2538.220962
354.720782	2583.591346
355.110490	2495.371154
355.500135	2515.535769
355.889717	2573.509038
356.279235	2467.644808
356.668689	2596.194231
357.058080	2518.056346
357.447408	2568.467885
357.836672	2591.153077
358.225873	2548.303269
358.615010	2558.385577
359.004084	2528.138654
359.393095	2608.797115
359.782043	2540.741538
360.170927	2492.850577
360.559748	2568.467885
360.948505	2492.850577
361.337199	2548.303269
361.725830	2470.165385
362.114398	2500.412308
362.502903	2558.385577
362.891344	2611.317692
363.279722	2538.220962
363.668037	2616.358846
364.056289	2535.700385
364.444478	2578.550192
364.832603	2555.865000
365.220665	2528.138654
365.608665	2603.755962
365.996601	2497.891731
366.384474	2553.344423
366.772284	2507.974038
367.160031	2568.467885
367.547715	2611.317692
367.935336	2568.467885
368.322893	2621.400000
368.710388	2563.426731
369.097820	2528.138654
369.485189	2555.865000
369.872495	2543.262115
370.259738	2520.576923
370.646918	2495.371154
371.034035	2497.891731
371.421090	2578.550192
371.808081	2510.494615
372.195010	2545.782692
372.581875	2563.426731
372.968678	2568.467885
373.355418	2548.303269
373.742096	2576.029615
374.128710	2593.673654
374.515262	2576.029615
374.901751	2563.426731
375.288177	2523.097500
375.674540	2507.974038
376.060841	2555.865000
376.447079	2598.714808
376.833254	2570.988462
377.219367	2565.947308
377.605417	2558.385577
377.991404	2623.920577
378.377329	2578.550192
378.763191	2601.235385
379.148991	2538.220962
379.534727	2603.755962
379.920402	2581.070769
380.306013	2573.509038
380.691563	2535.700385
381.077049	2613.838269
381.462474	2601.235385
381.847835	2596.194231
382.233134	2581.070769
382.618371	2603.755962
383.003545	2545.782692
383.388657	2601.235385
383.773706	2538.220962
384.158693	2515.535769
384.543618	2560.906154
384.928480	2482.768269
385.313280	2540.741538
385.698017	2538.220962
386.082692	2628.961731
386.467305	2616.358846
386.851856	2616.358846
387.236344	2581.070769
387.620770	2634.002885
388.005133	2654.167500
388.389435	2548.303269
388.773674	2674.332115
389.157851	2581.070769
389.541965	2606.276538
389.926018	2586.111923
390.310008	2507.974038
390.693936	2616.358846
391.077802	2606.276538
391.461606	2538.220962
391.845348	2507.974038
392.229027	2492.850577
392.612645	2578.550192
392.996200	2548.303269
393.379694	2644.085192
393.763125	2654.167500
394.146494	2560.906154
394.529801	2634.002885
394.913047	2553.344423
395.296230	2686.935000
395.679351	2611.317692
396.062410	2530.659231
396.445408	2581.070769
396.828343	2631.482308
397.211217	2558.385577
397.594028	2576.029615
397.976778	2586.111923
398.359466	2570.988462
398.742092	2601.235385
399.124656	2618.879423
399.507158	2578.550192
399.889598	2568.467885
400.271977	2515.535769
400.654294	2530.659231
401.036549	2568.467885
401.418742	2659.208654
401.800874	2568.467885
402.182944	2492.850577
402.564952	2611.317692
402.946898	2649.126346
403.328783	2598.714808
403.710606	2573.509038
404.092367	2576.029615
404.474067	2646.605769
404.855705	2523.097500
405.237282	2558.385577
405.618797	2631.482308
406.000250	2583.591346
406.381642	2613.838269
406.762972	2550.823846
407.144240	2684.414423
407.525447	2636.523462
407.906593	2570.988462
408.287677	2601.235385
408.668700	2596.194231
409.049661	2520.576923
409.430560	2538.220962
409.811399	2616.358846
410.192176	2540.741538
410.572891	2674.332115
410.953545	2550.823846
411.334138	2588.632500
411.714669	2613.838269
412.095139	2616.358846
412.475547	2555.865000
412.855894	2576.029615
413.236180	2558.385577
413.616405	2646.605769
413.996568	2472.685962
414.376670	2598.714808
414.756711	2623.920577
415.136691	2598.714808
415.516609	2689.455577
415.896466	2651.646923
416.276262	2628.961731
416.655997	2576.029615
417.035670	2598.714808
417.415283	2628.961731
417.794834	2581.070769
418.174324	2618.879423
418.553753	2588.632500
418.933121	2603.755962
419.312428	2563.426731
419.691674	2591.153077
420.070859	2538.220962
420.449983	2593.673654
420.829045	2606.276538
421.208047	2611.317692
421.586988	2596.194231
421.965867	2538.220962
422.344686	2480.247692
422.723444	2578.550192
423.102141	2601.235385
423.480777	2583.591346
423.859352	2659.208654
424.237866	2576.029615
424.616319	2568.467885
424.994712	2676.852692
425.373044	2560.906154
425.751314	2598.714808
426.129524	2563.426731
426.507673	2628.961731
426.885762	2548.303269
427.263789	2616.358846
427.641756	2644.085192
428.019662	2661.729231
428.397508	2634.002885
428.775292	2649.126346
429.153016	2593.673654
429.530679	2570.988462
429.908282	2591.153077
430.285824	2596.194231
430.663305	2639.044038
431.040726	2636.523462
431.418086	2570.988462
431.795385	2525.618077
432.172624	2628.961731
432.549802	2634.002885
432.926920	2644.085192
433.303977	2676.852692
433.680974	2543.262115
434.057910	2639.044038
434.434786	2611.317692
434.811601	2581.070769
435.188355	2598.714808
435.565050	2581.070769
435.941683	2664.249808
436.318257	2641.564615
436.694770	2651.646923
437.071222	2664.249808
437.447614	2666.770385
437.823946	2626.441154
438.200218	2591.153077
438.576429	2641.564615
438.952580	2691.976154
439.328670	2704.579038
439.704700	2664.249808
440.080670	2676.852692
440.456580	2686.935000
440.832429	2697.017308
441.208218	2732.305385
441.583947	2767.593462
441.959616	2709.620192
442.335224	2754.990577
442.710773	2765.072885
443.086261	2747.428846
443.461689	2709.620192
443.837057	2780.196346
444.212365	2858.334231
444.587612	2823.046154
444.962800	2850.772500
445.337927	2881.019423
445.712995	2906.225192
446.088002	2916.307500
446.462949	3009.568846
446.837837	3148.200577
447.212664	3027.212885
447.587431	3201.132692
447.962139	3211.215000
448.336786	3480.916731
448.711374	3569.136923
449.085901	3427.984615
449.460369	3410.340577
449.834776	3496.040192
450.209124	3634.671923
450.583412	3856.482692
450.957640	3952.264615
451.331808	3886.729615
451.705917	3874.126731
452.079965	3874.126731
452.453954	4010.237885
452.827883	4123.663846
453.201752	4161.472500
453.575562	4279.939615
453.949311	4421.091923
454.323001	4559.723654
454.696632	4703.396538
455.070202	4826.904808
455.443713	5038.633269
455.817164	5189.867885
456.190556	5434.363846
456.563888	5572.995577
456.937160	5799.847500
457.310373	5598.201346
457.683526	5845.217885
458.056619	5777.162308
458.429653	6082.152115
458.802628	5958.643846
459.175542	6160.290000
459.548398	6803.037115
459.921194	7027.368462
460.293930	7435.701923
460.666607	7627.265769
461.039224	8393.521154
461.411782	8925.362885
461.784280	8897.636538
462.156719	9207.667500
462.529099	9157.255962
462.901419	8920.321731
463.273680	8998.459615
463.645882	9076.597500
464.018024	9089.200385
464.390106	9588.274615
464.762130	10170.527885
465.134094	11022.482885
465.505999	12618.008077
465.877845	14889.047885
466.249631	16509.778846
466.621358	16169.500962
466.993026	15688.070769
467.364634	15393.163269
467.736184	14884.006731
468.107674	14858.800962
468.479105	14924.335962
468.850477	14957.103462
469.221790	15004.994423
469.593043	14750.416154
469.964238	14425.261731
470.335373	14135.395385
470.706449	15030.200192
471.077467	15249.490385
471.448425	17462.556923
471.819324	20706.539423
472.190164	21308.957308
472.560945	18352.320577
472.931667	17142.443654
473.302330	17119.758462
473.672934	17092.032115
474.043479	17177.731731
474.413965	17069.346923
474.784393	16973.565000
475.154761	17986.836923
475.525070	17921.301923
475.895321	17928.863654
476.265513	18682.516154
476.635645	19421.045192
477.005719	19216.878462
477.375734	19582.362115
477.745691	20048.668846
478.115588	20220.068077
478.485427	21651.755769
478.855207	22886.838462
479.224928	25009.164231
479.594591	27219.710192
479.964194	26100.574038
480.333739	26735.759423
480.703226	26622.333462
481.072653	26579.483654
481.442022	27365.903654
481.811333	28147.282500
482.180584	27970.842115
482.549777	27159.216346
482.918912	27101.243077
483.287988	27050.831538
483.657005	26498.825192
484.025964	26647.539231
484.394864	26171.150192
484.763706	25699.802308
485.132489	25966.983462
485.501213	25341.880385
485.869879	25629.226154
486.238487	25672.075962
486.607036	25054.534615
486.975527	25178.042885
487.343959	25213.330962
487.712333	25059.575769
488.080648	24500.007692
488.448905	24948.670385
488.817104	24868.011923
489.185244	25147.795962
489.553326	25238.536731
489.921350	26360.193462
490.289315	28994.196346
490.657222	29442.859038
491.025070	29742.807692
491.392861	28921.099615
491.760593	28142.241346
492.128267	26594.607115
492.495883	25851.036923
492.863440	24918.423462
493.230939	24028.659808
493.598380	23637.970385
493.965763	23317.857115
494.333088	22443.216923
494.700354	22173.515192
495.067563	21813.072692
495.434713	21407.259808
495.801805	21366.930577
496.168839	20865.335769
496.535815	20462.043462
496.902733	20454.481731
497.269593	19947.845769
497.636395	20083.956923
498.003139	19708.390962
498.369825	19370.633654
498.736453	19083.287885
499.103023	19108.493654
499.469535	18697.639615
499.835989	18690.077885
500.202385	18329.635385
500.568723	17707.052885
500.935003	17815.437692
501.301226	17102.114423
501.667390	17626.394423
502.033497	17104.635000
502.399546	16852.577308
502.765537	16010.704615
503.131470	16247.638846
503.497345	15804.017308
503.863163	15574.644808
504.228923	15564.562500
504.594625	15284.778462
504.960269	14662.195962
505.325856	15020.117885
505.691385	14359.726731
506.056856	14405.097115
506.422270	14296.712308
506.787625	13500.210000
507.152924	13583.389038
507.518164	13651.444615
507.883347	13013.738654
508.248472	12497.020385
508.613540	12875.106923
508.978550	12219.756923
509.343503	12043.316538
509.708398	11985.343269
510.073236	11990.384423
510.438016	11524.077692
510.802738	11327.472692
511.167403	11329.993269
511.532010	10936.783269
511.896561	10727.575385
512.261053	10742.698846
512.625488	10437.709038
512.989866	9994.087500
513.354186	9636.165577
513.718449	9472.328077
514.082655	9449.642885
514.446803	9205.146923
514.810894	9260.599615
515.174927	8854.786731
515.538904	8718.675577
515.902822	8690.949231
516.266684	8267.492308
516.630488	8224.642500
516.994235	7894.446923
517.357925	7791.103269
517.721558	7702.883077
518.085133	7486.113462
518.448651	7544.086731
518.812112	7173.561923
519.175516	7241.617500
519.538863	7087.862308
519.902152	6808.078269
520.265385	6800.516538
520.628560	6687.090577
520.991678	6457.718077
521.354739	6316.565769
521.717743	6029.220000
522.080690	6016.617115
522.443580	5898.150000
522.806413	5946.040962
523.169189	5734.312500
523.531908	5565.433846
523.894569	5275.567500
524.257174	5217.594231
524.619722	5129.374038
524.982213	5199.950192
525.344647	4970.577692
525.707025	4940.330769
526.069345	4912.604423
526.431608	4801.699038
526.793815	4680.711346
527.155964	4627.779231
527.518057	4481.585769
527.880093	4436.215385
528.242072	4264.816154
528.603995	4229.528077
528.965860	4123.663846
529.327669	4080.814038
529.689421	4037.964231
530.051117	4007.717308
530.412755	3964.867500
530.774337	3901.853077
531.135862	3798.509423
531.497331	3798.509423
531.858743	3753.139038
532.220098	3554.013462
532.581396	3569.136923
532.942638	3601.904423
533.303824	3390.175962
533.664953	3438.066923
534.026025	3430.505192
534.387040	3332.202692
534.747999	3372.531923
535.108902	3402.778846
535.469748	3337.243846
535.830537	3221.297308
536.191270	3274.229423
536.551947	3193.570962
536.912567	3213.735577
537.273131	3196.091538
537.633638	3183.488654
537.994089	3107.871346
538.354483	3158.282885
538.714821	2996.965962
539.075103	3070.062692
539.435328	3047.377500
539.795497	2979.321923
540.155609	2979.321923
540.515665	2964.198462
540.875665	2981.842500
541.235609	2933.951538
541.595496	2951.595577
541.955328	2931.430962
542.315102	2903.704615
542.674821	2825.566731
543.034483	2873.457692
543.394090	2795.319808
543.753640	2830.607885
544.113134	2787.758077
544.472571	2802.881538
544.831953	2908.745769
545.191278	2802.881538
545.550548	2739.867115
545.909761	2724.743654
546.268918	2818.005000
546.628019	2805.402115
546.987064	2802.881538
547.346053	2780.196346
547.704986	2782.716923
548.063863	2790.278654
548.422684	2828.087308
548.781449	2747.428846
549.140158	2805.402115
549.498811	2772.634615
549.857408	2669.290962
550.215949	2810.443269
550.574434	2694.496731
550.932864	2691.976154
551.291237	2818.005000
551.649555	2775.155192
552.007817	2775.155192
552.366022	2757.511154
552.724173	2666.770385
553.082267	2734.825962
553.440305	2712.140769
553.798288	2772.634615
554.156215	2674.332115
554.514086	2744.908269
554.871902	2686.935000
555.229661	2666.770385
555.587365	2707.099615
555.945014	2591.153077
556.302606	2676.852692
556.660143	2744.908269
557.017625	2654.167500
557.375050	2664.249808
557.732421	2636.523462
558.089735	2664.249808
558.446994	2676.852692
558.804197	2702.058462
559.161345	2697.017308
559.518437	2618.879423
559.875474	2626.441154
560.232455	2719.702500
560.589381	2671.811538
560.946251	2548.303269
561.303065	2674.332115
561.659825	2694.496731
562.016528	2588.632500
562.373177	2686.935000
562.729770	2654.167500
563.086307	2712.140769
563.442789	2752.470000
563.799216	2623.920577
564.155587	2659.208654
564.511904	2742.387692
564.868164	2737.346538
565.224370	2661.729231
565.580520	2641.564615
565.936615	2669.290962
566.292654	2601.235385
566.648638	2644.085192
567.004567	2681.893846
567.360441	2626.441154
567.716260	2634.002885
568.072023	2626.441154
568.427732	2621.400000
568.783385	2616.358846
569.138982	2634.002885
569.494525	2646.605769
569.850013	2689.455577
570.205445	2641.564615
570.560823	2628.961731
570.916145	2661.729231
571.271412	2714.661346
571.626625	2649.126346
571.981782	2661.729231
572.336884	2618.879423
572.691931	2641.564615
573.046923	2641.564615
573.401860	2578.550192
573.756743	2586.111923
574.111570	2618.879423
574.466342	2555.865000
574.821059	2661.729231
575.175722	2613.838269
575.530330	2608.797115
575.884882	2654.167500
576.239380	2664.249808
576.593823	2641.564615
576.948211	2681.893846
577.302544	2664.249808
577.656823	2586.111923
578.011047	2666.770385
578.365216	2606.276538
578.719330	2631.482308
579.073389	2616.358846
579.427394	2608.797115
579.781344	2739.867115
580.135239	2553.344423
580.489080	2631.482308
580.842866	2719.702500
581.196597	2628.961731
581.550273	2573.509038
581.903895	2621.400000
582.257463	2616.358846
582.610975	2694.496731
582.964434	2654.167500
583.317837	2636.523462
583.671186	2656.688077
584.024481	2659.208654
584.377721	2631.482308
584.730906	2626.441154
585.084037	2659.208654
585.437113	2583.591346
585.790135	2654.167500
586.143103	2651.646923
586.496016	2664.249808
586.848874	2598.714808
587.201679	2697.017308
587.554428	2631.482308
587.907124	2611.317692
588.259765	2641.564615
588.612352	2568.467885
588.964884	2603.755962
589.317362	2626.441154
589.669786	2631.482308
590.022155	2636.523462
590.374470	2628.961731
590.726731	2626.441154
591.078937	2628.961731
591.431090	2631.482308
591.783188	2664.249808
592.135232	2644.085192
592.487222	2639.044038
592.839157	2649.126346
593.191038	2686.935000
593.542866	2621.400000
593.894639	2611.317692
594.246358	2689.455577
594.598022	2654.167500
594.949633	2634.002885
595.301190	2586.111923
595.652692	2621.400000
596.004141	2684.414423
596.355535	2611.317692
596.706876	2586.111923
597.058162	2674.332115
597.409395	2611.317692
597.760573	2671.811538
598.111698	2616.358846
598.462768	2583.591346
598.813785	2636.523462
599.164748	2581.070769
599.515657	2641.564615
599.866511	2654.167500
600.217312	2651.646923
600.568060	2664.249808
600.918753	2661.729231
601.269392	2570.988462
601.619978	2651.646923
601.970510	2596.194231
602.320988	2576.029615
602.671412	2576.029615
603.021783	2636.523462
603.372100	2636.523462
603.722363	2628.961731
604.072572	2654.167500
604.422728	2644.085192
604.772830	2669.290962
605.122878	2649.126346
605.472872	2654.167500
605.822813	2540.741538
606.172701	2596.194231
606.522534	2593.673654
606.872314	2603.755962
607.222041	2586.111923
607.571714	2530.659231
607.921333	2628.961731
608.270899	2646.605769
608.620411	2666.770385
608.969870	2618.879423
609.319276	2606.276538
609.668627	2634.002885
610.017926	2694.496731
610.367171	2603.755962
610.716362	2689.455577
611.065500	2628.961731
611.414585	2626.441154
611.763616	2591.153077
612.112594	2611.317692
612.461518	2598.714808
612.810389	2623.920577
613.159207	2628.961731
613.507971	2651.646923
613.856682	2646.605769
614.205340	2618.879423
614.553945	2636.523462
614.902496	2558.385577
615.250994	2576.029615
615.599439	2644.085192
615.947830	2618.879423
616.296169	2573.509038
616.644454	2558.385577
616.992686	2618.879423
617.340864	2550.823846
617.688990	2553.344423
618.037063	2591.153077
618.385082	2634.002885
618.733048	2674.332115
619.080961	2691.976154
619.428821	2651.646923
619.776628	2651.646923
620.124382	2606.276538
620.472083	2626.441154
620.819731	2661.729231
621.167326	2591.153077
621.514868	2651.646923
621.862357	2628.961731
622.209793	2644.085192
622.557176	2626.441154
622.904506	2586.111923
623.251783	2691.976154
623.599007	2538.220962
623.946179	2671.811538
624.293297	2664.249808
624.640363	2669.290962
624.987376	2636.523462
625.334336	2664.249808
625.681243	2560.906154
626.028097	2676.852692
626.374899	2588.632500
626.721647	2628.961731
627.068343	2525.618077
627.414987	2636.523462
627.761577	2613.838269
628.108115	2603.755962
628.454600	2618.879423
628.801032	2714.661346
629.147412	2623.920577
629.493739	2681.893846
629.840014	2676.852692
630.186236	2603.755962
630.532405	2676.852692
630.878521	2646.605769
631.224585	2616.358846
631.570597	2694.496731
631.916556	2636.523462
632.262462	2649.126346
632.608316	2664.249808
632.954117	2518.056346
633.299866	2641.564615
633.645562	2588.632500
633.991206	2684.414423
634.336797	2641.564615
634.682336	2739.867115
635.027823	2596.194231
635.373257	2593.673654
635.718639	2651.646923
636.063968	2666.770385
636.409245	2628.961731
636.754470	2618.879423
637.099642	2651.646923
637.444762	2671.811538
637.789829	2608.797115
638.134845	2724.743654
638.479808	2588.632500
638.824719	2581.070769
639.169577	2530.659231
639.514383	2608.797115
639.859137	2616.358846
640.203839	2639.044038
640.548489	2656.688077
640.893086	2581.070769
641.237632	2603.755962
641.582125	2613.838269
641.926566	2588.632500
642.270955	2618.879423
642.615292	2560.906154
642.959576	2555.865000
643.303809	2691.976154
643.647990	2659.208654
643.992118	2684.414423
644.336195	2621.400000
644.680219	2674.332115
645.024192	2661.729231
645.368112	2628.961731
645.711981	2717.181923
646.055797	2671.811538
646.399562	2722.223077
646.743274	2636.523462
647.086935	2659.208654
647.430544	2603.755962
647.774101	2671.811538
648.117606	2707.099615
648.461059	2654.167500
648.804460	2654.167500
649.147810	2641.564615
649.491108	2581.070769
649.834354	2613.838269
650.177548	2676.852692
650.520690	2555.865000
650.863781	2601.235385
651.206820	2540.741538
651.549807	2631.482308
651.892742	2669.290962
652.235626	2603.755962
652.578458	2545.782692
652.921238	2661.729231
653.263967	2611.317692
653.606644	2558.385577
653.949269	2681.893846
654.291843	2669.290962
654.634365	2621.400000
654.976836	2565.947308
655.319255	2593.673654
655.661622	2576.029615
656.003938	2639.044038
656.346203	2616.358846
656.688416	2664.249808
657.030577	2596.194231
657.372687	2588.632500
657.714746	2684.414423
658.056753	2583.591346
658.398708	2606.276538
658.740612	2573.509038
659.082465	2654.167500
659.424266	2631.482308
659.766016	2555.865000
660.107715	2654.167500
660.449362	2681.893846
660.790958	2596.194231
661.132503	2636.523462
661.473996	2608.797115
661.815438	2651.646923
662.156829	2631.482308
662.498168	2634.002885
662.839456	2744.908269
663.180693	2694.496731
663.521879	2656.688077
663.863013	2631.482308
664.204097	2560.906154
664.545129	2707.099615
664.886110	2646.605769
665.227040	2598.714808
665.567918	2661.729231
665.908746	2576.029615
666.249522	2608.797115
666.590248	2679.373269
666.930922	2694.496731
667.271545	2601.235385
667.612118	2588.632500
667.952639	2669.290962
668.293109	2639.044038
668.633528	2540.741538
668.973896	2671.811538
669.314213	2573.509038
669.654480	2613.838269
669.994695	2714.661346
670.334859	2626.441154
670.674973	2596.194231
671.015035	2722.223077
671.355047	2576.029615
671.695008	2656.688077
672.034918	2558.385577
672.374777	2603.755962
672.714585	2691.976154
673.054342	2654.167500
673.394049	2689.455577
673.733705	2679.373269
674.073310	2661.729231
674.412864	2550.823846
674.752368	2671.811538
675.091820	2628.961731
675.431223	2613.838269
675.770574	2581.070769
676.109875	2581.070769
676.449125	2601.235385
676.788324	2603.755962
677.127473	2616.358846
677.466571	2666.770385
677.805619	2621.400000
678.144616	2591.153077
678.483562	2636.523462
678.822458	2639.044038
679.161303	2628.961731
679.500098	2722.223077
679.838842	2550.823846
680.177535	2644.085192
680.516179	2573.509038
680.854771	2583.591346
681.193314	2621.400000
681.531805	2636.523462
681.870247	2611.317692
682.208638	2621.400000
682.546978	2631.482308
682.885268	2576.029615
683.223508	2649.126346
683.561697	2611.317692
683.899836	2686.935000
684.237925	2626.441154
684.575963	2543.262115
684.913951	2634.002885
685.251889	2686.935000
685.589776	2654.167500
685.927614	2649.126346
686.265401	2681.893846
686.603137	2651.646923
686.940824	2563.426731
687.278460	2671.811538
687.616046	2593.673654
687.953582	2596.194231
688.291068	2576.029615
688.628504	2666.770385
688.965889	2581.070769
689.303224	2606.276538
689.640510	2679.373269
689.977745	2654.167500
690.314930	2573.509038
690.652065	2661.729231
690.989150	2588.632500
691.326185	2588.632500
691.663170	2656.688077
692.000105	2616.358846
692.336990	2651.646923
692.673825	2659.208654
693.010610	2639.044038
693.347345	2613.838269
693.684030	2613.838269
694.020665	2606.276538
694.357251	2634.002885
694.693786	2659.208654
695.030272	2626.441154
695.366707	2671.811538
695.703093	2714.661346
696.039429	2641.564615
696.375716	2583.591346
696.711952	2588.632500
697.048139	2626.441154
697.384276	2676.852692
697.720363	2631.482308
698.056400	2601.235385
698.392388	2573.509038
698.728326	2613.838269
699.064214	2664.249808
699.400053	2636.523462
699.735842	2671.811538
700.071581	2535.700385
700.407270	2596.194231
700.742910	2676.852692
701.078501	2644.085192
701.414042	2666.770385
701.749533	2598.714808
702.084974	2603.755962
702.420366	2548.303269
702.755709	2656.688077
703.091002	2644.085192
703.426246	2644.085192
703.761440	2676.852692
704.096584	2613.838269
704.431679	2644.085192
704.766725	2601.235385
705.101721	2621.400000
705.436668	2603.755962
705.771565	2560.906154
706.106413	2596.194231
706.441212	2576.029615
706.775961	2581.070769
707.110661	2555.865000
707.445311	2591.153077
707.779913	2639.044038
708.114465	2613.838269
708.448967	2621.400000
708.783421	2538.220962
709.117825	2586.111923
709.452180	2588.632500
709.786485	2596.194231
710.120742	2606.276538
710.454949	2608.797115
710.789107	2603.755962
711.123216	2598.714808
711.457275	2659.208654
711.791286	2669.290962
712.125247	2714.661346
712.459159	2727.264231
712.793023	2679.373269
713.126837	2568.467885
713.460602	2603.755962
713.794318	2661.729231
714.127985	2639.044038
714.461602	2709.620192
714.795171	2684.414423
715.128691	2601.235385
715.462162	2591.153077
715.795584	2588.632500
716.128957	2628.961731
716.462281	2591.153077
716.795556	2661.729231
717.128782	2626.441154
717.461960	2659.208654
717.795088	2669.290962
718.128167	2611.317692
718.461198	2636.523462
718.794180	2679.373269
719.127113	2654.167500
719.459997	2603.755962
719.792833	2606.276538
720.125619	2558.385577
720.458357	2664.249808
720.791046	2661.729231
721.123686	2570.988462
721.456278	2628.961731
721.788821	2543.262115
722.121315	2646.605769
722.453761	2661.729231
722.786158	2611.317692
723.118506	2593.673654
723.450805	2621.400000
723.783056	2649.126346
724.115259	2722.223077
724.447412	2535.700385
724.779518	2641.564615
725.111574	2621.400000
725.443582	2583.591346
725.775542	2656.688077
726.107453	2608.797115
726.439315	2686.935000
726.771129	2601.235385
727.102895	2515.535769
727.434612	2654.167500
727.766281	2639.044038
728.097901	2603.755962
728.429473	2621.400000
728.760996	2634.002885
729.092471	2596.194231
729.423897	2644.085192
729.755276	2601.235385
730.086606	2656.688077
730.417887	2601.235385
730.749120	2608.797115
731.080305	2621.400000
731.411442	2656.688077
731.742530	2603.755962
732.073570	2621.400000
732.404562	2669.290962
732.735506	2591.153077
733.066401	2674.332115
733.397249	2631.482308
733.728048	2641.564615
734.058798	2613.838269
734.389501	2576.029615
734.720156	2671.811538
735.050762	2601.235385
735.381320	2611.317692
735.711831	2646.605769
736.042293	2654.167500
736.372707	2500.412308
736.703073	2596.194231
737.033391	2626.441154
737.363661	2568.467885
737.693883	2676.852692
738.024056	2611.317692
738.354182	2613.838269
738.684260	2654.167500
739.014290	2634.002885
739.344272	2608.797115
739.674207	2606.276538
740.004093	2676.852692
740.333931	2586.111923
740.663722	2550.823846
740.993464	2639.044038
741.323159	2628.961731
741.652806	2593.673654
741.982405	2558.385577
742.311956	2626.441154
742.641460	2583.591346
742.970915	2654.167500
743.300323	2666.770385
743.629683	2659.208654
743.958996	2618.879423
744.288260	2540.741538
744.617477	2601.235385
744.946647	2608.797115
745.275768	2623.920577
745.604842	2583.591346
745.933869	2540.741538
746.262847	2596.194231
746.591778	2603.755962
746.920662	2601.235385
747.249498	2661.729231
747.578286	2555.865000
747.907027	2613.838269
748.235720	2636.523462
748.564365	2616.358846
748.892963	2646.605769
749.221514	2608.797115
749.550017	2666.770385
749.878473	2618.879423
750.206881	2583.591346
750.535242	2608.797115
750.863555	2553.344423
751.191821	2573.509038
751.520039	2644.085192
751.848210	2550.823846
752.176334	2608.797115
752.504411	2606.276538
752.832440	2576.029615
753.160421	2611.317692
753.488356	2661.729231
753.816243	2608.797115
754.144082	2558.385577
754.471875	2644.085192
754.799620	2591.153077
755.127318	2545.782692
755.454969	2603.755962
755.782572	2538.220962
756.110129	2570.988462
756.437638	2646.605769
756.765100	2518.056346
757.092515	2596.194231
757.419882	2513.015192
757.747203	2596.194231
758.074477	2593.673654
758.401703	2598.714808
758.728882	2694.496731
759.056014	2606.276538
759.383099	2613.838269
759.710138	2621.400000
760.037129	2714.661346
760.364073	2591.153077
760.690970	2623.920577
761.017820	2596.194231
761.344623	2641.564615
761.671379	2545.782692
761.998088	2570.988462
762.324751	2565.947308
762.651366	2679.373269
762.977935	2681.893846
763.304456	2634.002885
763.630931	2621.400000
763.957359	2679.373269
764.283740	2603.755962
764.610074	2500.412308
764.936362	2646.605769
765.262602	2621.400000
765.588796	2644.085192
765.914943	2611.317692
766.241044	2510.494615
766.567097	2684.414423
766.893104	2636.523462
767.219064	2591.153077
767.544978	2586.111923
767.870845	2576.029615
768.196665	2490.330000
768.522438	2518.056346
768.848165	2510.494615
769.173846	2623.920577
769.499479	2613.838269
769.825066	2636.523462
770.150607	2679.373269
770.476101	2641.564615
770.801548	2631.482308
771.126949	2570.988462
771.452303	2588.632500
771.777611	2669.290962
772.102872	2505.453462
772.428087	2636.523462
772.753256	2596.194231
773.078378	2664.249808
773.403453	2578.550192
773.728482	2598.714808
774.053465	2563.426731
774.378401	2548.303269
774.703291	2480.247692
775.028135	2608.797115
775.352932	2608.797115
775.677683	2576.029615
776.002388	2533.179808
776.327046	2525.618077
776.651658	2623.920577
776.976224	2553.344423
777.300743	2664.249808
777.625216	2676.852692
777.949643	2613.838269
778.274024	2671.811538
778.598359	2520.576923
778.922647	2570.988462
779.246889	2623.920577
779.571086	2596.194231
779.895236	2636.523462
780.219339	2611.317692
780.543397	2586.111923
780.867409	2666.770385
781.191374	2578.550192
781.515294	2558.385577
781.839167	2570.988462
782.162995	2623.920577
782.486776	2608.797115
782.810511	2523.097500
783.134201	2623.920577
783.457844	2606.276538
783.781441	2591.153077
784.104993	2679.373269
784.428498	2591.153077
784.751958	2611.317692
785.075372	2598.714808
785.398739	2525.618077
785.722061	2623.920577
786.045337	2586.111923
786.368568	2646.605769
786.691752	2623.920577
787.014891	2654.167500
787.337983	2626.441154
787.661030	2679.373269
787.984031	2679.373269
788.306987	2631.482308
788.629897	2576.029615
788.952760	2634.002885
789.275579	2634.002885
789.598351	2538.220962
789.921078	2646.605769
790.243759	2598.714808
790.566395	2666.770385
790.888984	2686.935000
791.211529	2502.932885
791.534027	2634.002885
791.856480	2649.126346
792.178888	2628.961731
792.501249	2573.509038
792.823566	2616.358846
793.145836	2515.535769
793.468062	2578.550192
793.790241	2608.797115
794.112375	2631.482308
794.434464	2578.550192
794.756507	2563.426731
795.078505	2593.673654
795.400457	2634.002885
795.722364	2576.029615
796.044226	2583.591346
796.366042	2555.865000
796.687812	2596.194231
797.009538	2530.659231
797.331218	2543.262115
797.652852	2586.111923
797.974442	2618.879423
798.295986	2533.179808
798.617484	2621.400000
798.938938	2606.276538
799.260346	2704.579038
799.581709	2639.044038
799.903026	2717.181923
800.224299	2626.441154
800.545526	2674.332115
800.866708	2616.358846
801.187845	2543.262115
801.508936	2578.550192
801.829983	2684.414423
802.150984	2596.194231
802.471940	2694.496731
802.792851	2621.400000
803.113717	2618.879423
803.434538	2520.576923
803.755314	2578.550192
804.076045	2646.605769
804.396731	2530.659231
804.717372	2588.632500
805.037967	2601.235385
805.358518	2649.126346
805.679024	2613.838269
805.999485	2555.865000
806.319901	2568.467885
806.640272	2601.235385
806.960598	2588.632500
807.280879	2520.576923
807.601115	2634.002885
807.921306	2568.467885
808.241453	2560.906154
808.561554	2563.426731
808.881611	2560.906154
809.201623	2601.235385
809.521590	2573.509038
809.841513	2636.523462
810.161390	2545.782692
810.481223	2596.194231
810.801011	2591.153077
811.120755	2606.276538
811.440453	2618.879423
811.760107	2578.550192
812.079716	2623.920577
812.399281	2631.482308
812.718801	2674.332115
813.038276	2513.015192
813.357707	2598.714808
813.677093	2636.523462
813.996434	2606.276538
814.315731	2611.317692
814.634983	2596.194231
814.954191	2518.056346
815.273354	2618.879423
815.592473	2618.879423
815.911547	2591.153077
816.230577	2548.303269
816.549562	2669.290962
816.868502	2664.249808
817.187399	2563.426731
817.506250	2581.070769
817.825058	2613.838269
818.143821	2689.455577
818.462539	2606.276538
818.781213	2631.482308
819.099843	2540.741538
819.418429	2591.153077
819.736970	2634.002885
820.055466	2618.879423
820.373919	2621.400000
820.692327	2621.400000
821.010691	2631.482308
821.329011	2641.564615
821.647286	2639.044038
821.965517	2586.111923
822.283704	2762.552308
822.601847	2818.005000
822.919945	2702.058462
823.237999	2649.126346
823.556010	2679.373269
823.873976	2636.523462
824.191897	2573.509038
824.509775	2611.317692
824.827609	2649.126346
825.145398	2644.085192
825.463144	2603.755962
825.780845	2646.605769
826.098502	2661.729231
826.416116	2694.496731
826.733685	2646.605769
827.051210	2591.153077
827.368692	2618.879423
827.686129	2656.688077
828.003522	2702.058462
828.320872	2628.961731
828.638177	2601.235385
828.955439	2654.167500
829.272656	2618.879423
829.589830	2626.441154
829.906960	2613.838269
830.224046	2530.659231
830.541088	2686.935000
830.858086	2664.249808
831.175041	2563.426731
831.491952	2570.988462
831.808819	2626.441154
832.125642	2618.879423
832.442421	2555.865000
832.759157	2616.358846
833.075849	2545.782692
833.392497	2588.632500
833.709101	2639.044038
834.025662	2628.961731
834.342179	2563.426731
834.658653	2649.126346
834.975083	2608.797115
835.291469	2649.126346
835.607811	2623.920577
835.924110	2616.358846
836.240366	2528.138654
836.556578	2623.920577
836.872746	2528.138654
837.188871	2581.070769
837.504952	2669.290962
837.820990	2578.550192
838.136984	2545.782692
838.452935	2654.167500
838.768842	2570.988462
839.084706	2694.496731
839.400526	2684.414423
839.716303	2568.467885
840.032037	2515.535769
840.347727	2666.770385
840.663373	2576.029615
840.978977	2616.358846
841.294537	2573.509038
841.610054	2558.385577
841.925527	2628.961731
842.240957	2613.838269
842.556344	2543.262115
842.871687	2606.276538
843.186987	2628.961731
843.502244	2558.385577
843.817458	2576.029615
844.132629	2581.070769
844.447756	2654.167500
844.762840	2548.303269
845.077881	2623.920577
845.392879	2553.344423
845.707833	2631.482308
846.022745	2480.247692
846.337613	2558.385577
846.652438	2591.153077
846.967221	2651.646923
847.281960	2500.412308
847.596656	2576.029615
847.911309	2558.385577
848.225919	2460.083077
848.540485	2596.194231
848.855009	2555.865000
849.169490	2649.126346
849.483928	2553.344423
849.798323	2576.029615
850.112675	2492.850577
850.426984	2593.673654
850.741251	2649.126346
851.055474	2621.400000
851.369654	2623.920577
851.683792	2646.605769
851.997887	2626.441154
852.311938	2598.714808
852.625947	2550.823846
852.939914	2666.770385
853.253837	2623.920577
853.567718	2578.550192
853.881555	2538.220962
854.195350	2631.482308
854.509103	2553.344423
854.822812	2661.729231
855.136479	2568.467885
855.450103	2558.385577
855.763685	2596.194231
856.077224	2550.823846
856.390720	2500.412308
856.704173	2649.126346
857.017584	2482.768269
857.330953	2568.467885
857.644278	2545.782692
857.957561	2576.029615
858.270802	2608.797115
858.584000	2616.358846
858.897155	2553.344423
859.210268	2563.426731
859.523339	2593.673654
859.836367	2649.126346
860.149352	2583.591346
860.462295	2560.906154
860.775195	2565.947308
861.088054	2727.264231
861.400869	2603.755962
861.713642	2530.659231
862.026373	2520.576923
862.339062	2623.920577
862.651708	2623.920577
862.964312	2560.906154
863.276873	2611.317692
863.589392	2586.111923
863.901869	2626.441154
864.214303	2651.646923
864.526696	2636.523462
864.839045	2510.494615
865.151353	2588.632500
865.463619	2507.974038
865.775842	2661.729231
866.088023	2674.332115
866.400162	2641.564615
866.712258	2684.414423
867.024313	2659.208654
867.336325	2606.276538
867.648296	2656.688077
867.960224	2591.153077
868.272110	2666.770385
868.583954	2684.414423
868.895755	2563.426731
869.207515	2639.044038
869.519233	2586.111923
869.830909	2639.044038
870.142542	2555.865000
870.454134	2591.153077
870.765684	2664.249808
871.077191	2548.303269
871.388657	2628.961731
871.700081	2533.179808
872.011463	2661.729231
872.322803	2565.947308
872.634101	2578.550192
872.945357	2563.426731
873.256571	2510.494615
873.567744	2606.276538
873.878874	2563.426731
874.189963	2533.179808
874.501010	2621.400000
874.812015	2581.070769
875.122979	2568.467885
875.433900	2651.646923
875.744780	2576.029615
876.055618	2555.865000
876.366415	2611.317692
876.677169	2583.591346
876.987882	2596.194231
877.298554	2523.097500
877.609183	2583.591346
877.919771	2555.865000
878.230317	2611.317692
878.540822	2618.879423
878.851285	2591.153077
879.161707	2616.358846
879.472087	2634.002885
879.782425	2606.276538
880.092722	2553.344423
880.402977	2586.111923
880.713191	2649.126346
881.023363	2676.852692
881.333494	2654.167500
881.643583	2697.017308
881.953631	2674.332115
882.263637	2598.714808
882.573602	2644.085192
882.883526	2565.947308
883.193408	2669.290962
883.503248	2510.494615
883.813048	2639.044038
884.122806	2596.194231
884.432522	2598.714808
884.742197	2628.961731
885.051831	2565.947308
885.361424	2613.838269
885.670975	2664.249808
885.980485	2583.591346
886.289954	2543.262115
886.599382	2502.932885
886.908768	2540.741538
887.218113	2510.494615
887.527417	2596.194231
887.836680	2651.646923
888.145901	2490.330000
888.455082	2606.276538
888.764221	2661.729231
889.073319	2553.344423
889.382376	2671.811538
889.691392	2591.153077
890.000366	2669.290962
890.309300	2505.453462
890.618193	2596.194231
890.927044	2576.029615
891.235855	2621.400000
891.544625	2538.220962
891.853353	2588.632500
892.162041	2593.673654
892.470687	2644.085192
892.779293	2621.400000
893.087858	2588.632500
893.396381	2548.303269
893.704864	2596.194231
894.013306	2646.605769
894.321707	2611.317692
894.630068	2598.714808
894.938387	2669.290962
895.246665	2628.961731
895.554903	2578.550192
895.863100	2586.111923
896.171256	2634.002885
896.479371	2628.961731
896.787446	2644.085192
897.095480	2634.002885
897.403473	2563.426731
897.711425	2636.523462
898.019336	2563.426731
898.327207	2515.535769
898.635038	2576.029615
898.942827	2576.029615
899.250576	2543.262115
899.558284	2641.564615
899.865952	2573.509038
900.173579	2583.591346
900.481165	2623.920577
900.788711	2606.276538
901.096216	2490.330000
901.403681	2697.017308
901.711105	2606.276538
902.018489	2591.153077
902.325832	2628.961731
902.633135	2676.852692
902.940397	2593.673654
903.247619	2568.467885
903.554800	2611.317692
903.861941	2568.467885
904.169041	2553.344423
904.476101	2591.153077
904.783121	2598.714808
905.090100	2510.494615
905.397039	2578.550192
905.703938	2550.823846
906.010796	2631.482308
906.317614	2634.002885
906.624391	2530.659231
906.931129	2568.467885
907.237826	2656.688077
907.544483	2550.823846
907.851099	2606.276538
908.157675	2570.988462
908.464211	2649.126346
908.770707	2568.467885
909.077163	2565.947308
909.383578	2649.126346
909.689954	2636.523462
909.996289	2618.879423
910.302584	2573.509038
910.608839	2634.002885
910.915054	2543.262115
911.221229	2538.220962
911.527363	2568.467885
911.833458	2576.029615
912.139513	2641.564615
912.445527	2601.235385
912.751502	2568.467885
913.057436	2593.673654
913.363331	2608.797115
913.669186	2641.564615
913.975000	2570.988462
914.280775	2608.797115
914.586510	2515.535769
914.892205	2603.755962
915.197859	2611.317692
915.503475	2697.017308
915.809050	2553.344423
916.114585	2618.879423
916.420081	2576.029615
916.725536	2616.358846
917.030952	2634.002885
917.336328	2601.235385
917.641665	2573.509038
917.946961	2613.838269
918.252218	2623.920577
918.557435	2611.317692
918.862612	2570.988462
919.167750	2611.317692
919.472848	2626.441154
919.777906	2576.029615
920.082925	2681.893846
920.387904	2550.823846
920.692843	2646.605769
920.997743	2457.562500
921.302603	2603.755962
921.607423	2586.111923
921.912204	2591.153077
922.216946	2628.961731
922.521647	2598.714808
922.826310	2712.140769
923.130932	2639.044038
923.435516	2500.412308
923.740059	2593.673654
924.044564	2603.755962
924.349028	2570.988462
924.653454	2669.290962
924.957840	2626.441154
925.262186	2616.358846
925.566493	2545.782692
925.870761	2606.276538
926.174989	2492.850577
926.479178	2523.097500
926.783328	2628.961731
927.087438	2654.167500
927.391509	2568.467885
927.695541	2712.140769
927.999533	2636.523462
928.303486	2649.126346
928.607400	2581.070769
928.911275	2644.085192
929.215110	2626.441154
929.518906	2588.632500
929.822663	2528.138654
930.126381	2530.659231
930.430060	2535.700385
930.733699	2613.838269
931.037299	2639.044038
931.340861	2634.002885
931.644383	2591.153077
931.947866	2583.591346
932.251309	2576.029615
932.554714	2507.974038
932.858080	2520.576923
933.161407	2591.153077
933.464694	2586.111923
933.767943	2639.044038
934.071153	2613.838269
934.374323	2550.823846
934.677455	2601.235385
934.980548	2628.961731
935.283602	2568.467885
935.586617	2570.988462
935.889593	2535.700385
936.192530	2621.400000
936.495428	2603.755962
936.798287	2664.249808
937.101108	2565.947308
937.403890	2543.262115
937.706632	2500.412308
938.009336	2530.659231
938.312002	2565.947308
938.614628	2523.097500
938.917216	2621.400000
939.219765	2591.153077
939.522275	2636.523462
939.824747	2543.262115
940.127179	2626.441154
940.429573	2641.564615
940.731929	2576.029615
941.034246	2654.167500
941.336524	2611.317692
941.638763	2623.920577
941.940964	2611.317692
942.243126	2628.961731
942.545250	2616.358846
942.847335	2631.482308
943.149381	2586.111923
943.451389	2611.317692
943.753359	2644.085192
944.055290	2558.385577
944.357182	2606.276538
944.659036	2583.591346
944.960851	2611.317692
945.262628	2535.700385
945.564367	2608.797115
945.866067	2654.167500
946.167729	2540.741538
946.469352	2596.194231
946.770937	2634.002885
947.072484	2644.085192
947.373992	2550.823846
947.675462	2681.893846
947.976893	2538.220962
948.278286	2581.070769
948.579641	2656.688077
948.880958	2560.906154
949.182236	2550.823846
949.483476	2588.632500
949.784678	2616.358846
950.085841	2553.344423
950.386967	2555.865000
950.688054	2636.523462
950.989103	2623.920577
951.290114	2669.290962
951.591087	2520.576923
951.892021	2507.974038
952.192917	2563.426731
952.493776	2555.865000
952.794596	2573.509038
953.095378	2565.947308
953.396122	2528.138654
953.696828	2535.700385
953.997496	2634.002885
954.298126	2616.358846
954.598718	2634.002885
954.899272	2628.961731
955.199788	2563.426731
955.500266	2560.906154
955.800706	2558.385577
956.101108	2535.700385
956.401472	2623.920577
956.701798	2586.111923
957.002087	2576.029615
957.302337	2518.056346
957.602550	2538.220962
957.902724	2596.194231
958.202861	2654.167500
958.502960	2563.426731
958.803022	2543.262115
959.103045	2583.591346
959.403031	2513.015192
959.702979	2641.564615
960.002889	2636.523462
960.302762	2460.083077
960.602596	2641.564615
960.902393	2596.194231
961.202153	2601.235385
961.501875	2734.825962
961.801559	2540.741538
962.101205	2576.029615
962.400814	2588.632500
962.700385	2520.576923
962.999918	2535.700385
963.299414	2525.618077
963.598873	2558.385577
963.898293	2674.332115
964.197677	2636.523462
964.497022	2548.303269
964.796331	2573.509038
965.095601	2553.344423
965.394835	2621.400000
965.694030	2598.714808
965.993189	2558.385577
966.292309	2586.111923
966.591393	2591.153077
966.890439	2646.605769
967.189447	2598.714808
967.488419	2598.714808
967.787353	2689.455577
968.086249	2666.770385
968.385108	2533.179808
968.683930	2623.920577
968.982714	2654.167500
969.281462	2588.632500
969.580172	2538.220962
969.878844	2535.700385
970.177480	2601.235385
970.476078	2641.564615
970.774639	2578.550192
971.073162	2568.467885
971.371649	2598.714808
971.670098	2671.811538
971.968510	2591.153077
972.266885	2613.838269
972.565223	2603.755962
972.863524	2553.344423
973.161788	2611.317692
973.460014	2576.029615
973.758204	2606.276538
974.056356	2621.400000
974.354471	2555.865000
974.652550	2586.111923
974.950591	2634.002885
975.248595	2563.426731
975.546563	2641.564615
975.844493	2603.755962
976.142386	2623.920577
976.440243	2550.823846
976.738062	2591.153077
977.035845	2550.823846
977.333590	2545.782692
977.631299	2550.823846
977.928971	2500.412308
978.226606	2581.070769
978.524204	2651.646923
978.821765	2583.591346
979.119290	2626.441154
979.416777	2606.276538
979.714228	2626.441154
980.011642	2510.494615
980.309020	2570.988462
980.606360	2588.632500
980.903664	2588.632500
981.200931	2588.632500
981.498162	2495.371154
981.795356	2641.564615
982.092513	2573.509038
982.389633	2618.879423
982.686717	2538.220962
982.983764	2618.879423
983.280775	2515.535769
983.577749	2555.865000
983.874686	2634.002885
984.171587	2608.797115
984.468451	2507.974038
984.765279	2593.673654
985.062070	2598.714808
985.358824	2576.029615
985.655543	2523.097500
985.952224	2654.167500
986.248869	2550.823846
986.545478	2623.920577
986.842050	2543.262115
987.138586	2565.947308
987.435086	2570.988462
987.731549	2611.317692
988.027975	2646.605769
988.324366	2520.576923
988.620719	2573.509038
988.917037	2616.358846
989.213318	2641.564615
989.509563	2573.509038
989.805772	2565.947308
990.101944	2565.947308
990.398080	2603.755962
990.694180	2586.111923
990.990244	2545.782692
991.286271	2558.385577
991.582262	2608.797115
991.878217	2707.099615
992.174136	2608.797115
992.470019	2603.755962
992.765865	2603.755962
993.061676	2608.797115
993.357450	2568.467885
993.653188	2593.673654
993.948890	2505.453462
994.244556	2596.194231
994.540186	2618.879423
994.835780	2588.632500
995.131337	2586.111923
995.426859	2608.797115
995.722345	2588.632500
996.017795	2558.385577
996.313208	2568.467885
996.608586	2533.179808
996.903928	2649.126346
997.199234	2618.879423
997.494504	2538.220962
997.789738	2603.755962
998.084936	2515.535769
998.380099	2659.208654
998.675225	2548.303269
998.970316	2634.002885
999.265371	2641.564615
999.560390	2548.303269
999.855373	2603.755962
1000.150320	2487.809423
1000.445232	2565.947308
1000.740108	2586.111923
1001.034948	2613.838269
1001.329752	2535.700385
1001.624521	2588.632500
1001.919254	2578.550192
1002.213951	2679.373269
1002.508613	2656.688077
1002.803239	2568.467885
1003.097829	2634.002885
1003.392384	2497.891731
1003.686903	2639.044038
1003.981386	2523.097500
1004.275834	2603.755962
1004.570246	2586.111923
1004.864623	2538.220962
1005.158964	2623.920577
1005.453270	2621.400000
1005.747540	2520.576923
1006.041775	2538.220962
1006.335974	2649.126346
1006.630138	2611.317692
1006.924266	2586.111923
1007.218359	2611.317692
1007.512416	2553.344423
1007.806438	2628.961731
1008.100425	2606.276538
1008.394376	2694.496731
1008.688292	2555.865000
1008.982172	2616.358846
1009.276017	2639.044038
1009.569827	2533.179808
1009.863602	2606.276538
1010.157341	2538.220962
1010.451045	2598.714808
1010.744714	2623.920577
1011.038347	2606.276538
1011.331945	2583.591346
1011.625508	2548.303269
1011.919036	2623.920577
1012.212528	2560.906154
1012.505986	2553.344423
1012.799408	2591.153077
1013.092795	2518.056346
1013.386147	2626.441154
1013.679464	2641.564615
1013.972745	2555.865000
1014.265992	2626.441154
1014.559204	2664.249808
1014.852380	2618.879423
1015.145521	2666.770385
1015.438628	2628.961731
1015.731699	2684.414423
1016.024736	2570.988462
1016.317737	2628.961731
1016.610703	2528.138654
1016.903635	2563.426731
1017.196531	2570.988462
1017.489393	2636.523462
1017.782219	2603.755962
1018.075011	2664.249808
1018.367768	2611.317692
1018.660490	2586.111923
1018.953177	2586.111923
1019.245829	2586.111923
