Dividing Wavelength (nm)	Counts (n)	Blue Motor Position (mm): 0.000000	Red Motor Position (mm): 8.400000	
326.493990	2122.325769
326.888308	2122.325769
327.282561	2122.325769
327.676750	2054.270192
328.070874	2041.667308
328.464933	2114.764038
328.858929	2087.037692
329.252859	2026.543846
329.646726	2049.229038
330.040528	2119.805192
330.434265	2190.381346
330.827938	2122.325769
331.221547	2142.490385
331.615091	2152.572692
332.008571	2137.449231
332.401986	2197.943077
332.795338	2185.340192
333.188625	2271.039808
333.581847	2271.039808
333.975006	2278.601538
334.368100	2288.683846
334.761129	2316.410192
335.154095	2268.519231
335.546996	2318.930769
335.939833	2505.453462
336.332606	2475.206538
336.725315	2402.109808
337.117960	2379.424615
337.510540	2359.260000
337.903056	2392.027500
338.295508	2402.109808
338.687896	2424.795000
339.080220	2455.041923
339.472480	2439.918462
339.864676	2510.494615
340.256807	2389.506923
340.648875	2452.521346
341.040879	2472.685962
341.432818	2475.206538
341.824694	2565.947308
342.216506	2515.535769
342.608253	2429.836154
342.999937	2455.041923
343.391557	2513.015192
343.783113	2417.233269
344.174605	2477.727115
344.566033	2455.041923
344.957397	2482.768269
345.348697	2414.712692
345.739934	2523.097500
346.131106	2482.768269
346.522215	2487.809423
346.913260	2505.453462
347.304241	2482.768269
347.695159	2490.330000
348.086012	2555.865000
348.476802	2452.521346
348.867528	2482.768269
349.258191	2475.206538
349.648789	2414.712692
350.039324	2452.521346
350.429796	2470.165385
350.820203	2470.165385
351.210548	2482.768269
351.600828	2437.397885
351.991045	2470.165385
352.381198	2389.506923
352.771288	2414.712692
353.161314	2450.000769
353.551276	2452.521346
353.941175	2384.465769
354.331010	2500.412308
354.720782	2467.644808
355.110490	2434.877308
355.500135	2419.753846
355.889717	2407.150962
356.279235	2460.083077
356.668689	2437.397885
357.058080	2487.809423
357.447408	2424.795000
357.836672	2346.657115
358.225873	2379.424615
358.615010	2497.891731
359.004084	2452.521346
359.393095	2422.274423
359.782043	2386.986346
360.170927	2439.918462
360.559748	2376.904038
360.948505	2475.206538
361.337199	2475.206538
361.725830	2447.480192
362.114398	2515.535769
362.502903	2457.562500
362.891344	2386.986346
363.279722	2381.945192
363.668037	2518.056346
364.056289	2447.480192
364.444478	2497.891731
364.832603	2452.521346
365.220665	2460.083077
365.608665	2487.809423
365.996601	2452.521346
366.384474	2497.891731
366.772284	2470.165385
367.160031	2414.712692
367.547715	2513.015192
367.935336	2434.877308
368.322893	2457.562500
368.710388	2434.877308
369.097820	2482.768269
369.485189	2465.124231
369.872495	2442.439038
370.259738	2467.644808
370.646918	2457.562500
371.034035	2384.465769
371.421090	2457.562500
371.808081	2460.083077
372.195010	2346.657115
372.581875	2417.233269
372.968678	2392.027500
373.355418	2502.932885
373.742096	2409.671538
374.128710	2427.315577
374.515262	2497.891731
374.901751	2409.671538
375.288177	2550.823846
375.674540	2450.000769
376.060841	2442.439038
376.447079	2412.192115
376.833254	2455.041923
377.219367	2450.000769
377.605417	2510.494615
377.991404	2394.548077
378.377329	2480.247692
378.763191	2472.685962
379.148991	2475.206538
379.534727	2429.836154
379.920402	2477.727115
380.306013	2409.671538
380.691563	2485.288846
381.077049	2427.315577
381.462474	2485.288846
381.847835	2452.521346
382.233134	2429.836154
382.618371	2412.192115
383.003545	2492.850577
383.388657	2477.727115
383.773706	2399.589231
384.158693	2389.506923
384.543618	2444.959615
384.928480	2475.206538
385.313280	2482.768269
385.698017	2495.371154
386.082692	2394.548077
386.467305	2427.315577
386.851856	2356.739423
387.236344	2374.383462
387.620770	2427.315577
388.005133	2467.644808
388.389435	2492.850577
388.773674	2432.356731
389.157851	2472.685962
389.541965	2457.562500
389.926018	2513.015192
390.310008	2450.000769
390.693936	2450.000769
391.077802	2460.083077
391.461606	2558.385577
391.845348	2530.659231
392.229027	2414.712692
392.612645	2475.206538
392.996200	2434.877308
393.379694	2442.439038
393.763125	2434.877308
394.146494	2497.891731
394.529801	2366.821731
394.913047	2392.027500
395.296230	2525.618077
395.679351	2397.068654
396.062410	2457.562500
396.445408	2487.809423
396.828343	2399.589231
397.211217	2422.274423
397.594028	2502.932885
397.976778	2452.521346
398.359466	2528.138654
398.742092	2414.712692
399.124656	2490.330000
399.507158	2485.288846
399.889598	2520.576923
400.271977	2427.315577
400.654294	2472.685962
401.036549	2465.124231
401.418742	2502.932885
401.800874	2490.330000
402.182944	2457.562500
402.564952	2505.453462
402.946898	2472.685962
403.328783	2520.576923
403.710606	2374.383462
404.092367	2477.727115
404.474067	2472.685962
404.855705	2505.453462
405.237282	2520.576923
405.618797	2452.521346
406.000250	2442.439038
406.381642	2495.371154
406.762972	2462.603654
407.144240	2490.330000
407.525447	2465.124231
407.906593	2465.124231
408.287677	2533.179808
408.668700	2450.000769
409.049661	2450.000769
409.430560	2533.179808
409.811399	2482.768269
410.192176	2535.700385
410.572891	2364.301154
410.953545	2500.412308
411.334138	2495.371154
411.714669	2480.247692
412.095139	2447.480192
412.475547	2513.015192
412.855894	2525.618077
413.236180	2497.891731
413.616405	2490.330000
413.996568	2457.562500
414.376670	2480.247692
414.756711	2432.356731
415.136691	2507.974038
415.516609	2525.618077
415.896466	2578.550192
416.276262	2470.165385
416.655997	2485.288846
417.035670	2523.097500
417.415283	2533.179808
417.794834	2507.974038
418.174324	2434.877308
418.553753	2513.015192
418.933121	2389.506923
419.312428	2465.124231
419.691674	2538.220962
420.070859	2523.097500
420.449983	2439.918462
420.829045	2510.494615
421.208047	2381.945192
421.586988	2487.809423
421.965867	2465.124231
422.344686	2525.618077
422.723444	2470.165385
423.102141	2485.288846
423.480777	2427.315577
423.859352	2563.426731
424.237866	2492.850577
424.616319	2460.083077
424.994712	2497.891731
425.373044	2523.097500
425.751314	2455.041923
426.129524	2485.288846
426.507673	2540.741538
426.885762	2447.480192
427.263789	2520.576923
427.641756	2477.727115
428.019662	2533.179808
428.397508	2374.383462
428.775292	2392.027500
429.153016	2540.741538
429.530679	2538.220962
429.908282	2450.000769
430.285824	2513.015192
430.663305	2450.000769
431.040726	2409.671538
431.418086	2467.644808
431.795385	2535.700385
432.172624	2455.041923
432.549802	2500.412308
432.926920	2460.083077
433.303977	2502.932885
433.680974	2467.644808
434.057910	2442.439038
434.434786	2525.618077
434.811601	2535.700385
435.188355	2535.700385
435.565050	2513.015192
435.941683	2490.330000
436.318257	2402.109808
436.694770	2452.521346
437.071222	2654.167500
437.447614	2455.041923
437.823946	2525.618077
438.200218	2495.371154
438.576429	2505.453462
438.952580	2470.165385
439.328670	2497.891731
439.704700	2402.109808
440.080670	2432.356731
440.456580	2492.850577
440.832429	2450.000769
441.208218	2472.685962
441.583947	2460.083077
441.959616	2500.412308
442.335224	2565.947308
442.710773	2460.083077
443.086261	2525.618077
443.461689	2490.330000
443.837057	2550.823846
444.212365	2482.768269
444.587612	2490.330000
444.962800	2417.233269
445.337927	2515.535769
445.712995	2570.988462
446.088002	2520.576923
446.462949	2429.836154
446.837837	2487.809423
447.212664	2523.097500
447.587431	2404.630385
447.962139	2530.659231
448.336786	2475.206538
448.711374	2492.850577
449.085901	2444.959615
449.460369	2487.809423
449.834776	2414.712692
450.209124	2437.397885
450.583412	2520.576923
450.957640	2457.562500
451.331808	2502.932885
451.705917	2472.685962
452.079965	2457.562500
452.453954	2460.083077
452.827883	2507.974038
453.201752	2550.823846
453.575562	2560.906154
453.949311	2457.562500
454.323001	2470.165385
454.696632	2502.932885
455.070202	2510.494615
455.443713	2384.465769
455.817164	2452.521346
456.190556	2399.589231
456.563888	2490.330000
456.937160	2520.576923
457.310373	2513.015192
457.683526	2505.453462
458.056619	2550.823846
458.429653	2475.206538
458.802628	2540.741538
459.175542	2434.877308
459.548398	2472.685962
459.921194	2434.877308
460.293930	2447.480192
460.666607	2495.371154
461.039224	2543.262115
461.411782	2419.753846
461.784280	2417.233269
462.156719	2417.233269
462.529099	2437.397885
462.901419	2465.124231
463.273680	2530.659231
463.645882	2492.850577
464.018024	2518.056346
464.390106	2487.809423
464.762130	2513.015192
465.134094	2505.453462
465.505999	2505.453462
465.877845	2482.768269
466.249631	2467.644808
466.621358	2500.412308
466.993026	2583.591346
467.364634	2513.015192
467.736184	2530.659231
468.107674	2482.768269
468.479105	2465.124231
468.850477	2560.906154
469.221790	2540.741538
469.593043	2419.753846
469.964238	2434.877308
470.335373	2523.097500
470.706449	2460.083077
471.077467	2565.947308
471.448425	2490.330000
471.819324	2513.015192
472.190164	2505.453462
472.560945	2510.494615
472.931667	2548.303269
473.302330	2475.206538
473.672934	2525.618077
474.043479	2487.809423
474.413965	2495.371154
474.784393	2402.109808
475.154761	2487.809423
475.525070	2432.356731
475.895321	2417.233269
476.265513	2457.562500
476.635645	2470.165385
477.005719	2538.220962
477.375734	2455.041923
477.745691	2442.439038
478.115588	2563.426731
478.485427	2485.288846
478.855207	2538.220962
479.224928	2407.150962
479.594591	2485.288846
479.964194	2465.124231
480.333739	2487.809423
480.703226	2467.644808
481.072653	2361.780577
481.442022	2417.233269
481.811333	2472.685962
482.180584	2497.891731
482.549777	2518.056346
482.918912	2450.000769
483.287988	2477.727115
483.657005	2570.988462
484.025964	2462.603654
484.394864	2467.644808
484.763706	2485.288846
485.132489	2497.891731
485.501213	2505.453462
485.869879	2495.371154
486.238487	2513.015192
486.607036	2457.562500
486.975527	2462.603654
487.343959	2472.685962
487.712333	2538.220962
488.080648	2525.618077
488.448905	2427.315577
488.817104	2495.371154
489.185244	2450.000769
489.553326	2477.727115
489.921350	2523.097500
490.289315	2462.603654
490.657222	2568.467885
491.025070	2414.712692
491.392861	2457.562500
491.760593	2450.000769
492.128267	2455.041923
492.495883	2497.891731
492.863440	2573.509038
493.230939	2472.685962
493.598380	2525.618077
493.965763	2397.068654
494.333088	2482.768269
494.700354	2535.700385
495.067563	2480.247692
495.434713	2528.138654
495.801805	2538.220962
496.168839	2480.247692
496.535815	2472.685962
496.902733	2535.700385
497.269593	2513.015192
497.636395	2497.891731
498.003139	2450.000769
498.369825	2565.947308
498.736453	2447.480192
499.103023	2399.589231
499.469535	2462.603654
499.835989	2520.576923
500.202385	2417.233269
500.568723	2477.727115
500.935003	2485.288846
501.301226	2500.412308
501.667390	2455.041923
502.033497	2543.262115
502.399546	2568.467885
502.765537	2447.480192
503.131470	2450.000769
503.497345	2573.509038
503.863163	2485.288846
504.228923	2518.056346
504.594625	2462.603654
504.960269	2465.124231
505.325856	2434.877308
505.691385	2392.027500
506.056856	2452.521346
506.422270	2359.260000
506.787625	2578.550192
507.152924	2538.220962
507.518164	2530.659231
507.883347	2419.753846
508.248472	2530.659231
508.613540	2502.932885
508.978550	2543.262115
509.343503	2450.000769
509.708398	2434.877308
510.073236	2439.918462
510.438016	2470.165385
510.802738	2505.453462
511.167403	2515.535769
511.532010	2482.768269
511.896561	2475.206538
512.261053	2550.823846
512.625488	2558.385577
512.989866	2447.480192
513.354186	2455.041923
513.718449	2518.056346
514.082655	2550.823846
514.446803	2462.603654
514.810894	2432.356731
515.174927	2472.685962
515.538904	2518.056346
515.902822	2520.576923
516.266684	2429.836154
516.630488	2434.877308
516.994235	2525.618077
517.357925	2447.480192
517.721558	2460.083077
518.085133	2465.124231
518.448651	2427.315577
518.812112	2447.480192
519.175516	2553.344423
519.538863	2485.288846
519.902152	2518.056346
520.265385	2462.603654
520.628560	2553.344423
520.991678	2535.700385
521.354739	2432.356731
521.717743	2477.727115
522.080690	2419.753846
522.443580	2540.741538
522.806413	2412.192115
523.169189	2434.877308
523.531908	2533.179808
523.894569	2555.865000
524.257174	2515.535769
524.619722	2465.124231
524.982213	2513.015192
525.344647	2480.247692
525.707025	2442.439038
526.069345	2497.891731
526.431608	2447.480192
526.793815	2450.000769
527.155964	2450.000769
527.518057	2495.371154
527.880093	2427.315577
528.242072	2518.056346
528.603995	2450.000769
528.965860	2475.206538
529.327669	2427.315577
529.689421	2502.932885
530.051117	2603.755962
530.412755	2424.795000
530.774337	2472.685962
531.135862	2513.015192
531.497331	2475.206538
531.858743	2460.083077
532.220098	2467.644808
532.581396	2570.988462
532.942638	2450.000769
533.303824	2553.344423
533.664953	2530.659231
534.026025	2543.262115
534.387040	2540.741538
534.747999	2444.959615
535.108902	2560.906154
535.469748	2475.206538
535.830537	2480.247692
536.191270	2490.330000
536.551947	2502.932885
536.912567	2414.712692
537.273131	2598.714808
537.633638	2535.700385
537.994089	2530.659231
538.354483	2545.782692
538.714821	2497.891731
539.075103	2518.056346
539.435328	2487.809423
539.795497	2465.124231
540.155609	2482.768269
540.515665	2462.603654
540.875665	2507.974038
541.235609	2533.179808
541.595496	2518.056346
541.955328	2545.782692
542.315102	2485.288846
542.674821	2563.426731
543.034483	2434.877308
543.394090	2412.192115
543.753640	2543.262115
544.113134	2417.233269
544.472571	2470.165385
544.831953	2452.521346
545.191278	2560.906154
545.550548	2480.247692
545.909761	2513.015192
546.268918	2495.371154
546.628019	2475.206538
546.987064	2439.918462
547.346053	2444.959615
547.704986	2505.453462
548.063863	2472.685962
548.422684	2492.850577
548.781449	2545.782692
549.140158	2497.891731
549.498811	2472.685962
549.857408	2495.371154
550.215949	2500.412308
550.574434	2452.521346
550.932864	2457.562500
551.291237	2490.330000
551.649555	2528.138654
552.007817	2555.865000
552.366022	2525.618077
552.724173	2467.644808
553.082267	2460.083077
553.440305	2477.727115
553.798288	2477.727115
554.156215	2492.850577
554.514086	2533.179808
554.871902	2465.124231
555.229661	2528.138654
555.587365	2548.303269
555.945014	2525.618077
556.302606	2520.576923
556.660143	2487.809423
557.017625	2452.521346
557.375050	2437.397885
557.732421	2477.727115
558.089735	2510.494615
558.446994	2538.220962
558.804197	2485.288846
559.161345	2477.727115
559.518437	2543.262115
559.875474	2495.371154
560.232455	2553.344423
560.589381	2518.056346
560.946251	2492.850577
561.303065	2535.700385
561.659825	2437.397885
562.016528	2555.865000
562.373177	2533.179808
562.729770	2555.865000
563.086307	2603.755962
563.442789	2513.015192
563.799216	2447.480192
564.155587	2510.494615
564.511904	2457.562500
564.868164	2581.070769
565.224370	2460.083077
565.580520	2477.727115
565.936615	2555.865000
566.292654	2447.480192
566.648638	2424.795000
567.004567	2490.330000
567.360441	2482.768269
567.716260	2588.632500
568.072023	2482.768269
568.427732	2402.109808
568.783385	2550.823846
569.138982	2550.823846
569.494525	2427.315577
569.850013	2530.659231
570.205445	2530.659231
570.560823	2444.959615
570.916145	2560.906154
571.271412	2427.315577
571.626625	2485.288846
571.981782	2475.206538
572.336884	2392.027500
572.691931	2470.165385
573.046923	2427.315577
573.401860	2447.480192
573.756743	2422.274423
574.111570	2470.165385
574.466342	2596.194231
574.821059	2472.685962
575.175722	2502.932885
575.530330	2545.782692
575.884882	2475.206538
576.239380	2507.974038
576.593823	2450.000769
576.948211	2485.288846
577.302544	2543.262115
577.656823	2427.315577
578.011047	2578.550192
578.365216	2475.206538
578.719330	2447.480192
579.073389	2550.823846
579.427394	2528.138654
579.781344	2492.850577
580.135239	2472.685962
580.489080	2513.015192
580.842866	2475.206538
581.196597	2472.685962
581.550273	2424.795000
581.903895	2560.906154
582.257463	2455.041923
582.610975	2538.220962
582.964434	2465.124231
583.317837	2528.138654
583.671186	2520.576923
584.024481	2543.262115
584.377721	2412.192115
584.730906	2538.220962
585.084037	2472.685962
585.437113	2490.330000
585.790135	2505.453462
586.143103	2540.741538
586.496016	2467.644808
586.848874	2470.165385
587.201679	2505.453462
587.554428	2442.439038
587.907124	2455.041923
588.259765	2533.179808
588.612352	2439.918462
588.964884	2507.974038
589.317362	2490.330000
589.669786	2482.768269
590.022155	2520.576923
590.374470	2525.618077
590.726731	2553.344423
591.078937	2545.782692
591.431090	2560.906154
591.783188	2470.165385
592.135232	2603.755962
592.487222	2530.659231
592.839157	2477.727115
593.191038	2515.535769
593.542866	2475.206538
593.894639	2545.782692
594.246358	2510.494615
594.598022	2472.685962
594.949633	2492.850577
595.301190	2492.850577
595.652692	2482.768269
596.004141	2480.247692
596.355535	2495.371154
596.706876	2586.111923
597.058162	2515.535769
597.409395	2444.959615
597.760573	2429.836154
598.111698	2543.262115
598.462768	2538.220962
598.813785	2472.685962
599.164748	2422.274423
599.515657	2444.959615
599.866511	2510.494615
600.217312	2477.727115
600.568060	2470.165385
600.918753	2550.823846
601.269392	2492.850577
601.619978	2515.535769
601.970510	2533.179808
602.320988	2490.330000
602.671412	2510.494615
603.021783	2495.371154
603.372100	2427.315577
603.722363	2465.124231
604.072572	2450.000769
604.422728	2540.741538
604.772830	2482.768269
605.122878	2437.397885
605.472872	2432.356731
605.822813	2500.412308
606.172701	2404.630385
606.522534	2555.865000
606.872314	2497.891731
607.222041	2485.288846
607.571714	2485.288846
607.921333	2472.685962
608.270899	2502.932885
608.620411	2528.138654
608.969870	2533.179808
609.319276	2543.262115
609.668627	2535.700385
610.017926	2485.288846
610.367171	2533.179808
610.716362	2480.247692
611.065500	2480.247692
611.414585	2462.603654
611.763616	2502.932885
612.112594	2530.659231
612.461518	2500.412308
612.810389	2480.247692
613.159207	2475.206538
613.507971	2505.453462
613.856682	2475.206538
614.205340	2429.836154
614.553945	2500.412308
614.902496	2487.809423
615.250994	2518.056346
615.599439	2573.509038
615.947830	2480.247692
616.296169	2586.111923
616.644454	2447.480192
616.992686	2487.809423
617.340864	2576.029615
617.688990	2560.906154
618.037063	2487.809423
618.385082	2533.179808
618.733048	2543.262115
619.080961	2467.644808
619.428821	2555.865000
619.776628	2548.303269
620.124382	2364.301154
620.472083	2515.535769
620.819731	2523.097500
621.167326	2513.015192
621.514868	2472.685962
621.862357	2553.344423
622.209793	2492.850577
622.557176	2475.206538
622.904506	2550.823846
623.251783	2485.288846
623.599007	2530.659231
623.946179	2475.206538
624.293297	2442.439038
624.640363	2480.247692
624.987376	2477.727115
625.334336	2490.330000
625.681243	2518.056346
626.028097	2520.576923
626.374899	2424.795000
626.721647	2477.727115
627.068343	2581.070769
627.414987	2583.591346
627.761577	2535.700385
628.108115	2467.644808
628.454600	2563.426731
628.801032	2500.412308
629.147412	2540.741538
629.493739	2507.974038
629.840014	2437.397885
630.186236	2460.083077
630.532405	2465.124231
630.878521	2520.576923
631.224585	2472.685962
631.570597	2422.274423
631.916556	2480.247692
632.262462	2507.974038
632.608316	2505.453462
632.954117	2424.795000
633.299866	2631.482308
633.645562	2520.576923
633.991206	2482.768269
634.336797	2477.727115
634.682336	2548.303269
635.027823	2510.494615
635.373257	2535.700385
635.718639	2510.494615
636.063968	2507.974038
636.409245	2523.097500
636.754470	2460.083077
637.099642	2492.850577
637.444762	2480.247692
637.789829	2538.220962
638.134845	2465.124231
638.479808	2530.659231
638.824719	2495.371154
639.169577	2591.153077
639.514383	2487.809423
639.859137	2482.768269
640.203839	2480.247692
640.548489	2523.097500
640.893086	2490.330000
641.237632	2452.521346
641.582125	2591.153077
641.926566	2460.083077
642.270955	2560.906154
642.615292	2545.782692
642.959576	2535.700385
643.303809	2591.153077
643.647990	2480.247692
643.992118	2510.494615
644.336195	2447.480192
644.680219	2543.262115
645.024192	2475.206538
645.368112	2460.083077
645.711981	2460.083077
646.055797	2487.809423
646.399562	2525.618077
646.743274	2472.685962
647.086935	2550.823846
647.430544	2450.000769
647.774101	2518.056346
648.117606	2392.027500
648.461059	2485.288846
648.804460	2525.618077
649.147810	2465.124231
649.491108	2477.727115
649.834354	2565.947308
650.177548	2472.685962
650.520690	2492.850577
650.863781	2538.220962
651.206820	2523.097500
651.549807	2543.262115
651.892742	2570.988462
652.235626	2535.700385
652.578458	2553.344423
652.921238	2520.576923
653.263967	2545.782692
653.606644	2535.700385
653.949269	2482.768269
654.291843	2475.206538
654.634365	2480.247692
654.976836	2583.591346
655.319255	2492.850577
655.661622	2515.535769
656.003938	2543.262115
656.346203	2586.111923
656.688416	2550.823846
657.030577	2495.371154
657.372687	2568.467885
657.714746	2530.659231
658.056753	2513.015192
658.398708	2475.206538
658.740612	2568.467885
659.082465	2437.397885
659.424266	2530.659231
659.766016	2550.823846
660.107715	2437.397885
660.449362	2477.727115
660.790958	2477.727115
661.132503	2429.836154
661.473996	2465.124231
661.815438	2487.809423
662.156829	2502.932885
662.498168	2497.891731
662.839456	2550.823846
663.180693	2392.027500
663.521879	2497.891731
663.863013	2550.823846
664.204097	2442.439038
664.545129	2500.412308
664.886110	2444.959615
665.227040	2518.056346
665.567918	2510.494615
665.908746	2455.041923
666.249522	2439.918462
666.590248	2513.015192
666.930922	2553.344423
667.271545	2460.083077
667.612118	2558.385577
667.952639	2520.576923
668.293109	2490.330000
668.633528	2439.918462
668.973896	2535.700385
669.314213	2528.138654
669.654480	2555.865000
669.994695	2535.700385
670.334859	2429.836154
670.674973	2558.385577
671.015035	2518.056346
671.355047	2487.809423
671.695008	2507.974038
672.034918	2409.671538
672.374777	2402.109808
672.714585	2553.344423
673.054342	2427.315577
673.394049	2518.056346
673.733705	2530.659231
674.073310	2505.453462
674.412864	2520.576923
674.752368	2548.303269
675.091820	2553.344423
675.431223	2475.206538
675.770574	2507.974038
676.109875	2480.247692
676.449125	2462.603654
676.788324	2540.741538
677.127473	2492.850577
677.466571	2487.809423
677.805619	2419.753846
678.144616	2505.453462
678.483562	2465.124231
678.822458	2520.576923
679.161303	2477.727115
679.500098	2480.247692
679.838842	2513.015192
680.177535	2523.097500
680.516179	2480.247692
680.854771	2492.850577
681.193314	2434.877308
681.531805	2565.947308
681.870247	2540.741538
682.208638	2520.576923
682.546978	2419.753846
682.885268	2472.685962
683.223508	2528.138654
683.561697	2545.782692
683.899836	2480.247692
684.237925	2480.247692
684.575963	2374.383462
684.913951	2533.179808
685.251889	2487.809423
685.589776	2419.753846
685.927614	2515.535769
686.265401	2497.891731
686.603137	2455.041923
686.940824	2472.685962
687.278460	2505.453462
687.616046	2482.768269
687.953582	2497.891731
688.291068	2477.727115
688.628504	2560.906154
688.965889	2432.356731
689.303224	2465.124231
689.640510	2482.768269
689.977745	2432.356731
690.314930	2495.371154
690.652065	2500.412308
690.989150	2563.426731
691.326185	2485.288846
691.663170	2540.741538
692.000105	2447.480192
692.336990	2616.358846
692.673825	2480.247692
693.010610	2492.850577
693.347345	2520.576923
693.684030	2507.974038
694.020665	2452.521346
694.357251	2520.576923
694.693786	2455.041923
695.030272	2409.671538
695.366707	2502.932885
695.703093	2495.371154
696.039429	2455.041923
696.375716	2502.932885
696.711952	2495.371154
697.048139	2485.288846
697.384276	2447.480192
697.720363	2518.056346
698.056400	2485.288846
698.392388	2507.974038
698.728326	2548.303269
699.064214	2467.644808
699.400053	2573.509038
699.735842	2457.562500
700.071581	2518.056346
700.407270	2462.603654
700.742910	2563.426731
701.078501	2490.330000
701.414042	2528.138654
701.749533	2507.974038
702.084974	2505.453462
702.420366	2495.371154
702.755709	2545.782692
703.091002	2528.138654
703.426246	2513.015192
703.761440	2518.056346
704.096584	2467.644808
704.431679	2578.550192
704.766725	2472.685962
705.101721	2495.371154
705.436668	2407.150962
705.771565	2518.056346
706.106413	2518.056346
706.441212	2525.618077
706.775961	2513.015192
707.110661	2558.385577
707.445311	2507.974038
707.779913	2558.385577
708.114465	2452.521346
708.448967	2530.659231
708.783421	2432.356731
709.117825	2442.439038
709.452180	2452.521346
709.786485	2525.618077
710.120742	2475.206538
710.454949	2444.959615
710.789107	2490.330000
711.123216	2475.206538
711.457275	2598.714808
711.791286	2533.179808
712.125247	2492.850577
712.459159	2576.029615
712.793023	2477.727115
713.126837	2543.262115
713.460602	2414.712692
713.794318	2525.618077
714.127985	2432.356731
714.461602	2507.974038
714.795171	2545.782692
715.128691	2502.932885
715.462162	2563.426731
715.795584	2460.083077
716.128957	2543.262115
716.462281	2507.974038
716.795556	2545.782692
717.128782	2470.165385
717.461960	2460.083077
717.795088	2570.988462
718.128167	2513.015192
718.461198	2598.714808
718.794180	2525.618077
719.127113	2545.782692
719.459997	2540.741538
719.792833	2444.959615
720.125619	2482.768269
720.458357	2477.727115
720.791046	2467.644808
721.123686	2525.618077
721.456278	2447.480192
721.788821	2505.453462
722.121315	2447.480192
722.453761	2427.315577
722.786158	2563.426731
723.118506	2442.439038
723.450805	2507.974038
723.783056	2472.685962
724.115259	2472.685962
724.447412	2515.535769
724.779518	2500.412308
725.111574	2553.344423
725.443582	2495.371154
725.775542	2520.576923
726.107453	2392.027500
726.439315	2540.741538
726.771129	2450.000769
727.102895	2518.056346
727.434612	2490.330000
727.766281	2450.000769
728.097901	2475.206538
728.429473	2500.412308
728.760996	2518.056346
729.092471	2505.453462
729.423897	2495.371154
729.755276	2507.974038
730.086606	2540.741538
730.417887	2472.685962
730.749120	2507.974038
731.080305	2427.315577
731.411442	2528.138654
731.742530	2535.700385
732.073570	2414.712692
732.404562	2558.385577
732.735506	2457.562500
733.066401	2457.562500
733.397249	2497.891731
733.728048	2462.603654
734.058798	2518.056346
734.389501	2452.521346
734.720156	2568.467885
735.050762	2548.303269
735.381320	2495.371154
735.711831	2518.056346
736.042293	2490.330000
736.372707	2467.644808
736.703073	2533.179808
737.033391	2487.809423
737.363661	2472.685962
737.693883	2450.000769
738.024056	2437.397885
738.354182	2500.412308
738.684260	2553.344423
739.014290	2444.959615
739.344272	2434.877308
739.674207	2507.974038
740.004093	2525.618077
740.333931	2576.029615
740.663722	2507.974038
740.993464	2583.591346
741.323159	2558.385577
741.652806	2472.685962
741.982405	2502.932885
742.311956	2538.220962
742.641460	2510.494615
742.970915	2497.891731
743.300323	2490.330000
743.629683	2535.700385
743.958996	2492.850577
744.288260	2570.988462
744.617477	2502.932885
744.946647	2434.877308
745.275768	2467.644808
745.604842	2505.453462
745.933869	2485.288846
746.262847	2495.371154
746.591778	2583.591346
746.920662	2452.521346
747.249498	2528.138654
747.578286	2568.467885
747.907027	2518.056346
748.235720	2520.576923
748.564365	2404.630385
748.892963	2513.015192
749.221514	2497.891731
749.550017	2598.714808
749.878473	2475.206538
750.206881	2381.945192
750.535242	2450.000769
750.863555	2472.685962
751.191821	2492.850577
751.520039	2568.467885
751.848210	2510.494615
752.176334	2419.753846
752.504411	2520.576923
752.832440	2409.671538
753.160421	2467.644808
753.488356	2495.371154
753.816243	2510.494615
754.144082	2419.753846
754.471875	2505.453462
754.799620	2432.356731
755.127318	2533.179808
755.454969	2500.412308
755.782572	2505.453462
756.110129	2482.768269
756.437638	2530.659231
756.765100	2465.124231
757.092515	2450.000769
757.419882	2502.932885
757.747203	2389.506923
758.074477	2480.247692
758.401703	2507.974038
758.728882	2510.494615
759.056014	2535.700385
759.383099	2505.453462
759.710138	2510.494615
760.037129	2457.562500
760.364073	2550.823846
760.690970	2502.932885
761.017820	2437.397885
761.344623	2500.412308
761.671379	2437.397885
761.998088	2545.782692
762.324751	2424.795000
762.651366	2563.426731
762.977935	2500.412308
763.304456	2578.550192
763.630931	2507.974038
763.957359	2457.562500
764.283740	2465.124231
764.610074	2475.206538
764.936362	2412.192115
765.262602	2487.809423
765.588796	2442.439038
765.914943	2538.220962
766.241044	2492.850577
766.567097	2555.865000
766.893104	2487.809423
767.219064	2485.288846
767.544978	2513.015192
767.870845	2515.535769
768.196665	2477.727115
768.522438	2467.644808
768.848165	2462.603654
769.173846	2576.029615
769.499479	2452.521346
769.825066	2543.262115
770.150607	2472.685962
770.476101	2525.618077
770.801548	2583.591346
771.126949	2460.083077
771.452303	2424.795000
771.777611	2505.453462
772.102872	2452.521346
772.428087	2555.865000
772.753256	2540.741538
773.078378	2452.521346
773.403453	2543.262115
773.728482	2500.412308
774.053465	2487.809423
774.378401	2510.494615
774.703291	2460.083077
775.028135	2495.371154
775.352932	2475.206538
775.677683	2583.591346
776.002388	2480.247692
776.327046	2414.712692
776.651658	2543.262115
776.976224	2497.891731
777.300743	2500.412308
777.625216	2460.083077
777.949643	2507.974038
778.274024	2394.548077
778.598359	2487.809423
778.922647	2540.741538
779.246889	2444.959615
779.571086	2528.138654
779.895236	2442.439038
780.219339	2538.220962
780.543397	2480.247692
780.867409	2467.644808
781.191374	2482.768269
781.515294	2525.618077
781.839167	2528.138654
782.162995	2455.041923
782.486776	2482.768269
782.810511	2505.453462
783.134201	2502.932885
783.457844	2538.220962
783.781441	2467.644808
784.104993	2560.906154
784.428498	2513.015192
784.751958	2495.371154
785.075372	2538.220962
785.398739	2392.027500
785.722061	2500.412308
786.045337	2560.906154
786.368568	2397.068654
786.691752	2538.220962
787.014891	2505.453462
787.337983	2495.371154
787.661030	2480.247692
787.984031	2472.685962
788.306987	2402.109808
788.629897	2593.673654
788.952760	2548.303269
789.275579	2510.494615
789.598351	2460.083077
789.921078	2485.288846
790.243759	2450.000769
790.566395	2462.603654
790.888984	2465.124231
791.211529	2576.029615
791.534027	2442.439038
791.856480	2495.371154
792.178888	2520.576923
792.501249	2558.385577
792.823566	2472.685962
793.145836	2540.741538
793.468062	2472.685962
793.790241	2530.659231
794.112375	2502.932885
794.434464	2475.206538
794.756507	2510.494615
795.078505	2520.576923
795.400457	2480.247692
795.722364	2525.618077
796.044226	2462.603654
796.366042	2545.782692
796.687812	2495.371154
797.009538	2455.041923
797.331218	2558.385577
797.652852	2525.618077
797.974442	2457.562500
798.295986	2472.685962
798.617484	2558.385577
798.938938	2487.809423
799.260346	2563.426731
799.581709	2482.768269
799.903026	2520.576923
800.224299	2437.397885
800.545526	2523.097500
800.866708	2525.618077
801.187845	2505.453462
801.508936	2419.753846
801.829983	2457.562500
802.150984	2576.029615
802.471940	2472.685962
802.792851	2502.932885
803.113717	2505.453462
803.434538	2502.932885
803.755314	2558.385577
804.076045	2500.412308
804.396731	2555.865000
804.717372	2497.891731
805.037967	2545.782692
805.358518	2502.932885
805.679024	2475.206538
805.999485	2548.303269
806.319901	2538.220962
806.640272	2492.850577
806.960598	2490.330000
807.280879	2472.685962
807.601115	2507.974038
807.921306	2462.603654
808.241453	2495.371154
808.561554	2434.877308
808.881611	2434.877308
809.201623	2477.727115
809.521590	2455.041923
809.841513	2482.768269
810.161390	2477.727115
810.481223	2497.891731
810.801011	2402.109808
811.120755	2533.179808
811.440453	2460.083077
811.760107	2407.150962
812.079716	2452.521346
812.399281	2510.494615
812.718801	2475.206538
813.038276	2505.453462
813.357707	2462.603654
813.677093	2500.412308
813.996434	2460.083077
814.315731	2533.179808
814.634983	2482.768269
814.954191	2535.700385
815.273354	2490.330000
815.592473	2515.535769
815.911547	2601.235385
816.230577	2535.700385
816.549562	2507.974038
816.868502	2520.576923
817.187399	2568.467885
817.506250	2485.288846
817.825058	2558.385577
818.143821	2502.932885
818.462539	2389.506923
818.781213	2462.603654
819.099843	2538.220962
819.418429	2548.303269
819.736970	2384.465769
820.055466	2510.494615
820.373919	2444.959615
820.692327	2472.685962
821.010691	2573.509038
821.329011	2477.727115
821.647286	2535.700385
821.965517	2472.685962
822.283704	2495.371154
822.601847	2500.412308
822.919945	2442.439038
823.237999	2502.932885
823.556010	2465.124231
823.873976	2437.397885
824.191897	2394.548077
824.509775	2535.700385
824.827609	2520.576923
825.145398	2482.768269
825.463144	2462.603654
825.780845	2553.344423
826.098502	2502.932885
826.416116	2470.165385
826.733685	2490.330000
827.051210	2480.247692
827.368692	2465.124231
827.686129	2510.494615
828.003522	2444.959615
828.320872	2505.453462
828.638177	2500.412308
828.955439	2487.809423
829.272656	2525.618077
829.589830	2533.179808
829.906960	2487.809423
830.224046	2500.412308
830.541088	2402.109808
830.858086	2553.344423
831.175041	2500.412308
831.491952	2487.809423
831.808819	2500.412308
832.125642	2369.342308
832.442421	2510.494615
832.759157	2535.700385
833.075849	2487.809423
833.392497	2515.535769
833.709101	2475.206538
834.025662	2545.782692
834.342179	2513.015192
834.658653	2558.385577
834.975083	2502.932885
835.291469	2497.891731
835.607811	2437.397885
835.924110	2525.618077
836.240366	2477.727115
836.556578	2434.877308
836.872746	2397.068654
837.188871	2492.850577
837.504952	2578.550192
837.820990	2462.603654
838.136984	2497.891731
838.452935	2563.426731
838.768842	2455.041923
839.084706	2457.562500
839.400526	2389.506923
839.716303	2553.344423
840.032037	2460.083077
840.347727	2462.603654
840.663373	2457.562500
840.978977	2545.782692
841.294537	2581.070769
841.610054	2515.535769
841.925527	2500.412308
842.240957	2533.179808
842.556344	2437.397885
842.871687	2540.741538
843.186987	2568.467885
843.502244	2505.453462
843.817458	2505.453462
844.132629	2472.685962
844.447756	2525.618077
844.762840	2593.673654
845.077881	2452.521346
845.392879	2523.097500
845.707833	2510.494615
846.022745	2467.644808
846.337613	2485.288846
846.652438	2490.330000
846.967221	2460.083077
847.281960	2515.535769
847.596656	2432.356731
847.911309	2482.768269
848.225919	2535.700385
848.540485	2434.877308
848.855009	2513.015192
849.169490	2444.959615
849.483928	2515.535769
849.798323	2437.397885
850.112675	2492.850577
850.426984	2475.206538
850.741251	2432.356731
851.055474	2492.850577
851.369654	2497.891731
851.683792	2409.671538
851.997887	2568.467885
852.311938	2450.000769
852.625947	2475.206538
852.939914	2502.932885
853.253837	2450.000769
853.567718	2487.809423
853.881555	2530.659231
854.195350	2447.480192
854.509103	2495.371154
854.822812	2424.795000
855.136479	2447.480192
855.450103	2560.906154
855.763685	2467.644808
856.077224	2447.480192
856.390720	2497.891731
856.704173	2553.344423
857.017584	2550.823846
857.330953	2518.056346
857.644278	2482.768269
857.957561	2507.974038
858.270802	2515.535769
858.584000	2414.712692
858.897155	2492.850577
859.210268	2480.247692
859.523339	2553.344423
859.836367	2492.850577
860.149352	2397.068654
860.462295	2515.535769
860.775195	2545.782692
861.088054	2520.576923
861.400869	2465.124231
861.713642	2492.850577
862.026373	2437.397885
862.339062	2452.521346
862.651708	2444.959615
862.964312	2407.150962
863.276873	2601.235385
863.589392	2523.097500
863.901869	2500.412308
864.214303	2518.056346
864.526696	2407.150962
864.839045	2510.494615
865.151353	2455.041923
865.463619	2500.412308
865.775842	2482.768269
866.088023	2513.015192
866.400162	2439.918462
866.712258	2467.644808
867.024313	2550.823846
867.336325	2550.823846
867.648296	2480.247692
867.960224	2550.823846
868.272110	2518.056346
868.583954	2470.165385
868.895755	2490.330000
869.207515	2520.576923
869.519233	2490.330000
869.830909	2538.220962
870.142542	2444.959615
870.454134	2500.412308
870.765684	2490.330000
871.077191	2530.659231
871.388657	2472.685962
871.700081	2528.138654
872.011463	2515.535769
872.322803	2460.083077
872.634101	2424.795000
872.945357	2460.083077
873.256571	2437.397885
873.567744	2502.932885
873.878874	2434.877308
874.189963	2467.644808
874.501010	2429.836154
874.812015	2528.138654
875.122979	2439.918462
875.433900	2507.974038
875.744780	2497.891731
876.055618	2530.659231
876.366415	2518.056346
876.677169	2520.576923
876.987882	2412.192115
877.298554	2507.974038
877.609183	2389.506923
877.919771	2523.097500
878.230317	2404.630385
878.540822	2490.330000
878.851285	2593.673654
879.161707	2414.712692
879.472087	2424.795000
879.782425	2533.179808
880.092722	2439.918462
880.402977	2520.576923
880.713191	2452.521346
881.023363	2397.068654
881.333494	2495.371154
881.643583	2616.358846
881.953631	2500.412308
882.263637	2439.918462
882.573602	2487.809423
882.883526	2558.385577
883.193408	2467.644808
883.503248	2570.988462
883.813048	2485.288846
884.122806	2427.315577
884.432522	2507.974038
884.742197	2437.397885
885.051831	2455.041923
885.361424	2487.809423
885.670975	2437.397885
885.980485	2447.480192
886.289954	2523.097500
886.599382	2467.644808
886.908768	2432.356731
887.218113	2502.932885
887.527417	2417.233269
887.836680	2540.741538
888.145901	2452.521346
888.455082	2570.988462
888.764221	2480.247692
889.073319	2533.179808
889.382376	2485.288846
889.691392	2520.576923
890.000366	2429.836154
890.309300	2510.494615
890.618193	2485.288846
890.927044	2457.562500
891.235855	2460.083077
891.544625	2444.959615
891.853353	2495.371154
892.162041	2548.303269
892.470687	2427.315577
892.779293	2475.206538
893.087858	2482.768269
893.396381	2618.879423
893.704864	2533.179808
894.013306	2497.891731
894.321707	2487.809423
894.630068	2455.041923
894.938387	2538.220962
895.246665	2419.753846
895.554903	2497.891731
895.863100	2518.056346
896.171256	2482.768269
896.479371	2568.467885
896.787446	2525.618077
897.095480	2502.932885
897.403473	2513.015192
897.711425	2460.083077
898.019336	2507.974038
898.327207	2437.397885
898.635038	2535.700385
898.942827	2399.589231
899.250576	2505.453462
899.558284	2507.974038
899.865952	2553.344423
900.173579	2538.220962
900.481165	2520.576923
900.788711	2513.015192
901.096216	2518.056346
901.403681	2450.000769
901.711105	2457.562500
902.018489	2460.083077
902.325832	2465.124231
902.633135	2437.397885
902.940397	2465.124231
903.247619	2457.562500
903.554800	2455.041923
903.861941	2467.644808
904.169041	2513.015192
904.476101	2462.603654
904.783121	2482.768269
905.090100	2513.015192
905.397039	2472.685962
905.703938	2480.247692
906.010796	2455.041923
906.317614	2424.795000
906.624391	2525.618077
906.931129	2475.206538
907.237826	2460.083077
907.544483	2497.891731
907.851099	2487.809423
908.157675	2487.809423
908.464211	2432.356731
908.770707	2500.412308
909.077163	2432.356731
909.383578	2477.727115
909.689954	2442.439038
909.996289	2505.453462
910.302584	2535.700385
910.608839	2545.782692
910.915054	2502.932885
911.221229	2490.330000
911.527363	2543.262115
911.833458	2427.315577
912.139513	2548.303269
912.445527	2485.288846
912.751502	2510.494615
913.057436	2419.753846
913.363331	2502.932885
913.669186	2437.397885
913.975000	2442.439038
914.280775	2535.700385
914.586510	2576.029615
914.892205	2429.836154
915.197859	2543.262115
915.503475	2500.412308
915.809050	2593.673654
916.114585	2543.262115
916.420081	2465.124231
916.725536	2429.836154
917.030952	2505.453462
917.336328	2419.753846
917.641665	2450.000769
917.946961	2563.426731
918.252218	2470.165385
918.557435	2492.850577
918.862612	2460.083077
919.167750	2460.083077
919.472848	2490.330000
919.777906	2550.823846
920.082925	2450.000769
920.387904	2500.412308
920.692843	2444.959615
920.997743	2520.576923
921.302603	2455.041923
921.607423	2475.206538
921.912204	2560.906154
922.216946	2371.862885
922.521647	2444.959615
922.826310	2417.233269
923.130932	2442.439038
923.435516	2424.795000
923.740059	2500.412308
924.044564	2482.768269
924.349028	2568.467885
924.653454	2460.083077
924.957840	2487.809423
925.262186	2485.288846
925.566493	2485.288846
925.870761	2518.056346
926.174989	2465.124231
926.479178	2407.150962
926.783328	2457.562500
927.087438	2457.562500
927.391509	2432.356731
927.695541	2497.891731
927.999533	2492.850577
928.303486	2538.220962
928.607400	2477.727115
928.911275	2409.671538
929.215110	2467.644808
929.518906	2460.083077
929.822663	2467.644808
930.126381	2447.480192
930.430060	2450.000769
930.733699	2558.385577
931.037299	2505.453462
931.340861	2457.562500
931.644383	2533.179808
931.947866	2455.041923
932.251309	2502.932885
932.554714	2427.315577
932.858080	2528.138654
933.161407	2465.124231
933.464694	2497.891731
933.767943	2444.959615
934.071153	2502.932885
934.374323	2528.138654
934.677455	2523.097500
934.980548	2502.932885
935.283602	2518.056346
935.586617	2495.371154
935.889593	2497.891731
936.192530	2540.741538
936.495428	2520.576923
936.798287	2497.891731
937.101108	2467.644808
937.403890	2447.480192
937.706632	2515.535769
938.009336	2450.000769
938.312002	2492.850577
938.614628	2427.315577
938.917216	2492.850577
939.219765	2513.015192
939.522275	2505.453462
939.824747	2460.083077
940.127179	2507.974038
940.429573	2606.276538
940.731929	2510.494615
941.034246	2538.220962
941.336524	2540.741538
941.638763	2507.974038
941.940964	2528.138654
942.243126	2530.659231
942.545250	2482.768269
942.847335	2500.412308
943.149381	2533.179808
943.451389	2447.480192
943.753359	2409.671538
944.055290	2419.753846
944.357182	2485.288846
944.659036	2460.083077
944.960851	2533.179808
945.262628	2424.795000
945.564367	2455.041923
945.866067	2417.233269
946.167729	2485.288846
946.469352	2444.959615
946.770937	2513.015192
947.072484	2507.974038
947.373992	2437.397885
947.675462	2507.974038
947.976893	2502.932885
948.278286	2399.589231
948.579641	2497.891731
948.880958	2437.397885
949.182236	2513.015192
949.483476	2480.247692
949.784678	2364.301154
950.085841	2482.768269
950.386967	2497.891731
950.688054	2485.288846
950.989103	2545.782692
951.290114	2477.727115
951.591087	2475.206538
951.892021	2467.644808
952.192917	2402.109808
952.493776	2462.603654
952.794596	2386.986346
953.095378	2518.056346
953.396122	2513.015192
953.696828	2505.453462
953.997496	2455.041923
954.298126	2523.097500
954.598718	2462.603654
954.899272	2409.671538
955.199788	2467.644808
955.500266	2462.603654
955.800706	2565.947308
956.101108	2409.671538
956.401472	2555.865000
956.701798	2538.220962
957.002087	2429.836154
957.302337	2447.480192
957.602550	2450.000769
957.902724	2487.809423
958.202861	2487.809423
958.502960	2485.288846
958.803022	2422.274423
959.103045	2379.424615
959.403031	2407.150962
959.702979	2452.521346
960.002889	2538.220962
960.302762	2485.288846
960.602596	2465.124231
960.902393	2538.220962
961.202153	2460.083077
961.501875	2523.097500
961.801559	2472.685962
962.101205	2477.727115
962.400814	2482.768269
962.700385	2450.000769
962.999918	2470.165385
963.299414	2505.453462
963.598873	2457.562500
963.898293	2485.288846
964.197677	2510.494615
964.497022	2591.153077
964.796331	2487.809423
965.095601	2543.262115
965.394835	2513.015192
965.694030	2520.576923
965.993189	2465.124231
966.292309	2477.727115
966.591393	2480.247692
966.890439	2505.453462
967.189447	2560.906154
967.488419	2497.891731
967.787353	2583.591346
968.086249	2429.836154
968.385108	2402.109808
968.683930	2490.330000
968.982714	2397.068654
969.281462	2565.947308
969.580172	2450.000769
969.878844	2439.918462
970.177480	2470.165385
970.476078	2492.850577
970.774639	2553.344423
971.073162	2450.000769
971.371649	2535.700385
971.670098	2545.782692
971.968510	2535.700385
972.266885	2470.165385
972.565223	2500.412308
972.863524	2452.521346
973.161788	2548.303269
973.460014	2447.480192
973.758204	2480.247692
974.056356	2520.576923
974.354471	2399.589231
974.652550	2518.056346
974.950591	2513.015192
975.248595	2465.124231
975.546563	2470.165385
975.844493	2379.424615
976.142386	2447.480192
976.440243	2450.000769
976.738062	2553.344423
977.035845	2485.288846
977.333590	2444.959615
977.631299	2457.562500
977.928971	2470.165385
978.226606	2470.165385
978.524204	2523.097500
978.821765	2472.685962
979.119290	2502.932885
979.416777	2460.083077
979.714228	2500.412308
980.011642	2450.000769
980.309020	2444.959615
980.606360	2450.000769
980.903664	2581.070769
981.200931	2460.083077
981.498162	2535.700385
981.795356	2533.179808
982.092513	2490.330000
982.389633	2555.865000
982.686717	2535.700385
982.983764	2497.891731
983.280775	2525.618077
983.577749	2475.206538
983.874686	2533.179808
984.171587	2472.685962
984.468451	2381.945192
984.765279	2442.439038
985.062070	2472.685962
985.358824	2444.959615
985.655543	2515.535769
985.952224	2485.288846
986.248869	2465.124231
986.545478	2455.041923
986.842050	2482.768269
987.138586	2538.220962
987.435086	2528.138654
987.731549	2482.768269
988.027975	2472.685962
988.324366	2414.712692
988.620719	2497.891731
988.917037	2487.809423
989.213318	2490.330000
989.509563	2450.000769
989.805772	2548.303269
990.101944	2447.480192
990.398080	2452.521346
990.694180	2520.576923
990.990244	2490.330000
991.286271	2528.138654
991.582262	2467.644808
991.878217	2530.659231
992.174136	2439.918462
992.470019	2460.083077
992.765865	2568.467885
993.061676	2497.891731
993.357450	2540.741538
993.653188	2485.288846
993.948890	2485.288846
994.244556	2487.809423
994.540186	2492.850577
994.835780	2485.288846
995.131337	2472.685962
995.426859	2462.603654
995.722345	2492.850577
996.017795	2500.412308
996.313208	2447.480192
996.608586	2520.576923
996.903928	2535.700385
997.199234	2500.412308
997.494504	2419.753846
997.789738	2412.192115
998.084936	2530.659231
998.380099	2417.233269
998.675225	2490.330000
998.970316	2450.000769
999.265371	2560.906154
999.560390	2500.412308
999.855373	2477.727115
1000.150320	2565.947308
1000.445232	2485.288846
1000.740108	2500.412308
1001.034948	2500.412308
1001.329752	2538.220962
1001.624521	2523.097500
1001.919254	2518.056346
1002.213951	2520.576923
1002.508613	2495.371154
1002.803239	2563.426731
1003.097829	2535.700385
1003.392384	2432.356731
1003.686903	2439.918462
1003.981386	2467.644808
1004.275834	2560.906154
1004.570246	2467.644808
1004.864623	2409.671538
1005.158964	2465.124231
1005.453270	2477.727115
1005.747540	2510.494615
1006.041775	2507.974038
1006.335974	2490.330000
1006.630138	2381.945192
1006.924266	2452.521346
1007.218359	2480.247692
1007.512416	2523.097500
1007.806438	2465.124231
1008.100425	2495.371154
1008.394376	2470.165385
1008.688292	2570.988462
1008.982172	2429.836154
1009.276017	2563.426731
1009.569827	2563.426731
1009.863602	2460.083077
1010.157341	2495.371154
1010.451045	2434.877308
1010.744714	2455.041923
1011.038347	2409.671538
1011.331945	2490.330000
1011.625508	2523.097500
1011.919036	2538.220962
1012.212528	2497.891731
1012.505986	2495.371154
1012.799408	2480.247692
1013.092795	2495.371154
1013.386147	2482.768269
1013.679464	2447.480192
1013.972745	2528.138654
1014.265992	2550.823846
1014.559204	2442.439038
1014.852380	2525.618077
1015.145521	2381.945192
1015.438628	2381.945192
1015.731699	2596.194231
1016.024736	2444.959615
1016.317737	2507.974038
1016.610703	2500.412308
1016.903635	2450.000769
1017.196531	2472.685962
1017.489393	2563.426731
1017.782219	2462.603654
1018.075011	2520.576923
1018.367768	2460.083077
1018.660490	2520.576923
1018.953177	2520.576923
1019.245829	2520.576923
