Dividing Wavelength (nm)	Counts (n)	Blue Motor Position (mm): 0.000000	Red Motor Position (mm): 2.400000	
326.493990	2099.640577
326.888308	2099.640577
327.282561	2099.640577
327.676750	1978.652885
328.070874	2061.831923
328.464933	2092.078846
328.858929	2102.161154
329.252859	2150.052115
329.646726	2061.831923
330.040528	2165.175577
330.434265	2150.052115
330.827938	2160.134423
331.221547	2066.873077
331.615091	2205.504808
332.008571	2200.463654
332.401986	2177.778462
332.795338	2228.190000
333.188625	2202.984231
333.581847	2341.615962
333.975006	2323.971923
334.368100	2253.395769
334.761129	2303.807308
335.154095	2381.945192
335.546996	2268.519231
335.939833	2301.286731
336.332606	2376.904038
336.725315	2341.615962
337.117960	2444.959615
337.510540	2439.918462
337.903056	2470.165385
338.295508	2407.150962
338.687896	2394.548077
339.080220	2407.150962
339.472480	2470.165385
339.864676	2389.506923
340.256807	2553.344423
340.648875	2497.891731
341.040879	2528.138654
341.432818	2439.918462
341.824694	2439.918462
342.216506	2535.700385
342.608253	2412.192115
342.999937	2397.068654
343.391557	2490.330000
343.783113	2480.247692
344.174605	2392.027500
344.566033	2429.836154
344.957397	2492.850577
345.348697	2505.453462
345.739934	2520.576923
346.131106	2389.506923
346.522215	2505.453462
346.913260	2414.712692
347.304241	2502.932885
347.695159	2520.576923
348.086012	2409.671538
348.476802	2472.685962
348.867528	2452.521346
349.258191	2409.671538
349.648789	2439.918462
350.039324	2455.041923
350.429796	2460.083077
350.820203	2505.453462
351.210548	2434.877308
351.600828	2450.000769
351.991045	2513.015192
352.381198	2465.124231
352.771288	2392.027500
353.161314	2487.809423
353.551276	2465.124231
353.941175	2379.424615
354.331010	2447.480192
354.720782	2384.465769
355.110490	2467.644808
355.500135	2402.109808
355.889717	2444.959615
356.279235	2452.521346
356.668689	2412.192115
357.058080	2467.644808
357.447408	2475.206538
357.836672	2386.986346
358.225873	2424.795000
358.615010	2450.000769
359.004084	2447.480192
359.393095	2442.439038
359.782043	2528.138654
360.170927	2477.727115
360.559748	2318.930769
360.948505	2487.809423
361.337199	2444.959615
361.725830	2513.015192
362.114398	2467.644808
362.502903	2475.206538
362.891344	2447.480192
363.279722	2518.056346
363.668037	2500.412308
364.056289	2462.603654
364.444478	2538.220962
364.832603	2502.932885
365.220665	2417.233269
365.608665	2404.630385
365.996601	2460.083077
366.384474	2452.521346
366.772284	2424.795000
367.160031	2422.274423
367.547715	2447.480192
367.935336	2530.659231
368.322893	2510.494615
368.710388	2507.974038
369.097820	2424.795000
369.485189	2407.150962
369.872495	2555.865000
370.259738	2414.712692
370.646918	2487.809423
371.034035	2487.809423
371.421090	2492.850577
371.808081	2346.657115
372.195010	2422.274423
372.581875	2492.850577
372.968678	2397.068654
373.355418	2515.535769
373.742096	2412.192115
374.128710	2495.371154
374.515262	2444.959615
374.901751	2432.356731
375.288177	2437.397885
375.674540	2384.465769
376.060841	2452.521346
376.447079	2432.356731
376.833254	2485.288846
377.219367	2447.480192
377.605417	2482.768269
377.991404	2419.753846
378.377329	2434.877308
378.763191	2447.480192
379.148991	2407.150962
379.534727	2444.959615
379.920402	2470.165385
380.306013	2518.056346
380.691563	2452.521346
381.077049	2558.385577
381.462474	2437.397885
381.847835	2560.906154
382.233134	2538.220962
382.618371	2475.206538
383.003545	2457.562500
383.388657	2487.809423
383.773706	2475.206538
384.158693	2467.644808
384.543618	2467.644808
384.928480	2452.521346
385.313280	2457.562500
385.698017	2442.439038
386.082692	2477.727115
386.467305	2432.356731
386.851856	2414.712692
387.236344	2502.932885
387.620770	2450.000769
388.005133	2397.068654
388.389435	2429.836154
388.773674	2457.562500
389.157851	2450.000769
389.541965	2429.836154
389.926018	2397.068654
390.310008	2475.206538
390.693936	2437.397885
391.077802	2434.877308
391.461606	2450.000769
391.845348	2477.727115
392.229027	2437.397885
392.612645	2528.138654
392.996200	2487.809423
393.379694	2470.165385
393.763125	2417.233269
394.146494	2402.109808
394.529801	2482.768269
394.913047	2442.439038
395.296230	2480.247692
395.679351	2472.685962
396.062410	2495.371154
396.445408	2495.371154
396.828343	2455.041923
397.211217	2439.918462
397.594028	2419.753846
397.976778	2457.562500
398.359466	2447.480192
398.742092	2462.603654
399.124656	2419.753846
399.507158	2434.877308
399.889598	2502.932885
400.271977	2507.974038
400.654294	2505.453462
401.036549	2530.659231
401.418742	2397.068654
401.800874	2500.412308
402.182944	2507.974038
402.564952	2442.439038
402.946898	2475.206538
403.328783	2422.274423
403.710606	2485.288846
404.092367	2447.480192
404.474067	2530.659231
404.855705	2502.932885
405.237282	2510.494615
405.618797	2472.685962
406.000250	2492.850577
406.381642	2555.865000
406.762972	2460.083077
407.144240	2465.124231
407.525447	2460.083077
407.906593	2485.288846
408.287677	2477.727115
408.668700	2570.988462
409.049661	2487.809423
409.430560	2465.124231
409.811399	2477.727115
410.192176	2432.356731
410.572891	2480.247692
410.953545	2452.521346
411.334138	2462.603654
411.714669	2452.521346
412.095139	2490.330000
412.475547	2455.041923
412.855894	2434.877308
413.236180	2429.836154
413.616405	2439.918462
413.996568	2545.782692
414.376670	2507.974038
414.756711	2553.344423
415.136691	2424.795000
415.516609	2490.330000
415.896466	2452.521346
416.276262	2513.015192
416.655997	2545.782692
417.035670	2447.480192
417.415283	2455.041923
417.794834	2475.206538
418.174324	2389.506923
418.553753	2482.768269
418.933121	2553.344423
419.312428	2482.768269
419.691674	2477.727115
420.070859	2424.795000
420.449983	2475.206538
420.829045	2530.659231
421.208047	2470.165385
421.586988	2407.150962
421.965867	2462.603654
422.344686	2518.056346
422.723444	2429.836154
423.102141	2495.371154
423.480777	2507.974038
423.859352	2419.753846
424.237866	2487.809423
424.616319	2490.330000
424.994712	2492.850577
425.373044	2462.603654
425.751314	2520.576923
426.129524	2467.644808
426.507673	2540.741538
426.885762	2490.330000
427.263789	2460.083077
427.641756	2505.453462
428.019662	2472.685962
428.397508	2500.412308
428.775292	2460.083077
429.153016	2560.906154
429.530679	2513.015192
429.908282	2505.453462
430.285824	2475.206538
430.663305	2500.412308
431.040726	2540.741538
431.418086	2470.165385
431.795385	2467.644808
432.172624	2477.727115
432.549802	2555.865000
432.926920	2460.083077
433.303977	2525.618077
433.680974	2502.932885
434.057910	2538.220962
434.434786	2482.768269
434.811601	2535.700385
435.188355	2548.303269
435.565050	2490.330000
435.941683	2472.685962
436.318257	2394.548077
436.694770	2386.986346
437.071222	2462.603654
437.447614	2465.124231
437.823946	2505.453462
438.200218	2452.521346
438.576429	2432.356731
438.952580	2495.371154
439.328670	2462.603654
439.704700	2442.439038
440.080670	2510.494615
440.456580	2570.988462
440.832429	2482.768269
441.208218	2560.906154
441.583947	2455.041923
441.959616	2540.741538
442.335224	2450.000769
442.710773	2500.412308
443.086261	2480.247692
443.461689	2568.467885
443.837057	2455.041923
444.212365	2470.165385
444.587612	2465.124231
444.962800	2369.342308
445.337927	2538.220962
445.712995	2568.467885
446.088002	2444.959615
446.462949	2366.821731
446.837837	2429.836154
447.212664	2487.809423
447.587431	2417.233269
447.962139	2507.974038
448.336786	2472.685962
448.711374	2495.371154
449.085901	2507.974038
449.460369	2538.220962
449.834776	2452.521346
450.209124	2465.124231
450.583412	2437.397885
450.957640	2492.850577
451.331808	2558.385577
451.705917	2490.330000
452.079965	2502.932885
452.453954	2437.397885
452.827883	2485.288846
453.201752	2523.097500
453.575562	2560.906154
453.949311	2444.959615
454.323001	2523.097500
454.696632	2497.891731
455.070202	2429.836154
455.443713	2465.124231
455.817164	2467.644808
456.190556	2520.576923
456.563888	2563.426731
456.937160	2475.206538
457.310373	2477.727115
457.683526	2513.015192
458.056619	2490.330000
458.429653	2434.877308
458.802628	2497.891731
459.175542	2497.891731
459.548398	2545.782692
459.921194	2520.576923
460.293930	2417.233269
460.666607	2407.150962
461.039224	2492.850577
461.411782	2447.480192
461.784280	2409.671538
462.156719	2487.809423
462.529099	2497.891731
462.901419	2439.918462
463.273680	2482.768269
463.645882	2419.753846
464.018024	2507.974038
464.390106	2407.150962
464.762130	2540.741538
465.134094	2485.288846
465.505999	2570.988462
465.877845	2467.644808
466.249631	2513.015192
466.621358	2505.453462
466.993026	2412.192115
467.364634	2490.330000
467.736184	2538.220962
468.107674	2570.988462
468.479105	2507.974038
468.850477	2465.124231
469.221790	2505.453462
469.593043	2457.562500
469.964238	2490.330000
470.335373	2432.356731
470.706449	2538.220962
471.077467	2487.809423
471.448425	2513.015192
471.819324	2530.659231
472.190164	2490.330000
472.560945	2563.426731
472.931667	2397.068654
473.302330	2535.700385
473.672934	2470.165385
474.043479	2510.494615
474.413965	2379.424615
474.784393	2472.685962
475.154761	2442.439038
475.525070	2525.618077
475.895321	2555.865000
476.265513	2535.700385
476.635645	2570.988462
477.005719	2505.453462
477.375734	2533.179808
477.745691	2558.385577
478.115588	2553.344423
478.485427	2540.741538
478.855207	2437.397885
479.224928	2520.576923
479.594591	2497.891731
479.964194	2520.576923
480.333739	2480.247692
480.703226	2538.220962
481.072653	2460.083077
481.442022	2472.685962
481.811333	2475.206538
482.180584	2500.412308
482.549777	2482.768269
482.918912	2455.041923
483.287988	2434.877308
483.657005	2553.344423
484.025964	2490.330000
484.394864	2540.741538
484.763706	2543.262115
485.132489	2538.220962
485.501213	2500.412308
485.869879	2510.494615
486.238487	2540.741538
486.607036	2545.782692
486.975527	2497.891731
487.343959	2444.959615
487.712333	2520.576923
488.080648	2530.659231
488.448905	2568.467885
488.817104	2518.056346
489.185244	2568.467885
489.553326	2505.453462
489.921350	2505.453462
490.289315	2437.397885
490.657222	2447.480192
491.025070	2497.891731
491.392861	2502.932885
491.760593	2457.562500
492.128267	2543.262115
492.495883	2432.356731
492.863440	2568.467885
493.230939	2581.070769
493.598380	2528.138654
493.965763	2475.206538
494.333088	2409.671538
494.700354	2492.850577
495.067563	2470.165385
495.434713	2573.509038
495.801805	2482.768269
496.168839	2510.494615
496.535815	2565.947308
496.902733	2500.412308
497.269593	2470.165385
497.636395	2505.453462
498.003139	2465.124231
498.369825	2538.220962
498.736453	2455.041923
499.103023	2535.700385
499.469535	2492.850577
499.835989	2518.056346
500.202385	2381.945192
500.568723	2497.891731
500.935003	2467.644808
501.301226	2505.453462
501.667390	2553.344423
502.033497	2364.301154
502.399546	2518.056346
502.765537	2452.521346
503.131470	2543.262115
503.497345	2495.371154
503.863163	2487.809423
504.228923	2467.644808
504.594625	2581.070769
504.960269	2404.630385
505.325856	2497.891731
505.691385	2548.303269
506.056856	2452.521346
506.422270	2470.165385
506.787625	2578.550192
507.152924	2497.891731
507.518164	2492.850577
507.883347	2455.041923
508.248472	2470.165385
508.613540	2533.179808
508.978550	2477.727115
509.343503	2409.671538
509.708398	2442.439038
510.073236	2475.206538
510.438016	2515.535769
510.802738	2528.138654
511.167403	2470.165385
511.532010	2495.371154
511.896561	2442.439038
512.261053	2513.015192
512.625488	2452.521346
512.989866	2495.371154
513.354186	2397.068654
513.718449	2581.070769
514.082655	2470.165385
514.446803	2510.494615
514.810894	2568.467885
515.174927	2482.768269
515.538904	2555.865000
515.902822	2414.712692
516.266684	2520.576923
516.630488	2528.138654
516.994235	2434.877308
517.357925	2397.068654
517.721558	2558.385577
518.085133	2465.124231
518.448651	2533.179808
518.812112	2452.521346
519.175516	2502.932885
519.538863	2518.056346
519.902152	2492.850577
520.265385	2485.288846
520.628560	2530.659231
520.991678	2490.330000
521.354739	2502.932885
521.717743	2485.288846
522.080690	2523.097500
522.443580	2460.083077
522.806413	2490.330000
523.169189	2485.288846
523.531908	2502.932885
523.894569	2475.206538
524.257174	2535.700385
524.619722	2525.618077
524.982213	2477.727115
525.344647	2510.494615
525.707025	2507.974038
526.069345	2568.467885
526.431608	2492.850577
526.793815	2422.274423
527.155964	2560.906154
527.518057	2482.768269
527.880093	2568.467885
528.242072	2530.659231
528.603995	2419.753846
528.965860	2505.453462
529.327669	2429.836154
529.689421	2432.356731
530.051117	2495.371154
530.412755	2515.535769
530.774337	2462.603654
531.135862	2460.083077
531.497331	2444.959615
531.858743	2452.521346
532.220098	2507.974038
532.581396	2470.165385
532.942638	2565.947308
533.303824	2513.015192
533.664953	2444.959615
534.026025	2518.056346
534.387040	2434.877308
534.747999	2502.932885
535.108902	2500.412308
535.469748	2467.644808
535.830537	2583.591346
536.191270	2457.562500
536.551947	2545.782692
536.912567	2475.206538
537.273131	2437.397885
537.633638	2515.535769
537.994089	2477.727115
538.354483	2432.356731
538.714821	2528.138654
539.075103	2553.344423
539.435328	2548.303269
539.795497	2477.727115
540.155609	2500.412308
540.515665	2422.274423
540.875665	2490.330000
541.235609	2432.356731
541.595496	2523.097500
541.955328	2505.453462
542.315102	2460.083077
542.674821	2480.247692
543.034483	2560.906154
543.394090	2545.782692
543.753640	2507.974038
544.113134	2450.000769
544.472571	2505.453462
544.831953	2550.823846
545.191278	2437.397885
545.550548	2477.727115
545.909761	2434.877308
546.268918	2412.192115
546.628019	2525.618077
546.987064	2492.850577
547.346053	2563.426731
547.704986	2417.233269
548.063863	2495.371154
548.422684	2452.521346
548.781449	2520.576923
549.140158	2475.206538
549.498811	2528.138654
549.857408	2412.192115
550.215949	2505.453462
550.574434	2475.206538
550.932864	2513.015192
551.291237	2462.603654
551.649555	2570.988462
552.007817	2457.562500
552.366022	2427.315577
552.724173	2520.576923
553.082267	2490.330000
553.440305	2535.700385
553.798288	2533.179808
554.156215	2523.097500
554.514086	2394.548077
554.871902	2439.918462
555.229661	2548.303269
555.587365	2515.535769
555.945014	2560.906154
556.302606	2427.315577
556.660143	2581.070769
557.017625	2538.220962
557.375050	2432.356731
557.732421	2465.124231
558.089735	2457.562500
558.446994	2606.276538
558.804197	2608.797115
559.161345	2500.412308
559.518437	2593.673654
559.875474	2422.274423
560.232455	2553.344423
560.589381	2487.809423
560.946251	2550.823846
561.303065	2565.947308
561.659825	2505.453462
562.016528	2515.535769
562.373177	2487.809423
562.729770	2545.782692
563.086307	2533.179808
563.442789	2467.644808
563.799216	2528.138654
564.155587	2487.809423
564.511904	2502.932885
564.868164	2570.988462
565.224370	2623.920577
565.580520	2452.521346
565.936615	2427.315577
566.292654	2490.330000
566.648638	2515.535769
567.004567	2530.659231
567.360441	2510.494615
567.716260	2523.097500
568.072023	2475.206538
568.427732	2462.603654
568.783385	2404.630385
569.138982	2460.083077
569.494525	2545.782692
569.850013	2472.685962
570.205445	2495.371154
570.560823	2518.056346
570.916145	2500.412308
571.271412	2457.562500
571.626625	2576.029615
571.981782	2502.932885
572.336884	2492.850577
572.691931	2480.247692
573.046923	2442.439038
573.401860	2497.891731
573.756743	2419.753846
574.111570	2495.371154
574.466342	2419.753846
574.821059	2490.330000
575.175722	2487.809423
575.530330	2550.823846
575.884882	2462.603654
576.239380	2525.618077
576.593823	2429.836154
576.948211	2603.755962
577.302544	2480.247692
577.656823	2450.000769
578.011047	2442.439038
578.365216	2616.358846
578.719330	2434.877308
579.073389	2545.782692
579.427394	2525.618077
579.781344	2555.865000
580.135239	2523.097500
580.489080	2543.262115
580.842866	2487.809423
581.196597	2573.509038
581.550273	2497.891731
581.903895	2500.412308
582.257463	2530.659231
582.610975	2497.891731
582.964434	2505.453462
583.317837	2457.562500
583.671186	2555.865000
584.024481	2515.535769
584.377721	2518.056346
584.730906	2487.809423
585.084037	2482.768269
585.437113	2497.891731
585.790135	2538.220962
586.143103	2513.015192
586.496016	2513.015192
586.848874	2480.247692
587.201679	2497.891731
587.554428	2447.480192
587.907124	2470.165385
588.259765	2409.671538
588.612352	2455.041923
588.964884	2457.562500
589.317362	2442.439038
589.669786	2560.906154
590.022155	2465.124231
590.374470	2487.809423
590.726731	2472.685962
591.078937	2560.906154
591.431090	2576.029615
591.783188	2598.714808
592.135232	2477.727115
592.487222	2535.700385
592.839157	2429.836154
593.191038	2518.056346
593.542866	2558.385577
593.894639	2528.138654
594.246358	2472.685962
594.598022	2560.906154
594.949633	2482.768269
595.301190	2492.850577
595.652692	2467.644808
596.004141	2480.247692
596.355535	2465.124231
596.706876	2510.494615
597.058162	2505.453462
597.409395	2492.850577
597.760573	2515.535769
598.111698	2563.426731
598.462768	2485.288846
598.813785	2553.344423
599.164748	2535.700385
599.515657	2452.521346
599.866511	2460.083077
600.217312	2507.974038
600.568060	2490.330000
600.918753	2497.891731
601.269392	2515.535769
601.619978	2530.659231
601.970510	2442.439038
602.320988	2419.753846
602.671412	2502.932885
603.021783	2507.974038
603.372100	2460.083077
603.722363	2485.288846
604.072572	2540.741538
604.422728	2540.741538
604.772830	2482.768269
605.122878	2591.153077
605.472872	2432.356731
605.822813	2570.988462
606.172701	2520.576923
606.522534	2520.576923
606.872314	2520.576923
607.222041	2500.412308
607.571714	2596.194231
607.921333	2434.877308
608.270899	2465.124231
608.620411	2399.589231
608.969870	2495.371154
609.319276	2467.644808
609.668627	2442.439038
610.017926	2492.850577
610.367171	2515.535769
610.716362	2452.521346
611.065500	2507.974038
611.414585	2419.753846
611.763616	2540.741538
612.112594	2497.891731
612.461518	2510.494615
612.810389	2467.644808
613.159207	2475.206538
613.507971	2465.124231
613.856682	2538.220962
614.205340	2495.371154
614.553945	2457.562500
614.902496	2497.891731
615.250994	2381.945192
615.599439	2523.097500
615.947830	2583.591346
616.296169	2462.603654
616.644454	2548.303269
616.992686	2424.795000
617.340864	2545.782692
617.688990	2460.083077
618.037063	2495.371154
618.385082	2578.550192
618.733048	2422.274423
619.080961	2543.262115
619.428821	2444.959615
619.776628	2447.480192
620.124382	2397.068654
620.472083	2500.412308
620.819731	2404.630385
621.167326	2513.015192
621.514868	2427.315577
621.862357	2477.727115
622.209793	2495.371154
622.557176	2497.891731
622.904506	2419.753846
623.251783	2482.768269
623.599007	2583.591346
623.946179	2427.315577
624.293297	2523.097500
624.640363	2480.247692
624.987376	2520.576923
625.334336	2399.589231
625.681243	2528.138654
626.028097	2545.782692
626.374899	2485.288846
626.721647	2500.412308
627.068343	2545.782692
627.414987	2472.685962
627.761577	2533.179808
628.108115	2482.768269
628.454600	2505.453462
628.801032	2543.262115
629.147412	2560.906154
629.493739	2505.453462
629.840014	2530.659231
630.186236	2467.644808
630.532405	2560.906154
630.878521	2460.083077
631.224585	2553.344423
631.570597	2550.823846
631.916556	2497.891731
632.262462	2505.453462
632.608316	2510.494615
632.954117	2495.371154
633.299866	2540.741538
633.645562	2502.932885
633.991206	2492.850577
634.336797	2520.576923
634.682336	2497.891731
635.027823	2550.823846
635.373257	2515.535769
635.718639	2530.659231
636.063968	2550.823846
636.409245	2497.891731
636.754470	2424.795000
637.099642	2427.315577
637.444762	2515.535769
637.789829	2490.330000
638.134845	2513.015192
638.479808	2467.644808
638.824719	2573.509038
639.169577	2487.809423
639.514383	2439.918462
639.859137	2581.070769
640.203839	2548.303269
640.548489	2434.877308
640.893086	2472.685962
641.237632	2465.124231
641.582125	2490.330000
641.926566	2477.727115
642.270955	2523.097500
642.615292	2505.453462
642.959576	2553.344423
643.303809	2500.412308
643.647990	2507.974038
643.992118	2515.535769
644.336195	2502.932885
644.680219	2550.823846
645.024192	2545.782692
645.368112	2583.591346
645.711981	2462.603654
646.055797	2535.700385
646.399562	2545.782692
646.743274	2452.521346
647.086935	2450.000769
647.430544	2455.041923
647.774101	2457.562500
648.117606	2462.603654
648.461059	2505.453462
648.804460	2545.782692
649.147810	2523.097500
649.491108	2472.685962
649.834354	2450.000769
650.177548	2543.262115
650.520690	2533.179808
650.863781	2535.700385
651.206820	2555.865000
651.549807	2550.823846
651.892742	2545.782692
652.235626	2460.083077
652.578458	2548.303269
652.921238	2538.220962
653.263967	2394.548077
653.606644	2507.974038
653.949269	2439.918462
654.291843	2507.974038
654.634365	2482.768269
654.976836	2437.397885
655.319255	2583.591346
655.661622	2475.206538
656.003938	2487.809423
656.346203	2434.877308
656.688416	2487.809423
657.030577	2520.576923
657.372687	2553.344423
657.714746	2487.809423
658.056753	2467.644808
658.398708	2452.521346
658.740612	2530.659231
659.082465	2465.124231
659.424266	2507.974038
659.766016	2422.274423
660.107715	2530.659231
660.449362	2485.288846
660.790958	2482.768269
661.132503	2528.138654
661.473996	2540.741538
661.815438	2545.782692
662.156829	2402.109808
662.498168	2439.918462
662.839456	2553.344423
663.180693	2510.494615
663.521879	2497.891731
663.863013	2530.659231
664.204097	2535.700385
664.545129	2460.083077
664.886110	2490.330000
665.227040	2477.727115
665.567918	2540.741538
665.908746	2518.056346
666.249522	2560.906154
666.590248	2565.947308
666.930922	2442.439038
667.271545	2465.124231
667.612118	2462.603654
667.952639	2545.782692
668.293109	2477.727115
668.633528	2540.741538
668.973896	2563.426731
669.314213	2570.988462
669.654480	2543.262115
669.994695	2487.809423
670.334859	2530.659231
670.674973	2505.453462
671.015035	2540.741538
671.355047	2505.453462
671.695008	2452.521346
672.034918	2560.906154
672.374777	2558.385577
672.714585	2586.111923
673.054342	2518.056346
673.394049	2490.330000
673.733705	2540.741538
674.073310	2442.439038
674.412864	2472.685962
674.752368	2502.932885
675.091820	2550.823846
675.431223	2450.000769
675.770574	2495.371154
676.109875	2485.288846
676.449125	2510.494615
676.788324	2450.000769
677.127473	2455.041923
677.466571	2502.932885
677.805619	2477.727115
678.144616	2510.494615
678.483562	2530.659231
678.822458	2523.097500
679.161303	2429.836154
679.500098	2477.727115
679.838842	2485.288846
680.177535	2530.659231
680.516179	2540.741538
680.854771	2470.165385
681.193314	2472.685962
681.531805	2482.768269
681.870247	2545.782692
682.208638	2495.371154
682.546978	2555.865000
682.885268	2505.453462
683.223508	2560.906154
683.561697	2482.768269
683.899836	2538.220962
684.237925	2442.439038
684.575963	2518.056346
684.913951	2545.782692
685.251889	2460.083077
685.589776	2402.109808
685.927614	2485.288846
686.265401	2462.603654
686.603137	2558.385577
686.940824	2480.247692
687.278460	2510.494615
687.616046	2457.562500
687.953582	2510.494615
688.291068	2523.097500
688.628504	2586.111923
688.965889	2465.124231
689.303224	2482.768269
689.640510	2450.000769
689.977745	2581.070769
690.314930	2497.891731
690.652065	2553.344423
690.989150	2409.671538
691.326185	2434.877308
691.663170	2434.877308
692.000105	2462.603654
692.336990	2424.795000
692.673825	2424.795000
693.010610	2472.685962
693.347345	2548.303269
693.684030	2505.453462
694.020665	2492.850577
694.357251	2523.097500
694.693786	2495.371154
695.030272	2437.397885
695.366707	2528.138654
695.703093	2505.453462
696.039429	2505.453462
696.375716	2482.768269
696.711952	2437.397885
697.048139	2462.603654
697.384276	2533.179808
697.720363	2533.179808
698.056400	2485.288846
698.392388	2497.891731
698.728326	2475.206538
699.064214	2490.330000
699.400053	2555.865000
699.735842	2518.056346
700.071581	2427.315577
700.407270	2548.303269
700.742910	2495.371154
701.078501	2487.809423
701.414042	2457.562500
701.749533	2452.521346
702.084974	2518.056346
702.420366	2543.262115
702.755709	2563.426731
703.091002	2497.891731
703.426246	2545.782692
703.761440	2422.274423
704.096584	2525.618077
704.431679	2470.165385
704.766725	2447.480192
705.101721	2502.932885
705.436668	2450.000769
705.771565	2543.262115
706.106413	2460.083077
706.441212	2573.509038
706.775961	2465.124231
707.110661	2424.795000
707.445311	2480.247692
707.779913	2465.124231
708.114465	2485.288846
708.448967	2487.809423
708.783421	2477.727115
709.117825	2530.659231
709.452180	2467.644808
709.786485	2513.015192
710.120742	2558.385577
710.454949	2407.150962
710.789107	2480.247692
711.123216	2427.315577
711.457275	2465.124231
711.791286	2482.768269
712.125247	2502.932885
712.459159	2520.576923
712.793023	2477.727115
713.126837	2482.768269
713.460602	2465.124231
713.794318	2475.206538
714.127985	2570.988462
714.461602	2523.097500
714.795171	2505.453462
715.128691	2568.467885
715.462162	2437.397885
715.795584	2490.330000
716.128957	2434.877308
716.462281	2492.850577
716.795556	2477.727115
717.128782	2523.097500
717.461960	2510.494615
717.795088	2558.385577
718.128167	2485.288846
718.461198	2487.809423
718.794180	2555.865000
719.127113	2434.877308
719.459997	2513.015192
719.792833	2553.344423
720.125619	2452.521346
720.458357	2538.220962
720.791046	2492.850577
721.123686	2455.041923
721.456278	2515.535769
721.788821	2470.165385
722.121315	2507.974038
722.453761	2439.918462
722.786158	2452.521346
723.118506	2462.603654
723.450805	2525.618077
723.783056	2553.344423
724.115259	2409.671538
724.447412	2480.247692
724.779518	2485.288846
725.111574	2497.891731
725.443582	2480.247692
725.775542	2520.576923
726.107453	2485.288846
726.439315	2366.821731
726.771129	2502.932885
727.102895	2510.494615
727.434612	2570.988462
727.766281	2472.685962
728.097901	2528.138654
728.429473	2470.165385
728.760996	2485.288846
729.092471	2525.618077
729.423897	2515.535769
729.755276	2543.262115
730.086606	2475.206538
730.417887	2563.426731
730.749120	2432.356731
731.080305	2487.809423
731.411442	2505.453462
731.742530	2543.262115
732.073570	2500.412308
732.404562	2450.000769
732.735506	2588.632500
733.066401	2492.850577
733.397249	2455.041923
733.728048	2530.659231
734.058798	2505.453462
734.389501	2472.685962
734.720156	2560.906154
735.050762	2598.714808
735.381320	2530.659231
735.711831	2447.480192
736.042293	2490.330000
736.372707	2505.453462
736.703073	2402.109808
737.033391	2399.589231
737.363661	2558.385577
737.693883	2460.083077
738.024056	2497.891731
738.354182	2485.288846
738.684260	2490.330000
739.014290	2538.220962
739.344272	2550.823846
739.674207	2422.274423
740.004093	2482.768269
740.333931	2475.206538
740.663722	2513.015192
740.993464	2470.165385
741.323159	2480.247692
741.652806	2460.083077
741.982405	2507.974038
742.311956	2495.371154
742.641460	2565.947308
742.970915	2450.000769
743.300323	2510.494615
743.629683	2492.850577
743.958996	2563.426731
744.288260	2417.233269
744.617477	2404.630385
744.946647	2495.371154
745.275768	2450.000769
745.604842	2414.712692
745.933869	2437.397885
746.262847	2507.974038
746.591778	2482.768269
746.920662	2465.124231
747.249498	2442.439038
747.578286	2543.262115
747.907027	2487.809423
748.235720	2525.618077
748.564365	2452.521346
748.892963	2485.288846
749.221514	2460.083077
749.550017	2573.509038
749.878473	2513.015192
750.206881	2460.083077
750.535242	2523.097500
750.863555	2470.165385
751.191821	2455.041923
751.520039	2379.424615
751.848210	2480.247692
752.176334	2510.494615
752.504411	2530.659231
752.832440	2497.891731
753.160421	2434.877308
753.488356	2389.506923
753.816243	2490.330000
754.144082	2465.124231
754.471875	2523.097500
754.799620	2528.138654
755.127318	2535.700385
755.454969	2450.000769
755.782572	2497.891731
756.110129	2475.206538
756.437638	2482.768269
756.765100	2467.644808
757.092515	2510.494615
757.419882	2467.644808
757.747203	2497.891731
758.074477	2444.959615
758.401703	2472.685962
758.728882	2505.453462
759.056014	2528.138654
759.383099	2583.591346
759.710138	2497.891731
760.037129	2470.165385
760.364073	2432.356731
760.690970	2497.891731
761.017820	2460.083077
761.344623	2487.809423
761.671379	2505.453462
761.998088	2520.576923
762.324751	2427.315577
762.651366	2485.288846
762.977935	2568.467885
763.304456	2477.727115
763.630931	2414.712692
763.957359	2528.138654
764.283740	2462.603654
764.610074	2543.262115
764.936362	2588.632500
765.262602	2563.426731
765.588796	2492.850577
765.914943	2485.288846
766.241044	2515.535769
766.567097	2427.315577
766.893104	2525.618077
767.219064	2429.836154
767.544978	2538.220962
767.870845	2487.809423
768.196665	2467.644808
768.522438	2573.509038
768.848165	2465.124231
769.173846	2538.220962
769.499479	2467.644808
769.825066	2497.891731
770.150607	2520.576923
770.476101	2568.467885
770.801548	2507.974038
771.126949	2507.974038
771.452303	2533.179808
771.777611	2439.918462
772.102872	2477.727115
772.428087	2518.056346
772.753256	2497.891731
773.078378	2565.947308
773.403453	2480.247692
773.728482	2442.439038
774.053465	2487.809423
774.378401	2563.426731
774.703291	2477.727115
775.028135	2485.288846
775.352932	2560.906154
775.677683	2482.768269
776.002388	2475.206538
776.327046	2528.138654
776.651658	2432.356731
776.976224	2535.700385
777.300743	2530.659231
777.625216	2487.809423
777.949643	2538.220962
778.274024	2419.753846
778.598359	2513.015192
778.922647	2480.247692
779.246889	2548.303269
779.571086	2523.097500
779.895236	2510.494615
780.219339	2475.206538
780.543397	2389.506923
780.867409	2513.015192
781.191374	2465.124231
781.515294	2525.618077
781.839167	2472.685962
782.162995	2535.700385
782.486776	2455.041923
782.810511	2533.179808
783.134201	2507.974038
783.457844	2510.494615
783.781441	2578.550192
784.104993	2417.233269
784.428498	2520.576923
784.751958	2482.768269
785.075372	2455.041923
785.398739	2457.562500
785.722061	2452.521346
786.045337	2510.494615
786.368568	2470.165385
786.691752	2447.480192
787.014891	2457.562500
787.337983	2475.206538
787.661030	2444.959615
787.984031	2475.206538
788.306987	2538.220962
788.629897	2513.015192
788.952760	2467.644808
789.275579	2447.480192
789.598351	2467.644808
789.921078	2497.891731
790.243759	2555.865000
790.566395	2523.097500
790.888984	2452.521346
791.211529	2538.220962
791.534027	2548.303269
791.856480	2533.179808
792.178888	2555.865000
792.501249	2570.988462
792.823566	2457.562500
793.145836	2482.768269
793.468062	2510.494615
793.790241	2553.344423
794.112375	2450.000769
794.434464	2502.932885
794.756507	2455.041923
795.078505	2505.453462
795.400457	2515.535769
795.722364	2450.000769
796.044226	2465.124231
796.366042	2407.150962
796.687812	2513.015192
797.009538	2467.644808
797.331218	2465.124231
797.652852	2513.015192
797.974442	2442.439038
798.295986	2525.618077
798.617484	2422.274423
798.938938	2538.220962
799.260346	2515.535769
799.581709	2591.153077
799.903026	2442.439038
800.224299	2530.659231
800.545526	2457.562500
800.866708	2523.097500
801.187845	2535.700385
801.508936	2455.041923
801.829983	2429.836154
802.150984	2432.356731
802.471940	2530.659231
802.792851	2502.932885
803.113717	2437.397885
803.434538	2465.124231
803.755314	2444.959615
804.076045	2525.618077
804.396731	2525.618077
804.717372	2487.809423
805.037967	2523.097500
805.358518	2558.385577
805.679024	2538.220962
805.999485	2523.097500
806.319901	2427.315577
806.640272	2485.288846
806.960598	2472.685962
807.280879	2482.768269
807.601115	2480.247692
807.921306	2507.974038
808.241453	2543.262115
808.561554	2434.877308
808.881611	2505.453462
809.201623	2490.330000
809.521590	2432.356731
809.841513	2404.630385
810.161390	2573.509038
810.481223	2472.685962
810.801011	2470.165385
811.120755	2485.288846
811.440453	2497.891731
811.760107	2515.535769
812.079716	2530.659231
812.399281	2475.206538
812.718801	2497.891731
813.038276	2507.974038
813.357707	2528.138654
813.677093	2576.029615
813.996434	2497.891731
814.315731	2472.685962
814.634983	2432.356731
814.954191	2502.932885
815.273354	2457.562500
815.592473	2462.603654
815.911547	2485.288846
816.230577	2535.700385
816.549562	2581.070769
816.868502	2507.974038
817.187399	2455.041923
817.506250	2427.315577
817.825058	2523.097500
818.143821	2490.330000
818.462539	2593.673654
818.781213	2412.192115
819.099843	2492.850577
819.418429	2576.029615
819.736970	2485.288846
820.055466	2450.000769
820.373919	2495.371154
820.692327	2455.041923
821.010691	2457.562500
821.329011	2523.097500
821.647286	2480.247692
821.965517	2492.850577
822.283704	2472.685962
822.601847	2467.644808
822.919945	2480.247692
823.237999	2586.111923
823.556010	2545.782692
823.873976	2465.124231
824.191897	2497.891731
824.509775	2460.083077
824.827609	2533.179808
825.145398	2482.768269
825.463144	2543.262115
825.780845	2467.644808
826.098502	2555.865000
826.416116	2560.906154
826.733685	2500.412308
827.051210	2424.795000
827.368692	2538.220962
827.686129	2487.809423
828.003522	2510.494615
828.320872	2470.165385
828.638177	2513.015192
828.955439	2593.673654
829.272656	2548.303269
829.589830	2530.659231
829.906960	2465.124231
830.224046	2490.330000
830.541088	2565.947308
830.858086	2523.097500
831.175041	2525.618077
831.491952	2442.439038
831.808819	2550.823846
832.125642	2533.179808
832.442421	2535.700385
832.759157	2482.768269
833.075849	2480.247692
833.392497	2505.453462
833.709101	2439.918462
834.025662	2507.974038
834.342179	2530.659231
834.658653	2490.330000
834.975083	2533.179808
835.291469	2450.000769
835.607811	2482.768269
835.924110	2455.041923
836.240366	2601.235385
836.556578	2505.453462
836.872746	2500.412308
837.188871	2429.836154
837.504952	2492.850577
837.820990	2460.083077
838.136984	2432.356731
838.452935	2540.741538
838.768842	2545.782692
839.084706	2480.247692
839.400526	2570.988462
839.716303	2525.618077
840.032037	2475.206538
840.347727	2497.891731
840.663373	2384.465769
840.978977	2530.659231
841.294537	2613.838269
841.610054	2457.562500
841.925527	2603.755962
842.240957	2487.809423
842.556344	2475.206538
842.871687	2399.589231
843.186987	2487.809423
843.502244	2490.330000
843.817458	2432.356731
844.132629	2467.644808
844.447756	2550.823846
844.762840	2477.727115
845.077881	2525.618077
845.392879	2475.206538
845.707833	2583.591346
846.022745	2455.041923
846.337613	2528.138654
846.652438	2507.974038
846.967221	2502.932885
847.281960	2500.412308
847.596656	2457.562500
847.911309	2523.097500
848.225919	2513.015192
848.540485	2444.959615
848.855009	2414.712692
849.169490	2502.932885
849.483928	2404.630385
849.798323	2505.453462
850.112675	2457.562500
850.426984	2442.439038
850.741251	2565.947308
851.055474	2477.727115
851.369654	2497.891731
851.683792	2482.768269
851.997887	2465.124231
852.311938	2492.850577
852.625947	2452.521346
852.939914	2477.727115
853.253837	2475.206538
853.567718	2593.673654
853.881555	2560.906154
854.195350	2540.741538
854.509103	2518.056346
854.822812	2548.303269
855.136479	2434.877308
855.450103	2455.041923
855.763685	2500.412308
856.077224	2487.809423
856.390720	2568.467885
856.704173	2518.056346
857.017584	2402.109808
857.330953	2460.083077
857.644278	2417.233269
857.957561	2518.056346
858.270802	2543.262115
858.584000	2460.083077
858.897155	2535.700385
859.210268	2462.603654
859.523339	2497.891731
859.836367	2455.041923
860.149352	2510.494615
860.462295	2477.727115
860.775195	2490.330000
861.088054	2432.356731
861.400869	2432.356731
861.713642	2550.823846
862.026373	2452.521346
862.339062	2495.371154
862.651708	2429.836154
862.964312	2475.206538
863.276873	2465.124231
863.589392	2429.836154
863.901869	2462.603654
864.214303	2500.412308
864.526696	2397.068654
864.839045	2543.262115
865.151353	2485.288846
865.463619	2450.000769
865.775842	2505.453462
866.088023	2477.727115
866.400162	2490.330000
866.712258	2558.385577
867.024313	2545.782692
867.336325	2487.809423
867.648296	2603.755962
867.960224	2475.206538
868.272110	2472.685962
868.583954	2477.727115
868.895755	2386.986346
869.207515	2490.330000
869.519233	2507.974038
869.830909	2490.330000
870.142542	2497.891731
870.454134	2507.974038
870.765684	2480.247692
871.077191	2412.192115
871.388657	2510.494615
871.700081	2518.056346
872.011463	2462.603654
872.322803	2550.823846
872.634101	2480.247692
872.945357	2495.371154
873.256571	2558.385577
873.567744	2525.618077
873.878874	2565.947308
874.189963	2490.330000
874.501010	2462.603654
874.812015	2518.056346
875.122979	2482.768269
875.433900	2533.179808
875.744780	2545.782692
876.055618	2424.795000
876.366415	2507.974038
876.677169	2439.918462
876.987882	2591.153077
877.298554	2477.727115
877.609183	2487.809423
877.919771	2432.356731
878.230317	2490.330000
878.540822	2570.988462
878.851285	2507.974038
879.161707	2528.138654
879.472087	2550.823846
879.782425	2480.247692
880.092722	2520.576923
880.402977	2603.755962
880.713191	2497.891731
881.023363	2510.494615
881.333494	2480.247692
881.643583	2495.371154
881.953631	2475.206538
882.263637	2548.303269
882.573602	2485.288846
882.883526	2520.576923
883.193408	2462.603654
883.503248	2472.685962
883.813048	2452.521346
884.122806	2518.056346
884.432522	2520.576923
884.742197	2465.124231
885.051831	2450.000769
885.361424	2460.083077
885.670975	2563.426731
885.980485	2530.659231
886.289954	2548.303269
886.599382	2419.753846
886.908768	2510.494615
887.218113	2535.700385
887.527417	2470.165385
887.836680	2487.809423
888.145901	2444.959615
888.455082	2444.959615
888.764221	2513.015192
889.073319	2470.165385
889.382376	2518.056346
889.691392	2502.932885
890.000366	2553.344423
890.309300	2419.753846
890.618193	2515.535769
890.927044	2492.850577
891.235855	2535.700385
891.544625	2530.659231
891.853353	2470.165385
892.162041	2528.138654
892.470687	2500.412308
892.779293	2558.385577
893.087858	2500.412308
893.396381	2424.795000
893.704864	2548.303269
894.013306	2434.877308
894.321707	2507.974038
894.630068	2490.330000
894.938387	2507.974038
895.246665	2452.521346
895.554903	2502.932885
895.863100	2432.356731
896.171256	2505.453462
896.479371	2507.974038
896.787446	2465.124231
897.095480	2510.494615
897.403473	2480.247692
897.711425	2528.138654
898.019336	2462.603654
898.327207	2472.685962
898.635038	2515.535769
898.942827	2455.041923
899.250576	2528.138654
899.558284	2500.412308
899.865952	2490.330000
900.173579	2502.932885
900.481165	2497.891731
900.788711	2523.097500
901.096216	2495.371154
901.403681	2490.330000
901.711105	2525.618077
902.018489	2412.192115
902.325832	2515.535769
902.633135	2422.274423
902.940397	2439.918462
903.247619	2533.179808
903.554800	2570.988462
903.861941	2412.192115
904.169041	2560.906154
904.476101	2455.041923
904.783121	2505.453462
905.090100	2424.795000
905.397039	2505.453462
905.703938	2490.330000
906.010796	2513.015192
906.317614	2502.932885
906.624391	2452.521346
906.931129	2492.850577
907.237826	2480.247692
907.544483	2606.276538
907.851099	2460.083077
908.157675	2510.494615
908.464211	2460.083077
908.770707	2480.247692
909.077163	2432.356731
909.383578	2500.412308
909.689954	2465.124231
909.996289	2480.247692
910.302584	2455.041923
910.608839	2535.700385
910.915054	2455.041923
911.221229	2442.439038
911.527363	2500.412308
911.833458	2492.850577
912.139513	2538.220962
912.445527	2523.097500
912.751502	2480.247692
913.057436	2550.823846
913.363331	2465.124231
913.669186	2477.727115
913.975000	2505.453462
914.280775	2570.988462
914.586510	2465.124231
914.892205	2497.891731
915.197859	2513.015192
915.503475	2507.974038
915.809050	2545.782692
916.114585	2528.138654
916.420081	2502.932885
916.725536	2505.453462
917.030952	2482.768269
917.336328	2497.891731
917.641665	2462.603654
917.946961	2490.330000
918.252218	2452.521346
918.557435	2450.000769
918.862612	2472.685962
919.167750	2485.288846
919.472848	2555.865000
919.777906	2460.083077
920.082925	2480.247692
920.387904	2450.000769
920.692843	2543.262115
920.997743	2543.262115
921.302603	2465.124231
921.607423	2495.371154
921.912204	2414.712692
922.216946	2495.371154
922.521647	2485.288846
922.826310	2412.192115
923.130932	2513.015192
923.435516	2507.974038
923.740059	2583.591346
924.044564	2533.179808
924.349028	2591.153077
924.653454	2444.959615
924.957840	2513.015192
925.262186	2515.535769
925.566493	2515.535769
925.870761	2500.412308
926.174989	2452.521346
926.479178	2475.206538
926.783328	2573.509038
927.087438	2513.015192
927.391509	2515.535769
927.695541	2455.041923
927.999533	2502.932885
928.303486	2419.753846
928.607400	2470.165385
928.911275	2427.315577
929.215110	2538.220962
929.518906	2520.576923
929.822663	2520.576923
930.126381	2505.453462
930.430060	2497.891731
930.733699	2518.056346
931.037299	2470.165385
931.340861	2611.317692
931.644383	2528.138654
931.947866	2523.097500
932.251309	2497.891731
932.554714	2424.795000
932.858080	2439.918462
933.161407	2548.303269
933.464694	2475.206538
933.767943	2528.138654
934.071153	2467.644808
934.374323	2429.836154
934.677455	2477.727115
934.980548	2402.109808
935.283602	2573.509038
935.586617	2442.439038
935.889593	2560.906154
936.192530	2548.303269
936.495428	2480.247692
936.798287	2455.041923
937.101108	2510.494615
937.403890	2500.412308
937.706632	2432.356731
938.009336	2510.494615
938.312002	2497.891731
938.614628	2455.041923
938.917216	2460.083077
939.219765	2444.959615
939.522275	2455.041923
939.824747	2457.562500
940.127179	2507.974038
940.429573	2480.247692
940.731929	2477.727115
941.034246	2543.262115
941.336524	2417.233269
941.638763	2513.015192
941.940964	2495.371154
942.243126	2533.179808
942.545250	2475.206538
942.847335	2513.015192
943.149381	2535.700385
943.451389	2563.426731
943.753359	2439.918462
944.055290	2528.138654
944.357182	2480.247692
944.659036	2447.480192
944.960851	2540.741538
945.262628	2399.589231
945.564367	2397.068654
945.866067	2535.700385
946.167729	2477.727115
946.469352	2470.165385
946.770937	2455.041923
947.072484	2492.850577
947.373992	2407.150962
947.675462	2472.685962
947.976893	2470.165385
948.278286	2583.591346
948.579641	2490.330000
948.880958	2523.097500
949.182236	2550.823846
949.483476	2510.494615
949.784678	2550.823846
950.085841	2510.494615
950.386967	2515.535769
950.688054	2444.959615
950.989103	2434.877308
951.290114	2460.083077
951.591087	2510.494615
951.892021	2457.562500
952.192917	2467.644808
952.493776	2472.685962
952.794596	2520.576923
953.095378	2490.330000
953.396122	2487.809423
953.696828	2543.262115
953.997496	2460.083077
954.298126	2480.247692
954.598718	2475.206538
954.899272	2523.097500
955.199788	2465.124231
955.500266	2505.453462
955.800706	2505.453462
956.101108	2518.056346
956.401472	2565.947308
956.701798	2467.644808
957.002087	2402.109808
957.302337	2502.932885
957.602550	2563.426731
957.902724	2482.768269
958.202861	2472.685962
958.502960	2525.618077
958.803022	2470.165385
959.103045	2434.877308
959.403031	2480.247692
959.702979	2500.412308
960.002889	2472.685962
960.302762	2465.124231
960.602596	2528.138654
960.902393	2510.494615
961.202153	2540.741538
961.501875	2434.877308
961.801559	2523.097500
962.101205	2548.303269
962.400814	2530.659231
962.700385	2475.206538
962.999918	2467.644808
963.299414	2424.795000
963.598873	2462.603654
963.898293	2450.000769
964.197677	2482.768269
964.497022	2477.727115
964.796331	2487.809423
965.095601	2470.165385
965.394835	2535.700385
965.694030	2510.494615
965.993189	2422.274423
966.292309	2518.056346
966.591393	2480.247692
966.890439	2482.768269
967.189447	2490.330000
967.488419	2465.124231
967.787353	2452.521346
968.086249	2555.865000
968.385108	2555.865000
968.683930	2490.330000
968.982714	2452.521346
969.281462	2540.741538
969.580172	2437.397885
969.878844	2432.356731
970.177480	2460.083077
970.476078	2460.083077
970.774639	2520.576923
971.073162	2462.603654
971.371649	2490.330000
971.670098	2455.041923
971.968510	2475.206538
972.266885	2490.330000
972.565223	2505.453462
972.863524	2475.206538
973.161788	2497.891731
973.460014	2437.397885
973.758204	2570.988462
974.056356	2462.603654
974.354471	2467.644808
974.652550	2573.509038
974.950591	2447.480192
975.248595	2515.535769
975.546563	2470.165385
975.844493	2472.685962
976.142386	2500.412308
976.440243	2487.809423
976.738062	2507.974038
977.035845	2540.741538
977.333590	2475.206538
977.631299	2515.535769
977.928971	2437.397885
978.226606	2422.274423
978.524204	2490.330000
978.821765	2447.480192
979.119290	2447.480192
979.416777	2518.056346
979.714228	2591.153077
980.011642	2465.124231
980.309020	2432.356731
980.606360	2472.685962
980.903664	2427.315577
981.200931	2495.371154
981.498162	2371.862885
981.795356	2545.782692
982.092513	2455.041923
982.389633	2573.509038
982.686717	2472.685962
982.983764	2550.823846
983.280775	2472.685962
983.577749	2497.891731
983.874686	2525.618077
984.171587	2455.041923
984.468451	2520.576923
984.765279	2450.000769
985.062070	2432.356731
985.358824	2487.809423
985.655543	2553.344423
985.952224	2500.412308
986.248869	2480.247692
986.545478	2525.618077
986.842050	2533.179808
987.138586	2465.124231
987.435086	2424.795000
987.731549	2500.412308
988.027975	2447.480192
988.324366	2545.782692
988.620719	2417.233269
988.917037	2457.562500
989.213318	2570.988462
989.509563	2462.603654
989.805772	2497.891731
990.101944	2553.344423
990.398080	2472.685962
990.694180	2490.330000
990.990244	2439.918462
991.286271	2563.426731
991.582262	2480.247692
991.878217	2520.576923
992.174136	2505.453462
992.470019	2515.535769
992.765865	2520.576923
993.061676	2480.247692
993.357450	2455.041923
993.653188	2533.179808
993.948890	2558.385577
994.244556	2485.288846
994.540186	2455.041923
994.835780	2467.644808
995.131337	2470.165385
995.426859	2497.891731
995.722345	2462.603654
996.017795	2472.685962
996.313208	2437.397885
996.608586	2505.453462
996.903928	2497.891731
997.199234	2439.918462
997.494504	2505.453462
997.789738	2518.056346
998.084936	2447.480192
998.380099	2507.974038
998.675225	2500.412308
998.970316	2392.027500
999.265371	2477.727115
999.560390	2502.932885
999.855373	2528.138654
1000.150320	2555.865000
1000.445232	2470.165385
1000.740108	2467.644808
1001.034948	2419.753846
1001.329752	2487.809423
1001.624521	2452.521346
1001.919254	2545.782692
1002.213951	2482.768269
1002.508613	2475.206538
1002.803239	2507.974038
1003.097829	2460.083077
1003.392384	2533.179808
1003.686903	2470.165385
1003.981386	2548.303269
1004.275834	2518.056346
1004.570246	2450.000769
1004.864623	2505.453462
1005.158964	2560.906154
1005.453270	2442.439038
1005.747540	2568.467885
1006.041775	2505.453462
1006.335974	2492.850577
1006.630138	2444.959615
1006.924266	2465.124231
1007.218359	2538.220962
1007.512416	2462.603654
1007.806438	2419.753846
1008.100425	2472.685962
1008.394376	2553.344423
1008.688292	2472.685962
1008.982172	2530.659231
1009.276017	2475.206538
1009.569827	2505.453462
1009.863602	2470.165385
1010.157341	2530.659231
1010.451045	2429.836154
1010.744714	2533.179808
1011.038347	2427.315577
1011.331945	2535.700385
1011.625508	2520.576923
1011.919036	2444.959615
1012.212528	2495.371154
1012.505986	2462.603654
1012.799408	2477.727115
1013.092795	2535.700385
1013.386147	2457.562500
1013.679464	2402.109808
1013.972745	2540.741538
1014.265992	2381.945192
1014.559204	2523.097500
1014.852380	2507.974038
1015.145521	2444.959615
1015.438628	2525.618077
1015.731699	2470.165385
1016.024736	2500.412308
1016.317737	2376.904038
1016.610703	2462.603654
1016.903635	2452.521346
1017.196531	2485.288846
1017.489393	2480.247692
1017.782219	2492.850577
1018.075011	2404.630385
1018.367768	2535.700385
1018.660490	2497.891731
1018.953177	2497.891731
1019.245829	2497.891731
