Dividing Wavelength (nm)	Counts (n)	Blue Motor Position (mm): 0.000000	Red Motor Position (mm): 9.800000	
326.493990	2152.572692
326.888308	2152.572692
327.282561	2152.572692
327.676750	2051.749615
328.070874	2064.352500
328.464933	2013.940962
328.858929	2059.311346
329.252859	2124.846346
329.646726	2079.475962
330.040528	2069.393654
330.434265	2104.681731
330.827938	2097.120000
331.221547	2170.216731
331.615091	2132.408077
332.008571	2213.066538
332.401986	2190.381346
332.795338	2238.272308
333.188625	2218.107692
333.581847	2265.998654
333.975006	2321.451346
334.368100	2233.231154
334.761129	2298.766154
335.154095	2349.177692
335.546996	2301.286731
335.939833	2364.301154
336.332606	2296.245577
336.725315	2424.795000
337.117960	2414.712692
337.510540	2369.342308
337.903056	2437.397885
338.295508	2392.027500
338.687896	2457.562500
339.080220	2407.150962
339.472480	2404.630385
339.864676	2528.138654
340.256807	2495.371154
340.648875	2492.850577
341.040879	2447.480192
341.432818	2513.015192
341.824694	2472.685962
342.216506	2593.673654
342.608253	2465.124231
342.999937	2472.685962
343.391557	2581.070769
343.783113	2525.618077
344.174605	2450.000769
344.566033	2462.603654
344.957397	2490.330000
345.348697	2450.000769
345.739934	2507.974038
346.131106	2490.330000
346.522215	2495.371154
346.913260	2450.000769
347.304241	2399.589231
347.695159	2437.397885
348.086012	2450.000769
348.476802	2477.727115
348.867528	2465.124231
349.258191	2480.247692
349.648789	2447.480192
350.039324	2470.165385
350.429796	2346.657115
350.820203	2513.015192
351.210548	2540.741538
351.600828	2386.986346
351.991045	2525.618077
352.381198	2397.068654
352.771288	2414.712692
353.161314	2455.041923
353.551276	2513.015192
353.941175	2427.315577
354.331010	2523.097500
354.720782	2497.891731
355.110490	2402.109808
355.500135	2389.506923
355.889717	2397.068654
356.279235	2515.535769
356.668689	2386.986346
357.058080	2500.412308
357.447408	2444.959615
357.836672	2366.821731
358.225873	2507.974038
358.615010	2442.439038
359.004084	2450.000769
359.393095	2442.439038
359.782043	2427.315577
360.170927	2467.644808
360.559748	2460.083077
360.948505	2540.741538
361.337199	2444.959615
361.725830	2447.480192
362.114398	2462.603654
362.502903	2465.124231
362.891344	2520.576923
363.279722	2422.274423
363.668037	2502.932885
364.056289	2404.630385
364.444478	2366.821731
364.832603	2450.000769
365.220665	2460.083077
365.608665	2470.165385
365.996601	2427.315577
366.384474	2457.562500
366.772284	2409.671538
367.160031	2480.247692
367.547715	2389.506923
367.935336	2472.685962
368.322893	2432.356731
368.710388	2470.165385
369.097820	2374.383462
369.485189	2510.494615
369.872495	2404.630385
370.259738	2359.260000
370.646918	2455.041923
371.034035	2427.315577
371.421090	2429.836154
371.808081	2487.809423
372.195010	2480.247692
372.581875	2402.109808
372.968678	2351.698269
373.355418	2465.124231
373.742096	2482.768269
374.128710	2490.330000
374.515262	2500.412308
374.901751	2439.918462
375.288177	2497.891731
375.674540	2409.671538
376.060841	2530.659231
376.447079	2455.041923
376.833254	2414.712692
377.219367	2487.809423
377.605417	2500.412308
377.991404	2515.535769
378.377329	2432.356731
378.763191	2422.274423
379.148991	2462.603654
379.534727	2384.465769
379.920402	2467.644808
380.306013	2465.124231
380.691563	2520.576923
381.077049	2414.712692
381.462474	2492.850577
381.847835	2482.768269
382.233134	2548.303269
382.618371	2455.041923
383.003545	2361.780577
383.388657	2374.383462
383.773706	2450.000769
384.158693	2417.233269
384.543618	2497.891731
384.928480	2485.288846
385.313280	2472.685962
385.698017	2480.247692
386.082692	2422.274423
386.467305	2316.410192
386.851856	2502.932885
387.236344	2465.124231
387.620770	2460.083077
388.005133	2520.576923
388.389435	2462.603654
388.773674	2500.412308
389.157851	2502.932885
389.541965	2505.453462
389.926018	2480.247692
390.310008	2535.700385
390.693936	2576.029615
391.077802	2530.659231
391.461606	2477.727115
391.845348	2444.959615
392.229027	2361.780577
392.612645	2492.850577
392.996200	2424.795000
393.379694	2513.015192
393.763125	2442.439038
394.146494	2530.659231
394.529801	2399.589231
394.913047	2492.850577
395.296230	2434.877308
395.679351	2500.412308
396.062410	2500.412308
396.445408	2424.795000
396.828343	2429.836154
397.211217	2417.233269
397.594028	2434.877308
397.976778	2460.083077
398.359466	2528.138654
398.742092	2359.260000
399.124656	2467.644808
399.507158	2538.220962
399.889598	2434.877308
400.271977	2487.809423
400.654294	2505.453462
401.036549	2513.015192
401.418742	2457.562500
401.800874	2467.644808
402.182944	2487.809423
402.564952	2462.603654
402.946898	2444.959615
403.328783	2487.809423
403.710606	2422.274423
404.092367	2518.056346
404.474067	2444.959615
404.855705	2437.397885
405.237282	2457.562500
405.618797	2520.576923
406.000250	2518.056346
406.381642	2427.315577
406.762972	2437.397885
407.144240	2442.439038
407.525447	2450.000769
407.906593	2487.809423
408.287677	2492.850577
408.668700	2487.809423
409.049661	2505.453462
409.430560	2581.070769
409.811399	2568.467885
410.192176	2515.535769
410.572891	2492.850577
410.953545	2563.426731
411.334138	2485.288846
411.714669	2518.056346
412.095139	2427.315577
412.475547	2475.206538
412.855894	2485.288846
413.236180	2482.768269
413.616405	2487.809423
413.996568	2381.945192
414.376670	2427.315577
414.756711	2447.480192
415.136691	2500.412308
415.516609	2482.768269
415.896466	2470.165385
416.276262	2427.315577
416.655997	2568.467885
417.035670	2409.671538
417.415283	2505.453462
417.794834	2444.959615
418.174324	2467.644808
418.553753	2507.974038
418.933121	2465.124231
419.312428	2513.015192
419.691674	2386.986346
420.070859	2502.932885
420.449983	2523.097500
420.829045	2407.150962
421.208047	2485.288846
421.586988	2422.274423
421.965867	2424.795000
422.344686	2460.083077
422.723444	2523.097500
423.102141	2457.562500
423.480777	2505.453462
423.859352	2523.097500
424.237866	2520.576923
424.616319	2560.906154
424.994712	2482.768269
425.373044	2447.480192
425.751314	2414.712692
426.129524	2455.041923
426.507673	2500.412308
426.885762	2444.959615
427.263789	2467.644808
427.641756	2613.838269
428.019662	2467.644808
428.397508	2409.671538
428.775292	2477.727115
429.153016	2457.562500
429.530679	2510.494615
429.908282	2518.056346
430.285824	2495.371154
430.663305	2472.685962
431.040726	2528.138654
431.418086	2444.959615
431.795385	2462.603654
432.172624	2487.809423
432.549802	2510.494615
432.926920	2422.274423
433.303977	2507.974038
433.680974	2470.165385
434.057910	2402.109808
434.434786	2510.494615
434.811601	2490.330000
435.188355	2437.397885
435.565050	2475.206538
435.941683	2495.371154
436.318257	2495.371154
436.694770	2429.836154
437.071222	2513.015192
437.447614	2487.809423
437.823946	2467.644808
438.200218	2548.303269
438.576429	2515.535769
438.952580	2555.865000
439.328670	2467.644808
439.704700	2457.562500
440.080670	2437.397885
440.456580	2447.480192
440.832429	2553.344423
441.208218	2528.138654
441.583947	2497.891731
441.959616	2518.056346
442.335224	2427.315577
442.710773	2500.412308
443.086261	2497.891731
443.461689	2513.015192
443.837057	2472.685962
444.212365	2533.179808
444.587612	2414.712692
444.962800	2553.344423
445.337927	2409.671538
445.712995	2404.630385
446.088002	2460.083077
446.462949	2442.439038
446.837837	2455.041923
447.212664	2444.959615
447.587431	2497.891731
447.962139	2455.041923
448.336786	2465.124231
448.711374	2497.891731
449.085901	2523.097500
449.460369	2507.974038
449.834776	2417.233269
450.209124	2462.603654
450.583412	2487.809423
450.957640	2510.494615
451.331808	2407.150962
451.705917	2462.603654
452.079965	2444.959615
452.453954	2492.850577
452.827883	2460.083077
453.201752	2538.220962
453.575562	2455.041923
453.949311	2588.632500
454.323001	2565.947308
454.696632	2434.877308
455.070202	2467.644808
455.443713	2543.262115
455.817164	2492.850577
456.190556	2538.220962
456.563888	2427.315577
456.937160	2437.397885
457.310373	2450.000769
457.683526	2505.453462
458.056619	2518.056346
458.429653	2467.644808
458.802628	2477.727115
459.175542	2490.330000
459.548398	2492.850577
459.921194	2513.015192
460.293930	2472.685962
460.666607	2502.932885
461.039224	2465.124231
461.411782	2505.453462
461.784280	2480.247692
462.156719	2500.412308
462.529099	2535.700385
462.901419	2548.303269
463.273680	2447.480192
463.645882	2500.412308
464.018024	2450.000769
464.390106	2578.550192
464.762130	2442.439038
465.134094	2502.932885
465.505999	2500.412308
465.877845	2475.206538
466.249631	2507.974038
466.621358	2530.659231
466.993026	2475.206538
467.364634	2540.741538
467.736184	2442.439038
468.107674	2523.097500
468.479105	2455.041923
468.850477	2507.974038
469.221790	2520.576923
469.593043	2560.906154
469.964238	2576.029615
470.335373	2523.097500
470.706449	2447.480192
471.077467	2450.000769
471.448425	2490.330000
471.819324	2523.097500
472.190164	2460.083077
472.560945	2477.727115
472.931667	2485.288846
473.302330	2586.111923
473.672934	2429.836154
474.043479	2520.576923
474.413965	2472.685962
474.784393	2407.150962
475.154761	2437.397885
475.525070	2439.918462
475.895321	2404.630385
476.265513	2460.083077
476.635645	2482.768269
477.005719	2492.850577
477.375734	2535.700385
477.745691	2583.591346
478.115588	2495.371154
478.485427	2535.700385
478.855207	2480.247692
479.224928	2482.768269
479.594591	2465.124231
479.964194	2523.097500
480.333739	2507.974038
480.703226	2581.070769
481.072653	2500.412308
481.442022	2422.274423
481.811333	2520.576923
482.180584	2472.685962
482.549777	2530.659231
482.918912	2460.083077
483.287988	2490.330000
483.657005	2586.111923
484.025964	2535.700385
484.394864	2379.424615
484.763706	2565.947308
485.132489	2439.918462
485.501213	2543.262115
485.869879	2528.138654
486.238487	2510.494615
486.607036	2507.974038
486.975527	2465.124231
487.343959	2540.741538
487.712333	2457.562500
488.080648	2495.371154
488.448905	2422.274423
488.817104	2412.192115
489.185244	2515.535769
489.553326	2462.603654
489.921350	2578.550192
490.289315	2495.371154
490.657222	2545.782692
491.025070	2447.480192
491.392861	2374.383462
491.760593	2523.097500
492.128267	2563.426731
492.495883	2528.138654
492.863440	2497.891731
493.230939	2472.685962
493.598380	2434.877308
493.965763	2424.795000
494.333088	2457.562500
494.700354	2492.850577
495.067563	2475.206538
495.434713	2427.315577
495.801805	2487.809423
496.168839	2467.644808
496.535815	2475.206538
496.902733	2543.262115
497.269593	2467.644808
497.636395	2477.727115
498.003139	2593.673654
498.369825	2417.233269
498.736453	2500.412308
499.103023	2447.480192
499.469535	2497.891731
499.835989	2419.753846
500.202385	2502.932885
500.568723	2525.618077
500.935003	2533.179808
501.301226	2417.233269
501.667390	2505.453462
502.033497	2444.959615
502.399546	2502.932885
502.765537	2450.000769
503.131470	2568.467885
503.497345	2447.480192
503.863163	2482.768269
504.228923	2505.453462
504.594625	2485.288846
504.960269	2482.768269
505.325856	2447.480192
505.691385	2565.947308
506.056856	2538.220962
506.422270	2487.809423
506.787625	2500.412308
507.152924	2422.274423
507.518164	2568.467885
507.883347	2467.644808
508.248472	2513.015192
508.613540	2586.111923
508.978550	2455.041923
509.343503	2442.439038
509.708398	2507.974038
510.073236	2490.330000
510.438016	2553.344423
510.802738	2543.262115
511.167403	2525.618077
511.532010	2462.603654
511.896561	2515.535769
512.261053	2485.288846
512.625488	2515.535769
512.989866	2518.056346
513.354186	2525.618077
513.718449	2397.068654
514.082655	2533.179808
514.446803	2507.974038
514.810894	2583.591346
515.174927	2462.603654
515.538904	2548.303269
515.902822	2500.412308
516.266684	2487.809423
516.630488	2586.111923
516.994235	2545.782692
517.357925	2457.562500
517.721558	2495.371154
518.085133	2452.521346
518.448651	2507.974038
518.812112	2543.262115
519.175516	2442.439038
519.538863	2507.974038
519.902152	2490.330000
520.265385	2437.397885
520.628560	2439.918462
520.991678	2515.535769
521.354739	2447.480192
521.717743	2616.358846
522.080690	2543.262115
522.443580	2505.453462
522.806413	2462.603654
523.169189	2497.891731
523.531908	2507.974038
523.894569	2505.453462
524.257174	2533.179808
524.619722	2505.453462
524.982213	2482.768269
525.344647	2528.138654
525.707025	2578.550192
526.069345	2550.823846
526.431608	2467.644808
526.793815	2500.412308
527.155964	2457.562500
527.518057	2437.397885
527.880093	2525.618077
528.242072	2533.179808
528.603995	2439.918462
528.965860	2462.603654
529.327669	2477.727115
529.689421	2422.274423
530.051117	2520.576923
530.412755	2444.959615
530.774337	2460.083077
531.135862	2553.344423
531.497331	2424.795000
531.858743	2409.671538
532.220098	2513.015192
532.581396	2515.535769
532.942638	2510.494615
533.303824	2502.932885
533.664953	2515.535769
534.026025	2485.288846
534.387040	2497.891731
534.747999	2470.165385
535.108902	2470.165385
535.469748	2447.480192
535.830537	2482.768269
536.191270	2482.768269
536.551947	2560.906154
536.912567	2500.412308
537.273131	2513.015192
537.633638	2475.206538
537.994089	2485.288846
538.354483	2434.877308
538.714821	2485.288846
539.075103	2495.371154
539.435328	2518.056346
539.795497	2518.056346
540.155609	2457.562500
540.515665	2507.974038
540.875665	2568.467885
541.235609	2487.809423
541.595496	2518.056346
541.955328	2442.439038
542.315102	2533.179808
542.674821	2502.932885
543.034483	2533.179808
543.394090	2538.220962
543.753640	2576.029615
544.113134	2455.041923
544.472571	2510.494615
544.831953	2525.618077
545.191278	2467.644808
545.550548	2593.673654
545.909761	2452.521346
546.268918	2500.412308
546.628019	2558.385577
546.987064	2538.220962
547.346053	2475.206538
547.704986	2485.288846
548.063863	2505.453462
548.422684	2588.632500
548.781449	2507.974038
549.140158	2467.644808
549.498811	2518.056346
549.857408	2482.768269
550.215949	2502.932885
550.574434	2472.685962
550.932864	2487.809423
551.291237	2513.015192
551.649555	2540.741538
552.007817	2530.659231
552.366022	2540.741538
552.724173	2477.727115
553.082267	2475.206538
553.440305	2465.124231
553.798288	2550.823846
554.156215	2460.083077
554.514086	2553.344423
554.871902	2563.426731
555.229661	2482.768269
555.587365	2535.700385
555.945014	2576.029615
556.302606	2495.371154
556.660143	2515.535769
557.017625	2434.877308
557.375050	2528.138654
557.732421	2513.015192
558.089735	2513.015192
558.446994	2573.509038
558.804197	2523.097500
559.161345	2548.303269
559.518437	2525.618077
559.875474	2520.576923
560.232455	2444.959615
560.589381	2560.906154
560.946251	2513.015192
561.303065	2492.850577
561.659825	2480.247692
562.016528	2513.015192
562.373177	2480.247692
562.729770	2465.124231
563.086307	2475.206538
563.442789	2530.659231
563.799216	2510.494615
564.155587	2439.918462
564.511904	2538.220962
564.868164	2578.550192
565.224370	2424.795000
565.580520	2460.083077
565.936615	2480.247692
566.292654	2523.097500
566.648638	2427.315577
567.004567	2432.356731
567.360441	2470.165385
567.716260	2475.206538
568.072023	2424.795000
568.427732	2361.780577
568.783385	2495.371154
569.138982	2581.070769
569.494525	2487.809423
569.850013	2507.974038
570.205445	2495.371154
570.560823	2523.097500
570.916145	2530.659231
571.271412	2538.220962
571.626625	2553.344423
571.981782	2523.097500
572.336884	2490.330000
572.691931	2530.659231
573.046923	2523.097500
573.401860	2460.083077
573.756743	2540.741538
574.111570	2470.165385
574.466342	2530.659231
574.821059	2545.782692
575.175722	2505.453462
575.530330	2555.865000
575.884882	2409.671538
576.239380	2525.618077
576.593823	2497.891731
576.948211	2472.685962
577.302544	2432.356731
577.656823	2485.288846
578.011047	2593.673654
578.365216	2422.274423
578.719330	2510.494615
579.073389	2505.453462
579.427394	2598.714808
579.781344	2596.194231
580.135239	2439.918462
580.489080	2586.111923
580.842866	2518.056346
581.196597	2518.056346
581.550273	2457.562500
581.903895	2535.700385
582.257463	2477.727115
582.610975	2513.015192
582.964434	2523.097500
583.317837	2422.274423
583.671186	2513.015192
584.024481	2528.138654
584.377721	2555.865000
584.730906	2485.288846
585.084037	2510.494615
585.437113	2515.535769
585.790135	2467.644808
586.143103	2447.480192
586.496016	2523.097500
586.848874	2460.083077
587.201679	2573.509038
587.554428	2452.521346
587.907124	2543.262115
588.259765	2545.782692
588.612352	2434.877308
588.964884	2500.412308
589.317362	2525.618077
589.669786	2535.700385
590.022155	2437.397885
590.374470	2523.097500
590.726731	2419.753846
591.078937	2523.097500
591.431090	2477.727115
591.783188	2563.426731
592.135232	2490.330000
592.487222	2490.330000
592.839157	2560.906154
593.191038	2457.562500
593.542866	2434.877308
593.894639	2500.412308
594.246358	2450.000769
594.598022	2560.906154
594.949633	2513.015192
595.301190	2558.385577
595.652692	2565.947308
596.004141	2520.576923
596.355535	2480.247692
596.706876	2394.548077
597.058162	2497.891731
597.409395	2497.891731
597.760573	2540.741538
598.111698	2480.247692
598.462768	2533.179808
598.813785	2462.603654
599.164748	2543.262115
599.515657	2505.453462
599.866511	2495.371154
600.217312	2500.412308
600.568060	2485.288846
600.918753	2530.659231
601.269392	2502.932885
601.619978	2407.150962
601.970510	2490.330000
602.320988	2472.685962
602.671412	2485.288846
603.021783	2450.000769
603.372100	2502.932885
603.722363	2455.041923
604.072572	2480.247692
604.422728	2518.056346
604.772830	2409.671538
605.122878	2540.741538
605.472872	2513.015192
605.822813	2570.988462
606.172701	2452.521346
606.522534	2465.124231
606.872314	2495.371154
607.222041	2460.083077
607.571714	2540.741538
607.921333	2515.535769
608.270899	2467.644808
608.620411	2462.603654
608.969870	2505.453462
609.319276	2465.124231
609.668627	2507.974038
610.017926	2548.303269
610.367171	2495.371154
610.716362	2507.974038
611.065500	2497.891731
611.414585	2497.891731
611.763616	2538.220962
612.112594	2442.439038
612.461518	2523.097500
612.810389	2497.891731
613.159207	2482.768269
613.507971	2518.056346
613.856682	2495.371154
614.205340	2439.918462
614.553945	2502.932885
614.902496	2485.288846
615.250994	2472.685962
615.599439	2528.138654
615.947830	2450.000769
616.296169	2495.371154
616.644454	2558.385577
616.992686	2505.453462
617.340864	2472.685962
617.688990	2525.618077
618.037063	2518.056346
618.385082	2538.220962
618.733048	2497.891731
619.080961	2545.782692
619.428821	2447.480192
619.776628	2523.097500
620.124382	2472.685962
620.472083	2598.714808
620.819731	2447.480192
621.167326	2492.850577
621.514868	2485.288846
621.862357	2545.782692
622.209793	2513.015192
622.557176	2507.974038
622.904506	2465.124231
623.251783	2623.920577
623.599007	2472.685962
623.946179	2520.576923
624.293297	2507.974038
624.640363	2482.768269
624.987376	2460.083077
625.334336	2475.206538
625.681243	2535.700385
626.028097	2533.179808
626.374899	2455.041923
626.721647	2495.371154
627.068343	2457.562500
627.414987	2513.015192
627.761577	2490.330000
628.108115	2397.068654
628.454600	2472.685962
628.801032	2457.562500
629.147412	2455.041923
629.493739	2565.947308
629.840014	2437.397885
630.186236	2505.453462
630.532405	2497.891731
630.878521	2427.315577
631.224585	2603.755962
631.570597	2442.439038
631.916556	2502.932885
632.262462	2477.727115
632.608316	2538.220962
632.954117	2475.206538
633.299866	2359.260000
633.645562	2485.288846
633.991206	2538.220962
634.336797	2528.138654
634.682336	2472.685962
635.027823	2470.165385
635.373257	2482.768269
635.718639	2497.891731
636.063968	2558.385577
636.409245	2560.906154
636.754470	2444.959615
637.099642	2480.247692
637.444762	2558.385577
637.789829	2518.056346
638.134845	2545.782692
638.479808	2477.727115
638.824719	2510.494615
639.169577	2513.015192
639.514383	2462.603654
639.859137	2432.356731
640.203839	2563.426731
640.548489	2591.153077
640.893086	2460.083077
641.237632	2525.618077
641.582125	2515.535769
641.926566	2500.412308
642.270955	2480.247692
642.615292	2560.906154
642.959576	2472.685962
643.303809	2563.426731
643.647990	2591.153077
643.992118	2515.535769
644.336195	2455.041923
644.680219	2540.741538
645.024192	2520.576923
645.368112	2434.877308
645.711981	2472.685962
646.055797	2427.315577
646.399562	2550.823846
646.743274	2490.330000
647.086935	2412.192115
647.430544	2515.535769
647.774101	2487.809423
648.117606	2505.453462
648.461059	2424.795000
648.804460	2581.070769
649.147810	2462.603654
649.491108	2507.974038
649.834354	2533.179808
650.177548	2553.344423
650.520690	2515.535769
650.863781	2465.124231
651.206820	2487.809423
651.549807	2520.576923
651.892742	2540.741538
652.235626	2477.727115
652.578458	2472.685962
652.921238	2487.809423
653.263967	2455.041923
653.606644	2520.576923
653.949269	2513.015192
654.291843	2555.865000
654.634365	2502.932885
654.976836	2432.356731
655.319255	2510.494615
655.661622	2500.412308
656.003938	2548.303269
656.346203	2450.000769
656.688416	2530.659231
657.030577	2495.371154
657.372687	2475.206538
657.714746	2507.974038
658.056753	2495.371154
658.398708	2470.165385
658.740612	2482.768269
659.082465	2402.109808
659.424266	2523.097500
659.766016	2548.303269
660.107715	2535.700385
660.449362	2460.083077
660.790958	2565.947308
661.132503	2525.618077
661.473996	2502.932885
661.815438	2538.220962
662.156829	2444.959615
662.498168	2507.974038
662.839456	2523.097500
663.180693	2505.453462
663.521879	2553.344423
663.863013	2477.727115
664.204097	2558.385577
664.545129	2555.865000
664.886110	2513.015192
665.227040	2550.823846
665.567918	2518.056346
665.908746	2502.932885
666.249522	2533.179808
666.590248	2490.330000
666.930922	2515.535769
667.271545	2533.179808
667.612118	2460.083077
667.952639	2515.535769
668.293109	2596.194231
668.633528	2538.220962
668.973896	2525.618077
669.314213	2515.535769
669.654480	2528.138654
669.994695	2553.344423
670.334859	2523.097500
670.674973	2467.644808
671.015035	2513.015192
671.355047	2472.685962
671.695008	2495.371154
672.034918	2470.165385
672.374777	2502.932885
672.714585	2500.412308
673.054342	2505.453462
673.394049	2457.562500
673.733705	2626.441154
674.073310	2490.330000
674.412864	2510.494615
674.752368	2477.727115
675.091820	2578.550192
675.431223	2518.056346
675.770574	2530.659231
676.109875	2520.576923
676.449125	2467.644808
676.788324	2497.891731
677.127473	2407.150962
677.466571	2560.906154
677.805619	2470.165385
678.144616	2477.727115
678.483562	2467.644808
678.822458	2568.467885
679.161303	2525.618077
679.500098	2555.865000
679.838842	2497.891731
680.177535	2412.192115
680.516179	2442.439038
680.854771	2492.850577
681.193314	2482.768269
681.531805	2492.850577
681.870247	2480.247692
682.208638	2475.206538
682.546978	2581.070769
682.885268	2510.494615
683.223508	2470.165385
683.561697	2419.753846
683.899836	2548.303269
684.237925	2450.000769
684.575963	2530.659231
684.913951	2429.836154
685.251889	2540.741538
685.589776	2417.233269
685.927614	2490.330000
686.265401	2530.659231
686.603137	2434.877308
686.940824	2545.782692
687.278460	2457.562500
687.616046	2611.317692
687.953582	2510.494615
688.291068	2412.192115
688.628504	2497.891731
688.965889	2447.480192
689.303224	2485.288846
689.640510	2480.247692
689.977745	2545.782692
690.314930	2447.480192
690.652065	2472.685962
690.989150	2528.138654
691.326185	2520.576923
691.663170	2548.303269
692.000105	2568.467885
692.336990	2460.083077
692.673825	2538.220962
693.010610	2450.000769
693.347345	2467.644808
693.684030	2477.727115
694.020665	2475.206538
694.357251	2442.439038
694.693786	2480.247692
695.030272	2492.850577
695.366707	2432.356731
695.703093	2452.521346
696.039429	2470.165385
696.375716	2409.671538
696.711952	2510.494615
697.048139	2480.247692
697.384276	2545.782692
697.720363	2515.535769
698.056400	2545.782692
698.392388	2485.288846
698.728326	2450.000769
699.064214	2422.274423
699.400053	2528.138654
699.735842	2457.562500
700.071581	2518.056346
700.407270	2560.906154
700.742910	2490.330000
701.078501	2487.809423
701.414042	2533.179808
701.749533	2513.015192
702.084974	2429.836154
702.420366	2540.741538
702.755709	2407.150962
703.091002	2525.618077
703.426246	2515.535769
703.761440	2535.700385
704.096584	2485.288846
704.431679	2528.138654
704.766725	2502.932885
705.101721	2513.015192
705.436668	2462.603654
705.771565	2467.644808
706.106413	2502.932885
706.441212	2621.400000
706.775961	2475.206538
707.110661	2490.330000
707.445311	2492.850577
707.779913	2520.576923
708.114465	2530.659231
708.448967	2518.056346
708.783421	2495.371154
709.117825	2495.371154
709.452180	2450.000769
709.786485	2434.877308
710.120742	2492.850577
710.454949	2482.768269
710.789107	2442.439038
711.123216	2545.782692
711.457275	2507.974038
711.791286	2586.111923
712.125247	2510.494615
712.459159	2520.576923
712.793023	2492.850577
713.126837	2502.932885
713.460602	2467.644808
713.794318	2525.618077
714.127985	2465.124231
714.461602	2535.700385
714.795171	2455.041923
715.128691	2472.685962
715.462162	2467.644808
715.795584	2533.179808
716.128957	2462.603654
716.462281	2573.509038
716.795556	2540.741538
717.128782	2528.138654
717.461960	2591.153077
717.795088	2505.453462
718.128167	2530.659231
718.461198	2540.741538
718.794180	2523.097500
719.127113	2500.412308
719.459997	2523.097500
719.792833	2450.000769
720.125619	2570.988462
720.458357	2515.535769
720.791046	2560.906154
721.123686	2470.165385
721.456278	2490.330000
721.788821	2455.041923
722.121315	2507.974038
722.453761	2429.836154
722.786158	2565.947308
723.118506	2490.330000
723.450805	2528.138654
723.783056	2502.932885
724.115259	2465.124231
724.447412	2472.685962
724.779518	2565.947308
725.111574	2452.521346
725.443582	2490.330000
725.775542	2578.550192
726.107453	2530.659231
726.439315	2477.727115
726.771129	2525.618077
727.102895	2565.947308
727.434612	2467.644808
727.766281	2550.823846
728.097901	2528.138654
728.429473	2578.550192
728.760996	2492.850577
729.092471	2523.097500
729.423897	2560.906154
729.755276	2467.644808
730.086606	2538.220962
730.417887	2490.330000
730.749120	2530.659231
731.080305	2480.247692
731.411442	2513.015192
731.742530	2452.521346
732.073570	2530.659231
732.404562	2520.576923
732.735506	2344.136538
733.066401	2545.782692
733.397249	2515.535769
733.728048	2520.576923
734.058798	2545.782692
734.389501	2563.426731
734.720156	2447.480192
735.050762	2513.015192
735.381320	2505.453462
735.711831	2487.809423
736.042293	2545.782692
736.372707	2452.521346
736.703073	2409.671538
737.033391	2573.509038
737.363661	2502.932885
737.693883	2497.891731
738.024056	2480.247692
738.354182	2500.412308
738.684260	2455.041923
739.014290	2475.206538
739.344272	2558.385577
739.674207	2515.535769
740.004093	2520.576923
740.333931	2563.426731
740.663722	2523.097500
740.993464	2402.109808
741.323159	2568.467885
741.652806	2470.165385
741.982405	2581.070769
742.311956	2490.330000
742.641460	2510.494615
742.970915	2568.467885
743.300323	2470.165385
743.629683	2500.412308
743.958996	2570.988462
744.288260	2560.906154
744.617477	2528.138654
744.946647	2429.836154
745.275768	2535.700385
745.604842	2495.371154
745.933869	2434.877308
746.262847	2553.344423
746.591778	2500.412308
746.920662	2548.303269
747.249498	2573.509038
747.578286	2462.603654
747.907027	2500.412308
748.235720	2555.865000
748.564365	2523.097500
748.892963	2455.041923
749.221514	2475.206538
749.550017	2550.823846
749.878473	2467.644808
750.206881	2490.330000
750.535242	2447.480192
750.863555	2538.220962
751.191821	2530.659231
751.520039	2568.467885
751.848210	2460.083077
752.176334	2548.303269
752.504411	2392.027500
752.832440	2565.947308
753.160421	2533.179808
753.488356	2419.753846
753.816243	2492.850577
754.144082	2495.371154
754.471875	2528.138654
754.799620	2424.795000
755.127318	2530.659231
755.454969	2510.494615
755.782572	2518.056346
756.110129	2513.015192
756.437638	2528.138654
756.765100	2505.453462
757.092515	2555.865000
757.419882	2533.179808
757.747203	2500.412308
758.074477	2538.220962
758.401703	2417.233269
758.728882	2538.220962
759.056014	2510.494615
759.383099	2570.988462
759.710138	2533.179808
760.037129	2533.179808
760.364073	2482.768269
760.690970	2485.288846
761.017820	2490.330000
761.344623	2510.494615
761.671379	2560.906154
761.998088	2510.494615
762.324751	2533.179808
762.651366	2510.494615
762.977935	2495.371154
763.304456	2424.795000
763.630931	2490.330000
763.957359	2465.124231
764.283740	2530.659231
764.610074	2472.685962
764.936362	2563.426731
765.262602	2555.865000
765.588796	2543.262115
765.914943	2480.247692
766.241044	2540.741538
766.567097	2581.070769
766.893104	2533.179808
767.219064	2545.782692
767.544978	2525.618077
767.870845	2429.836154
768.196665	2465.124231
768.522438	2505.453462
768.848165	2533.179808
769.173846	2548.303269
769.499479	2515.535769
769.825066	2487.809423
770.150607	2533.179808
770.476101	2510.494615
770.801548	2507.974038
771.126949	2437.397885
771.452303	2513.015192
771.777611	2444.959615
772.102872	2500.412308
772.428087	2472.685962
772.753256	2467.644808
773.078378	2485.288846
773.403453	2533.179808
773.728482	2495.371154
774.053465	2555.865000
774.378401	2482.768269
774.703291	2492.850577
775.028135	2555.865000
775.352932	2568.467885
775.677683	2437.397885
776.002388	2495.371154
776.327046	2505.453462
776.651658	2457.562500
776.976224	2482.768269
777.300743	2533.179808
777.625216	2502.932885
777.949643	2538.220962
778.274024	2543.262115
778.598359	2495.371154
778.922647	2404.630385
779.246889	2550.823846
779.571086	2457.562500
779.895236	2555.865000
780.219339	2513.015192
780.543397	2548.303269
780.867409	2485.288846
781.191374	2578.550192
781.515294	2538.220962
781.839167	2510.494615
782.162995	2467.644808
782.486776	2513.015192
782.810511	2492.850577
783.134201	2538.220962
783.457844	2444.959615
783.781441	2477.727115
784.104993	2510.494615
784.428498	2480.247692
784.751958	2442.439038
785.075372	2492.850577
785.398739	2437.397885
785.722061	2460.083077
786.045337	2495.371154
786.368568	2535.700385
786.691752	2495.371154
787.014891	2528.138654
787.337983	2475.206538
787.661030	2447.480192
787.984031	2417.233269
788.306987	2513.015192
788.629897	2407.150962
788.952760	2523.097500
789.275579	2497.891731
789.598351	2533.179808
789.921078	2455.041923
790.243759	2518.056346
790.566395	2480.247692
790.888984	2472.685962
791.211529	2460.083077
791.534027	2482.768269
791.856480	2502.932885
792.178888	2515.535769
792.501249	2470.165385
792.823566	2465.124231
793.145836	2480.247692
793.468062	2465.124231
793.790241	2492.850577
794.112375	2535.700385
794.434464	2558.385577
794.756507	2424.795000
795.078505	2427.315577
795.400457	2520.576923
795.722364	2507.974038
796.044226	2492.850577
796.366042	2472.685962
796.687812	2502.932885
797.009538	2490.330000
797.331218	2538.220962
797.652852	2455.041923
797.974442	2510.494615
798.295986	2510.494615
798.617484	2444.959615
798.938938	2477.727115
799.260346	2462.603654
799.581709	2505.453462
799.903026	2429.836154
800.224299	2452.521346
800.545526	2523.097500
800.866708	2510.494615
801.187845	2462.603654
801.508936	2545.782692
801.829983	2409.671538
802.150984	2465.124231
802.471940	2470.165385
802.792851	2586.111923
803.113717	2472.685962
803.434538	2495.371154
803.755314	2462.603654
804.076045	2495.371154
804.396731	2492.850577
804.717372	2500.412308
805.037967	2467.644808
805.358518	2500.412308
805.679024	2447.480192
805.999485	2510.494615
806.319901	2475.206538
806.640272	2528.138654
806.960598	2500.412308
807.280879	2507.974038
807.601115	2450.000769
807.921306	2518.056346
808.241453	2457.562500
808.561554	2510.494615
808.881611	2437.397885
809.201623	2550.823846
809.521590	2452.521346
809.841513	2553.344423
810.161390	2490.330000
810.481223	2543.262115
810.801011	2601.235385
811.120755	2460.083077
811.440453	2520.576923
811.760107	2525.618077
812.079716	2545.782692
812.399281	2515.535769
812.718801	2470.165385
813.038276	2460.083077
813.357707	2502.932885
813.677093	2447.480192
813.996434	2518.056346
814.315731	2576.029615
814.634983	2450.000769
814.954191	2379.424615
815.273354	2457.562500
815.592473	2497.891731
815.911547	2427.315577
816.230577	2510.494615
816.549562	2606.276538
816.868502	2593.673654
817.187399	2467.644808
817.506250	2477.727115
817.825058	2515.535769
818.143821	2538.220962
818.462539	2515.535769
818.781213	2543.262115
819.099843	2462.603654
819.418429	2422.274423
819.736970	2533.179808
820.055466	2533.179808
820.373919	2460.083077
820.692327	2470.165385
821.010691	2389.506923
821.329011	2419.753846
821.647286	2530.659231
821.965517	2500.412308
822.283704	2545.782692
822.601847	2510.494615
822.919945	2460.083077
823.237999	2419.753846
823.556010	2495.371154
823.873976	2502.932885
824.191897	2450.000769
824.509775	2475.206538
824.827609	2500.412308
825.145398	2477.727115
825.463144	2515.535769
825.780845	2581.070769
826.098502	2563.426731
826.416116	2470.165385
826.733685	2487.809423
827.051210	2427.315577
827.368692	2525.618077
827.686129	2404.630385
828.003522	2576.029615
828.320872	2477.727115
828.638177	2487.809423
828.955439	2477.727115
829.272656	2502.932885
829.589830	2457.562500
829.906960	2518.056346
830.224046	2482.768269
830.541088	2523.097500
830.858086	2465.124231
831.175041	2538.220962
831.491952	2548.303269
831.808819	2465.124231
832.125642	2439.918462
832.442421	2528.138654
832.759157	2447.480192
833.075849	2462.603654
833.392497	2462.603654
833.709101	2470.165385
834.025662	2563.426731
834.342179	2462.603654
834.658653	2525.618077
834.975083	2414.712692
835.291469	2545.782692
835.607811	2475.206538
835.924110	2535.700385
836.240366	2513.015192
836.556578	2507.974038
836.872746	2528.138654
837.188871	2477.727115
837.504952	2623.920577
837.820990	2455.041923
838.136984	2472.685962
838.452935	2533.179808
838.768842	2497.891731
839.084706	2480.247692
839.400526	2507.974038
839.716303	2424.795000
840.032037	2455.041923
840.347727	2533.179808
840.663373	2540.741538
840.978977	2457.562500
841.294537	2507.974038
841.610054	2462.603654
841.925527	2480.247692
842.240957	2439.918462
842.556344	2497.891731
842.871687	2487.809423
843.186987	2510.494615
843.502244	2565.947308
843.817458	2565.947308
844.132629	2452.521346
844.447756	2472.685962
844.762840	2455.041923
845.077881	2553.344423
845.392879	2518.056346
845.707833	2535.700385
846.022745	2515.535769
846.337613	2553.344423
846.652438	2465.124231
846.967221	2523.097500
847.281960	2462.603654
847.596656	2492.850577
847.911309	2495.371154
848.225919	2513.015192
848.540485	2485.288846
848.855009	2480.247692
849.169490	2540.741538
849.483928	2462.603654
849.798323	2550.823846
850.112675	2447.480192
850.426984	2545.782692
850.741251	2455.041923
851.055474	2535.700385
851.369654	2530.659231
851.683792	2548.303269
851.997887	2507.974038
852.311938	2502.932885
852.625947	2558.385577
852.939914	2450.000769
853.253837	2553.344423
853.567718	2528.138654
853.881555	2480.247692
854.195350	2447.480192
854.509103	2570.988462
854.822812	2520.576923
855.136479	2507.974038
855.450103	2550.823846
855.763685	2462.603654
856.077224	2525.618077
856.390720	2439.918462
856.704173	2437.397885
857.017584	2560.906154
857.330953	2480.247692
857.644278	2563.426731
857.957561	2455.041923
858.270802	2533.179808
858.584000	2485.288846
858.897155	2586.111923
859.210268	2313.889615
859.523339	2447.480192
859.836367	2500.412308
860.149352	2497.891731
860.462295	2477.727115
860.775195	2437.397885
861.088054	2482.768269
861.400869	2460.083077
861.713642	2477.727115
862.026373	2507.974038
862.339062	2437.397885
862.651708	2515.535769
862.964312	2495.371154
863.276873	2407.150962
863.589392	2492.850577
863.901869	2432.356731
864.214303	2578.550192
864.526696	2482.768269
864.839045	2553.344423
865.151353	2525.618077
865.463619	2500.412308
865.775842	2356.739423
866.088023	2500.412308
866.400162	2515.535769
866.712258	2543.262115
867.024313	2455.041923
867.336325	2507.974038
867.648296	2500.412308
867.960224	2553.344423
868.272110	2480.247692
868.583954	2427.315577
868.895755	2533.179808
869.207515	2480.247692
869.519233	2505.453462
869.830909	2505.453462
870.142542	2507.974038
870.454134	2540.741538
870.765684	2460.083077
871.077191	2477.727115
871.388657	2487.809423
871.700081	2588.632500
872.011463	2616.358846
872.322803	2455.041923
872.634101	2462.603654
872.945357	2502.932885
873.256571	2543.262115
873.567744	2482.768269
873.878874	2583.591346
874.189963	2475.206538
874.501010	2485.288846
874.812015	2510.494615
875.122979	2480.247692
875.433900	2530.659231
875.744780	2528.138654
876.055618	2457.562500
876.366415	2495.371154
876.677169	2429.836154
876.987882	2560.906154
877.298554	2482.768269
877.609183	2533.179808
877.919771	2447.480192
878.230317	2530.659231
878.540822	2470.165385
878.851285	2535.700385
879.161707	2424.795000
879.472087	2553.344423
879.782425	2429.836154
880.092722	2540.741538
880.402977	2417.233269
880.713191	2497.891731
881.023363	2560.906154
881.333494	2460.083077
881.643583	2495.371154
881.953631	2523.097500
882.263637	2482.768269
882.573602	2540.741538
882.883526	2490.330000
883.193408	2392.027500
883.503248	2480.247692
883.813048	2450.000769
884.122806	2419.753846
884.432522	2515.535769
884.742197	2490.330000
885.051831	2485.288846
885.361424	2525.618077
885.670975	2485.288846
885.980485	2412.192115
886.289954	2545.782692
886.599382	2563.426731
886.908768	2492.850577
887.218113	2462.603654
887.527417	2450.000769
887.836680	2467.644808
888.145901	2470.165385
888.455082	2545.782692
888.764221	2455.041923
889.073319	2414.712692
889.382376	2563.426731
889.691392	2475.206538
890.000366	2487.809423
890.309300	2457.562500
890.618193	2497.891731
890.927044	2455.041923
891.235855	2543.262115
891.544625	2528.138654
891.853353	2533.179808
892.162041	2427.315577
892.470687	2422.274423
892.779293	2530.659231
893.087858	2417.233269
893.396381	2490.330000
893.704864	2497.891731
894.013306	2490.330000
894.321707	2576.029615
894.630068	2502.932885
894.938387	2485.288846
895.246665	2492.850577
895.554903	2515.535769
895.863100	2452.521346
896.171256	2480.247692
896.479371	2467.644808
896.787446	2465.124231
897.095480	2432.356731
897.403473	2465.124231
897.711425	2485.288846
898.019336	2563.426731
898.327207	2497.891731
898.635038	2490.330000
898.942827	2513.015192
899.250576	2523.097500
899.558284	2525.618077
899.865952	2518.056346
900.173579	2444.959615
900.481165	2500.412308
900.788711	2490.330000
901.096216	2472.685962
901.403681	2553.344423
901.711105	2432.356731
902.018489	2520.576923
902.325832	2510.494615
902.633135	2500.412308
902.940397	2364.301154
903.247619	2545.782692
903.554800	2560.906154
903.861941	2475.206538
904.169041	2465.124231
904.476101	2568.467885
904.783121	2457.562500
905.090100	2525.618077
905.397039	2351.698269
905.703938	2528.138654
906.010796	2482.768269
906.317614	2432.356731
906.624391	2613.838269
906.931129	2470.165385
907.237826	2543.262115
907.544483	2450.000769
907.851099	2480.247692
908.157675	2515.535769
908.464211	2475.206538
908.770707	2505.453462
909.077163	2545.782692
909.383578	2495.371154
909.689954	2563.426731
909.996289	2492.850577
910.302584	2538.220962
910.608839	2518.056346
910.915054	2477.727115
911.221229	2490.330000
911.527363	2424.795000
911.833458	2518.056346
912.139513	2492.850577
912.445527	2528.138654
912.751502	2460.083077
913.057436	2447.480192
913.363331	2553.344423
913.669186	2525.618077
913.975000	2457.562500
914.280775	2525.618077
914.586510	2477.727115
914.892205	2500.412308
915.197859	2492.850577
915.503475	2573.509038
915.809050	2518.056346
916.114585	2427.315577
916.420081	2560.906154
916.725536	2450.000769
917.030952	2525.618077
917.336328	2462.603654
917.641665	2462.603654
917.946961	2460.083077
918.252218	2505.453462
918.557435	2487.809423
918.862612	2414.712692
919.167750	2555.865000
919.472848	2480.247692
919.777906	2482.768269
920.082925	2513.015192
920.387904	2523.097500
920.692843	2528.138654
920.997743	2460.083077
921.302603	2515.535769
921.607423	2429.836154
921.912204	2490.330000
922.216946	2462.603654
922.521647	2490.330000
922.826310	2452.521346
923.130932	2515.535769
923.435516	2490.330000
923.740059	2485.288846
924.044564	2485.288846
924.349028	2515.535769
924.653454	2513.015192
924.957840	2550.823846
925.262186	2533.179808
925.566493	2472.685962
925.870761	2558.385577
926.174989	2460.083077
926.479178	2490.330000
926.783328	2490.330000
927.087438	2495.371154
927.391509	2553.344423
927.695541	2485.288846
927.999533	2480.247692
928.303486	2429.836154
928.607400	2457.562500
928.911275	2429.836154
929.215110	2487.809423
929.518906	2485.288846
929.822663	2530.659231
930.126381	2417.233269
930.430060	2379.424615
930.733699	2538.220962
931.037299	2492.850577
931.340861	2510.494615
931.644383	2462.603654
931.947866	2540.741538
932.251309	2467.644808
932.554714	2510.494615
932.858080	2545.782692
933.161407	2455.041923
933.464694	2470.165385
933.767943	2492.850577
934.071153	2475.206538
934.374323	2553.344423
934.677455	2442.439038
934.980548	2455.041923
935.283602	2555.865000
935.586617	2477.727115
935.889593	2490.330000
936.192530	2505.453462
936.495428	2477.727115
936.798287	2518.056346
937.101108	2381.945192
937.403890	2520.576923
937.706632	2442.439038
938.009336	2477.727115
938.312002	2482.768269
938.614628	2434.877308
938.917216	2460.083077
939.219765	2465.124231
939.522275	2452.521346
939.824747	2465.124231
940.127179	2497.891731
940.429573	2520.576923
940.731929	2538.220962
941.034246	2535.700385
941.336524	2447.480192
941.638763	2497.891731
941.940964	2500.412308
942.243126	2472.685962
942.545250	2482.768269
942.847335	2568.467885
943.149381	2507.974038
943.451389	2601.235385
943.753359	2500.412308
944.055290	2379.424615
944.357182	2513.015192
944.659036	2472.685962
944.960851	2384.465769
945.262628	2540.741538
945.564367	2530.659231
945.866067	2439.918462
946.167729	2510.494615
946.469352	2472.685962
946.770937	2555.865000
947.072484	2485.288846
947.373992	2565.947308
947.675462	2475.206538
947.976893	2500.412308
948.278286	2457.562500
948.579641	2452.521346
948.880958	2553.344423
949.182236	2533.179808
949.483476	2409.671538
949.784678	2412.192115
950.085841	2525.618077
950.386967	2591.153077
950.688054	2490.330000
950.989103	2535.700385
951.290114	2495.371154
951.591087	2482.768269
951.892021	2545.782692
952.192917	2424.795000
952.493776	2502.932885
952.794596	2457.562500
953.095378	2495.371154
953.396122	2513.015192
953.696828	2513.015192
953.997496	2480.247692
954.298126	2427.315577
954.598718	2452.521346
954.899272	2455.041923
955.199788	2480.247692
955.500266	2495.371154
955.800706	2482.768269
956.101108	2576.029615
956.401472	2447.480192
956.701798	2510.494615
957.002087	2417.233269
957.302337	2444.959615
957.602550	2507.974038
957.902724	2462.603654
958.202861	2414.712692
958.502960	2528.138654
958.803022	2437.397885
959.103045	2467.644808
959.403031	2515.535769
959.702979	2487.809423
960.002889	2497.891731
960.302762	2472.685962
960.602596	2533.179808
960.902393	2472.685962
961.202153	2467.644808
961.501875	2452.521346
961.801559	2581.070769
962.101205	2581.070769
962.400814	2460.083077
962.700385	2563.426731
962.999918	2455.041923
963.299414	2535.700385
963.598873	2505.453462
963.898293	2485.288846
964.197677	2510.494615
964.497022	2482.768269
964.796331	2477.727115
965.095601	2507.974038
965.394835	2492.850577
965.694030	2465.124231
965.993189	2515.535769
966.292309	2447.480192
966.591393	2507.974038
966.890439	2460.083077
967.189447	2472.685962
967.488419	2472.685962
967.787353	2482.768269
968.086249	2467.644808
968.385108	2364.301154
968.683930	2500.412308
968.982714	2475.206538
969.281462	2515.535769
969.580172	2432.356731
969.878844	2482.768269
970.177480	2470.165385
970.476078	2467.644808
970.774639	2613.838269
971.073162	2510.494615
971.371649	2515.535769
971.670098	2429.836154
971.968510	2437.397885
972.266885	2374.383462
972.565223	2455.041923
972.863524	2553.344423
973.161788	2545.782692
973.460014	2432.356731
973.758204	2482.768269
974.056356	2513.015192
974.354471	2525.618077
974.652550	2533.179808
974.950591	2510.494615
975.248595	2535.700385
975.546563	2576.029615
975.844493	2497.891731
976.142386	2515.535769
976.440243	2500.412308
976.738062	2502.932885
977.035845	2462.603654
977.333590	2437.397885
977.631299	2497.891731
977.928971	2455.041923
978.226606	2555.865000
978.524204	2500.412308
978.821765	2457.562500
979.119290	2482.768269
979.416777	2492.850577
979.714228	2507.974038
980.011642	2500.412308
980.309020	2507.974038
980.606360	2490.330000
980.903664	2550.823846
981.200931	2507.974038
981.498162	2555.865000
981.795356	2487.809423
982.092513	2480.247692
982.389633	2480.247692
982.686717	2588.632500
982.983764	2502.932885
983.280775	2472.685962
983.577749	2510.494615
983.874686	2419.753846
984.171587	2452.521346
984.468451	2470.165385
984.765279	2465.124231
985.062070	2480.247692
985.358824	2545.782692
985.655543	2560.906154
985.952224	2455.041923
986.248869	2397.068654
986.545478	2404.630385
986.842050	2472.685962
987.138586	2429.836154
987.435086	2497.891731
987.731549	2467.644808
988.027975	2412.192115
988.324366	2490.330000
988.620719	2470.165385
988.917037	2543.262115
989.213318	2437.397885
989.509563	2475.206538
989.805772	2475.206538
990.101944	2510.494615
990.398080	2455.041923
990.694180	2447.480192
990.990244	2477.727115
991.286271	2472.685962
991.582262	2505.453462
991.878217	2482.768269
992.174136	2482.768269
992.470019	2452.521346
992.765865	2465.124231
993.061676	2523.097500
993.357450	2520.576923
993.653188	2470.165385
993.948890	2404.630385
994.244556	2452.521346
994.540186	2434.877308
994.835780	2490.330000
995.131337	2530.659231
995.426859	2467.644808
995.722345	2480.247692
996.017795	2502.932885
996.313208	2439.918462
996.608586	2480.247692
996.903928	2558.385577
997.199234	2525.618077
997.494504	2520.576923
997.789738	2530.659231
998.084936	2444.959615
998.380099	2502.932885
998.675225	2578.550192
998.970316	2530.659231
999.265371	2460.083077
999.560390	2457.562500
999.855373	2424.795000
1000.150320	2523.097500
1000.445232	2450.000769
1000.740108	2535.700385
1001.034948	2422.274423
1001.329752	2583.591346
1001.624521	2535.700385
1001.919254	2455.041923
1002.213951	2528.138654
1002.508613	2555.865000
1002.803239	2470.165385
1003.097829	2538.220962
1003.392384	2523.097500
1003.686903	2482.768269
1003.981386	2477.727115
1004.275834	2490.330000
1004.570246	2467.644808
1004.864623	2545.782692
1005.158964	2510.494615
1005.453270	2392.027500
1005.747540	2465.124231
1006.041775	2467.644808
1006.335974	2442.439038
1006.630138	2364.301154
1006.924266	2429.836154
1007.218359	2528.138654
1007.512416	2477.727115
1007.806438	2475.206538
1008.100425	2487.809423
1008.394376	2510.494615
1008.688292	2452.521346
1008.982172	2528.138654
1009.276017	2533.179808
1009.569827	2407.150962
1009.863602	2490.330000
1010.157341	2455.041923
1010.451045	2528.138654
1010.744714	2475.206538
1011.038347	2502.932885
1011.331945	2475.206538
1011.625508	2497.891731
1011.919036	2472.685962
1012.212528	2467.644808
1012.505986	2490.330000
1012.799408	2518.056346
1013.092795	2487.809423
1013.386147	2480.247692
1013.679464	2402.109808
1013.972745	2495.371154
1014.265992	2502.932885
1014.559204	2507.974038
1014.852380	2500.412308
1015.145521	2510.494615
1015.438628	2457.562500
1015.731699	2444.959615
1016.024736	2513.015192
1016.317737	2500.412308
1016.610703	2480.247692
1016.903635	2507.974038
1017.196531	2543.262115
1017.489393	2379.424615
1017.782219	2475.206538
1018.075011	2404.630385
1018.367768	2507.974038
1018.660490	2515.535769
1018.953177	2515.535769
1019.245829	2515.535769
