Dividing Wavelength (nm)	Counts (n)	Blue Motor Position (mm): 0.000000	Red Motor Position (mm): 8.100000	
326.493990	2155.093269
326.888308	2155.093269
327.282561	2155.093269
327.676750	2046.708462
328.070874	2081.996538
328.464933	2074.434808
328.858929	2112.243462
329.252859	2094.599423
329.646726	2157.613846
330.040528	2134.928654
330.434265	2114.764038
330.827938	2165.175577
331.221547	2145.010962
331.615091	2152.572692
332.008571	2129.887500
332.401986	2215.587115
332.795338	2170.216731
333.188625	2311.369038
333.581847	2271.039808
333.975006	2303.807308
334.368100	2250.875192
334.761129	2389.506923
335.154095	2308.848462
335.546996	2344.136538
335.939833	2301.286731
336.332606	2369.342308
336.725315	2349.177692
337.117960	2374.383462
337.510540	2432.356731
337.903056	2455.041923
338.295508	2359.260000
338.687896	2414.712692
339.080220	2457.562500
339.472480	2581.070769
339.864676	2487.809423
340.256807	2475.206538
340.648875	2452.521346
341.040879	2457.562500
341.432818	2439.918462
341.824694	2407.150962
342.216506	2462.603654
342.608253	2550.823846
342.999937	2477.727115
343.391557	2535.700385
343.783113	2502.932885
344.174605	2550.823846
344.566033	2444.959615
344.957397	2507.974038
345.348697	2502.932885
345.739934	2389.506923
346.131106	2475.206538
346.522215	2432.356731
346.913260	2432.356731
347.304241	2480.247692
347.695159	2525.618077
348.086012	2447.480192
348.476802	2455.041923
348.867528	2444.959615
349.258191	2444.959615
349.648789	2376.904038
350.039324	2513.015192
350.429796	2371.862885
350.820203	2462.603654
351.210548	2457.562500
351.600828	2407.150962
351.991045	2490.330000
352.381198	2404.630385
352.771288	2429.836154
353.161314	2477.727115
353.551276	2442.439038
353.941175	2455.041923
354.331010	2523.097500
354.720782	2465.124231
355.110490	2457.562500
355.500135	2434.877308
355.889717	2442.439038
356.279235	2439.918462
356.668689	2432.356731
357.058080	2371.862885
357.447408	2457.562500
357.836672	2465.124231
358.225873	2444.959615
358.615010	2369.342308
359.004084	2470.165385
359.393095	2472.685962
359.782043	2402.109808
360.170927	2381.945192
360.559748	2475.206538
360.948505	2465.124231
361.337199	2439.918462
361.725830	2399.589231
362.114398	2480.247692
362.502903	2442.439038
362.891344	2533.179808
363.279722	2500.412308
363.668037	2475.206538
364.056289	2399.589231
364.444478	2389.506923
364.832603	2460.083077
365.220665	2409.671538
365.608665	2548.303269
365.996601	2450.000769
366.384474	2450.000769
366.772284	2439.918462
367.160031	2460.083077
367.547715	2492.850577
367.935336	2480.247692
368.322893	2485.288846
368.710388	2374.383462
369.097820	2460.083077
369.485189	2460.083077
369.872495	2485.288846
370.259738	2412.192115
370.646918	2442.439038
371.034035	2525.618077
371.421090	2606.276538
371.808081	2467.644808
372.195010	2510.494615
372.581875	2404.630385
372.968678	2397.068654
373.355418	2442.439038
373.742096	2437.397885
374.128710	2389.506923
374.515262	2507.974038
374.901751	2467.644808
375.288177	2389.506923
375.674540	2518.056346
376.060841	2374.383462
376.447079	2407.150962
376.833254	2462.603654
377.219367	2429.836154
377.605417	2497.891731
377.991404	2462.603654
378.377329	2447.480192
378.763191	2444.959615
379.148991	2414.712692
379.534727	2417.233269
379.920402	2429.836154
380.306013	2422.274423
380.691563	2392.027500
381.077049	2518.056346
381.462474	2487.809423
381.847835	2475.206538
382.233134	2414.712692
382.618371	2470.165385
383.003545	2452.521346
383.388657	2477.727115
383.773706	2427.315577
384.158693	2447.480192
384.543618	2434.877308
384.928480	2550.823846
385.313280	2432.356731
385.698017	2462.603654
386.082692	2427.315577
386.467305	2407.150962
386.851856	2480.247692
387.236344	2384.465769
387.620770	2419.753846
388.005133	2487.809423
388.389435	2482.768269
388.773674	2369.342308
389.157851	2472.685962
389.541965	2369.342308
389.926018	2523.097500
390.310008	2530.659231
390.693936	2505.453462
391.077802	2409.671538
391.461606	2460.083077
391.845348	2414.712692
392.229027	2429.836154
392.612645	2533.179808
392.996200	2505.453462
393.379694	2500.412308
393.763125	2492.850577
394.146494	2460.083077
394.529801	2480.247692
394.913047	2462.603654
395.296230	2455.041923
395.679351	2404.630385
396.062410	2500.412308
396.445408	2500.412308
396.828343	2409.671538
397.211217	2407.150962
397.594028	2472.685962
397.976778	2303.807308
398.359466	2414.712692
398.742092	2455.041923
399.124656	2432.356731
399.507158	2515.535769
399.889598	2437.397885
400.271977	2437.397885
400.654294	2487.809423
401.036549	2404.630385
401.418742	2437.397885
401.800874	2467.644808
402.182944	2427.315577
402.564952	2432.356731
402.946898	2447.480192
403.328783	2467.644808
403.710606	2442.439038
404.092367	2422.274423
404.474067	2545.782692
404.855705	2482.768269
405.237282	2593.673654
405.618797	2470.165385
406.000250	2444.959615
406.381642	2482.768269
406.762972	2434.877308
407.144240	2540.741538
407.525447	2460.083077
407.906593	2457.562500
408.287677	2495.371154
408.668700	2412.192115
409.049661	2576.029615
409.430560	2424.795000
409.811399	2437.397885
410.192176	2457.562500
410.572891	2465.124231
410.953545	2432.356731
411.334138	2407.150962
411.714669	2386.986346
412.095139	2497.891731
412.475547	2502.932885
412.855894	2525.618077
413.236180	2447.480192
413.616405	2477.727115
413.996568	2392.027500
414.376670	2470.165385
414.756711	2487.809423
415.136691	2502.932885
415.516609	2502.932885
415.896466	2505.453462
416.276262	2495.371154
416.655997	2462.603654
417.035670	2495.371154
417.415283	2495.371154
417.794834	2467.644808
418.174324	2482.768269
418.553753	2394.548077
418.933121	2538.220962
419.312428	2472.685962
419.691674	2528.138654
420.070859	2565.947308
420.449983	2452.521346
420.829045	2553.344423
421.208047	2475.206538
421.586988	2477.727115
421.965867	2422.274423
422.344686	2439.918462
422.723444	2480.247692
423.102141	2447.480192
423.480777	2437.397885
423.859352	2434.877308
424.237866	2475.206538
424.616319	2510.494615
424.994712	2407.150962
425.373044	2507.974038
425.751314	2467.644808
426.129524	2452.521346
426.507673	2611.317692
426.885762	2548.303269
427.263789	2457.562500
427.641756	2507.974038
428.019662	2424.795000
428.397508	2576.029615
428.775292	2386.986346
429.153016	2513.015192
429.530679	2507.974038
429.908282	2533.179808
430.285824	2497.891731
430.663305	2462.603654
431.040726	2450.000769
431.418086	2533.179808
431.795385	2520.576923
432.172624	2472.685962
432.549802	2525.618077
432.926920	2460.083077
433.303977	2404.630385
433.680974	2434.877308
434.057910	2389.506923
434.434786	2472.685962
434.811601	2460.083077
435.188355	2507.974038
435.565050	2482.768269
435.941683	2450.000769
436.318257	2555.865000
436.694770	2444.959615
437.071222	2497.891731
437.447614	2439.918462
437.823946	2545.782692
438.200218	2513.015192
438.576429	2462.603654
438.952580	2523.097500
439.328670	2414.712692
439.704700	2482.768269
440.080670	2485.288846
440.456580	2434.877308
440.832429	2419.753846
441.208218	2477.727115
441.583947	2530.659231
441.959616	2538.220962
442.335224	2437.397885
442.710773	2490.330000
443.086261	2513.015192
443.461689	2470.165385
443.837057	2497.891731
444.212365	2538.220962
444.587612	2414.712692
444.962800	2429.836154
445.337927	2399.589231
445.712995	2482.768269
446.088002	2457.562500
446.462949	2432.356731
446.837837	2424.795000
447.212664	2470.165385
447.587431	2510.494615
447.962139	2457.562500
448.336786	2540.741538
448.711374	2407.150962
449.085901	2525.618077
449.460369	2465.124231
449.834776	2523.097500
450.209124	2520.576923
450.583412	2457.562500
450.957640	2457.562500
451.331808	2492.850577
451.705917	2429.836154
452.079965	2480.247692
452.453954	2472.685962
452.827883	2472.685962
453.201752	2550.823846
453.575562	2450.000769
453.949311	2460.083077
454.323001	2540.741538
454.696632	2455.041923
455.070202	2470.165385
455.443713	2419.753846
455.817164	2535.700385
456.190556	2485.288846
456.563888	2507.974038
456.937160	2530.659231
457.310373	2455.041923
457.683526	2482.768269
458.056619	2482.768269
458.429653	2543.262115
458.802628	2434.877308
459.175542	2432.356731
459.548398	2505.453462
459.921194	2460.083077
460.293930	2460.083077
460.666607	2487.809423
461.039224	2465.124231
461.411782	2487.809423
461.784280	2515.535769
462.156719	2455.041923
462.529099	2548.303269
462.901419	2513.015192
463.273680	2558.385577
463.645882	2598.714808
464.018024	2497.891731
464.390106	2462.603654
464.762130	2429.836154
465.134094	2482.768269
465.505999	2568.467885
465.877845	2502.932885
466.249631	2505.453462
466.621358	2490.330000
466.993026	2480.247692
467.364634	2538.220962
467.736184	2480.247692
468.107674	2422.274423
468.479105	2455.041923
468.850477	2505.453462
469.221790	2502.932885
469.593043	2490.330000
469.964238	2434.877308
470.335373	2477.727115
470.706449	2457.562500
471.077467	2500.412308
471.448425	2434.877308
471.819324	2538.220962
472.190164	2482.768269
472.560945	2533.179808
472.931667	2540.741538
473.302330	2523.097500
473.672934	2492.850577
474.043479	2424.795000
474.413965	2570.988462
474.784393	2399.589231
475.154761	2515.535769
475.525070	2515.535769
475.895321	2487.809423
476.265513	2535.700385
476.635645	2434.877308
477.005719	2502.932885
477.375734	2447.480192
477.745691	2492.850577
478.115588	2467.644808
478.485427	2523.097500
478.855207	2540.741538
479.224928	2492.850577
479.594591	2485.288846
479.964194	2538.220962
480.333739	2535.700385
480.703226	2439.918462
481.072653	2510.494615
481.442022	2477.727115
481.811333	2487.809423
482.180584	2513.015192
482.549777	2525.618077
482.918912	2525.618077
483.287988	2588.632500
483.657005	2482.768269
484.025964	2520.576923
484.394864	2447.480192
484.763706	2497.891731
485.132489	2523.097500
485.501213	2444.959615
485.869879	2480.247692
486.238487	2472.685962
486.607036	2502.932885
486.975527	2444.959615
487.343959	2502.932885
487.712333	2450.000769
488.080648	2470.165385
488.448905	2470.165385
488.817104	2492.850577
489.185244	2500.412308
489.553326	2404.630385
489.921350	2490.330000
490.289315	2545.782692
490.657222	2485.288846
491.025070	2545.782692
491.392861	2472.685962
491.760593	2510.494615
492.128267	2563.426731
492.495883	2497.891731
492.863440	2513.015192
493.230939	2475.206538
493.598380	2515.535769
493.965763	2490.330000
494.333088	2588.632500
494.700354	2490.330000
495.067563	2533.179808
495.434713	2447.480192
495.801805	2565.947308
496.168839	2492.850577
496.535815	2414.712692
496.902733	2495.371154
497.269593	2487.809423
497.636395	2472.685962
498.003139	2434.877308
498.369825	2402.109808
498.736453	2528.138654
499.103023	2533.179808
499.469535	2470.165385
499.835989	2482.768269
500.202385	2480.247692
500.568723	2523.097500
500.935003	2505.453462
501.301226	2439.918462
501.667390	2455.041923
502.033497	2485.288846
502.399546	2505.453462
502.765537	2442.439038
503.131470	2515.535769
503.497345	2558.385577
503.863163	2543.262115
504.228923	2477.727115
504.594625	2545.782692
504.960269	2467.644808
505.325856	2442.439038
505.691385	2439.918462
506.056856	2487.809423
506.422270	2452.521346
506.787625	2533.179808
507.152924	2439.918462
507.518164	2434.877308
507.883347	2563.426731
508.248472	2444.959615
508.613540	2475.206538
508.978550	2490.330000
509.343503	2518.056346
509.708398	2409.671538
510.073236	2477.727115
510.438016	2502.932885
510.802738	2490.330000
511.167403	2518.056346
511.532010	2515.535769
511.896561	2578.550192
512.261053	2475.206538
512.625488	2434.877308
512.989866	2442.439038
513.354186	2482.768269
513.718449	2492.850577
514.082655	2518.056346
514.446803	2497.891731
514.810894	2465.124231
515.174927	2470.165385
515.538904	2450.000769
515.902822	2507.974038
516.266684	2432.356731
516.630488	2538.220962
516.994235	2545.782692
517.357925	2505.453462
517.721558	2502.932885
518.085133	2460.083077
518.448651	2452.521346
518.812112	2538.220962
519.175516	2487.809423
519.538863	2490.330000
519.902152	2450.000769
520.265385	2434.877308
520.628560	2477.727115
520.991678	2432.356731
521.354739	2470.165385
521.717743	2490.330000
522.080690	2513.015192
522.443580	2462.603654
522.806413	2520.576923
523.169189	2530.659231
523.531908	2490.330000
523.894569	2505.453462
524.257174	2525.618077
524.619722	2480.247692
524.982213	2505.453462
525.344647	2450.000769
525.707025	2472.685962
526.069345	2533.179808
526.431608	2510.494615
526.793815	2482.768269
527.155964	2490.330000
527.518057	2505.453462
527.880093	2581.070769
528.242072	2434.877308
528.603995	2530.659231
528.965860	2485.288846
529.327669	2502.932885
529.689421	2470.165385
530.051117	2538.220962
530.412755	2505.453462
530.774337	2497.891731
531.135862	2475.206538
531.497331	2465.124231
531.858743	2432.356731
532.220098	2533.179808
532.581396	2477.727115
532.942638	2437.397885
533.303824	2543.262115
533.664953	2455.041923
534.026025	2470.165385
534.387040	2487.809423
534.747999	2528.138654
535.108902	2455.041923
535.469748	2502.932885
535.830537	2535.700385
536.191270	2402.109808
536.551947	2482.768269
536.912567	2462.603654
537.273131	2581.070769
537.633638	2518.056346
537.994089	2555.865000
538.354483	2409.671538
538.714821	2560.906154
539.075103	2455.041923
539.435328	2528.138654
539.795497	2513.015192
540.155609	2460.083077
540.515665	2465.124231
540.875665	2492.850577
541.235609	2507.974038
541.595496	2545.782692
541.955328	2439.918462
542.315102	2533.179808
542.674821	2545.782692
543.034483	2543.262115
543.394090	2492.850577
543.753640	2525.618077
544.113134	2460.083077
544.472571	2538.220962
544.831953	2510.494615
545.191278	2475.206538
545.550548	2513.015192
545.909761	2490.330000
546.268918	2457.562500
546.628019	2439.918462
546.987064	2507.974038
547.346053	2560.906154
547.704986	2485.288846
548.063863	2523.097500
548.422684	2465.124231
548.781449	2538.220962
549.140158	2409.671538
549.498811	2538.220962
549.857408	2495.371154
550.215949	2472.685962
550.574434	2467.644808
550.932864	2555.865000
551.291237	2528.138654
551.649555	2518.056346
552.007817	2475.206538
552.366022	2573.509038
552.724173	2492.850577
553.082267	2573.509038
553.440305	2583.591346
553.798288	2507.974038
554.156215	2515.535769
554.514086	2444.959615
554.871902	2530.659231
555.229661	2480.247692
555.587365	2492.850577
555.945014	2502.932885
556.302606	2543.262115
556.660143	2505.453462
557.017625	2525.618077
557.375050	2545.782692
557.732421	2455.041923
558.089735	2475.206538
558.446994	2467.644808
558.804197	2528.138654
559.161345	2523.097500
559.518437	2497.891731
559.875474	2467.644808
560.232455	2492.850577
560.589381	2462.603654
560.946251	2490.330000
561.303065	2447.480192
561.659825	2583.591346
562.016528	2570.988462
562.373177	2470.165385
562.729770	2520.576923
563.086307	2472.685962
563.442789	2500.412308
563.799216	2555.865000
564.155587	2495.371154
564.511904	2480.247692
564.868164	2470.165385
565.224370	2530.659231
565.580520	2477.727115
565.936615	2578.550192
566.292654	2505.453462
566.648638	2525.618077
567.004567	2490.330000
567.360441	2467.644808
567.716260	2427.315577
568.072023	2487.809423
568.427732	2442.439038
568.783385	2500.412308
569.138982	2442.439038
569.494525	2477.727115
569.850013	2457.562500
570.205445	2490.330000
570.560823	2495.371154
570.916145	2495.371154
571.271412	2528.138654
571.626625	2593.673654
571.981782	2500.412308
572.336884	2497.891731
572.691931	2563.426731
573.046923	2452.521346
573.401860	2490.330000
573.756743	2490.330000
574.111570	2442.439038
574.466342	2555.865000
574.821059	2570.988462
575.175722	2525.618077
575.530330	2515.535769
575.884882	2540.741538
576.239380	2482.768269
576.593823	2510.494615
576.948211	2472.685962
577.302544	2402.109808
577.656823	2470.165385
578.011047	2475.206538
578.365216	2576.029615
578.719330	2525.618077
579.073389	2550.823846
579.427394	2510.494615
579.781344	2492.850577
580.135239	2497.891731
580.489080	2437.397885
580.842866	2525.618077
581.196597	2500.412308
581.550273	2485.288846
581.903895	2447.480192
582.257463	2513.015192
582.610975	2497.891731
582.964434	2520.576923
583.317837	2356.739423
583.671186	2477.727115
584.024481	2520.576923
584.377721	2492.850577
584.730906	2475.206538
585.084037	2487.809423
585.437113	2588.632500
585.790135	2419.753846
586.143103	2510.494615
586.496016	2412.192115
586.848874	2482.768269
587.201679	2472.685962
587.554428	2470.165385
587.907124	2510.494615
588.259765	2460.083077
588.612352	2500.412308
588.964884	2460.083077
589.317362	2465.124231
589.669786	2475.206538
590.022155	2515.535769
590.374470	2545.782692
590.726731	2540.741538
591.078937	2452.521346
591.431090	2548.303269
591.783188	2417.233269
592.135232	2563.426731
592.487222	2475.206538
592.839157	2520.576923
593.191038	2583.591346
593.542866	2502.932885
593.894639	2510.494615
594.246358	2523.097500
594.598022	2545.782692
594.949633	2414.712692
595.301190	2505.453462
595.652692	2555.865000
596.004141	2495.371154
596.355535	2447.480192
596.706876	2497.891731
597.058162	2492.850577
597.409395	2452.521346
597.760573	2563.426731
598.111698	2467.644808
598.462768	2533.179808
598.813785	2520.576923
599.164748	2455.041923
599.515657	2540.741538
599.866511	2558.385577
600.217312	2576.029615
600.568060	2460.083077
600.918753	2487.809423
601.269392	2470.165385
601.619978	2518.056346
601.970510	2497.891731
602.320988	2419.753846
602.671412	2563.426731
603.021783	2460.083077
603.372100	2548.303269
603.722363	2568.467885
604.072572	2434.877308
604.422728	2485.288846
604.772830	2460.083077
605.122878	2462.603654
605.472872	2422.274423
605.822813	2513.015192
606.172701	2507.974038
606.522534	2485.288846
606.872314	2515.535769
607.222041	2535.700385
607.571714	2560.906154
607.921333	2437.397885
608.270899	2497.891731
608.620411	2407.150962
608.969870	2513.015192
609.319276	2500.412308
609.668627	2507.974038
610.017926	2447.480192
610.367171	2553.344423
610.716362	2570.988462
611.065500	2530.659231
611.414585	2482.768269
611.763616	2603.755962
612.112594	2424.795000
612.461518	2540.741538
612.810389	2520.576923
613.159207	2500.412308
613.507971	2535.700385
613.856682	2492.850577
614.205340	2500.412308
614.553945	2520.576923
614.902496	2465.124231
615.250994	2533.179808
615.599439	2434.877308
615.947830	2505.453462
616.296169	2460.083077
616.644454	2613.838269
616.992686	2429.836154
617.340864	2548.303269
617.688990	2462.603654
618.037063	2545.782692
618.385082	2470.165385
618.733048	2490.330000
619.080961	2608.797115
619.428821	2485.288846
619.776628	2452.521346
620.124382	2485.288846
620.472083	2505.453462
620.819731	2502.932885
621.167326	2533.179808
621.514868	2565.947308
621.862357	2497.891731
622.209793	2502.932885
622.557176	2550.823846
622.904506	2465.124231
623.251783	2513.015192
623.599007	2507.974038
623.946179	2515.535769
624.293297	2490.330000
624.640363	2543.262115
624.987376	2429.836154
625.334336	2467.644808
625.681243	2523.097500
626.028097	2460.083077
626.374899	2485.288846
626.721647	2495.371154
627.068343	2392.027500
627.414987	2444.959615
627.761577	2525.618077
628.108115	2507.974038
628.454600	2528.138654
628.801032	2399.589231
629.147412	2507.974038
629.493739	2492.850577
629.840014	2497.891731
630.186236	2462.603654
630.532405	2475.206538
630.878521	2558.385577
631.224585	2450.000769
631.570597	2507.974038
631.916556	2495.371154
632.262462	2573.509038
632.608316	2472.685962
632.954117	2560.906154
633.299866	2447.480192
633.645562	2497.891731
633.991206	2525.618077
634.336797	2530.659231
634.682336	2525.618077
635.027823	2548.303269
635.373257	2588.632500
635.718639	2533.179808
636.063968	2495.371154
636.409245	2513.015192
636.754470	2538.220962
637.099642	2543.262115
637.444762	2450.000769
637.789829	2462.603654
638.134845	2480.247692
638.479808	2457.562500
638.824719	2525.618077
639.169577	2434.877308
639.514383	2535.700385
639.859137	2515.535769
640.203839	2462.603654
640.548489	2472.685962
640.893086	2533.179808
641.237632	2472.685962
641.582125	2583.591346
641.926566	2560.906154
642.270955	2576.029615
642.615292	2465.124231
642.959576	2510.494615
643.303809	2429.836154
643.647990	2444.959615
643.992118	2533.179808
644.336195	2523.097500
644.680219	2429.836154
645.024192	2515.535769
645.368112	2573.509038
645.711981	2455.041923
646.055797	2560.906154
646.399562	2439.918462
646.743274	2523.097500
647.086935	2485.288846
647.430544	2467.644808
647.774101	2429.836154
648.117606	2480.247692
648.461059	2550.823846
648.804460	2467.644808
649.147810	2477.727115
649.491108	2545.782692
649.834354	2550.823846
650.177548	2510.494615
650.520690	2407.150962
650.863781	2513.015192
651.206820	2487.809423
651.549807	2576.029615
651.892742	2515.535769
652.235626	2472.685962
652.578458	2439.918462
652.921238	2518.056346
653.263967	2422.274423
653.606644	2513.015192
653.949269	2455.041923
654.291843	2510.494615
654.634365	2492.850577
654.976836	2510.494615
655.319255	2515.535769
655.661622	2432.356731
656.003938	2490.330000
656.346203	2419.753846
656.688416	2510.494615
657.030577	2482.768269
657.372687	2480.247692
657.714746	2540.741538
658.056753	2515.535769
658.398708	2495.371154
658.740612	2490.330000
659.082465	2545.782692
659.424266	2429.836154
659.766016	2523.097500
660.107715	2492.850577
660.449362	2444.959615
660.790958	2497.891731
661.132503	2555.865000
661.473996	2455.041923
661.815438	2434.877308
662.156829	2558.385577
662.498168	2573.509038
662.839456	2583.591346
663.180693	2538.220962
663.521879	2427.315577
663.863013	2502.932885
664.204097	2465.124231
664.545129	2444.959615
664.886110	2487.809423
665.227040	2518.056346
665.567918	2470.165385
665.908746	2462.603654
666.249522	2467.644808
666.590248	2477.727115
666.930922	2462.603654
667.271545	2485.288846
667.612118	2490.330000
667.952639	2472.685962
668.293109	2563.426731
668.633528	2510.494615
668.973896	2487.809423
669.314213	2485.288846
669.654480	2485.288846
669.994695	2439.918462
670.334859	2460.083077
670.674973	2528.138654
671.015035	2603.755962
671.355047	2477.727115
671.695008	2505.453462
672.034918	2455.041923
672.374777	2472.685962
672.714585	2424.795000
673.054342	2442.439038
673.394049	2482.768269
673.733705	2497.891731
674.073310	2510.494615
674.412864	2467.644808
674.752368	2434.877308
675.091820	2490.330000
675.431223	2407.150962
675.770574	2460.083077
676.109875	2447.480192
676.449125	2462.603654
676.788324	2460.083077
677.127473	2452.521346
677.466571	2419.753846
677.805619	2462.603654
678.144616	2485.288846
678.483562	2535.700385
678.822458	2591.153077
679.161303	2475.206538
679.500098	2470.165385
679.838842	2523.097500
680.177535	2487.809423
680.516179	2540.741538
680.854771	2497.891731
681.193314	2525.618077
681.531805	2485.288846
681.870247	2472.685962
682.208638	2424.795000
682.546978	2477.727115
682.885268	2487.809423
683.223508	2513.015192
683.561697	2530.659231
683.899836	2523.097500
684.237925	2507.974038
684.575963	2492.850577
684.913951	2545.782692
685.251889	2485.288846
685.589776	2450.000769
685.927614	2462.603654
686.265401	2495.371154
686.603137	2507.974038
686.940824	2533.179808
687.278460	2565.947308
687.616046	2485.288846
687.953582	2518.056346
688.291068	2553.344423
688.628504	2424.795000
688.965889	2482.768269
689.303224	2442.439038
689.640510	2497.891731
689.977745	2576.029615
690.314930	2482.768269
690.652065	2480.247692
690.989150	2560.906154
691.326185	2482.768269
691.663170	2543.262115
692.000105	2444.959615
692.336990	2530.659231
692.673825	2596.194231
693.010610	2505.453462
693.347345	2490.330000
693.684030	2457.562500
694.020665	2591.153077
694.357251	2437.397885
694.693786	2507.974038
695.030272	2515.535769
695.366707	2533.179808
695.703093	2450.000769
696.039429	2548.303269
696.375716	2462.603654
696.711952	2538.220962
697.048139	2465.124231
697.384276	2480.247692
697.720363	2558.385577
698.056400	2550.823846
698.392388	2502.932885
698.728326	2558.385577
699.064214	2565.947308
699.400053	2452.521346
699.735842	2525.618077
700.071581	2389.506923
700.407270	2578.550192
700.742910	2447.480192
701.078501	2444.959615
701.414042	2442.439038
701.749533	2540.741538
702.084974	2598.714808
702.420366	2533.179808
702.755709	2472.685962
703.091002	2500.412308
703.426246	2485.288846
703.761440	2457.562500
704.096584	2530.659231
704.431679	2374.383462
704.766725	2515.535769
705.101721	2427.315577
705.436668	2513.015192
705.771565	2434.877308
706.106413	2538.220962
706.441212	2472.685962
706.775961	2447.480192
707.110661	2465.124231
707.445311	2533.179808
707.779913	2472.685962
708.114465	2576.029615
708.448967	2593.673654
708.783421	2543.262115
709.117825	2470.165385
709.452180	2424.795000
709.786485	2578.550192
710.120742	2475.206538
710.454949	2500.412308
710.789107	2510.494615
711.123216	2482.768269
711.457275	2467.644808
711.791286	2568.467885
712.125247	2545.782692
712.459159	2409.671538
712.793023	2470.165385
713.126837	2477.727115
713.460602	2598.714808
713.794318	2376.904038
714.127985	2555.865000
714.461602	2434.877308
714.795171	2497.891731
715.128691	2442.439038
715.462162	2487.809423
715.795584	2528.138654
716.128957	2528.138654
716.462281	2442.439038
716.795556	2540.741538
717.128782	2442.439038
717.461960	2502.932885
717.795088	2452.521346
718.128167	2550.823846
718.461198	2550.823846
718.794180	2450.000769
719.127113	2540.741538
719.459997	2540.741538
719.792833	2520.576923
720.125619	2570.988462
720.458357	2515.535769
720.791046	2560.906154
721.123686	2510.494615
721.456278	2535.700385
721.788821	2525.618077
722.121315	2507.974038
722.453761	2409.671538
722.786158	2525.618077
723.118506	2507.974038
723.450805	2492.850577
723.783056	2492.850577
724.115259	2460.083077
724.447412	2523.097500
724.779518	2417.233269
725.111574	2535.700385
725.443582	2455.041923
725.775542	2495.371154
726.107453	2465.124231
726.439315	2467.644808
726.771129	2507.974038
727.102895	2507.974038
727.434612	2548.303269
727.766281	2523.097500
728.097901	2417.233269
728.429473	2497.891731
728.760996	2477.727115
729.092471	2513.015192
729.423897	2460.083077
729.755276	2543.262115
730.086606	2477.727115
730.417887	2528.138654
730.749120	2465.124231
731.080305	2520.576923
731.411442	2510.494615
731.742530	2497.891731
732.073570	2513.015192
732.404562	2523.097500
732.735506	2540.741538
733.066401	2606.276538
733.397249	2487.809423
733.728048	2505.453462
734.058798	2515.535769
734.389501	2515.535769
734.720156	2477.727115
735.050762	2523.097500
735.381320	2518.056346
735.711831	2538.220962
736.042293	2492.850577
736.372707	2422.274423
736.703073	2510.494615
737.033391	2523.097500
737.363661	2543.262115
737.693883	2460.083077
738.024056	2520.576923
738.354182	2480.247692
738.684260	2530.659231
739.014290	2465.124231
739.344272	2505.453462
739.674207	2535.700385
740.004093	2490.330000
740.333931	2439.918462
740.663722	2472.685962
740.993464	2563.426731
741.323159	2427.315577
741.652806	2525.618077
741.982405	2495.371154
742.311956	2490.330000
742.641460	2565.947308
742.970915	2518.056346
743.300323	2528.138654
743.629683	2533.179808
743.958996	2399.589231
744.288260	2507.974038
744.617477	2497.891731
744.946647	2507.974038
745.275768	2455.041923
745.604842	2535.700385
745.933869	2518.056346
746.262847	2492.850577
746.591778	2492.850577
746.920662	2472.685962
747.249498	2472.685962
747.578286	2543.262115
747.907027	2419.753846
748.235720	2515.535769
748.564365	2490.330000
748.892963	2510.494615
749.221514	2540.741538
749.550017	2530.659231
749.878473	2427.315577
750.206881	2495.371154
750.535242	2450.000769
750.863555	2520.576923
751.191821	2550.823846
751.520039	2548.303269
751.848210	2513.015192
752.176334	2550.823846
752.504411	2485.288846
752.832440	2576.029615
753.160421	2518.056346
753.488356	2429.836154
753.816243	2439.918462
754.144082	2513.015192
754.471875	2477.727115
754.799620	2568.467885
755.127318	2475.206538
755.454969	2429.836154
755.782572	2596.194231
756.110129	2538.220962
756.437638	2492.850577
756.765100	2538.220962
757.092515	2450.000769
757.419882	2502.932885
757.747203	2558.385577
758.074477	2460.083077
758.401703	2452.521346
758.728882	2510.494615
759.056014	2535.700385
759.383099	2518.056346
759.710138	2616.358846
760.037129	2460.083077
760.364073	2470.165385
760.690970	2492.850577
761.017820	2442.439038
761.344623	2523.097500
761.671379	2510.494615
761.998088	2460.083077
762.324751	2540.741538
762.651366	2460.083077
762.977935	2465.124231
763.304456	2485.288846
763.630931	2565.947308
763.957359	2505.453462
764.283740	2520.576923
764.610074	2518.056346
764.936362	2507.974038
765.262602	2487.809423
765.588796	2457.562500
765.914943	2490.330000
766.241044	2452.521346
766.567097	2432.356731
766.893104	2513.015192
767.219064	2432.356731
767.544978	2470.165385
767.870845	2460.083077
768.196665	2515.535769
768.522438	2465.124231
768.848165	2535.700385
769.173846	2455.041923
769.499479	2505.453462
769.825066	2447.480192
770.150607	2492.850577
770.476101	2513.015192
770.801548	2593.673654
771.126949	2497.891731
771.452303	2533.179808
771.777611	2455.041923
772.102872	2505.453462
772.428087	2480.247692
772.753256	2497.891731
773.078378	2480.247692
773.403453	2442.439038
773.728482	2523.097500
774.053465	2485.288846
774.378401	2397.068654
774.703291	2515.535769
775.028135	2465.124231
775.352932	2399.589231
775.677683	2462.603654
776.002388	2513.015192
776.327046	2467.644808
776.651658	2507.974038
776.976224	2434.877308
777.300743	2490.330000
777.625216	2490.330000
777.949643	2533.179808
778.274024	2482.768269
778.598359	2386.986346
778.922647	2480.247692
779.246889	2495.371154
779.571086	2525.618077
779.895236	2515.535769
780.219339	2442.439038
780.543397	2576.029615
780.867409	2442.439038
781.191374	2462.603654
781.515294	2533.179808
781.839167	2601.235385
782.162995	2487.809423
782.486776	2460.083077
782.810511	2500.412308
783.134201	2460.083077
783.457844	2439.918462
783.781441	2553.344423
784.104993	2490.330000
784.428498	2540.741538
784.751958	2470.165385
785.075372	2520.576923
785.398739	2465.124231
785.722061	2490.330000
786.045337	2586.111923
786.368568	2540.741538
786.691752	2444.959615
787.014891	2523.097500
787.337983	2399.589231
787.661030	2497.891731
787.984031	2570.988462
788.306987	2497.891731
788.629897	2480.247692
788.952760	2475.206538
789.275579	2543.262115
789.598351	2495.371154
789.921078	2437.397885
790.243759	2550.823846
790.566395	2457.562500
790.888984	2505.453462
791.211529	2558.385577
791.534027	2538.220962
791.856480	2485.288846
792.178888	2477.727115
792.501249	2482.768269
792.823566	2477.727115
793.145836	2543.262115
793.468062	2442.439038
793.790241	2563.426731
794.112375	2490.330000
794.434464	2457.562500
794.756507	2525.618077
795.078505	2495.371154
795.400457	2480.247692
795.722364	2470.165385
796.044226	2533.179808
796.366042	2513.015192
796.687812	2533.179808
797.009538	2505.453462
797.331218	2505.453462
797.652852	2404.630385
797.974442	2505.453462
798.295986	2460.083077
798.617484	2548.303269
798.938938	2427.315577
799.260346	2437.397885
799.581709	2543.262115
799.903026	2455.041923
800.224299	2492.850577
800.545526	2467.644808
800.866708	2482.768269
801.187845	2505.453462
801.508936	2523.097500
801.829983	2439.918462
802.150984	2502.932885
802.471940	2510.494615
802.792851	2442.439038
803.113717	2550.823846
803.434538	2505.453462
803.755314	2555.865000
804.076045	2520.576923
804.396731	2500.412308
804.717372	2419.753846
805.037967	2467.644808
805.358518	2513.015192
805.679024	2565.947308
805.999485	2576.029615
806.319901	2591.153077
806.640272	2472.685962
806.960598	2525.618077
807.280879	2462.603654
807.601115	2462.603654
807.921306	2470.165385
808.241453	2550.823846
808.561554	2502.932885
808.881611	2535.700385
809.201623	2450.000769
809.521590	2586.111923
809.841513	2535.700385
810.161390	2505.453462
810.481223	2523.097500
810.801011	2510.494615
811.120755	2518.056346
811.440453	2452.521346
811.760107	2472.685962
812.079716	2470.165385
812.399281	2515.535769
812.718801	2432.356731
813.038276	2485.288846
813.357707	2465.124231
813.677093	2550.823846
813.996434	2427.315577
814.315731	2545.782692
814.634983	2457.562500
814.954191	2422.274423
815.273354	2485.288846
815.592473	2568.467885
815.911547	2523.097500
816.230577	2447.480192
816.549562	2500.412308
816.868502	2497.891731
817.187399	2543.262115
817.506250	2540.741538
817.825058	2553.344423
818.143821	2515.535769
818.462539	2497.891731
818.781213	2465.124231
819.099843	2500.412308
819.418429	2490.330000
819.736970	2548.303269
820.055466	2513.015192
820.373919	2548.303269
820.692327	2515.535769
821.010691	2495.371154
821.329011	2457.562500
821.647286	2480.247692
821.965517	2523.097500
822.283704	2538.220962
822.601847	2507.974038
822.919945	2487.809423
823.237999	2384.465769
823.556010	2520.576923
823.873976	2402.109808
824.191897	2573.509038
824.509775	2427.315577
824.827609	2442.439038
825.145398	2429.836154
825.463144	2450.000769
825.780845	2480.247692
826.098502	2513.015192
826.416116	2550.823846
826.733685	2545.782692
827.051210	2535.700385
827.368692	2450.000769
827.686129	2495.371154
828.003522	2540.741538
828.320872	2457.562500
828.638177	2482.768269
828.955439	2510.494615
829.272656	2457.562500
829.589830	2510.494615
829.906960	2452.521346
830.224046	2535.700385
830.541088	2520.576923
830.858086	2563.426731
831.175041	2490.330000
831.491952	2500.412308
831.808819	2558.385577
832.125642	2465.124231
832.442421	2490.330000
832.759157	2424.795000
833.075849	2515.535769
833.392497	2507.974038
833.709101	2492.850577
834.025662	2540.741538
834.342179	2497.891731
834.658653	2578.550192
834.975083	2533.179808
835.291469	2560.906154
835.607811	2520.576923
835.924110	2457.562500
836.240366	2457.562500
836.556578	2475.206538
836.872746	2465.124231
837.188871	2495.371154
837.504952	2538.220962
837.820990	2477.727115
838.136984	2442.439038
838.452935	2467.644808
838.768842	2492.850577
839.084706	2462.603654
839.400526	2497.891731
839.716303	2485.288846
840.032037	2487.809423
840.347727	2480.247692
840.663373	2500.412308
840.978977	2553.344423
841.294537	2538.220962
841.610054	2472.685962
841.925527	2404.630385
842.240957	2611.317692
842.556344	2520.576923
842.871687	2502.932885
843.186987	2429.836154
843.502244	2563.426731
843.817458	2525.618077
844.132629	2424.795000
844.447756	2434.877308
844.762840	2394.548077
845.077881	2550.823846
845.392879	2467.644808
845.707833	2543.262115
846.022745	2518.056346
846.337613	2457.562500
846.652438	2530.659231
846.967221	2492.850577
847.281960	2450.000769
847.596656	2482.768269
847.911309	2472.685962
848.225919	2460.083077
848.540485	2545.782692
848.855009	2540.741538
849.169490	2490.330000
849.483928	2444.959615
849.798323	2480.247692
850.112675	2487.809423
850.426984	2495.371154
850.741251	2439.918462
851.055474	2502.932885
851.369654	2460.083077
851.683792	2518.056346
851.997887	2422.274423
852.311938	2485.288846
852.625947	2419.753846
852.939914	2439.918462
853.253837	2497.891731
853.567718	2515.535769
853.881555	2553.344423
854.195350	2490.330000
854.509103	2525.618077
854.822812	2507.974038
855.136479	2477.727115
855.450103	2520.576923
855.763685	2525.618077
856.077224	2558.385577
856.390720	2497.891731
856.704173	2538.220962
857.017584	2500.412308
857.330953	2507.974038
857.644278	2487.809423
857.957561	2563.426731
858.270802	2523.097500
858.584000	2399.589231
858.897155	2518.056346
859.210268	2523.097500
859.523339	2480.247692
859.836367	2515.535769
860.149352	2545.782692
860.462295	2442.439038
860.775195	2525.618077
861.088054	2500.412308
861.400869	2578.550192
861.713642	2523.097500
862.026373	2530.659231
862.339062	2513.015192
862.651708	2495.371154
862.964312	2467.644808
863.276873	2470.165385
863.589392	2525.618077
863.901869	2460.083077
864.214303	2558.385577
864.526696	2578.550192
864.839045	2505.453462
865.151353	2573.509038
865.463619	2540.741538
865.775842	2623.920577
866.088023	2457.562500
866.400162	2497.891731
866.712258	2555.865000
867.024313	2409.671538
867.336325	2475.206538
867.648296	2467.644808
867.960224	2472.685962
868.272110	2513.015192
868.583954	2550.823846
868.895755	2598.714808
869.207515	2523.097500
869.519233	2510.494615
869.830909	2520.576923
870.142542	2414.712692
870.454134	2487.809423
870.765684	2510.494615
871.077191	2530.659231
871.388657	2465.124231
871.700081	2492.850577
872.011463	2513.015192
872.322803	2601.235385
872.634101	2460.083077
872.945357	2482.768269
873.256571	2530.659231
873.567744	2460.083077
873.878874	2510.494615
874.189963	2444.959615
874.501010	2444.959615
874.812015	2545.782692
875.122979	2500.412308
875.433900	2550.823846
875.744780	2472.685962
876.055618	2528.138654
876.366415	2507.974038
876.677169	2520.576923
876.987882	2510.494615
877.298554	2460.083077
877.609183	2407.150962
877.919771	2472.685962
878.230317	2475.206538
878.540822	2495.371154
878.851285	2515.535769
879.161707	2513.015192
879.472087	2555.865000
879.782425	2507.974038
880.092722	2558.385577
880.402977	2487.809423
880.713191	2495.371154
881.023363	2472.685962
881.333494	2533.179808
881.643583	2563.426731
881.953631	2472.685962
882.263637	2502.932885
882.573602	2470.165385
882.883526	2500.412308
883.193408	2550.823846
883.503248	2505.453462
883.813048	2460.083077
884.122806	2419.753846
884.432522	2500.412308
884.742197	2495.371154
885.051831	2492.850577
885.361424	2515.535769
885.670975	2530.659231
885.980485	2439.918462
886.289954	2528.138654
886.599382	2465.124231
886.908768	2452.521346
887.218113	2515.535769
887.527417	2475.206538
887.836680	2452.521346
888.145901	2462.603654
888.455082	2439.918462
888.764221	2538.220962
889.073319	2457.562500
889.382376	2444.959615
889.691392	2444.959615
890.000366	2465.124231
890.309300	2513.015192
890.618193	2447.480192
890.927044	2538.220962
891.235855	2462.603654
891.544625	2513.015192
891.853353	2495.371154
892.162041	2502.932885
892.470687	2502.932885
892.779293	2434.877308
893.087858	2465.124231
893.396381	2452.521346
893.704864	2555.865000
894.013306	2444.959615
894.321707	2427.315577
894.630068	2497.891731
894.938387	2530.659231
895.246665	2422.274423
895.554903	2472.685962
895.863100	2392.027500
896.171256	2462.603654
896.479371	2414.712692
896.787446	2525.618077
897.095480	2429.836154
897.403473	2384.465769
897.711425	2505.453462
898.019336	2548.303269
898.327207	2502.932885
898.635038	2495.371154
898.942827	2467.644808
899.250576	2507.974038
899.558284	2528.138654
899.865952	2510.494615
900.173579	2487.809423
900.481165	2457.562500
900.788711	2427.315577
901.096216	2513.015192
901.403681	2505.453462
901.711105	2533.179808
902.018489	2452.521346
902.325832	2543.262115
902.633135	2535.700385
902.940397	2477.727115
903.247619	2500.412308
903.554800	2439.918462
903.861941	2565.947308
904.169041	2518.056346
904.476101	2477.727115
904.783121	2581.070769
905.090100	2510.494615
905.397039	2467.644808
905.703938	2578.550192
906.010796	2442.439038
906.317614	2535.700385
906.624391	2520.576923
906.931129	2507.974038
907.237826	2477.727115
907.544483	2530.659231
907.851099	2392.027500
908.157675	2434.877308
908.464211	2502.932885
908.770707	2497.891731
909.077163	2480.247692
909.383578	2560.906154
909.689954	2452.521346
909.996289	2535.700385
910.302584	2502.932885
910.608839	2485.288846
910.915054	2500.412308
911.221229	2460.083077
911.527363	2613.838269
911.833458	2490.330000
912.139513	2558.385577
912.445527	2500.412308
912.751502	2444.959615
913.057436	2535.700385
913.363331	2540.741538
913.669186	2472.685962
913.975000	2505.453462
914.280775	2487.809423
914.586510	2442.439038
914.892205	2424.795000
915.197859	2545.782692
915.503475	2462.603654
915.809050	2482.768269
916.114585	2444.959615
916.420081	2593.673654
916.725536	2603.755962
917.030952	2475.206538
917.336328	2500.412308
917.641665	2462.603654
917.946961	2485.288846
918.252218	2450.000769
918.557435	2437.397885
918.862612	2520.576923
919.167750	2434.877308
919.472848	2442.439038
919.777906	2505.453462
920.082925	2497.891731
920.387904	2480.247692
920.692843	2477.727115
920.997743	2470.165385
921.302603	2437.397885
921.607423	2477.727115
921.912204	2525.618077
922.216946	2507.974038
922.521647	2480.247692
922.826310	2487.809423
923.130932	2497.891731
923.435516	2487.809423
923.740059	2578.550192
924.044564	2535.700385
924.349028	2487.809423
924.653454	2407.150962
924.957840	2447.480192
925.262186	2472.685962
925.566493	2513.015192
925.870761	2533.179808
926.174989	2462.603654
926.479178	2543.262115
926.783328	2475.206538
927.087438	2495.371154
927.391509	2434.877308
927.695541	2460.083077
927.999533	2460.083077
928.303486	2558.385577
928.607400	2412.192115
928.911275	2558.385577
929.215110	2510.494615
929.518906	2545.782692
929.822663	2477.727115
930.126381	2530.659231
930.430060	2497.891731
930.733699	2444.959615
931.037299	2497.891731
931.340861	2457.562500
931.644383	2515.535769
931.947866	2412.192115
932.251309	2462.603654
932.554714	2462.603654
932.858080	2497.891731
933.161407	2518.056346
933.464694	2530.659231
933.767943	2480.247692
934.071153	2490.330000
934.374323	2482.768269
934.677455	2502.932885
934.980548	2465.124231
935.283602	2465.124231
935.586617	2490.330000
935.889593	2520.576923
936.192530	2419.753846
936.495428	2487.809423
936.798287	2518.056346
937.101108	2535.700385
937.403890	2444.959615
937.706632	2439.918462
938.009336	2518.056346
938.312002	2467.644808
938.614628	2523.097500
938.917216	2492.850577
939.219765	2379.424615
939.522275	2392.027500
939.824747	2472.685962
940.127179	2485.288846
940.429573	2470.165385
940.731929	2500.412308
941.034246	2404.630385
941.336524	2434.877308
941.638763	2432.356731
941.940964	2490.330000
942.243126	2475.206538
942.545250	2502.932885
942.847335	2422.274423
943.149381	2419.753846
943.451389	2500.412308
943.753359	2523.097500
944.055290	2545.782692
944.357182	2460.083077
944.659036	2485.288846
944.960851	2455.041923
945.262628	2565.947308
945.564367	2462.603654
945.866067	2399.589231
946.167729	2497.891731
946.469352	2376.904038
946.770937	2553.344423
947.072484	2495.371154
947.373992	2525.618077
947.675462	2467.644808
947.976893	2472.685962
948.278286	2525.618077
948.579641	2482.768269
948.880958	2548.303269
949.182236	2407.150962
949.483476	2384.465769
949.784678	2523.097500
950.085841	2495.371154
950.386967	2487.809423
950.688054	2543.262115
950.989103	2487.809423
951.290114	2480.247692
951.591087	2487.809423
951.892021	2452.521346
952.192917	2460.083077
952.493776	2482.768269
952.794596	2505.453462
953.095378	2432.356731
953.396122	2424.795000
953.696828	2455.041923
953.997496	2424.795000
954.298126	2583.591346
954.598718	2429.836154
954.899272	2457.562500
955.199788	2502.932885
955.500266	2563.426731
955.800706	2434.877308
956.101108	2399.589231
956.401472	2502.932885
956.701798	2434.877308
957.002087	2505.453462
957.302337	2578.550192
957.602550	2485.288846
957.902724	2429.836154
958.202861	2482.768269
958.502960	2452.521346
958.803022	2497.891731
959.103045	2422.274423
959.403031	2520.576923
959.702979	2525.618077
960.002889	2530.659231
960.302762	2437.397885
960.602596	2500.412308
960.902393	2540.741538
961.202153	2533.179808
961.501875	2525.618077
961.801559	2548.303269
962.101205	2414.712692
962.400814	2545.782692
962.700385	2465.124231
962.999918	2507.974038
963.299414	2457.562500
963.598873	2482.768269
963.898293	2432.356731
964.197677	2568.467885
964.497022	2492.850577
964.796331	2472.685962
965.095601	2379.424615
965.394835	2520.576923
965.694030	2518.056346
965.993189	2455.041923
966.292309	2505.453462
966.591393	2455.041923
966.890439	2470.165385
967.189447	2513.015192
967.488419	2457.562500
967.787353	2492.850577
968.086249	2492.850577
968.385108	2500.412308
968.683930	2439.918462
968.982714	2518.056346
969.281462	2434.877308
969.580172	2485.288846
969.878844	2576.029615
970.177480	2399.589231
970.476078	2563.426731
970.774639	2467.644808
971.073162	2528.138654
971.371649	2518.056346
971.670098	2480.247692
971.968510	2444.959615
972.266885	2492.850577
972.565223	2523.097500
972.863524	2462.603654
973.161788	2475.206538
973.460014	2482.768269
973.758204	2409.671538
974.056356	2505.453462
974.354471	2525.618077
974.652550	2477.727115
974.950591	2560.906154
975.248595	2465.124231
975.546563	2422.274423
975.844493	2533.179808
976.142386	2482.768269
976.440243	2535.700385
976.738062	2482.768269
977.035845	2510.494615
977.333590	2465.124231
977.631299	2480.247692
977.928971	2452.521346
978.226606	2520.576923
978.524204	2434.877308
978.821765	2533.179808
979.119290	2505.453462
979.416777	2480.247692
979.714228	2500.412308
980.011642	2477.727115
980.309020	2485.288846
980.606360	2447.480192
980.903664	2450.000769
981.200931	2530.659231
981.498162	2502.932885
981.795356	2477.727115
982.092513	2482.768269
982.389633	2505.453462
982.686717	2500.412308
982.983764	2439.918462
983.280775	2417.233269
983.577749	2465.124231
983.874686	2578.550192
984.171587	2434.877308
984.468451	2505.453462
984.765279	2513.015192
985.062070	2492.850577
985.358824	2548.303269
985.655543	2523.097500
985.952224	2482.768269
986.248869	2535.700385
986.545478	2485.288846
986.842050	2371.862885
987.138586	2520.576923
987.435086	2480.247692
987.731549	2432.356731
988.027975	2502.932885
988.324366	2530.659231
988.620719	2535.700385
988.917037	2530.659231
989.213318	2429.836154
989.509563	2455.041923
989.805772	2404.630385
990.101944	2523.097500
990.398080	2500.412308
990.694180	2485.288846
990.990244	2447.480192
991.286271	2482.768269
991.582262	2439.918462
991.878217	2424.795000
992.174136	2437.397885
992.470019	2417.233269
992.765865	2465.124231
993.061676	2470.165385
993.357450	2548.303269
993.653188	2442.439038
993.948890	2492.850577
994.244556	2548.303269
994.540186	2485.288846
994.835780	2568.467885
995.131337	2450.000769
995.426859	2444.959615
995.722345	2608.797115
996.017795	2487.809423
996.313208	2442.439038
996.608586	2515.535769
996.903928	2502.932885
997.199234	2507.974038
997.494504	2482.768269
997.789738	2485.288846
998.084936	2502.932885
998.380099	2475.206538
998.675225	2472.685962
998.970316	2510.494615
999.265371	2457.562500
999.560390	2500.412308
999.855373	2457.562500
1000.150320	2480.247692
1000.445232	2495.371154
1000.740108	2538.220962
1001.034948	2439.918462
1001.329752	2573.509038
1001.624521	2540.741538
1001.919254	2427.315577
1002.213951	2518.056346
1002.508613	2490.330000
1002.803239	2550.823846
1003.097829	2485.288846
1003.392384	2513.015192
1003.686903	2462.603654
1003.981386	2399.589231
1004.275834	2560.906154
1004.570246	2502.932885
1004.864623	2460.083077
1005.158964	2480.247692
1005.453270	2515.535769
1005.747540	2515.535769
1006.041775	2465.124231
1006.335974	2540.741538
1006.630138	2510.494615
1006.924266	2482.768269
1007.218359	2507.974038
1007.512416	2487.809423
1007.806438	2470.165385
1008.100425	2460.083077
1008.394376	2540.741538
1008.688292	2513.015192
1008.982172	2447.480192
1009.276017	2570.988462
1009.569827	2485.288846
1009.863602	2495.371154
1010.157341	2535.700385
1010.451045	2502.932885
1010.744714	2404.630385
1011.038347	2548.303269
1011.331945	2507.974038
1011.625508	2518.056346
1011.919036	2490.330000
1012.212528	2432.356731
1012.505986	2543.262115
1012.799408	2422.274423
1013.092795	2482.768269
1013.386147	2450.000769
1013.679464	2409.671538
1013.972745	2500.412308
1014.265992	2444.959615
1014.559204	2480.247692
1014.852380	2510.494615
1015.145521	2555.865000
1015.438628	2510.494615
1015.731699	2548.303269
1016.024736	2460.083077
1016.317737	2414.712692
1016.610703	2462.603654
1016.903635	2530.659231
1017.196531	2528.138654
1017.489393	2596.194231
1017.782219	2482.768269
1018.075011	2465.124231
1018.367768	2450.000769
1018.660490	2533.179808
1018.953177	2533.179808
1019.245829	2533.179808
