Dividing Wavelength (nm)	Counts (n)	Blue Motor Position (mm): 0.000000	Red Motor Position (mm): 3.700000	
326.493990	2112.243462
326.888308	2112.243462
327.282561	2112.243462
327.676750	2167.696154
328.070874	2029.064423
328.464933	2059.311346
328.858929	2066.873077
329.252859	2127.366923
329.646726	2122.325769
330.040528	2172.737308
330.434265	2087.037692
330.827938	2157.613846
331.221547	2092.078846
331.615091	2165.175577
332.008571	2245.834038
332.401986	2187.860769
332.795338	2283.642692
333.188625	2255.916346
333.581847	2245.834038
333.975006	2271.039808
334.368100	2263.478077
334.761129	2336.574808
335.154095	2311.369038
335.546996	2346.657115
335.939833	2288.683846
336.332606	2452.521346
336.725315	2457.562500
337.117960	2465.124231
337.510540	2417.233269
337.903056	2404.630385
338.295508	2419.753846
338.687896	2442.439038
339.080220	2447.480192
339.472480	2502.932885
339.864676	2417.233269
340.256807	2510.494615
340.648875	2439.918462
341.040879	2402.109808
341.432818	2424.795000
341.824694	2427.315577
342.216506	2490.330000
342.608253	2470.165385
342.999937	2394.548077
343.391557	2437.397885
343.783113	2487.809423
344.174605	2475.206538
344.566033	2480.247692
344.957397	2467.644808
345.348697	2366.821731
345.739934	2492.850577
346.131106	2452.521346
346.522215	2455.041923
346.913260	2492.850577
347.304241	2422.274423
347.695159	2465.124231
348.086012	2424.795000
348.476802	2553.344423
348.867528	2419.753846
349.258191	2525.618077
349.648789	2452.521346
350.039324	2492.850577
350.429796	2581.070769
350.820203	2444.959615
351.210548	2502.932885
351.600828	2465.124231
351.991045	2510.494615
352.381198	2470.165385
352.771288	2447.480192
353.161314	2540.741538
353.551276	2477.727115
353.941175	2414.712692
354.331010	2434.877308
354.720782	2442.439038
355.110490	2485.288846
355.500135	2437.397885
355.889717	2336.574808
356.279235	2477.727115
356.668689	2379.424615
357.058080	2417.233269
357.447408	2472.685962
357.836672	2407.150962
358.225873	2507.974038
358.615010	2455.041923
359.004084	2422.274423
359.393095	2439.918462
359.782043	2417.233269
360.170927	2381.945192
360.559748	2462.603654
360.948505	2444.959615
361.337199	2495.371154
361.725830	2417.233269
362.114398	2409.671538
362.502903	2384.465769
362.891344	2371.862885
363.279722	2533.179808
363.668037	2467.644808
364.056289	2485.288846
364.444478	2482.768269
364.832603	2485.288846
365.220665	2399.589231
365.608665	2427.315577
365.996601	2442.439038
366.384474	2450.000769
366.772284	2427.315577
367.160031	2409.671538
367.547715	2432.356731
367.935336	2369.342308
368.322893	2434.877308
368.710388	2427.315577
369.097820	2475.206538
369.485189	2434.877308
369.872495	2419.753846
370.259738	2452.521346
370.646918	2462.603654
371.034035	2427.315577
371.421090	2412.192115
371.808081	2424.795000
372.195010	2525.618077
372.581875	2439.918462
372.968678	2376.904038
373.355418	2525.618077
373.742096	2412.192115
374.128710	2492.850577
374.515262	2460.083077
374.901751	2487.809423
375.288177	2417.233269
375.674540	2475.206538
376.060841	2455.041923
376.447079	2429.836154
376.833254	2452.521346
377.219367	2462.603654
377.605417	2371.862885
377.991404	2538.220962
378.377329	2419.753846
378.763191	2460.083077
379.148991	2540.741538
379.534727	2510.494615
379.920402	2487.809423
380.306013	2439.918462
380.691563	2495.371154
381.077049	2434.877308
381.462474	2485.288846
381.847835	2467.644808
382.233134	2455.041923
382.618371	2462.603654
383.003545	2543.262115
383.388657	2452.521346
383.773706	2523.097500
384.158693	2462.603654
384.543618	2535.700385
384.928480	2490.330000
385.313280	2450.000769
385.698017	2480.247692
386.082692	2434.877308
386.467305	2553.344423
386.851856	2424.795000
387.236344	2475.206538
387.620770	2480.247692
388.005133	2497.891731
388.389435	2480.247692
388.773674	2507.974038
389.157851	2492.850577
389.541965	2515.535769
389.926018	2392.027500
390.310008	2535.700385
390.693936	2386.986346
391.077802	2439.918462
391.461606	2422.274423
391.845348	2540.741538
392.229027	2497.891731
392.612645	2376.904038
392.996200	2409.671538
393.379694	2515.535769
393.763125	2495.371154
394.146494	2502.932885
394.529801	2452.521346
394.913047	2475.206538
395.296230	2482.768269
395.679351	2477.727115
396.062410	2525.618077
396.445408	2545.782692
396.828343	2492.850577
397.211217	2520.576923
397.594028	2432.356731
397.976778	2422.274423
398.359466	2513.015192
398.742092	2419.753846
399.124656	2465.124231
399.507158	2424.795000
399.889598	2550.823846
400.271977	2450.000769
400.654294	2520.576923
401.036549	2492.850577
401.418742	2487.809423
401.800874	2434.877308
402.182944	2444.959615
402.564952	2495.371154
402.946898	2500.412308
403.328783	2538.220962
403.710606	2447.480192
404.092367	2482.768269
404.474067	2467.644808
404.855705	2510.494615
405.237282	2371.862885
405.618797	2533.179808
406.000250	2450.000769
406.381642	2386.986346
406.762972	2434.877308
407.144240	2475.206538
407.525447	2439.918462
407.906593	2500.412308
408.287677	2558.385577
408.668700	2462.603654
409.049661	2492.850577
409.430560	2475.206538
409.811399	2460.083077
410.192176	2543.262115
410.572891	2450.000769
410.953545	2485.288846
411.334138	2412.192115
411.714669	2475.206538
412.095139	2444.959615
412.475547	2525.618077
412.855894	2568.467885
413.236180	2510.494615
413.616405	2487.809423
413.996568	2543.262115
414.376670	2457.562500
414.756711	2402.109808
415.136691	2480.247692
415.516609	2422.274423
415.896466	2470.165385
416.276262	2452.521346
416.655997	2485.288846
417.035670	2434.877308
417.415283	2465.124231
417.794834	2475.206538
418.174324	2465.124231
418.553753	2397.068654
418.933121	2472.685962
419.312428	2492.850577
419.691674	2457.562500
420.070859	2452.521346
420.449983	2538.220962
420.829045	2460.083077
421.208047	2444.959615
421.586988	2513.015192
421.965867	2465.124231
422.344686	2452.521346
422.723444	2460.083077
423.102141	2523.097500
423.480777	2535.700385
423.859352	2523.097500
424.237866	2414.712692
424.616319	2465.124231
424.994712	2460.083077
425.373044	2523.097500
425.751314	2550.823846
426.129524	2447.480192
426.507673	2477.727115
426.885762	2485.288846
427.263789	2540.741538
427.641756	2460.083077
428.019662	2518.056346
428.397508	2518.056346
428.775292	2432.356731
429.153016	2490.330000
429.530679	2540.741538
429.908282	2513.015192
430.285824	2533.179808
430.663305	2470.165385
431.040726	2475.206538
431.418086	2550.823846
431.795385	2470.165385
432.172624	2485.288846
432.549802	2429.836154
432.926920	2518.056346
433.303977	2505.453462
433.680974	2460.083077
434.057910	2492.850577
434.434786	2480.247692
434.811601	2412.192115
435.188355	2533.179808
435.565050	2439.918462
435.941683	2520.576923
436.318257	2444.959615
436.694770	2480.247692
437.071222	2455.041923
437.447614	2409.671538
437.823946	2470.165385
438.200218	2507.974038
438.576429	2444.959615
438.952580	2447.480192
439.328670	2540.741538
439.704700	2414.712692
440.080670	2548.303269
440.456580	2477.727115
440.832429	2507.974038
441.208218	2490.330000
441.583947	2558.385577
441.959616	2477.727115
442.335224	2422.274423
442.710773	2482.768269
443.086261	2515.535769
443.461689	2518.056346
443.837057	2487.809423
444.212365	2495.371154
444.587612	2500.412308
444.962800	2407.150962
445.337927	2563.426731
445.712995	2452.521346
446.088002	2487.809423
446.462949	2535.700385
446.837837	2492.850577
447.212664	2439.918462
447.587431	2450.000769
447.962139	2427.315577
448.336786	2538.220962
448.711374	2510.494615
449.085901	2525.618077
449.460369	2500.412308
449.834776	2457.562500
450.209124	2578.550192
450.583412	2515.535769
450.957640	2472.685962
451.331808	2535.700385
451.705917	2543.262115
452.079965	2381.945192
452.453954	2477.727115
452.827883	2439.918462
453.201752	2558.385577
453.575562	2540.741538
453.949311	2475.206538
454.323001	2457.562500
454.696632	2399.589231
455.070202	2457.562500
455.443713	2460.083077
455.817164	2502.932885
456.190556	2502.932885
456.563888	2581.070769
456.937160	2417.233269
457.310373	2424.795000
457.683526	2399.589231
458.056619	2530.659231
458.429653	2535.700385
458.802628	2513.015192
459.175542	2422.274423
459.548398	2455.041923
459.921194	2439.918462
460.293930	2467.644808
460.666607	2434.877308
461.039224	2465.124231
461.411782	2442.439038
461.784280	2439.918462
462.156719	2583.591346
462.529099	2457.562500
462.901419	2467.644808
463.273680	2465.124231
463.645882	2550.823846
464.018024	2626.441154
464.390106	2543.262115
464.762130	2497.891731
465.134094	2452.521346
465.505999	2510.494615
465.877845	2497.891731
466.249631	2460.083077
466.621358	2538.220962
466.993026	2434.877308
467.364634	2505.453462
467.736184	2487.809423
468.107674	2475.206538
468.479105	2593.673654
468.850477	2437.397885
469.221790	2533.179808
469.593043	2533.179808
469.964238	2472.685962
470.335373	2439.918462
470.706449	2533.179808
471.077467	2520.576923
471.448425	2520.576923
471.819324	2450.000769
472.190164	2475.206538
472.560945	2550.823846
472.931667	2500.412308
473.302330	2510.494615
473.672934	2475.206538
474.043479	2528.138654
474.413965	2485.288846
474.784393	2520.576923
475.154761	2465.124231
475.525070	2543.262115
475.895321	2427.315577
476.265513	2477.727115
476.635645	2530.659231
477.005719	2568.467885
477.375734	2460.083077
477.745691	2467.644808
478.115588	2412.192115
478.485427	2475.206538
478.855207	2477.727115
479.224928	2576.029615
479.594591	2578.550192
479.964194	2455.041923
480.333739	2472.685962
480.703226	2447.480192
481.072653	2518.056346
481.442022	2422.274423
481.811333	2583.591346
482.180584	2500.412308
482.549777	2502.932885
482.918912	2432.356731
483.287988	2515.535769
483.657005	2429.836154
484.025964	2379.424615
484.394864	2444.959615
484.763706	2545.782692
485.132489	2538.220962
485.501213	2439.918462
485.869879	2520.576923
486.238487	2523.097500
486.607036	2523.097500
486.975527	2578.550192
487.343959	2500.412308
487.712333	2485.288846
488.080648	2475.206538
488.448905	2480.247692
488.817104	2487.809423
489.185244	2505.453462
489.553326	2457.562500
489.921350	2462.603654
490.289315	2550.823846
490.657222	2538.220962
491.025070	2497.891731
491.392861	2543.262115
491.760593	2545.782692
492.128267	2465.124231
492.495883	2447.480192
492.863440	2462.603654
493.230939	2470.165385
493.598380	2482.768269
493.965763	2442.439038
494.333088	2502.932885
494.700354	2434.877308
495.067563	2550.823846
495.434713	2424.795000
495.801805	2490.330000
496.168839	2606.276538
496.535815	2518.056346
496.902733	2465.124231
497.269593	2528.138654
497.636395	2480.247692
498.003139	2502.932885
498.369825	2462.603654
498.736453	2477.727115
499.103023	2432.356731
499.469535	2495.371154
499.835989	2424.795000
500.202385	2465.124231
500.568723	2422.274423
500.935003	2490.330000
501.301226	2502.932885
501.667390	2583.591346
502.033497	2538.220962
502.399546	2404.630385
502.765537	2450.000769
503.131470	2485.288846
503.497345	2490.330000
503.863163	2533.179808
504.228923	2492.850577
504.594625	2505.453462
504.960269	2482.768269
505.325856	2444.959615
505.691385	2450.000769
506.056856	2439.918462
506.422270	2492.850577
506.787625	2540.741538
507.152924	2528.138654
507.518164	2540.741538
507.883347	2424.795000
508.248472	2369.342308
508.613540	2540.741538
508.978550	2502.932885
509.343503	2470.165385
509.708398	2467.644808
510.073236	2520.576923
510.438016	2611.317692
510.802738	2565.947308
511.167403	2475.206538
511.532010	2543.262115
511.896561	2495.371154
512.261053	2500.412308
512.625488	2513.015192
512.989866	2487.809423
513.354186	2460.083077
513.718449	2502.932885
514.082655	2555.865000
514.446803	2530.659231
514.810894	2447.480192
515.174927	2540.741538
515.538904	2485.288846
515.902822	2462.603654
516.266684	2550.823846
516.630488	2518.056346
516.994235	2530.659231
517.357925	2518.056346
517.721558	2540.741538
518.085133	2455.041923
518.448651	2538.220962
518.812112	2505.453462
519.175516	2533.179808
519.538863	2565.947308
519.902152	2397.068654
520.265385	2452.521346
520.628560	2467.644808
520.991678	2505.453462
521.354739	2598.714808
521.717743	2477.727115
522.080690	2475.206538
522.443580	2447.480192
522.806413	2482.768269
523.169189	2462.603654
523.531908	2492.850577
523.894569	2371.862885
524.257174	2568.467885
524.619722	2485.288846
524.982213	2475.206538
525.344647	2450.000769
525.707025	2439.918462
526.069345	2553.344423
526.431608	2588.632500
526.793815	2412.192115
527.155964	2460.083077
527.518057	2515.535769
527.880093	2515.535769
528.242072	2507.974038
528.603995	2475.206538
528.965860	2485.288846
529.327669	2543.262115
529.689421	2467.644808
530.051117	2417.233269
530.412755	2497.891731
530.774337	2513.015192
531.135862	2409.671538
531.497331	2543.262115
531.858743	2558.385577
532.220098	2452.521346
532.581396	2470.165385
532.942638	2470.165385
533.303824	2520.576923
533.664953	2472.685962
534.026025	2510.494615
534.387040	2429.836154
534.747999	2465.124231
535.108902	2495.371154
535.469748	2505.453462
535.830537	2550.823846
536.191270	2550.823846
536.551947	2467.644808
536.912567	2487.809423
537.273131	2523.097500
537.633638	2444.959615
537.994089	2505.453462
538.354483	2432.356731
538.714821	2513.015192
539.075103	2530.659231
539.435328	2472.685962
539.795497	2502.932885
540.155609	2545.782692
540.515665	2576.029615
540.875665	2439.918462
541.235609	2455.041923
541.595496	2525.618077
541.955328	2487.809423
542.315102	2477.727115
542.674821	2500.412308
543.034483	2422.274423
543.394090	2523.097500
543.753640	2412.192115
544.113134	2543.262115
544.472571	2465.124231
544.831953	2530.659231
545.191278	2475.206538
545.550548	2455.041923
545.909761	2596.194231
546.268918	2397.068654
546.628019	2500.412308
546.987064	2452.521346
547.346053	2497.891731
547.704986	2457.562500
548.063863	2482.768269
548.422684	2500.412308
548.781449	2465.124231
549.140158	2507.974038
549.498811	2477.727115
549.857408	2530.659231
550.215949	2555.865000
550.574434	2502.932885
550.932864	2502.932885
551.291237	2523.097500
551.649555	2424.795000
552.007817	2447.480192
552.366022	2439.918462
552.724173	2555.865000
553.082267	2460.083077
553.440305	2538.220962
553.798288	2513.015192
554.156215	2424.795000
554.514086	2533.179808
554.871902	2399.589231
555.229661	2507.974038
555.587365	2510.494615
555.945014	2518.056346
556.302606	2570.988462
556.660143	2485.288846
557.017625	2523.097500
557.375050	2520.576923
557.732421	2543.262115
558.089735	2505.453462
558.446994	2543.262115
558.804197	2596.194231
559.161345	2460.083077
559.518437	2560.906154
559.875474	2523.097500
560.232455	2565.947308
560.589381	2548.303269
560.946251	2490.330000
561.303065	2500.412308
561.659825	2520.576923
562.016528	2412.192115
562.373177	2583.591346
562.729770	2576.029615
563.086307	2475.206538
563.442789	2414.712692
563.799216	2520.576923
564.155587	2560.906154
564.511904	2513.015192
564.868164	2452.521346
565.224370	2497.891731
565.580520	2480.247692
565.936615	2490.330000
566.292654	2475.206538
566.648638	2409.671538
567.004567	2432.356731
567.360441	2525.618077
567.716260	2450.000769
568.072023	2482.768269
568.427732	2500.412308
568.783385	2555.865000
569.138982	2432.356731
569.494525	2510.494615
569.850013	2525.618077
570.205445	2535.700385
570.560823	2452.521346
570.916145	2560.906154
571.271412	2490.330000
571.626625	2462.603654
571.981782	2472.685962
572.336884	2500.412308
572.691931	2485.288846
573.046923	2419.753846
573.401860	2525.618077
573.756743	2616.358846
574.111570	2475.206538
574.466342	2507.974038
574.821059	2576.029615
575.175722	2477.727115
575.530330	2467.644808
575.884882	2518.056346
576.239380	2472.685962
576.593823	2422.274423
576.948211	2538.220962
577.302544	2548.303269
577.656823	2467.644808
578.011047	2450.000769
578.365216	2505.453462
578.719330	2533.179808
579.073389	2482.768269
579.427394	2538.220962
579.781344	2505.453462
580.135239	2477.727115
580.489080	2349.177692
580.842866	2525.618077
581.196597	2502.932885
581.550273	2558.385577
581.903895	2492.850577
582.257463	2505.453462
582.610975	2467.644808
582.964434	2545.782692
583.317837	2467.644808
583.671186	2535.700385
584.024481	2442.439038
584.377721	2593.673654
584.730906	2467.644808
585.084037	2502.932885
585.437113	2513.015192
585.790135	2450.000769
586.143103	2545.782692
586.496016	2492.850577
586.848874	2545.782692
587.201679	2485.288846
587.554428	2490.330000
587.907124	2502.932885
588.259765	2500.412308
588.612352	2457.562500
588.964884	2422.274423
589.317362	2520.576923
589.669786	2530.659231
590.022155	2510.494615
590.374470	2497.891731
590.726731	2490.330000
591.078937	2535.700385
591.431090	2485.288846
591.783188	2480.247692
592.135232	2422.274423
592.487222	2465.124231
592.839157	2467.644808
593.191038	2467.644808
593.542866	2460.083077
593.894639	2500.412308
594.246358	2477.727115
594.598022	2553.344423
594.949633	2538.220962
595.301190	2535.700385
595.652692	2520.576923
596.004141	2452.521346
596.355535	2550.823846
596.706876	2427.315577
597.058162	2548.303269
597.409395	2520.576923
597.760573	2545.782692
598.111698	2530.659231
598.462768	2497.891731
598.813785	2462.603654
599.164748	2434.877308
599.515657	2457.562500
599.866511	2389.506923
600.217312	2457.562500
600.568060	2460.083077
600.918753	2442.439038
601.269392	2563.426731
601.619978	2450.000769
601.970510	2518.056346
602.320988	2485.288846
602.671412	2490.330000
603.021783	2545.782692
603.372100	2495.371154
603.722363	2553.344423
604.072572	2412.192115
604.422728	2429.836154
604.772830	2523.097500
605.122878	2497.891731
605.472872	2475.206538
605.822813	2581.070769
606.172701	2490.330000
606.522534	2490.330000
606.872314	2523.097500
607.222041	2518.056346
607.571714	2475.206538
607.921333	2545.782692
608.270899	2540.741538
608.620411	2455.041923
608.969870	2573.509038
609.319276	2497.891731
609.668627	2533.179808
610.017926	2540.741538
610.367171	2497.891731
610.716362	2576.029615
611.065500	2507.974038
611.414585	2424.795000
611.763616	2480.247692
612.112594	2513.015192
612.461518	2467.644808
612.810389	2472.685962
613.159207	2412.192115
613.507971	2485.288846
613.856682	2480.247692
614.205340	2533.179808
614.553945	2485.288846
614.902496	2581.070769
615.250994	2523.097500
615.599439	2470.165385
615.947830	2450.000769
616.296169	2518.056346
616.644454	2480.247692
616.992686	2510.494615
617.340864	2530.659231
617.688990	2475.206538
618.037063	2467.644808
618.385082	2500.412308
618.733048	2399.589231
619.080961	2424.795000
619.428821	2563.426731
619.776628	2482.768269
620.124382	2475.206538
620.472083	2434.877308
620.819731	2507.974038
621.167326	2455.041923
621.514868	2485.288846
621.862357	2397.068654
622.209793	2497.891731
622.557176	2437.397885
622.904506	2528.138654
623.251783	2442.439038
623.599007	2558.385577
623.946179	2513.015192
624.293297	2447.480192
624.640363	2437.397885
624.987376	2470.165385
625.334336	2452.521346
625.681243	2520.576923
626.028097	2558.385577
626.374899	2593.673654
626.721647	2505.453462
627.068343	2495.371154
627.414987	2495.371154
627.761577	2477.727115
628.108115	2500.412308
628.454600	2523.097500
628.801032	2538.220962
629.147412	2528.138654
629.493739	2568.467885
629.840014	2444.959615
630.186236	2535.700385
630.532405	2477.727115
630.878521	2502.932885
631.224585	2507.974038
631.570597	2442.439038
631.916556	2543.262115
632.262462	2487.809423
632.608316	2475.206538
632.954117	2482.768269
633.299866	2520.576923
633.645562	2419.753846
633.991206	2457.562500
634.336797	2533.179808
634.682336	2444.959615
635.027823	2520.576923
635.373257	2545.782692
635.718639	2502.932885
636.063968	2419.753846
636.409245	2487.809423
636.754470	2389.506923
637.099642	2502.932885
637.444762	2515.535769
637.789829	2555.865000
638.134845	2467.644808
638.479808	2470.165385
638.824719	2535.700385
639.169577	2523.097500
639.514383	2467.644808
639.859137	2447.480192
640.203839	2480.247692
640.548489	2538.220962
640.893086	2570.988462
641.237632	2472.685962
641.582125	2543.262115
641.926566	2555.865000
642.270955	2513.015192
642.615292	2540.741538
642.959576	2470.165385
643.303809	2530.659231
643.647990	2497.891731
643.992118	2475.206538
644.336195	2455.041923
644.680219	2545.782692
645.024192	2545.782692
645.368112	2371.862885
645.711981	2502.932885
646.055797	2472.685962
646.399562	2467.644808
646.743274	2502.932885
647.086935	2480.247692
647.430544	2475.206538
647.774101	2444.959615
648.117606	2598.714808
648.461059	2500.412308
648.804460	2555.865000
649.147810	2482.768269
649.491108	2492.850577
649.834354	2447.480192
650.177548	2576.029615
650.520690	2492.850577
650.863781	2505.453462
651.206820	2520.576923
651.549807	2523.097500
651.892742	2462.603654
652.235626	2535.700385
652.578458	2467.644808
652.921238	2560.906154
653.263967	2530.659231
653.606644	2520.576923
653.949269	2392.027500
654.291843	2518.056346
654.634365	2495.371154
654.976836	2444.959615
655.319255	2601.235385
655.661622	2530.659231
656.003938	2523.097500
656.346203	2467.644808
656.688416	2442.439038
657.030577	2485.288846
657.372687	2515.535769
657.714746	2429.836154
658.056753	2618.879423
658.398708	2535.700385
658.740612	2533.179808
659.082465	2487.809423
659.424266	2480.247692
659.766016	2442.439038
660.107715	2482.768269
660.449362	2465.124231
660.790958	2553.344423
661.132503	2429.836154
661.473996	2495.371154
661.815438	2470.165385
662.156829	2482.768269
662.498168	2510.494615
662.839456	2520.576923
663.180693	2533.179808
663.521879	2500.412308
663.863013	2450.000769
664.204097	2465.124231
664.545129	2540.741538
664.886110	2455.041923
665.227040	2485.288846
665.567918	2576.029615
665.908746	2487.809423
666.249522	2545.782692
666.590248	2538.220962
666.930922	2422.274423
667.271545	2477.727115
667.612118	2472.685962
667.952639	2513.015192
668.293109	2568.467885
668.633528	2576.029615
668.973896	2487.809423
669.314213	2495.371154
669.654480	2626.441154
669.994695	2432.356731
670.334859	2507.974038
670.674973	2497.891731
671.015035	2497.891731
671.355047	2477.727115
671.695008	2470.165385
672.034918	2518.056346
672.374777	2553.344423
672.714585	2487.809423
673.054342	2472.685962
673.394049	2495.371154
673.733705	2437.397885
674.073310	2455.041923
674.412864	2502.932885
674.752368	2384.465769
675.091820	2502.932885
675.431223	2518.056346
675.770574	2487.809423
676.109875	2429.836154
676.449125	2513.015192
676.788324	2384.465769
677.127473	2427.315577
677.466571	2523.097500
677.805619	2465.124231
678.144616	2444.959615
678.483562	2543.262115
678.822458	2467.644808
679.161303	2581.070769
679.500098	2447.480192
679.838842	2492.850577
680.177535	2490.330000
680.516179	2573.509038
680.854771	2429.836154
681.193314	2497.891731
681.531805	2450.000769
681.870247	2540.741538
682.208638	2475.206538
682.546978	2429.836154
682.885268	2523.097500
683.223508	2485.288846
683.561697	2444.959615
683.899836	2573.509038
684.237925	2424.795000
684.575963	2581.070769
684.913951	2437.397885
685.251889	2558.385577
685.589776	2555.865000
685.927614	2427.315577
686.265401	2495.371154
686.603137	2482.768269
686.940824	2513.015192
687.278460	2442.439038
687.616046	2467.644808
687.953582	2472.685962
688.291068	2535.700385
688.628504	2530.659231
688.965889	2465.124231
689.303224	2558.385577
689.640510	2434.877308
689.977745	2568.467885
690.314930	2495.371154
690.652065	2477.727115
690.989150	2513.015192
691.326185	2538.220962
691.663170	2467.644808
692.000105	2543.262115
692.336990	2492.850577
692.673825	2505.453462
693.010610	2492.850577
693.347345	2568.467885
693.684030	2525.618077
694.020665	2409.671538
694.357251	2432.356731
694.693786	2490.330000
695.030272	2513.015192
695.366707	2477.727115
695.703093	2399.589231
696.039429	2520.576923
696.375716	2439.918462
696.711952	2545.782692
697.048139	2492.850577
697.384276	2495.371154
697.720363	2444.959615
698.056400	2565.947308
698.392388	2502.932885
698.728326	2515.535769
699.064214	2427.315577
699.400053	2588.632500
699.735842	2462.603654
700.071581	2515.535769
700.407270	2477.727115
700.742910	2492.850577
701.078501	2518.056346
701.414042	2475.206538
701.749533	2502.932885
702.084974	2472.685962
702.420366	2525.618077
702.755709	2482.768269
703.091002	2467.644808
703.426246	2545.782692
703.761440	2560.906154
704.096584	2523.097500
704.431679	2465.124231
704.766725	2442.439038
705.101721	2578.550192
705.436668	2490.330000
705.771565	2550.823846
706.106413	2518.056346
706.441212	2505.453462
706.775961	2502.932885
707.110661	2510.494615
707.445311	2545.782692
707.779913	2427.315577
708.114465	2518.056346
708.448967	2586.111923
708.783421	2475.206538
709.117825	2558.385577
709.452180	2492.850577
709.786485	2447.480192
710.120742	2507.974038
710.454949	2502.932885
710.789107	2518.056346
711.123216	2565.947308
711.457275	2482.768269
711.791286	2477.727115
712.125247	2505.453462
712.459159	2492.850577
712.793023	2623.920577
713.126837	2485.288846
713.460602	2548.303269
713.794318	2523.097500
714.127985	2545.782692
714.461602	2490.330000
714.795171	2487.809423
715.128691	2533.179808
715.462162	2520.576923
715.795584	2507.974038
716.128957	2555.865000
716.462281	2568.467885
716.795556	2510.494615
717.128782	2505.453462
717.461960	2447.480192
717.795088	2518.056346
718.128167	2447.480192
718.461198	2525.618077
718.794180	2417.233269
719.127113	2507.974038
719.459997	2477.727115
719.792833	2507.974038
720.125619	2502.932885
720.458357	2518.056346
720.791046	2422.274423
721.123686	2477.727115
721.456278	2588.632500
721.788821	2480.247692
722.121315	2432.356731
722.453761	2490.330000
722.786158	2477.727115
723.118506	2538.220962
723.450805	2460.083077
723.783056	2550.823846
724.115259	2550.823846
724.447412	2538.220962
724.779518	2578.550192
725.111574	2510.494615
725.443582	2525.618077
725.775542	2505.453462
726.107453	2467.644808
726.439315	2457.562500
726.771129	2505.453462
727.102895	2497.891731
727.434612	2502.932885
727.766281	2467.644808
728.097901	2402.109808
728.429473	2442.439038
728.760996	2528.138654
729.092471	2535.700385
729.423897	2482.768269
729.755276	2520.576923
730.086606	2450.000769
730.417887	2381.945192
730.749120	2518.056346
731.080305	2490.330000
731.411442	2560.906154
731.742530	2480.247692
732.073570	2570.988462
732.404562	2437.397885
732.735506	2465.124231
733.066401	2515.535769
733.397249	2460.083077
733.728048	2434.877308
734.058798	2487.809423
734.389501	2467.644808
734.720156	2492.850577
735.050762	2525.618077
735.381320	2533.179808
735.711831	2437.397885
736.042293	2497.891731
736.372707	2520.576923
736.703073	2548.303269
737.033391	2470.165385
737.363661	2543.262115
737.693883	2538.220962
738.024056	2409.671538
738.354182	2497.891731
738.684260	2555.865000
739.014290	2520.576923
739.344272	2548.303269
739.674207	2500.412308
740.004093	2533.179808
740.333931	2492.850577
740.663722	2510.494615
740.993464	2507.974038
741.323159	2424.795000
741.652806	2591.153077
741.982405	2520.576923
742.311956	2475.206538
742.641460	2482.768269
742.970915	2392.027500
743.300323	2505.453462
743.629683	2586.111923
743.958996	2487.809423
744.288260	2460.083077
744.617477	2535.700385
744.946647	2447.480192
745.275768	2507.974038
745.604842	2452.521346
745.933869	2495.371154
746.262847	2528.138654
746.591778	2507.974038
746.920662	2563.426731
747.249498	2545.782692
747.578286	2492.850577
747.907027	2497.891731
748.235720	2452.521346
748.564365	2470.165385
748.892963	2497.891731
749.221514	2540.741538
749.550017	2507.974038
749.878473	2505.453462
750.206881	2495.371154
750.535242	2548.303269
750.863555	2560.906154
751.191821	2583.591346
751.520039	2543.262115
751.848210	2386.986346
752.176334	2487.809423
752.504411	2520.576923
752.832440	2570.988462
753.160421	2475.206538
753.488356	2467.644808
753.816243	2452.521346
754.144082	2520.576923
754.471875	2475.206538
754.799620	2482.768269
755.127318	2351.698269
755.454969	2510.494615
755.782572	2465.124231
756.110129	2497.891731
756.437638	2414.712692
756.765100	2439.918462
757.092515	2434.877308
757.419882	2513.015192
757.747203	2538.220962
758.074477	2492.850577
758.401703	2500.412308
758.728882	2482.768269
759.056014	2490.330000
759.383099	2513.015192
759.710138	2525.618077
760.037129	2490.330000
760.364073	2475.206538
760.690970	2510.494615
761.017820	2475.206538
761.344623	2412.192115
761.671379	2495.371154
761.998088	2437.397885
762.324751	2525.618077
762.651366	2392.027500
762.977935	2520.576923
763.304456	2513.015192
763.630931	2543.262115
763.957359	2492.850577
764.283740	2475.206538
764.610074	2480.247692
764.936362	2550.823846
765.262602	2540.741538
765.588796	2525.618077
765.914943	2543.262115
766.241044	2475.206538
766.567097	2485.288846
766.893104	2460.083077
767.219064	2497.891731
767.544978	2470.165385
767.870845	2482.768269
768.196665	2452.521346
768.522438	2520.576923
768.848165	2553.344423
769.173846	2465.124231
769.499479	2389.506923
769.825066	2560.906154
770.150607	2460.083077
770.476101	2550.823846
770.801548	2427.315577
771.126949	2515.535769
771.452303	2409.671538
771.777611	2535.700385
772.102872	2465.124231
772.428087	2573.509038
772.753256	2563.426731
773.078378	2535.700385
773.403453	2533.179808
773.728482	2507.974038
774.053465	2434.877308
774.378401	2525.618077
774.703291	2472.685962
775.028135	2535.700385
775.352932	2553.344423
775.677683	2558.385577
776.002388	2467.644808
776.327046	2550.823846
776.651658	2457.562500
776.976224	2485.288846
777.300743	2583.591346
777.625216	2528.138654
777.949643	2550.823846
778.274024	2513.015192
778.598359	2497.891731
778.922647	2394.548077
779.246889	2487.809423
779.571086	2465.124231
779.895236	2490.330000
780.219339	2467.644808
780.543397	2447.480192
780.867409	2523.097500
781.191374	2528.138654
781.515294	2510.494615
781.839167	2472.685962
782.162995	2467.644808
782.486776	2510.494615
782.810511	2472.685962
783.134201	2475.206538
783.457844	2424.795000
783.781441	2548.303269
784.104993	2434.877308
784.428498	2485.288846
784.751958	2487.809423
785.075372	2422.274423
785.398739	2487.809423
785.722061	2417.233269
786.045337	2442.439038
786.368568	2462.603654
786.691752	2444.959615
787.014891	2472.685962
787.337983	2376.904038
787.661030	2535.700385
787.984031	2465.124231
788.306987	2568.467885
788.629897	2520.576923
788.952760	2548.303269
789.275579	2457.562500
789.598351	2477.727115
789.921078	2518.056346
790.243759	2424.795000
790.566395	2523.097500
790.888984	2563.426731
791.211529	2497.891731
791.534027	2457.562500
791.856480	2417.233269
792.178888	2510.494615
792.501249	2455.041923
792.823566	2538.220962
793.145836	2487.809423
793.468062	2482.768269
793.790241	2535.700385
794.112375	2487.809423
794.434464	2513.015192
794.756507	2457.562500
795.078505	2581.070769
795.400457	2548.303269
795.722364	2563.426731
796.044226	2495.371154
796.366042	2518.056346
796.687812	2560.906154
797.009538	2457.562500
797.331218	2515.535769
797.652852	2492.850577
797.974442	2432.356731
798.295986	2434.877308
798.617484	2523.097500
798.938938	2462.603654
799.260346	2510.494615
799.581709	2495.371154
799.903026	2548.303269
800.224299	2460.083077
800.545526	2520.576923
800.866708	2465.124231
801.187845	2507.974038
801.508936	2457.562500
801.829983	2505.453462
802.150984	2480.247692
802.471940	2472.685962
802.792851	2472.685962
803.113717	2563.426731
803.434538	2518.056346
803.755314	2414.712692
804.076045	2505.453462
804.396731	2505.453462
804.717372	2455.041923
805.037967	2502.932885
805.358518	2487.809423
805.679024	2417.233269
805.999485	2497.891731
806.319901	2553.344423
806.640272	2409.671538
806.960598	2513.015192
807.280879	2487.809423
807.601115	2523.097500
807.921306	2424.795000
808.241453	2480.247692
808.561554	2500.412308
808.881611	2528.138654
809.201623	2480.247692
809.521590	2482.768269
809.841513	2470.165385
810.161390	2394.548077
810.481223	2523.097500
810.801011	2540.741538
811.120755	2470.165385
811.440453	2515.535769
811.760107	2528.138654
812.079716	2470.165385
812.399281	2465.124231
812.718801	2525.618077
813.038276	2452.521346
813.357707	2523.097500
813.677093	2460.083077
813.996434	2492.850577
814.315731	2573.509038
814.634983	2475.206538
814.954191	2510.494615
815.273354	2570.988462
815.592473	2434.877308
815.911547	2485.288846
816.230577	2497.891731
816.549562	2495.371154
816.868502	2460.083077
817.187399	2513.015192
817.506250	2497.891731
817.825058	2457.562500
818.143821	2472.685962
818.462539	2500.412308
818.781213	2470.165385
819.099843	2477.727115
819.418429	2467.644808
819.736970	2485.288846
820.055466	2505.453462
820.373919	2490.330000
820.692327	2452.521346
821.010691	2568.467885
821.329011	2477.727115
821.647286	2513.015192
821.965517	2505.453462
822.283704	2495.371154
822.601847	2477.727115
822.919945	2502.932885
823.237999	2490.330000
823.556010	2477.727115
823.873976	2492.850577
824.191897	2502.932885
824.509775	2505.453462
824.827609	2450.000769
825.145398	2568.467885
825.463144	2510.494615
825.780845	2429.836154
826.098502	2472.685962
826.416116	2540.741538
826.733685	2452.521346
827.051210	2475.206538
827.368692	2560.906154
827.686129	2490.330000
828.003522	2444.959615
828.320872	2450.000769
828.638177	2437.397885
828.955439	2505.453462
829.272656	2465.124231
829.589830	2492.850577
829.906960	2520.576923
830.224046	2452.521346
830.541088	2457.562500
830.858086	2477.727115
831.175041	2404.630385
831.491952	2505.453462
831.808819	2434.877308
832.125642	2482.768269
832.442421	2513.015192
832.759157	2538.220962
833.075849	2442.439038
833.392497	2457.562500
833.709101	2596.194231
834.025662	2460.083077
834.342179	2538.220962
834.658653	2596.194231
834.975083	2447.480192
835.291469	2548.303269
835.607811	2480.247692
835.924110	2568.467885
836.240366	2502.932885
836.556578	2442.439038
836.872746	2472.685962
837.188871	2490.330000
837.504952	2351.698269
837.820990	2510.494615
838.136984	2591.153077
838.452935	2565.947308
838.768842	2495.371154
839.084706	2470.165385
839.400526	2409.671538
839.716303	2485.288846
840.032037	2427.315577
840.347727	2573.509038
840.663373	2525.618077
840.978977	2545.782692
841.294537	2487.809423
841.610054	2437.397885
841.925527	2550.823846
842.240957	2457.562500
842.556344	2432.356731
842.871687	2457.562500
843.186987	2523.097500
843.502244	2525.618077
843.817458	2402.109808
844.132629	2434.877308
844.447756	2407.150962
844.762840	2485.288846
845.077881	2568.467885
845.392879	2490.330000
845.707833	2533.179808
846.022745	2497.891731
846.337613	2513.015192
846.652438	2507.974038
846.967221	2550.823846
847.281960	2596.194231
847.596656	2477.727115
847.911309	2434.877308
848.225919	2533.179808
848.540485	2475.206538
848.855009	2523.097500
849.169490	2487.809423
849.483928	2502.932885
849.798323	2480.247692
850.112675	2432.356731
850.426984	2500.412308
850.741251	2422.274423
851.055474	2490.330000
851.369654	2505.453462
851.683792	2560.906154
851.997887	2485.288846
852.311938	2429.836154
852.625947	2510.494615
852.939914	2538.220962
853.253837	2444.959615
853.567718	2543.262115
853.881555	2510.494615
854.195350	2500.412308
854.509103	2447.480192
854.822812	2523.097500
855.136479	2530.659231
855.450103	2434.877308
855.763685	2460.083077
856.077224	2492.850577
856.390720	2470.165385
856.704173	2495.371154
857.017584	2492.850577
857.330953	2495.371154
857.644278	2505.453462
857.957561	2455.041923
858.270802	2513.015192
858.584000	2505.453462
858.897155	2513.015192
859.210268	2452.521346
859.523339	2437.397885
859.836367	2495.371154
860.149352	2553.344423
860.462295	2485.288846
860.775195	2490.330000
861.088054	2513.015192
861.400869	2502.932885
861.713642	2505.453462
862.026373	2467.644808
862.339062	2394.548077
862.651708	2475.206538
862.964312	2545.782692
863.276873	2573.509038
863.589392	2523.097500
863.901869	2417.233269
864.214303	2502.932885
864.526696	2528.138654
864.839045	2399.589231
865.151353	2530.659231
865.463619	2477.727115
865.775842	2540.741538
866.088023	2457.562500
866.400162	2505.453462
866.712258	2591.153077
867.024313	2447.480192
867.336325	2505.453462
867.648296	2593.673654
867.960224	2558.385577
868.272110	2460.083077
868.583954	2502.932885
868.895755	2492.850577
869.207515	2530.659231
869.519233	2497.891731
869.830909	2465.124231
870.142542	2530.659231
870.454134	2450.000769
870.765684	2465.124231
871.077191	2467.644808
871.388657	2482.768269
871.700081	2530.659231
872.011463	2555.865000
872.322803	2548.303269
872.634101	2507.974038
872.945357	2480.247692
873.256571	2465.124231
873.567744	2598.714808
873.878874	2447.480192
874.189963	2437.397885
874.501010	2485.288846
874.812015	2447.480192
875.122979	2553.344423
875.433900	2518.056346
875.744780	2462.603654
876.055618	2437.397885
876.366415	2553.344423
876.677169	2540.741538
876.987882	2497.891731
877.298554	2439.918462
877.609183	2477.727115
877.919771	2581.070769
878.230317	2434.877308
878.540822	2502.932885
878.851285	2455.041923
879.161707	2472.685962
879.472087	2480.247692
879.782425	2442.439038
880.092722	2485.288846
880.402977	2487.809423
880.713191	2500.412308
881.023363	2525.618077
881.333494	2555.865000
881.643583	2457.562500
881.953631	2513.015192
882.263637	2475.206538
882.573602	2523.097500
882.883526	2462.603654
883.193408	2472.685962
883.503248	2515.535769
883.813048	2487.809423
884.122806	2535.700385
884.432522	2500.412308
884.742197	2369.342308
885.051831	2462.603654
885.361424	2482.768269
885.670975	2462.603654
885.980485	2500.412308
886.289954	2465.124231
886.599382	2429.836154
886.908768	2550.823846
887.218113	2560.906154
887.527417	2515.535769
887.836680	2427.315577
888.145901	2525.618077
888.455082	2520.576923
888.764221	2510.494615
889.073319	2497.891731
889.382376	2523.097500
889.691392	2538.220962
890.000366	2470.165385
890.309300	2480.247692
890.618193	2533.179808
890.927044	2500.412308
891.235855	2492.850577
891.544625	2399.589231
891.853353	2500.412308
892.162041	2515.535769
892.470687	2485.288846
892.779293	2475.206538
893.087858	2500.412308
893.396381	2576.029615
893.704864	2518.056346
894.013306	2432.356731
894.321707	2533.179808
894.630068	2560.906154
894.938387	2442.439038
895.246665	2482.768269
895.554903	2490.330000
895.863100	2495.371154
896.171256	2535.700385
896.479371	2480.247692
896.787446	2490.330000
897.095480	2455.041923
897.403473	2482.768269
897.711425	2518.056346
898.019336	2475.206538
898.327207	2485.288846
898.635038	2538.220962
898.942827	2470.165385
899.250576	2432.356731
899.558284	2492.850577
899.865952	2392.027500
900.173579	2457.562500
900.481165	2485.288846
900.788711	2535.700385
901.096216	2419.753846
901.403681	2450.000769
901.711105	2477.727115
902.018489	2518.056346
902.325832	2497.891731
902.633135	2490.330000
902.940397	2530.659231
903.247619	2528.138654
903.554800	2563.426731
903.861941	2447.480192
904.169041	2515.535769
904.476101	2530.659231
904.783121	2548.303269
905.090100	2470.165385
905.397039	2487.809423
905.703938	2492.850577
906.010796	2500.412308
906.317614	2533.179808
906.624391	2434.877308
906.931129	2573.509038
907.237826	2450.000769
907.544483	2460.083077
907.851099	2540.741538
908.157675	2452.521346
908.464211	2465.124231
908.770707	2550.823846
909.077163	2510.494615
909.383578	2550.823846
909.689954	2520.576923
909.996289	2457.562500
910.302584	2505.453462
910.608839	2429.836154
910.915054	2465.124231
911.221229	2525.618077
911.527363	2437.397885
911.833458	2482.768269
912.139513	2419.753846
912.445527	2502.932885
912.751502	2528.138654
913.057436	2573.509038
913.363331	2409.671538
913.669186	2505.453462
913.975000	2495.371154
914.280775	2442.439038
914.586510	2465.124231
914.892205	2596.194231
915.197859	2472.685962
915.503475	2487.809423
915.809050	2505.453462
916.114585	2513.015192
916.420081	2497.891731
916.725536	2460.083077
917.030952	2442.439038
917.336328	2538.220962
917.641665	2495.371154
917.946961	2497.891731
918.252218	2460.083077
918.557435	2500.412308
918.862612	2502.932885
919.167750	2563.426731
919.472848	2543.262115
919.777906	2485.288846
920.082925	2465.124231
920.387904	2555.865000
920.692843	2470.165385
920.997743	2555.865000
921.302603	2437.397885
921.607423	2497.891731
921.912204	2437.397885
922.216946	2525.618077
922.521647	2467.644808
922.826310	2497.891731
923.130932	2397.068654
923.435516	2361.780577
923.740059	2467.644808
924.044564	2528.138654
924.349028	2492.850577
924.653454	2573.509038
924.957840	2369.342308
925.262186	2472.685962
925.566493	2543.262115
925.870761	2505.453462
926.174989	2434.877308
926.479178	2490.330000
926.783328	2540.741538
927.087438	2480.247692
927.391509	2492.850577
927.695541	2518.056346
927.999533	2434.877308
928.303486	2530.659231
928.607400	2485.288846
928.911275	2434.877308
929.215110	2518.056346
929.518906	2477.727115
929.822663	2505.453462
930.126381	2462.603654
930.430060	2427.315577
930.733699	2548.303269
931.037299	2407.150962
931.340861	2533.179808
931.644383	2510.494615
931.947866	2457.562500
932.251309	2477.727115
932.554714	2502.932885
932.858080	2520.576923
933.161407	2495.371154
933.464694	2492.850577
933.767943	2553.344423
934.071153	2515.535769
934.374323	2611.317692
934.677455	2533.179808
934.980548	2505.453462
935.283602	2495.371154
935.586617	2528.138654
935.889593	2480.247692
936.192530	2535.700385
936.495428	2518.056346
936.798287	2472.685962
937.101108	2518.056346
937.403890	2414.712692
937.706632	2482.768269
938.009336	2442.439038
938.312002	2470.165385
938.614628	2447.480192
938.917216	2502.932885
939.219765	2414.712692
939.522275	2540.741538
939.824747	2525.618077
940.127179	2447.480192
940.429573	2475.206538
940.731929	2427.315577
941.034246	2455.041923
941.336524	2548.303269
941.638763	2477.727115
941.940964	2523.097500
942.243126	2533.179808
942.545250	2432.356731
942.847335	2497.891731
943.149381	2467.644808
943.451389	2475.206538
943.753359	2555.865000
944.055290	2495.371154
944.357182	2467.644808
944.659036	2502.932885
944.960851	2523.097500
945.262628	2553.344423
945.564367	2518.056346
945.866067	2472.685962
946.167729	2450.000769
946.469352	2520.576923
946.770937	2455.041923
947.072484	2523.097500
947.373992	2444.959615
947.675462	2515.535769
947.976893	2465.124231
948.278286	2477.727115
948.579641	2470.165385
948.880958	2502.932885
949.182236	2482.768269
949.483476	2543.262115
949.784678	2533.179808
950.085841	2560.906154
950.386967	2475.206538
950.688054	2444.959615
950.989103	2565.947308
951.290114	2490.330000
951.591087	2540.741538
951.892021	2442.439038
952.192917	2492.850577
952.493776	2578.550192
952.794596	2455.041923
953.095378	2490.330000
953.396122	2429.836154
953.696828	2475.206538
953.997496	2482.768269
954.298126	2538.220962
954.598718	2631.482308
954.899272	2475.206538
955.199788	2492.850577
955.500266	2520.576923
955.800706	2452.521346
956.101108	2465.124231
956.401472	2477.727115
956.701798	2576.029615
957.002087	2490.330000
957.302337	2570.988462
957.602550	2502.932885
957.902724	2482.768269
958.202861	2502.932885
958.502960	2510.494615
958.803022	2455.041923
959.103045	2409.671538
959.403031	2460.083077
959.702979	2555.865000
960.002889	2500.412308
960.302762	2487.809423
960.602596	2414.712692
960.902393	2540.741538
961.202153	2472.685962
961.501875	2439.918462
961.801559	2422.274423
962.101205	2538.220962
962.400814	2510.494615
962.700385	2520.576923
962.999918	2490.330000
963.299414	2510.494615
963.598873	2452.521346
963.898293	2550.823846
964.197677	2520.576923
964.497022	2475.206538
964.796331	2485.288846
965.095601	2485.288846
965.394835	2450.000769
965.694030	2475.206538
965.993189	2417.233269
966.292309	2518.056346
966.591393	2407.150962
966.890439	2480.247692
967.189447	2447.480192
967.488419	2538.220962
967.787353	2442.439038
968.086249	2543.262115
968.385108	2444.959615
968.683930	2412.192115
968.982714	2477.727115
969.281462	2485.288846
969.580172	2490.330000
969.878844	2477.727115
970.177480	2525.618077
970.476078	2528.138654
970.774639	2497.891731
971.073162	2550.823846
971.371649	2472.685962
971.670098	2533.179808
971.968510	2502.932885
972.266885	2437.397885
972.565223	2434.877308
972.863524	2480.247692
973.161788	2384.465769
973.460014	2570.988462
973.758204	2518.056346
974.056356	2477.727115
974.354471	2455.041923
974.652550	2502.932885
974.950591	2485.288846
975.248595	2457.562500
975.546563	2502.932885
975.844493	2397.068654
976.142386	2465.124231
976.440243	2457.562500
976.738062	2507.974038
977.035845	2470.165385
977.333590	2518.056346
977.631299	2502.932885
977.928971	2442.439038
978.226606	2502.932885
978.524204	2515.535769
978.821765	2502.932885
979.119290	2490.330000
979.416777	2465.124231
979.714228	2444.959615
980.011642	2412.192115
980.309020	2560.906154
980.606360	2535.700385
980.903664	2472.685962
981.200931	2563.426731
981.498162	2465.124231
981.795356	2535.700385
982.092513	2447.480192
982.389633	2505.453462
982.686717	2444.959615
982.983764	2513.015192
983.280775	2507.974038
983.577749	2523.097500
983.874686	2477.727115
984.171587	2543.262115
984.468451	2444.959615
984.765279	2482.768269
985.062070	2450.000769
985.358824	2477.727115
985.655543	2576.029615
985.952224	2487.809423
986.248869	2439.918462
986.545478	2495.371154
986.842050	2452.521346
987.138586	2427.315577
987.435086	2528.138654
987.731549	2465.124231
988.027975	2588.632500
988.324366	2480.247692
988.620719	2523.097500
988.917037	2427.315577
989.213318	2518.056346
989.509563	2513.015192
989.805772	2515.535769
990.101944	2460.083077
990.398080	2502.932885
990.694180	2472.685962
990.990244	2480.247692
991.286271	2462.603654
991.582262	2535.700385
991.878217	2434.877308
992.174136	2490.330000
992.470019	2439.918462
992.765865	2470.165385
993.061676	2497.891731
993.357450	2523.097500
993.653188	2359.260000
993.948890	2515.535769
994.244556	2460.083077
994.540186	2467.644808
994.835780	2520.576923
995.131337	2490.330000
995.426859	2548.303269
995.722345	2540.741538
996.017795	2497.891731
996.313208	2555.865000
996.608586	2581.070769
996.903928	2437.397885
997.199234	2500.412308
997.494504	2447.480192
997.789738	2538.220962
998.084936	2450.000769
998.380099	2502.932885
998.675225	2495.371154
998.970316	2543.262115
999.265371	2513.015192
999.560390	2439.918462
999.855373	2545.782692
1000.150320	2427.315577
1000.445232	2565.947308
1000.740108	2515.535769
1001.034948	2560.906154
1001.329752	2513.015192
1001.624521	2467.644808
1001.919254	2467.644808
1002.213951	2447.480192
1002.508613	2460.083077
1002.803239	2596.194231
1003.097829	2538.220962
1003.392384	2457.562500
1003.686903	2462.603654
1003.981386	2490.330000
1004.275834	2497.891731
1004.570246	2467.644808
1004.864623	2492.850577
1005.158964	2455.041923
1005.453270	2545.782692
1005.747540	2507.974038
1006.041775	2523.097500
1006.335974	2530.659231
1006.630138	2462.603654
1006.924266	2543.262115
1007.218359	2467.644808
1007.512416	2570.988462
1007.806438	2460.083077
1008.100425	2555.865000
1008.394376	2419.753846
1008.688292	2513.015192
1008.982172	2460.083077
1009.276017	2505.453462
1009.569827	2467.644808
1009.863602	2439.918462
1010.157341	2450.000769
1010.451045	2520.576923
1010.744714	2528.138654
1011.038347	2482.768269
1011.331945	2475.206538
1011.625508	2485.288846
1011.919036	2444.959615
1012.212528	2533.179808
1012.505986	2450.000769
1012.799408	2553.344423
1013.092795	2583.591346
1013.386147	2487.809423
1013.679464	2450.000769
1013.972745	2525.618077
1014.265992	2535.700385
1014.559204	2515.535769
1014.852380	2487.809423
1015.145521	2455.041923
1015.438628	2492.850577
1015.731699	2432.356731
1016.024736	2472.685962
1016.317737	2447.480192
1016.610703	2502.932885
1016.903635	2490.330000
1017.196531	2560.906154
1017.489393	2475.206538
1017.782219	2462.603654
1018.075011	2444.959615
1018.367768	2460.083077
1018.660490	2520.576923
1018.953177	2520.576923
1019.245829	2520.576923
