Dividing Wavelength (nm)	Counts (n)	Blue Motor Position (mm): 0.000000	Red Motor Position (mm): 10.000000	
326.493990	2087.037692
326.888308	2087.037692
327.282561	2087.037692
327.676750	2109.722885
328.070874	2069.393654
328.464933	2107.202308
328.858929	2084.517115
329.252859	2084.517115
329.646726	2031.585000
330.040528	2102.161154
330.434265	2132.408077
330.827938	2145.010962
331.221547	2165.175577
331.615091	2170.216731
332.008571	2155.093269
332.401986	2160.134423
332.795338	2200.463654
333.188625	2235.751731
333.581847	2258.436923
333.975006	2296.245577
334.368100	2349.177692
334.761129	2308.848462
335.154095	2326.492500
335.546996	2323.971923
335.939833	2326.492500
336.332606	2344.136538
336.725315	2349.177692
337.117960	2381.945192
337.510540	2452.521346
337.903056	2392.027500
338.295508	2492.850577
338.687896	2424.795000
339.080220	2485.288846
339.472480	2424.795000
339.864676	2485.288846
340.256807	2409.671538
340.648875	2497.891731
341.040879	2543.262115
341.432818	2487.809423
341.824694	2487.809423
342.216506	2515.535769
342.608253	2543.262115
342.999937	2560.906154
343.391557	2397.068654
343.783113	2487.809423
344.174605	2502.932885
344.566033	2460.083077
344.957397	2475.206538
345.348697	2371.862885
345.739934	2492.850577
346.131106	2429.836154
346.522215	2475.206538
346.913260	2507.974038
347.304241	2389.506923
347.695159	2419.753846
348.086012	2460.083077
348.476802	2487.809423
348.867528	2442.439038
349.258191	2455.041923
349.648789	2520.576923
350.039324	2470.165385
350.429796	2437.397885
350.820203	2500.412308
351.210548	2492.850577
351.600828	2439.918462
351.991045	2414.712692
352.381198	2412.192115
352.771288	2455.041923
353.161314	2500.412308
353.551276	2374.383462
353.941175	2487.809423
354.331010	2354.218846
354.720782	2432.356731
355.110490	2439.918462
355.500135	2452.521346
355.889717	2487.809423
356.279235	2432.356731
356.668689	2429.836154
357.058080	2429.836154
357.447408	2495.371154
357.836672	2452.521346
358.225873	2429.836154
358.615010	2515.535769
359.004084	2434.877308
359.393095	2407.150962
359.782043	2384.465769
360.170927	2399.589231
360.559748	2533.179808
360.948505	2397.068654
361.337199	2402.109808
361.725830	2553.344423
362.114398	2460.083077
362.502903	2465.124231
362.891344	2442.439038
363.279722	2460.083077
363.668037	2429.836154
364.056289	2530.659231
364.444478	2452.521346
364.832603	2455.041923
365.220665	2495.371154
365.608665	2470.165385
365.996601	2490.330000
366.384474	2434.877308
366.772284	2407.150962
367.160031	2528.138654
367.547715	2460.083077
367.935336	2490.330000
368.322893	2528.138654
368.710388	2492.850577
369.097820	2492.850577
369.485189	2455.041923
369.872495	2495.371154
370.259738	2518.056346
370.646918	2450.000769
371.034035	2500.412308
371.421090	2518.056346
371.808081	2407.150962
372.195010	2502.932885
372.581875	2444.959615
372.968678	2475.206538
373.355418	2492.850577
373.742096	2513.015192
374.128710	2465.124231
374.515262	2432.356731
374.901751	2356.739423
375.288177	2500.412308
375.674540	2450.000769
376.060841	2573.509038
376.447079	2389.506923
376.833254	2518.056346
377.219367	2424.795000
377.605417	2485.288846
377.991404	2485.288846
378.377329	2429.836154
378.763191	2502.932885
379.148991	2392.027500
379.534727	2472.685962
379.920402	2437.397885
380.306013	2490.330000
380.691563	2444.959615
381.077049	2414.712692
381.462474	2455.041923
381.847835	2437.397885
382.233134	2510.494615
382.618371	2487.809423
383.003545	2447.480192
383.388657	2392.027500
383.773706	2462.603654
384.158693	2394.548077
384.543618	2492.850577
384.928480	2487.809423
385.313280	2439.918462
385.698017	2409.671538
386.082692	2553.344423
386.467305	2485.288846
386.851856	2492.850577
387.236344	2470.165385
387.620770	2480.247692
388.005133	2565.947308
388.389435	2553.344423
388.773674	2444.959615
389.157851	2379.424615
389.541965	2475.206538
389.926018	2513.015192
390.310008	2495.371154
390.693936	2472.685962
391.077802	2495.371154
391.461606	2427.315577
391.845348	2515.535769
392.229027	2502.932885
392.612645	2515.535769
392.996200	2487.809423
393.379694	2432.356731
393.763125	2482.768269
394.146494	2475.206538
394.529801	2513.015192
394.913047	2412.192115
395.296230	2495.371154
395.679351	2495.371154
396.062410	2502.932885
396.445408	2439.918462
396.828343	2455.041923
397.211217	2452.521346
397.594028	2452.521346
397.976778	2550.823846
398.359466	2460.083077
398.742092	2442.439038
399.124656	2530.659231
399.507158	2490.330000
399.889598	2465.124231
400.271977	2409.671538
400.654294	2530.659231
401.036549	2495.371154
401.418742	2505.453462
401.800874	2558.385577
402.182944	2480.247692
402.564952	2465.124231
402.946898	2538.220962
403.328783	2447.480192
403.710606	2447.480192
404.092367	2460.083077
404.474067	2447.480192
404.855705	2502.932885
405.237282	2437.397885
405.618797	2457.562500
406.000250	2465.124231
406.381642	2452.521346
406.762972	2444.959615
407.144240	2477.727115
407.525447	2457.562500
407.906593	2477.727115
408.287677	2450.000769
408.668700	2518.056346
409.049661	2497.891731
409.430560	2437.397885
409.811399	2452.521346
410.192176	2540.741538
410.572891	2422.274423
410.953545	2457.562500
411.334138	2467.644808
411.714669	2399.589231
412.095139	2495.371154
412.475547	2480.247692
412.855894	2538.220962
413.236180	2472.685962
413.616405	2470.165385
413.996568	2497.891731
414.376670	2480.247692
414.756711	2442.439038
415.136691	2515.535769
415.516609	2465.124231
415.896466	2472.685962
416.276262	2475.206538
416.655997	2439.918462
417.035670	2528.138654
417.415283	2548.303269
417.794834	2631.482308
418.174324	2492.850577
418.553753	2470.165385
418.933121	2523.097500
419.312428	2502.932885
419.691674	2530.659231
420.070859	2455.041923
420.449983	2485.288846
420.829045	2450.000769
421.208047	2530.659231
421.586988	2480.247692
421.965867	2497.891731
422.344686	2457.562500
422.723444	2434.877308
423.102141	2465.124231
423.480777	2434.877308
423.859352	2472.685962
424.237866	2437.397885
424.616319	2457.562500
424.994712	2513.015192
425.373044	2422.274423
425.751314	2455.041923
426.129524	2487.809423
426.507673	2402.109808
426.885762	2429.836154
427.263789	2495.371154
427.641756	2507.974038
428.019662	2467.644808
428.397508	2369.342308
428.775292	2490.330000
429.153016	2457.562500
429.530679	2432.356731
429.908282	2482.768269
430.285824	2510.494615
430.663305	2500.412308
431.040726	2502.932885
431.418086	2444.959615
431.795385	2455.041923
432.172624	2510.494615
432.549802	2535.700385
432.926920	2505.453462
433.303977	2437.397885
433.680974	2513.015192
434.057910	2485.288846
434.434786	2452.521346
434.811601	2507.974038
435.188355	2472.685962
435.565050	2455.041923
435.941683	2422.274423
436.318257	2520.576923
436.694770	2371.862885
437.071222	2510.494615
437.447614	2467.644808
437.823946	2475.206538
438.200218	2475.206538
438.576429	2480.247692
438.952580	2455.041923
439.328670	2477.727115
439.704700	2422.274423
440.080670	2492.850577
440.456580	2505.453462
440.832429	2518.056346
441.208218	2467.644808
441.583947	2450.000769
441.959616	2460.083077
442.335224	2447.480192
442.710773	2502.932885
443.086261	2452.521346
443.461689	2500.412308
443.837057	2460.083077
444.212365	2422.274423
444.587612	2475.206538
444.962800	2500.412308
445.337927	2505.453462
445.712995	2419.753846
446.088002	2439.918462
446.462949	2412.192115
446.837837	2500.412308
447.212664	2548.303269
447.587431	2475.206538
447.962139	2485.288846
448.336786	2460.083077
448.711374	2505.453462
449.085901	2452.521346
449.460369	2502.932885
449.834776	2462.603654
450.209124	2510.494615
450.583412	2487.809423
450.957640	2535.700385
451.331808	2475.206538
451.705917	2480.247692
452.079965	2505.453462
452.453954	2407.150962
452.827883	2523.097500
453.201752	2427.315577
453.575562	2389.506923
453.949311	2432.356731
454.323001	2457.562500
454.696632	2581.070769
455.070202	2588.632500
455.443713	2490.330000
455.817164	2500.412308
456.190556	2422.274423
456.563888	2500.412308
456.937160	2518.056346
457.310373	2439.918462
457.683526	2485.288846
458.056619	2409.671538
458.429653	2455.041923
458.802628	2513.015192
459.175542	2500.412308
459.548398	2422.274423
459.921194	2429.836154
460.293930	2558.385577
460.666607	2565.947308
461.039224	2424.795000
461.411782	2525.618077
461.784280	2520.576923
462.156719	2578.550192
462.529099	2487.809423
462.901419	2507.974038
463.273680	2492.850577
463.645882	2480.247692
464.018024	2487.809423
464.390106	2402.109808
464.762130	2518.056346
465.134094	2570.988462
465.505999	2485.288846
465.877845	2442.439038
466.249631	2500.412308
466.621358	2502.932885
466.993026	2490.330000
467.364634	2487.809423
467.736184	2460.083077
468.107674	2495.371154
468.479105	2480.247692
468.850477	2500.412308
469.221790	2492.850577
469.593043	2525.618077
469.964238	2583.591346
470.335373	2434.877308
470.706449	2475.206538
471.077467	2439.918462
471.448425	2513.015192
471.819324	2450.000769
472.190164	2487.809423
472.560945	2538.220962
472.931667	2540.741538
473.302330	2460.083077
473.672934	2591.153077
474.043479	2442.439038
474.413965	2497.891731
474.784393	2470.165385
475.154761	2525.618077
475.525070	2520.576923
475.895321	2515.535769
476.265513	2573.509038
476.635645	2439.918462
477.005719	2487.809423
477.375734	2450.000769
477.745691	2472.685962
478.115588	2434.877308
478.485427	2510.494615
478.855207	2497.891731
479.224928	2525.618077
479.594591	2450.000769
479.964194	2462.603654
480.333739	2460.083077
480.703226	2412.192115
481.072653	2568.467885
481.442022	2520.576923
481.811333	2460.083077
482.180584	2505.453462
482.549777	2500.412308
482.918912	2507.974038
483.287988	2480.247692
483.657005	2510.494615
484.025964	2513.015192
484.394864	2530.659231
484.763706	2447.480192
485.132489	2555.865000
485.501213	2475.206538
485.869879	2475.206538
486.238487	2565.947308
486.607036	2467.644808
486.975527	2502.932885
487.343959	2457.562500
487.712333	2507.974038
488.080648	2452.521346
488.448905	2482.768269
488.817104	2515.535769
489.185244	2402.109808
489.553326	2528.138654
489.921350	2535.700385
490.289315	2545.782692
490.657222	2467.644808
491.025070	2500.412308
491.392861	2472.685962
491.760593	2457.562500
492.128267	2563.426731
492.495883	2447.480192
492.863440	2490.330000
493.230939	2500.412308
493.598380	2462.603654
493.965763	2576.029615
494.333088	2538.220962
494.700354	2455.041923
495.067563	2510.494615
495.434713	2465.124231
495.801805	2417.233269
496.168839	2538.220962
496.535815	2422.274423
496.902733	2404.630385
497.269593	2548.303269
497.636395	2462.603654
498.003139	2437.397885
498.369825	2490.330000
498.736453	2548.303269
499.103023	2432.356731
499.469535	2419.753846
499.835989	2528.138654
500.202385	2444.959615
500.568723	2513.015192
500.935003	2460.083077
501.301226	2384.465769
501.667390	2523.097500
502.033497	2452.521346
502.399546	2500.412308
502.765537	2409.671538
503.131470	2492.850577
503.497345	2535.700385
503.863163	2414.712692
504.228923	2510.494615
504.594625	2439.918462
504.960269	2495.371154
505.325856	2528.138654
505.691385	2467.644808
506.056856	2354.218846
506.422270	2460.083077
506.787625	2533.179808
507.152924	2583.591346
507.518164	2417.233269
507.883347	2528.138654
508.248472	2490.330000
508.613540	2485.288846
508.978550	2470.165385
509.343503	2477.727115
509.708398	2437.397885
510.073236	2505.453462
510.438016	2583.591346
510.802738	2505.453462
511.167403	2538.220962
511.532010	2502.932885
511.896561	2513.015192
512.261053	2465.124231
512.625488	2452.521346
512.989866	2487.809423
513.354186	2540.741538
513.718449	2439.918462
514.082655	2528.138654
514.446803	2500.412308
514.810894	2533.179808
515.174927	2520.576923
515.538904	2530.659231
515.902822	2502.932885
516.266684	2475.206538
516.630488	2475.206538
516.994235	2520.576923
517.357925	2460.083077
517.721558	2414.712692
518.085133	2432.356731
518.448651	2432.356731
518.812112	2555.865000
519.175516	2525.618077
519.538863	2538.220962
519.902152	2450.000769
520.265385	2515.535769
520.628560	2497.891731
520.991678	2482.768269
521.354739	2523.097500
521.717743	2535.700385
522.080690	2538.220962
522.443580	2477.727115
522.806413	2555.865000
523.169189	2500.412308
523.531908	2568.467885
523.894569	2568.467885
524.257174	2432.356731
524.619722	2472.685962
524.982213	2495.371154
525.344647	2553.344423
525.707025	2447.480192
526.069345	2515.535769
526.431608	2444.959615
526.793815	2538.220962
527.155964	2530.659231
527.518057	2502.932885
527.880093	2513.015192
528.242072	2528.138654
528.603995	2548.303269
528.965860	2475.206538
529.327669	2419.753846
529.689421	2576.029615
530.051117	2412.192115
530.412755	2492.850577
530.774337	2578.550192
531.135862	2550.823846
531.497331	2588.632500
531.858743	2414.712692
532.220098	2586.111923
532.581396	2502.932885
532.942638	2485.288846
533.303824	2457.562500
533.664953	2402.109808
534.026025	2497.891731
534.387040	2480.247692
534.747999	2568.467885
535.108902	2533.179808
535.469748	2510.494615
535.830537	2492.850577
536.191270	2530.659231
536.551947	2482.768269
536.912567	2520.576923
537.273131	2450.000769
537.633638	2525.618077
537.994089	2490.330000
538.354483	2515.535769
538.714821	2465.124231
539.075103	2414.712692
539.435328	2422.274423
539.795497	2485.288846
540.155609	2482.768269
540.515665	2482.768269
540.875665	2427.315577
541.235609	2485.288846
541.595496	2437.397885
541.955328	2475.206538
542.315102	2540.741538
542.674821	2533.179808
543.034483	2452.521346
543.394090	2497.891731
543.753640	2502.932885
544.113134	2485.288846
544.472571	2394.548077
544.831953	2505.453462
545.191278	2457.562500
545.550548	2439.918462
545.909761	2407.150962
546.268918	2502.932885
546.628019	2437.397885
546.987064	2452.521346
547.346053	2500.412308
547.704986	2467.644808
548.063863	2520.576923
548.422684	2608.797115
548.781449	2485.288846
549.140158	2490.330000
549.498811	2563.426731
549.857408	2545.782692
550.215949	2513.015192
550.574434	2502.932885
550.932864	2429.836154
551.291237	2560.906154
551.649555	2528.138654
552.007817	2470.165385
552.366022	2444.959615
552.724173	2480.247692
553.082267	2515.535769
553.440305	2533.179808
553.798288	2424.795000
554.156215	2533.179808
554.514086	2540.741538
554.871902	2513.015192
555.229661	2515.535769
555.587365	2518.056346
555.945014	2485.288846
556.302606	2460.083077
556.660143	2313.889615
557.017625	2487.809423
557.375050	2462.603654
557.732421	2507.974038
558.089735	2515.535769
558.446994	2477.727115
558.804197	2543.262115
559.161345	2485.288846
559.518437	2523.097500
559.875474	2487.809423
560.232455	2603.755962
560.589381	2460.083077
560.946251	2563.426731
561.303065	2510.494615
561.659825	2563.426731
562.016528	2510.494615
562.373177	2576.029615
562.729770	2439.918462
563.086307	2520.576923
563.442789	2439.918462
563.799216	2500.412308
564.155587	2482.768269
564.511904	2555.865000
564.868164	2434.877308
565.224370	2565.947308
565.580520	2545.782692
565.936615	2515.535769
566.292654	2523.097500
566.648638	2422.274423
567.004567	2477.727115
567.360441	2533.179808
567.716260	2543.262115
568.072023	2470.165385
568.427732	2455.041923
568.783385	2543.262115
569.138982	2545.782692
569.494525	2525.618077
569.850013	2515.535769
570.205445	2422.274423
570.560823	2545.782692
570.916145	2588.632500
571.271412	2442.439038
571.626625	2497.891731
571.981782	2434.877308
572.336884	2553.344423
572.691931	2543.262115
573.046923	2550.823846
573.401860	2639.044038
573.756743	2487.809423
574.111570	2460.083077
574.466342	2540.741538
574.821059	2565.947308
575.175722	2538.220962
575.530330	2528.138654
575.884882	2460.083077
576.239380	2520.576923
576.593823	2467.644808
576.948211	2502.932885
577.302544	2528.138654
577.656823	2490.330000
578.011047	2550.823846
578.365216	2497.891731
578.719330	2495.371154
579.073389	2497.891731
579.427394	2384.465769
579.781344	2455.041923
580.135239	2518.056346
580.489080	2502.932885
580.842866	2553.344423
581.196597	2462.603654
581.550273	2543.262115
581.903895	2507.974038
582.257463	2540.741538
582.610975	2434.877308
582.964434	2570.988462
583.317837	2540.741538
583.671186	2502.932885
584.024481	2450.000769
584.377721	2588.632500
584.730906	2565.947308
585.084037	2530.659231
585.437113	2570.988462
585.790135	2485.288846
586.143103	2397.068654
586.496016	2573.509038
586.848874	2510.494615
587.201679	2555.865000
587.554428	2477.727115
587.907124	2457.562500
588.259765	2490.330000
588.612352	2520.576923
588.964884	2502.932885
589.317362	2386.986346
589.669786	2492.850577
590.022155	2444.959615
590.374470	2450.000769
590.726731	2480.247692
591.078937	2477.727115
591.431090	2450.000769
591.783188	2407.150962
592.135232	2470.165385
592.487222	2540.741538
592.839157	2568.467885
593.191038	2560.906154
593.542866	2427.315577
593.894639	2581.070769
594.246358	2475.206538
594.598022	2573.509038
594.949633	2434.877308
595.301190	2523.097500
595.652692	2470.165385
596.004141	2482.768269
596.355535	2470.165385
596.706876	2553.344423
597.058162	2480.247692
597.409395	2495.371154
597.760573	2480.247692
598.111698	2490.330000
598.462768	2475.206538
598.813785	2525.618077
599.164748	2487.809423
599.515657	2500.412308
599.866511	2460.083077
600.217312	2538.220962
600.568060	2467.644808
600.918753	2487.809423
601.269392	2450.000769
601.619978	2480.247692
601.970510	2523.097500
602.320988	2482.768269
602.671412	2553.344423
603.021783	2460.083077
603.372100	2485.288846
603.722363	2500.412308
604.072572	2535.700385
604.422728	2495.371154
604.772830	2525.618077
605.122878	2502.932885
605.472872	2515.535769
605.822813	2538.220962
606.172701	2467.644808
606.522534	2573.509038
606.872314	2500.412308
607.222041	2573.509038
607.571714	2502.932885
607.921333	2467.644808
608.270899	2540.741538
608.620411	2429.836154
608.969870	2520.576923
609.319276	2570.988462
609.668627	2513.015192
610.017926	2565.947308
610.367171	2525.618077
610.716362	2545.782692
611.065500	2550.823846
611.414585	2576.029615
611.763616	2553.344423
612.112594	2548.303269
612.461518	2543.262115
612.810389	2540.741538
613.159207	2447.480192
613.507971	2434.877308
613.856682	2452.521346
614.205340	2550.823846
614.553945	2520.576923
614.902496	2543.262115
615.250994	2507.974038
615.599439	2409.671538
615.947830	2444.959615
616.296169	2545.782692
616.644454	2439.918462
616.992686	2487.809423
617.340864	2444.959615
617.688990	2513.015192
618.037063	2452.521346
618.385082	2510.494615
618.733048	2593.673654
619.080961	2518.056346
619.428821	2601.235385
619.776628	2480.247692
620.124382	2530.659231
620.472083	2455.041923
620.819731	2467.644808
621.167326	2439.918462
621.514868	2495.371154
621.862357	2460.083077
622.209793	2533.179808
622.557176	2467.644808
622.904506	2520.576923
623.251783	2477.727115
623.599007	2490.330000
623.946179	2394.548077
624.293297	2548.303269
624.640363	2505.453462
624.987376	2518.056346
625.334336	2515.535769
625.681243	2523.097500
626.028097	2452.521346
626.374899	2518.056346
626.721647	2553.344423
627.068343	2427.315577
627.414987	2455.041923
627.761577	2490.330000
628.108115	2442.439038
628.454600	2500.412308
628.801032	2447.480192
629.147412	2487.809423
629.493739	2510.494615
629.840014	2495.371154
630.186236	2495.371154
630.532405	2487.809423
630.878521	2482.768269
631.224585	2570.988462
631.570597	2452.521346
631.916556	2467.644808
632.262462	2432.356731
632.608316	2485.288846
632.954117	2535.700385
633.299866	2520.576923
633.645562	2462.603654
633.991206	2515.535769
634.336797	2538.220962
634.682336	2432.356731
635.027823	2535.700385
635.373257	2606.276538
635.718639	2523.097500
636.063968	2472.685962
636.409245	2460.083077
636.754470	2462.603654
637.099642	2447.480192
637.444762	2525.618077
637.789829	2485.288846
638.134845	2540.741538
638.479808	2490.330000
638.824719	2543.262115
639.169577	2482.768269
639.514383	2442.439038
639.859137	2444.959615
640.203839	2490.330000
640.548489	2515.535769
640.893086	2434.877308
641.237632	2450.000769
641.582125	2518.056346
641.926566	2460.083077
642.270955	2507.974038
642.615292	2497.891731
642.959576	2565.947308
643.303809	2528.138654
643.647990	2550.823846
643.992118	2502.932885
644.336195	2558.385577
644.680219	2442.439038
645.024192	2452.521346
645.368112	2570.988462
645.711981	2540.741538
646.055797	2502.932885
646.399562	2470.165385
646.743274	2576.029615
647.086935	2465.124231
647.430544	2591.153077
647.774101	2586.111923
648.117606	2480.247692
648.461059	2467.644808
648.804460	2457.562500
649.147810	2475.206538
649.491108	2583.591346
649.834354	2540.741538
650.177548	2558.385577
650.520690	2523.097500
650.863781	2538.220962
651.206820	2540.741538
651.549807	2460.083077
651.892742	2447.480192
652.235626	2535.700385
652.578458	2497.891731
652.921238	2460.083077
653.263967	2555.865000
653.606644	2487.809423
653.949269	2568.467885
654.291843	2573.509038
654.634365	2601.235385
654.976836	2538.220962
655.319255	2558.385577
655.661622	2482.768269
656.003938	2601.235385
656.346203	2414.712692
656.688416	2472.685962
657.030577	2432.356731
657.372687	2560.906154
657.714746	2465.124231
658.056753	2477.727115
658.398708	2480.247692
658.740612	2470.165385
659.082465	2515.535769
659.424266	2507.974038
659.766016	2543.262115
660.107715	2581.070769
660.449362	2470.165385
660.790958	2497.891731
661.132503	2477.727115
661.473996	2520.576923
661.815438	2550.823846
662.156829	2460.083077
662.498168	2558.385577
662.839456	2432.356731
663.180693	2485.288846
663.521879	2480.247692
663.863013	2465.124231
664.204097	2437.397885
664.545129	2555.865000
664.886110	2553.344423
665.227040	2560.906154
665.567918	2563.426731
665.908746	2437.397885
666.249522	2482.768269
666.590248	2475.206538
666.930922	2591.153077
667.271545	2576.029615
667.612118	2533.179808
667.952639	2470.165385
668.293109	2502.932885
668.633528	2470.165385
668.973896	2487.809423
669.314213	2500.412308
669.654480	2480.247692
669.994695	2470.165385
670.334859	2455.041923
670.674973	2583.591346
671.015035	2520.576923
671.355047	2530.659231
671.695008	2404.630385
672.034918	2523.097500
672.374777	2520.576923
672.714585	2510.494615
673.054342	2550.823846
673.394049	2583.591346
673.733705	2485.288846
674.073310	2520.576923
674.412864	2510.494615
674.752368	2500.412308
675.091820	2409.671538
675.431223	2507.974038
675.770574	2510.494615
676.109875	2535.700385
676.449125	2490.330000
676.788324	2525.618077
677.127473	2538.220962
677.466571	2480.247692
677.805619	2553.344423
678.144616	2545.782692
678.483562	2487.809423
678.822458	2533.179808
679.161303	2530.659231
679.500098	2535.700385
679.838842	2447.480192
680.177535	2523.097500
680.516179	2505.453462
680.854771	2555.865000
681.193314	2502.932885
681.531805	2538.220962
681.870247	2424.795000
682.208638	2442.439038
682.546978	2477.727115
682.885268	2530.659231
683.223508	2497.891731
683.561697	2452.521346
683.899836	2490.330000
684.237925	2613.838269
684.575963	2495.371154
684.913951	2497.891731
685.251889	2429.836154
685.589776	2465.124231
685.927614	2530.659231
686.265401	2507.974038
686.603137	2543.262115
686.940824	2535.700385
687.278460	2502.932885
687.616046	2535.700385
687.953582	2578.550192
688.291068	2515.535769
688.628504	2487.809423
688.965889	2444.959615
689.303224	2457.562500
689.640510	2518.056346
689.977745	2578.550192
690.314930	2523.097500
690.652065	2472.685962
690.989150	2412.192115
691.326185	2568.467885
691.663170	2523.097500
692.000105	2470.165385
692.336990	2409.671538
692.673825	2485.288846
693.010610	2467.644808
693.347345	2490.330000
693.684030	2460.083077
694.020665	2540.741538
694.357251	2523.097500
694.693786	2523.097500
695.030272	2540.741538
695.366707	2465.124231
695.703093	2490.330000
696.039429	2505.453462
696.375716	2525.618077
696.711952	2535.700385
697.048139	2538.220962
697.384276	2495.371154
697.720363	2543.262115
698.056400	2482.768269
698.392388	2392.027500
698.728326	2502.932885
699.064214	2487.809423
699.400053	2485.288846
699.735842	2429.836154
700.071581	2419.753846
700.407270	2560.906154
700.742910	2548.303269
701.078501	2452.521346
701.414042	2460.083077
701.749533	2495.371154
702.084974	2515.535769
702.420366	2497.891731
702.755709	2500.412308
703.091002	2485.288846
703.426246	2523.097500
703.761440	2487.809423
704.096584	2513.015192
704.431679	2586.111923
704.766725	2507.974038
705.101721	2480.247692
705.436668	2462.603654
705.771565	2540.741538
706.106413	2528.138654
706.441212	2533.179808
706.775961	2530.659231
707.110661	2535.700385
707.445311	2550.823846
707.779913	2412.192115
708.114465	2439.918462
708.448967	2545.782692
708.783421	2538.220962
709.117825	2525.618077
709.452180	2470.165385
709.786485	2550.823846
710.120742	2462.603654
710.454949	2518.056346
710.789107	2502.932885
711.123216	2470.165385
711.457275	2560.906154
711.791286	2460.083077
712.125247	2497.891731
712.459159	2535.700385
712.793023	2369.342308
713.126837	2490.330000
713.460602	2480.247692
713.794318	2507.974038
714.127985	2427.315577
714.461602	2485.288846
714.795171	2485.288846
715.128691	2505.453462
715.462162	2442.439038
715.795584	2502.932885
716.128957	2523.097500
716.462281	2482.768269
716.795556	2442.439038
717.128782	2460.083077
717.461960	2450.000769
717.795088	2389.506923
718.128167	2535.700385
718.461198	2444.959615
718.794180	2490.330000
719.127113	2465.124231
719.459997	2550.823846
719.792833	2472.685962
720.125619	2558.385577
720.458357	2510.494615
720.791046	2442.439038
721.123686	2520.576923
721.456278	2369.342308
721.788821	2502.932885
722.121315	2535.700385
722.453761	2475.206538
722.786158	2470.165385
723.118506	2480.247692
723.450805	2500.412308
723.783056	2528.138654
724.115259	2487.809423
724.447412	2495.371154
724.779518	2535.700385
725.111574	2576.029615
725.443582	2492.850577
725.775542	2482.768269
726.107453	2467.644808
726.439315	2538.220962
726.771129	2533.179808
727.102895	2424.795000
727.434612	2535.700385
727.766281	2568.467885
728.097901	2507.974038
728.429473	2510.494615
728.760996	2497.891731
729.092471	2518.056346
729.423897	2482.768269
729.755276	2472.685962
730.086606	2535.700385
730.417887	2533.179808
730.749120	2502.932885
731.080305	2470.165385
731.411442	2560.906154
731.742530	2573.509038
732.073570	2535.700385
732.404562	2485.288846
732.735506	2520.576923
733.066401	2510.494615
733.397249	2565.947308
733.728048	2492.850577
734.058798	2548.303269
734.389501	2545.782692
734.720156	2455.041923
735.050762	2543.262115
735.381320	2485.288846
735.711831	2543.262115
736.042293	2588.632500
736.372707	2497.891731
736.703073	2465.124231
737.033391	2432.356731
737.363661	2455.041923
737.693883	2497.891731
738.024056	2518.056346
738.354182	2452.521346
738.684260	2434.877308
739.014290	2578.550192
739.344272	2492.850577
739.674207	2482.768269
740.004093	2434.877308
740.333931	2492.850577
740.663722	2437.397885
740.993464	2505.453462
741.323159	2450.000769
741.652806	2447.480192
741.982405	2490.330000
742.311956	2472.685962
742.641460	2538.220962
742.970915	2419.753846
743.300323	2553.344423
743.629683	2455.041923
743.958996	2540.741538
744.288260	2442.439038
744.617477	2555.865000
744.946647	2515.535769
745.275768	2502.932885
745.604842	2550.823846
745.933869	2465.124231
746.262847	2477.727115
746.591778	2518.056346
746.920662	2419.753846
747.249498	2515.535769
747.578286	2457.562500
747.907027	2422.274423
748.235720	2457.562500
748.564365	2485.288846
748.892963	2528.138654
749.221514	2482.768269
749.550017	2455.041923
749.878473	2507.974038
750.206881	2558.385577
750.535242	2427.315577
750.863555	2545.782692
751.191821	2487.809423
751.520039	2628.961731
751.848210	2477.727115
752.176334	2492.850577
752.504411	2538.220962
752.832440	2482.768269
753.160421	2538.220962
753.488356	2492.850577
753.816243	2510.494615
754.144082	2634.002885
754.471875	2465.124231
754.799620	2467.644808
755.127318	2525.618077
755.454969	2515.535769
755.782572	2485.288846
756.110129	2482.768269
756.437638	2533.179808
756.765100	2457.562500
757.092515	2538.220962
757.419882	2442.439038
757.747203	2515.535769
758.074477	2495.371154
758.401703	2497.891731
758.728882	2447.480192
759.056014	2525.618077
759.383099	2492.850577
759.710138	2497.891731
760.037129	2472.685962
760.364073	2452.521346
760.690970	2422.274423
761.017820	2495.371154
761.344623	2533.179808
761.671379	2450.000769
761.998088	2510.494615
762.324751	2460.083077
762.651366	2497.891731
762.977935	2495.371154
763.304456	2470.165385
763.630931	2540.741538
763.957359	2505.453462
764.283740	2472.685962
764.610074	2538.220962
764.936362	2485.288846
765.262602	2475.206538
765.588796	2553.344423
765.914943	2465.124231
766.241044	2477.727115
766.567097	2482.768269
766.893104	2417.233269
767.219064	2560.906154
767.544978	2417.233269
767.870845	2553.344423
768.196665	2520.576923
768.522438	2447.480192
768.848165	2535.700385
769.173846	2452.521346
769.499479	2555.865000
769.825066	2470.165385
770.150607	2502.932885
770.476101	2477.727115
770.801548	2490.330000
771.126949	2447.480192
771.452303	2525.618077
771.777611	2570.988462
772.102872	2518.056346
772.428087	2570.988462
772.753256	2543.262115
773.078378	2558.385577
773.403453	2505.453462
773.728482	2417.233269
774.053465	2495.371154
774.378401	2480.247692
774.703291	2553.344423
775.028135	2492.850577
775.352932	2497.891731
775.677683	2548.303269
776.002388	2520.576923
776.327046	2434.877308
776.651658	2404.630385
776.976224	2523.097500
777.300743	2507.974038
777.625216	2525.618077
777.949643	2437.397885
778.274024	2482.768269
778.598359	2525.618077
778.922647	2558.385577
779.246889	2457.562500
779.571086	2502.932885
779.895236	2495.371154
780.219339	2457.562500
780.543397	2472.685962
780.867409	2492.850577
781.191374	2434.877308
781.515294	2543.262115
781.839167	2422.274423
782.162995	2460.083077
782.486776	2470.165385
782.810511	2533.179808
783.134201	2555.865000
783.457844	2475.206538
783.781441	2465.124231
784.104993	2475.206538
784.428498	2424.795000
784.751958	2507.974038
785.075372	2543.262115
785.398739	2422.274423
785.722061	2497.891731
786.045337	2548.303269
786.368568	2472.685962
786.691752	2591.153077
787.014891	2404.630385
787.337983	2447.480192
787.661030	2528.138654
787.984031	2540.741538
788.306987	2444.959615
788.629897	2507.974038
788.952760	2507.974038
789.275579	2502.932885
789.598351	2505.453462
789.921078	2548.303269
790.243759	2543.262115
790.566395	2482.768269
790.888984	2530.659231
791.211529	2538.220962
791.534027	2447.480192
791.856480	2505.453462
792.178888	2450.000769
792.501249	2439.918462
792.823566	2548.303269
793.145836	2482.768269
793.468062	2528.138654
793.790241	2460.083077
794.112375	2485.288846
794.434464	2513.015192
794.756507	2439.918462
795.078505	2472.685962
795.400457	2565.947308
795.722364	2467.644808
796.044226	2419.753846
796.366042	2470.165385
796.687812	2455.041923
797.009538	2528.138654
797.331218	2477.727115
797.652852	2480.247692
797.974442	2510.494615
798.295986	2492.850577
798.617484	2523.097500
798.938938	2492.850577
799.260346	2490.330000
799.581709	2591.153077
799.903026	2505.453462
800.224299	2465.124231
800.545526	2520.576923
800.866708	2480.247692
801.187845	2369.342308
801.508936	2573.509038
801.829983	2518.056346
802.150984	2520.576923
802.471940	2520.576923
802.792851	2510.494615
803.113717	2404.630385
803.434538	2502.932885
803.755314	2434.877308
804.076045	2500.412308
804.396731	2560.906154
804.717372	2533.179808
805.037967	2419.753846
805.358518	2543.262115
805.679024	2465.124231
805.999485	2505.453462
806.319901	2434.877308
806.640272	2505.453462
806.960598	2530.659231
807.280879	2492.850577
807.601115	2497.891731
807.921306	2533.179808
808.241453	2502.932885
808.561554	2434.877308
808.881611	2409.671538
809.201623	2628.961731
809.521590	2545.782692
809.841513	2570.988462
810.161390	2502.932885
810.481223	2455.041923
810.801011	2563.426731
811.120755	2482.768269
811.440453	2444.959615
811.760107	2490.330000
812.079716	2528.138654
812.399281	2475.206538
812.718801	2540.741538
813.038276	2543.262115
813.357707	2450.000769
813.677093	2538.220962
813.996434	2492.850577
814.315731	2500.412308
814.634983	2565.947308
814.954191	2444.959615
815.273354	2538.220962
815.592473	2455.041923
815.911547	2475.206538
816.230577	2381.945192
816.549562	2497.891731
816.868502	2538.220962
817.187399	2472.685962
817.506250	2467.644808
817.825058	2555.865000
818.143821	2487.809423
818.462539	2518.056346
818.781213	2434.877308
819.099843	2523.097500
819.418429	2558.385577
819.736970	2457.562500
820.055466	2432.356731
820.373919	2513.015192
820.692327	2520.576923
821.010691	2477.727115
821.329011	2548.303269
821.647286	2525.618077
821.965517	2460.083077
822.283704	2550.823846
822.601847	2437.397885
822.919945	2487.809423
823.237999	2371.862885
823.556010	2525.618077
823.873976	2606.276538
824.191897	2467.644808
824.509775	2487.809423
824.827609	2565.947308
825.145398	2452.521346
825.463144	2397.068654
825.780845	2518.056346
826.098502	2442.439038
826.416116	2447.480192
826.733685	2515.535769
827.051210	2507.974038
827.368692	2392.027500
827.686129	2530.659231
828.003522	2513.015192
828.320872	2502.932885
828.638177	2543.262115
828.955439	2480.247692
829.272656	2500.412308
829.589830	2555.865000
829.906960	2460.083077
830.224046	2465.124231
830.541088	2475.206538
830.858086	2515.535769
831.175041	2523.097500
831.491952	2495.371154
831.808819	2518.056346
832.125642	2583.591346
832.442421	2457.562500
832.759157	2515.535769
833.075849	2487.809423
833.392497	2528.138654
833.709101	2505.453462
834.025662	2513.015192
834.342179	2482.768269
834.658653	2613.838269
834.975083	2442.439038
835.291469	2558.385577
835.607811	2444.959615
835.924110	2535.700385
836.240366	2475.206538
836.556578	2439.918462
836.872746	2538.220962
837.188871	2452.521346
837.504952	2538.220962
837.820990	2472.685962
838.136984	2490.330000
838.452935	2518.056346
838.768842	2485.288846
839.084706	2518.056346
839.400526	2505.453462
839.716303	2495.371154
840.032037	2492.850577
840.347727	2497.891731
840.663373	2457.562500
840.978977	2573.509038
841.294537	2543.262115
841.610054	2500.412308
841.925527	2467.644808
842.240957	2523.097500
842.556344	2480.247692
842.871687	2520.576923
843.186987	2495.371154
843.502244	2553.344423
843.817458	2434.877308
844.132629	2500.412308
844.447756	2460.083077
844.762840	2432.356731
845.077881	2545.782692
845.392879	2487.809423
845.707833	2550.823846
846.022745	2550.823846
846.337613	2444.959615
846.652438	2447.480192
846.967221	2482.768269
847.281960	2444.959615
847.596656	2535.700385
847.911309	2528.138654
848.225919	2543.262115
848.540485	2530.659231
848.855009	2513.015192
849.169490	2518.056346
849.483928	2548.303269
849.798323	2460.083077
850.112675	2510.494615
850.426984	2455.041923
850.741251	2422.274423
851.055474	2502.932885
851.369654	2485.288846
851.683792	2530.659231
851.997887	2492.850577
852.311938	2510.494615
852.625947	2414.712692
852.939914	2412.192115
853.253837	2465.124231
853.567718	2429.836154
853.881555	2455.041923
854.195350	2548.303269
854.509103	2465.124231
854.822812	2422.274423
855.136479	2500.412308
855.450103	2492.850577
855.763685	2462.603654
856.077224	2533.179808
856.390720	2379.424615
856.704173	2444.959615
857.017584	2560.906154
857.330953	2414.712692
857.644278	2444.959615
857.957561	2515.535769
858.270802	2487.809423
858.584000	2495.371154
858.897155	2457.562500
859.210268	2482.768269
859.523339	2573.509038
859.836367	2477.727115
860.149352	2482.768269
860.462295	2513.015192
860.775195	2500.412308
861.088054	2475.206538
861.400869	2482.768269
861.713642	2460.083077
862.026373	2490.330000
862.339062	2460.083077
862.651708	2497.891731
862.964312	2455.041923
863.276873	2444.959615
863.589392	2591.153077
863.901869	2465.124231
864.214303	2492.850577
864.526696	2477.727115
864.839045	2442.439038
865.151353	2545.782692
865.463619	2477.727115
865.775842	2586.111923
866.088023	2502.932885
866.400162	2500.412308
866.712258	2497.891731
867.024313	2528.138654
867.336325	2427.315577
867.648296	2601.235385
867.960224	2520.576923
868.272110	2487.809423
868.583954	2507.974038
868.895755	2462.603654
869.207515	2515.535769
869.519233	2570.988462
869.830909	2462.603654
870.142542	2482.768269
870.454134	2439.918462
870.765684	2507.974038
871.077191	2530.659231
871.388657	2490.330000
871.700081	2550.823846
872.011463	2480.247692
872.322803	2487.809423
872.634101	2429.836154
872.945357	2510.494615
873.256571	2570.988462
873.567744	2434.877308
873.878874	2513.015192
874.189963	2460.083077
874.501010	2510.494615
874.812015	2520.576923
875.122979	2467.644808
875.433900	2570.988462
875.744780	2475.206538
876.055618	2525.618077
876.366415	2490.330000
876.677169	2507.974038
876.987882	2570.988462
877.298554	2528.138654
877.609183	2432.356731
877.919771	2495.371154
878.230317	2507.974038
878.540822	2490.330000
878.851285	2497.891731
879.161707	2389.506923
879.472087	2568.467885
879.782425	2528.138654
880.092722	2520.576923
880.402977	2502.932885
880.713191	2465.124231
881.023363	2477.727115
881.333494	2492.850577
881.643583	2444.959615
881.953631	2450.000769
882.263637	2487.809423
882.573602	2492.850577
882.883526	2465.124231
883.193408	2507.974038
883.503248	2455.041923
883.813048	2452.521346
884.122806	2389.506923
884.432522	2553.344423
884.742197	2482.768269
885.051831	2427.315577
885.361424	2465.124231
885.670975	2485.288846
885.980485	2490.330000
886.289954	2550.823846
886.599382	2437.397885
886.908768	2518.056346
887.218113	2462.603654
887.527417	2495.371154
887.836680	2429.836154
888.145901	2518.056346
888.455082	2417.233269
888.764221	2470.165385
889.073319	2492.850577
889.382376	2530.659231
889.691392	2492.850577
890.000366	2407.150962
890.309300	2530.659231
890.618193	2439.918462
890.927044	2480.247692
891.235855	2550.823846
891.544625	2538.220962
891.853353	2369.342308
892.162041	2490.330000
892.470687	2510.494615
892.779293	2520.576923
893.087858	2523.097500
893.396381	2505.453462
893.704864	2520.576923
894.013306	2485.288846
894.321707	2495.371154
894.630068	2530.659231
894.938387	2482.768269
895.246665	2505.453462
895.554903	2507.974038
895.863100	2492.850577
896.171256	2591.153077
896.479371	2485.288846
896.787446	2513.015192
897.095480	2487.809423
897.403473	2606.276538
897.711425	2500.412308
898.019336	2507.974038
898.327207	2490.330000
898.635038	2447.480192
898.942827	2578.550192
899.250576	2490.330000
899.558284	2477.727115
899.865952	2495.371154
900.173579	2452.521346
900.481165	2507.974038
900.788711	2460.083077
901.096216	2457.562500
901.403681	2538.220962
901.711105	2520.576923
902.018489	2457.562500
902.325832	2389.506923
902.633135	2558.385577
902.940397	2502.932885
903.247619	2495.371154
903.554800	2538.220962
903.861941	2500.412308
904.169041	2447.480192
904.476101	2525.618077
904.783121	2437.397885
905.090100	2513.015192
905.397039	2369.342308
905.703938	2497.891731
906.010796	2487.809423
906.317614	2477.727115
906.624391	2434.877308
906.931129	2545.782692
907.237826	2518.056346
907.544483	2462.603654
907.851099	2543.262115
908.157675	2457.562500
908.464211	2437.397885
908.770707	2497.891731
909.077163	2470.165385
909.383578	2540.741538
909.689954	2482.768269
909.996289	2553.344423
910.302584	2477.727115
910.608839	2545.782692
910.915054	2475.206538
911.221229	2626.441154
911.527363	2490.330000
911.833458	2523.097500
912.139513	2402.109808
912.445527	2507.974038
912.751502	2543.262115
913.057436	2540.741538
913.363331	2434.877308
913.669186	2586.111923
913.975000	2457.562500
914.280775	2560.906154
914.586510	2429.836154
914.892205	2528.138654
915.197859	2543.262115
915.503475	2523.097500
915.809050	2500.412308
916.114585	2560.906154
916.420081	2482.768269
916.725536	2515.535769
917.030952	2460.083077
917.336328	2480.247692
917.641665	2490.330000
917.946961	2455.041923
918.252218	2482.768269
918.557435	2460.083077
918.862612	2520.576923
919.167750	2550.823846
919.472848	2497.891731
919.777906	2525.618077
920.082925	2525.618077
920.387904	2490.330000
920.692843	2460.083077
920.997743	2402.109808
921.302603	2502.932885
921.607423	2507.974038
921.912204	2525.618077
922.216946	2505.453462
922.521647	2460.083077
922.826310	2444.959615
923.130932	2487.809423
923.435516	2502.932885
923.740059	2528.138654
924.044564	2576.029615
924.349028	2533.179808
924.653454	2543.262115
924.957840	2475.206538
925.262186	2507.974038
925.566493	2452.521346
925.870761	2444.959615
926.174989	2540.741538
926.479178	2482.768269
926.783328	2492.850577
927.087438	2470.165385
927.391509	2432.356731
927.695541	2480.247692
927.999533	2545.782692
928.303486	2510.494615
928.607400	2570.988462
928.911275	2480.247692
929.215110	2500.412308
929.518906	2487.809423
929.822663	2495.371154
930.126381	2475.206538
930.430060	2535.700385
930.733699	2535.700385
931.037299	2497.891731
931.340861	2492.850577
931.644383	2477.727115
931.947866	2502.932885
932.251309	2447.480192
932.554714	2407.150962
932.858080	2550.823846
933.161407	2457.562500
933.464694	2520.576923
933.767943	2487.809423
934.071153	2558.385577
934.374323	2545.782692
934.677455	2523.097500
934.980548	2495.371154
935.283602	2528.138654
935.586617	2492.850577
935.889593	2457.562500
936.192530	2460.083077
936.495428	2432.356731
936.798287	2472.685962
937.101108	2424.795000
937.403890	2497.891731
937.706632	2495.371154
938.009336	2510.494615
938.312002	2444.959615
938.614628	2472.685962
938.917216	2462.603654
939.219765	2487.809423
939.522275	2525.618077
939.824747	2447.480192
940.127179	2490.330000
940.429573	2419.753846
940.731929	2518.056346
941.034246	2452.521346
941.336524	2482.768269
941.638763	2495.371154
941.940964	2444.959615
942.243126	2548.303269
942.545250	2414.712692
942.847335	2510.494615
943.149381	2437.397885
943.451389	2533.179808
943.753359	2462.603654
944.055290	2543.262115
944.357182	2379.424615
944.659036	2442.439038
944.960851	2545.782692
945.262628	2550.823846
945.564367	2495.371154
945.866067	2525.618077
946.167729	2520.576923
946.469352	2523.097500
946.770937	2490.330000
947.072484	2482.768269
947.373992	2467.644808
947.675462	2535.700385
947.976893	2505.453462
948.278286	2465.124231
948.579641	2490.330000
948.880958	2452.521346
949.182236	2467.644808
949.483476	2422.274423
949.784678	2477.727115
950.085841	2470.165385
950.386967	2535.700385
950.688054	2452.521346
950.989103	2515.535769
951.290114	2558.385577
951.591087	2490.330000
951.892021	2507.974038
952.192917	2490.330000
952.493776	2477.727115
952.794596	2518.056346
953.095378	2429.836154
953.396122	2452.521346
953.696828	2505.453462
953.997496	2523.097500
954.298126	2482.768269
954.598718	2450.000769
954.899272	2535.700385
955.199788	2482.768269
955.500266	2520.576923
955.800706	2565.947308
956.101108	2505.453462
956.401472	2472.685962
956.701798	2439.918462
957.002087	2530.659231
957.302337	2533.179808
957.602550	2482.768269
957.902724	2495.371154
958.202861	2465.124231
958.502960	2414.712692
958.803022	2409.671538
959.103045	2460.083077
959.403031	2477.727115
959.702979	2548.303269
960.002889	2513.015192
960.302762	2465.124231
960.602596	2515.535769
960.902393	2477.727115
961.202153	2583.591346
961.501875	2530.659231
961.801559	2568.467885
962.101205	2447.480192
962.400814	2397.068654
962.700385	2490.330000
962.999918	2485.288846
963.299414	2553.344423
963.598873	2492.850577
963.898293	2518.056346
964.197677	2444.959615
964.497022	2502.932885
964.796331	2429.836154
965.095601	2470.165385
965.394835	2482.768269
965.694030	2533.179808
965.993189	2535.700385
966.292309	2460.083077
966.591393	2414.712692
966.890439	2515.535769
967.189447	2535.700385
967.488419	2472.685962
967.787353	2510.494615
968.086249	2513.015192
968.385108	2376.904038
968.683930	2472.685962
968.982714	2409.671538
969.281462	2550.823846
969.580172	2444.959615
969.878844	2442.439038
970.177480	2475.206538
970.476078	2485.288846
970.774639	2500.412308
971.073162	2497.891731
971.371649	2520.576923
971.670098	2502.932885
971.968510	2477.727115
972.266885	2414.712692
972.565223	2563.426731
972.863524	2475.206538
973.161788	2369.342308
973.460014	2457.562500
973.758204	2502.932885
974.056356	2460.083077
974.354471	2482.768269
974.652550	2439.918462
974.950591	2513.015192
975.248595	2414.712692
975.546563	2485.288846
975.844493	2490.330000
976.142386	2490.330000
976.440243	2444.959615
976.738062	2502.932885
977.035845	2578.550192
977.333590	2475.206538
977.631299	2515.535769
977.928971	2442.439038
978.226606	2495.371154
978.524204	2487.809423
978.821765	2492.850577
979.119290	2447.480192
979.416777	2525.618077
979.714228	2442.439038
980.011642	2422.274423
980.309020	2439.918462
980.606360	2497.891731
980.903664	2533.179808
981.200931	2465.124231
981.498162	2515.535769
981.795356	2500.412308
982.092513	2402.109808
982.389633	2505.453462
982.686717	2502.932885
982.983764	2538.220962
983.280775	2505.453462
983.577749	2470.165385
983.874686	2457.562500
984.171587	2540.741538
984.468451	2583.591346
984.765279	2548.303269
985.062070	2505.453462
985.358824	2477.727115
985.655543	2515.535769
985.952224	2586.111923
986.248869	2467.644808
986.545478	2533.179808
986.842050	2462.603654
987.138586	2543.262115
987.435086	2467.644808
987.731549	2523.097500
988.027975	2465.124231
988.324366	2444.959615
988.620719	2560.906154
988.917037	2518.056346
989.213318	2606.276538
989.509563	2553.344423
989.805772	2598.714808
990.101944	2555.865000
990.398080	2518.056346
990.694180	2432.356731
990.990244	2434.877308
991.286271	2497.891731
991.582262	2462.603654
991.878217	2462.603654
992.174136	2495.371154
992.470019	2477.727115
992.765865	2487.809423
993.061676	2540.741538
993.357450	2480.247692
993.653188	2422.274423
993.948890	2502.932885
994.244556	2497.891731
994.540186	2419.753846
994.835780	2505.453462
995.131337	2525.618077
995.426859	2455.041923
995.722345	2447.480192
996.017795	2565.947308
996.313208	2477.727115
996.608586	2467.644808
996.903928	2452.521346
997.199234	2492.850577
997.494504	2437.397885
997.789738	2487.809423
998.084936	2417.233269
998.380099	2510.494615
998.675225	2434.877308
998.970316	2513.015192
999.265371	2502.932885
999.560390	2553.344423
999.855373	2450.000769
1000.150320	2462.603654
1000.445232	2545.782692
1000.740108	2439.918462
1001.034948	2535.700385
1001.329752	2510.494615
1001.624521	2545.782692
1001.919254	2422.274423
1002.213951	2495.371154
1002.508613	2538.220962
1002.803239	2455.041923
1003.097829	2497.891731
1003.392384	2450.000769
1003.686903	2492.850577
1003.981386	2598.714808
1004.275834	2422.274423
1004.570246	2523.097500
1004.864623	2439.918462
1005.158964	2505.453462
1005.453270	2563.426731
1005.747540	2444.959615
1006.041775	2450.000769
1006.335974	2586.111923
1006.630138	2518.056346
1006.924266	2450.000769
1007.218359	2447.480192
1007.512416	2450.000769
1007.806438	2482.768269
1008.100425	2523.097500
1008.394376	2500.412308
1008.688292	2452.521346
1008.982172	2576.029615
1009.276017	2520.576923
1009.569827	2404.630385
1009.863602	2480.247692
1010.157341	2530.659231
1010.451045	2497.891731
1010.744714	2475.206538
1011.038347	2477.727115
1011.331945	2389.506923
1011.625508	2480.247692
1011.919036	2437.397885
1012.212528	2492.850577
1012.505986	2573.509038
1012.799408	2450.000769
1013.092795	2465.124231
1013.386147	2437.397885
1013.679464	2414.712692
1013.972745	2490.330000
1014.265992	2434.877308
1014.559204	2442.439038
1014.852380	2518.056346
1015.145521	2497.891731
1015.438628	2500.412308
1015.731699	2457.562500
1016.024736	2581.070769
1016.317737	2492.850577
1016.610703	2548.303269
1016.903635	2475.206538
1017.196531	2482.768269
1017.489393	2510.494615
1017.782219	2439.918462
1018.075011	2492.850577
1018.367768	2507.974038
1018.660490	2576.029615
1018.953177	2576.029615
1019.245829	2576.029615
