Dividing Wavelength (nm)	Counts (n)	Blue Motor Position (mm): 0.000000	Red Motor Position (mm): 8.000000	
326.493990	2142.490385
326.888308	2142.490385
327.282561	2142.490385
327.676750	2200.463654
328.070874	2192.901923
328.464933	2155.093269
328.858929	2137.449231
329.252859	2205.504808
329.646726	2157.613846
330.040528	2215.587115
330.434265	2124.846346
330.827938	2197.943077
331.221547	2265.998654
331.615091	2213.066538
332.008571	2281.122115
332.401986	2341.615962
332.795338	2379.424615
333.188625	2381.945192
333.581847	2366.821731
333.975006	2354.218846
334.368100	2359.260000
334.761129	2394.548077
335.154095	2409.671538
335.546996	2462.603654
335.939833	2452.521346
336.332606	2429.836154
336.725315	2573.509038
337.117960	2505.453462
337.510540	2545.782692
337.903056	2505.453462
338.295508	2601.235385
338.687896	2490.330000
339.080220	2548.303269
339.472480	2578.550192
339.864676	2507.974038
340.256807	2576.029615
340.648875	2495.371154
341.040879	2543.262115
341.432818	2583.591346
341.824694	2628.961731
342.216506	2623.920577
342.608253	2563.426731
342.999937	2606.276538
343.391557	2596.194231
343.783113	2593.673654
344.174605	2515.535769
344.566033	2621.400000
344.957397	2568.467885
345.348697	2518.056346
345.739934	2570.988462
346.131106	2533.179808
346.522215	2470.165385
346.913260	2563.426731
347.304241	2593.673654
347.695159	2586.111923
348.086012	2601.235385
348.476802	2550.823846
348.867528	2606.276538
349.258191	2596.194231
349.648789	2502.932885
350.039324	2540.741538
350.429796	2576.029615
350.820203	2598.714808
351.210548	2578.550192
351.600828	2596.194231
351.991045	2550.823846
352.381198	2558.385577
352.771288	2538.220962
353.161314	2523.097500
353.551276	2623.920577
353.941175	2535.700385
354.331010	2467.644808
354.720782	2563.426731
355.110490	2470.165385
355.500135	2535.700385
355.889717	2518.056346
356.279235	2583.591346
356.668689	2565.947308
357.058080	2525.618077
357.447408	2578.550192
357.836672	2502.932885
358.225873	2525.618077
358.615010	2462.603654
359.004084	2598.714808
359.393095	2593.673654
359.782043	2601.235385
360.170927	2538.220962
360.559748	2601.235385
360.948505	2568.467885
361.337199	2576.029615
361.725830	2576.029615
362.114398	2543.262115
362.502903	2576.029615
362.891344	2502.932885
363.279722	2578.550192
363.668037	2543.262115
364.056289	2576.029615
364.444478	2502.932885
364.832603	2576.029615
365.220665	2477.727115
365.608665	2565.947308
365.996601	2593.673654
366.384474	2560.906154
366.772284	2568.467885
367.160031	2533.179808
367.547715	2563.426731
367.935336	2500.412308
368.322893	2646.605769
368.710388	2628.961731
369.097820	2515.535769
369.485189	2611.317692
369.872495	2576.029615
370.259738	2533.179808
370.646918	2492.850577
371.034035	2548.303269
371.421090	2510.494615
371.808081	2583.591346
372.195010	2601.235385
372.581875	2581.070769
372.968678	2623.920577
373.355418	2581.070769
373.742096	2535.700385
374.128710	2540.741538
374.515262	2520.576923
374.901751	2560.906154
375.288177	2505.453462
375.674540	2538.220962
376.060841	2646.605769
376.447079	2520.576923
376.833254	2550.823846
377.219367	2583.591346
377.605417	2482.768269
377.991404	2553.344423
378.377329	2465.124231
378.763191	2631.482308
379.148991	2576.029615
379.534727	2535.700385
379.920402	2555.865000
380.306013	2548.303269
380.691563	2611.317692
381.077049	2568.467885
381.462474	2507.974038
381.847835	2588.632500
382.233134	2502.932885
382.618371	2545.782692
383.003545	2538.220962
383.388657	2563.426731
383.773706	2543.262115
384.158693	2550.823846
384.543618	2563.426731
384.928480	2654.167500
385.313280	2601.235385
385.698017	2601.235385
386.082692	2616.358846
386.467305	2535.700385
386.851856	2661.729231
387.236344	2636.523462
387.620770	2530.659231
388.005133	2548.303269
388.389435	2573.509038
388.773674	2525.618077
389.157851	2634.002885
389.541965	2596.194231
389.926018	2538.220962
390.310008	2530.659231
390.693936	2613.838269
391.077802	2565.947308
391.461606	2558.385577
391.845348	2598.714808
392.229027	2560.906154
392.612645	2581.070769
392.996200	2507.974038
393.379694	2528.138654
393.763125	2639.044038
394.146494	2616.358846
394.529801	2560.906154
394.913047	2563.426731
395.296230	2639.044038
395.679351	2608.797115
396.062410	2583.591346
396.445408	2611.317692
396.828343	2591.153077
397.211217	2583.591346
397.594028	2563.426731
397.976778	2540.741538
398.359466	2565.947308
398.742092	2555.865000
399.124656	2631.482308
399.507158	2545.782692
399.889598	2581.070769
400.271977	2664.249808
400.654294	2502.932885
401.036549	2601.235385
401.418742	2598.714808
401.800874	2641.564615
402.182944	2591.153077
402.564952	2606.276538
402.946898	2560.906154
403.328783	2593.673654
403.710606	2576.029615
404.092367	2601.235385
404.474067	2669.290962
404.855705	2661.729231
405.237282	2550.823846
405.618797	2518.056346
406.000250	2586.111923
406.381642	2578.550192
406.762972	2641.564615
407.144240	2631.482308
407.525447	2598.714808
407.906593	2588.632500
408.287677	2634.002885
408.668700	2646.605769
409.049661	2570.988462
409.430560	2568.467885
409.811399	2563.426731
410.192176	2636.523462
410.572891	2568.467885
410.953545	2636.523462
411.334138	2588.632500
411.714669	2576.029615
412.095139	2588.632500
412.475547	2568.467885
412.855894	2613.838269
413.236180	2563.426731
413.616405	2598.714808
413.996568	2558.385577
414.376670	2684.414423
414.756711	2540.741538
415.136691	2530.659231
415.516609	2502.932885
415.896466	2558.385577
416.276262	2560.906154
416.655997	2495.371154
417.035670	2555.865000
417.415283	2560.906154
417.794834	2523.097500
418.174324	2631.482308
418.553753	2634.002885
418.933121	2588.632500
419.312428	2651.646923
419.691674	2586.111923
420.070859	2586.111923
420.449983	2646.605769
420.829045	2628.961731
421.208047	2550.823846
421.586988	2583.591346
421.965867	2507.974038
422.344686	2664.249808
422.723444	2578.550192
423.102141	2570.988462
423.480777	2631.482308
423.859352	2538.220962
424.237866	2581.070769
424.616319	2639.044038
424.994712	2560.906154
425.373044	2596.194231
425.751314	2608.797115
426.129524	2601.235385
426.507673	2583.591346
426.885762	2666.770385
427.263789	2583.591346
427.641756	2477.727115
428.019662	2611.317692
428.397508	2656.688077
428.775292	2603.755962
429.153016	2646.605769
429.530679	2684.414423
429.908282	2631.482308
430.285824	2588.632500
430.663305	2586.111923
431.040726	2634.002885
431.418086	2641.564615
431.795385	2646.605769
432.172624	2588.632500
432.549802	2578.550192
432.926920	2510.494615
433.303977	2591.153077
433.680974	2664.249808
434.057910	2608.797115
434.434786	2618.879423
434.811601	2631.482308
435.188355	2646.605769
435.565050	2676.852692
435.941683	2664.249808
436.318257	2644.085192
436.694770	2631.482308
437.071222	2603.755962
437.447614	2644.085192
437.823946	2671.811538
438.200218	2656.688077
438.576429	2676.852692
438.952580	2611.317692
439.328670	2626.441154
439.704700	2671.811538
440.080670	2568.467885
440.456580	2674.332115
440.832429	2722.223077
441.208218	2704.579038
441.583947	2762.552308
441.959616	2694.496731
442.335224	2691.976154
442.710773	2702.058462
443.086261	2707.099615
443.461689	2757.511154
443.837057	2787.758077
444.212365	2878.498846
444.587612	2782.716923
444.962800	2906.225192
445.337927	2870.937115
445.712995	2961.677885
446.088002	2931.430962
446.462949	3004.527692
446.837837	3085.186154
447.212664	3002.007115
447.587431	3102.830192
447.962139	3259.105962
448.336786	3498.560769
448.711374	3629.630769
449.085901	3465.793269
449.460369	3450.669808
449.834776	3574.178077
450.209124	3614.507308
450.583412	3816.153462
450.957640	3979.990962
451.331808	3871.606154
451.705917	3884.209038
452.079965	3823.715192
452.453954	4080.814038
452.827883	4146.349038
453.201752	4254.733846
453.575562	4290.021923
453.949311	4395.886154
454.323001	4579.888269
454.696632	4658.026154
455.070202	4829.425385
455.443713	4968.057115
455.817164	5121.812308
456.190556	5388.993462
456.563888	5555.351538
456.937160	5696.503846
457.310373	5678.859808
457.683526	5661.215769
458.056619	5588.119038
458.429653	6125.001923
458.802628	5837.656154
459.175542	6024.178846
459.548398	6747.584423
459.921194	6997.121538
460.293930	7312.193654
460.666607	7652.471538
461.039224	8385.959423
461.411782	8736.319615
461.784280	8796.813462
462.156719	9008.541923
462.529099	8756.484231
462.901419	8804.375192
463.273680	8748.922500
463.645882	8874.951346
464.018024	8819.498654
464.390106	9389.149038
464.762130	9971.402308
465.134094	10674.643269
465.505999	12270.168462
465.877845	14521.043654
466.249631	16166.980385
466.621358	15657.823846
466.993026	15277.216731
467.364634	14689.922308
467.736184	14256.383077
468.107674	14274.027115
468.479105	14478.193846
468.850477	14200.930385
469.221790	14518.523077
469.593043	13933.749231
469.964238	13734.623654
470.335373	13908.543462
470.706449	14485.755577
471.077467	14619.346154
471.448425	16832.412692
471.819324	20023.463077
472.190164	20570.428269
472.560945	17475.159808
472.931667	16247.638846
473.302330	16270.324038
473.672934	16106.486538
474.043479	16509.778846
474.413965	16560.190385
474.784393	16240.077115
475.154761	17026.497115
475.525070	17112.196731
475.895321	17197.896346
476.265513	17938.945962
476.635645	18528.760962
477.005719	18160.756731
477.375734	18732.927692
477.745691	19103.452500
478.115588	19781.487692
478.485427	20630.922115
478.855207	21979.430769
479.224928	24071.509615
479.594591	26009.833269
479.964194	25054.534615
480.333739	25704.843462
480.703226	25467.909231
481.072653	25067.137500
481.442022	26297.179038
481.811333	27323.053846
482.180584	26766.006346
482.549777	25856.078077
482.918912	25674.596538
483.287988	26017.395000
483.657005	25175.522308
484.025964	25142.754808
484.394864	25389.771346
484.763706	24583.186731
485.132489	24573.104423
485.501213	23970.686538
485.869879	24174.853269
486.238487	24061.427308
486.607036	24232.826538
486.975527	23864.822308
487.343959	23988.330577
487.712333	23706.025962
488.080648	23569.914808
488.448905	24164.770962
488.817104	23612.764615
489.185244	24121.921154
489.553326	24005.974615
489.921350	24991.520192
490.289315	27365.903654
490.657222	28653.918462
491.025070	28253.146731
491.392861	27761.634231
491.760593	26851.705962
492.128267	26007.312692
492.495883	24792.394615
492.863440	23627.888077
493.230939	23060.758269
493.598380	22786.015385
493.965763	22042.445192
494.333088	21616.467692
494.700354	21049.337885
495.067563	20900.623846
495.434713	20477.166923
495.801805	20577.990000
496.168839	19862.146154
496.535815	19874.749038
496.902733	19705.870385
497.269593	19252.166538
497.636395	19307.619231
498.003139	19015.232308
498.369825	18662.351538
498.736453	18639.666346
499.103023	18231.332885
499.469535	17795.273077
499.835989	18042.289615
500.202385	17442.392308
500.568723	17354.172115
500.935003	16847.536154
501.301226	16565.231538
501.667390	17006.332500
502.033497	16827.371538
502.399546	16086.321923
502.765537	15637.659231
503.131470	15844.346538
503.497345	15564.562500
503.863163	15022.638462
504.228923	15191.517115
504.594625	14634.469615
504.960269	14480.714423
505.325856	14410.138269
505.691385	13888.378846
506.056856	14016.928269
506.422270	13845.529038
506.787625	13177.576154
507.152924	12930.559615
507.518164	13164.973269
507.883347	12628.090385
508.248472	12325.621154
508.613540	12244.962692
508.978550	12030.713654
509.343503	11995.425577
509.708398	11808.902885
510.073236	11582.050962
510.438016	11476.186731
510.802738	11009.880000
511.167403	10820.836731
511.532010	10662.040385
511.896561	10755.301731
512.261053	10490.641154
512.625488	10168.007308
512.989866	9855.455769
513.354186	9631.124423
513.718449	9585.754038
514.082655	9404.272500
514.446803	9031.227115
514.810894	9187.502885
515.174927	8731.278462
515.538904	8703.552115
515.902822	8612.811346
516.266684	8184.313269
516.630488	8131.381154
516.994235	7884.364615
517.357925	7707.924231
517.721558	7571.813077
518.085133	7433.181346
518.448651	7211.370577
518.812112	7143.315000
519.175516	6888.736731
519.538863	7037.450769
519.902152	6987.039231
520.265385	6734.981538
520.628560	6470.320962
520.991678	6326.648077
521.354739	6361.936154
521.717743	6014.096538
522.080690	6064.508077
522.443580	5820.012115
522.806413	5870.423654
523.169189	5726.750769
523.531908	5487.295962
523.894569	5502.419423
524.257174	5252.882308
524.619722	5262.964615
524.982213	5046.195000
525.344647	4995.783462
525.707025	4892.439808
526.069345	4854.631154
526.431608	4738.684615
526.793815	4610.135192
527.155964	4605.094038
527.518057	4552.161923
527.880093	4458.900577
528.242072	4350.515769
528.603995	4194.240000
528.965860	4196.760577
529.327669	4181.637115
529.689421	4128.705000
530.051117	4000.155577
530.412755	3967.388077
530.774337	3901.853077
531.135862	3853.962115
531.497331	3828.756346
531.858743	3702.727500
532.220098	3748.097885
532.581396	3664.918846
532.942638	3644.754231
533.303824	3642.233654
533.664953	3533.848846
534.026025	3496.040192
534.387040	3400.258269
534.747999	3536.369423
535.108902	3392.696538
535.469748	3380.093654
535.830537	3274.229423
536.191270	3352.367308
536.551947	3259.105962
536.912567	3173.406346
537.273131	3301.955769
537.633638	3188.529808
537.994089	3158.282885
538.354483	3130.556538
538.714821	3158.282885
539.075103	3037.295192
539.435328	3039.815769
539.795497	2999.486538
540.155609	3007.048269
540.515665	2959.157308
540.875665	2913.786923
541.235609	3027.212885
541.595496	2941.513269
541.955328	3009.568846
542.315102	2901.184038
542.674821	2969.239615
543.034483	2878.498846
543.394090	2911.266346
543.753640	2850.772500
544.113134	2840.690192
544.472571	2780.196346
544.831953	2840.690192
545.191278	2800.360962
545.550548	2790.278654
545.909761	2886.060577
546.268918	2790.278654
546.628019	2830.607885
546.987064	2820.525577
547.346053	2790.278654
547.704986	2702.058462
548.063863	2770.114038
548.422684	2749.949423
548.781449	2744.908269
549.140158	2780.196346
549.498811	2737.346538
549.857408	2734.825962
550.215949	2724.743654
550.574434	2807.922692
550.932864	2770.114038
551.291237	2770.114038
551.649555	2697.017308
552.007817	2717.181923
552.366022	2749.949423
552.724173	2689.455577
553.082267	2699.537885
553.440305	2699.537885
553.798288	2714.661346
554.156215	2659.208654
554.514086	2659.208654
554.871902	2714.661346
555.229661	2689.455577
555.587365	2732.305385
555.945014	2699.537885
556.302606	2669.290962
556.660143	2656.688077
557.017625	2659.208654
557.375050	2656.688077
557.732421	2669.290962
558.089735	2714.661346
558.446994	2709.620192
558.804197	2684.414423
559.161345	2684.414423
559.518437	2608.797115
559.875474	2717.181923
560.232455	2618.879423
560.589381	2697.017308
560.946251	2636.523462
561.303065	2628.961731
561.659825	2654.167500
562.016528	2639.044038
562.373177	2649.126346
562.729770	2659.208654
563.086307	2689.455577
563.442789	2631.482308
563.799216	2684.414423
564.155587	2628.961731
564.511904	2674.332115
564.868164	2719.702500
565.224370	2666.770385
565.580520	2656.688077
565.936615	2684.414423
566.292654	2525.618077
566.648638	2684.414423
567.004567	2649.126346
567.360441	2659.208654
567.716260	2671.811538
568.072023	2684.414423
568.427732	2596.194231
568.783385	2649.126346
569.138982	2608.797115
569.494525	2611.317692
569.850013	2636.523462
570.205445	2639.044038
570.560823	2674.332115
570.916145	2699.537885
571.271412	2621.400000
571.626625	2634.002885
571.981782	2669.290962
572.336884	2626.441154
572.691931	2634.002885
573.046923	2606.276538
573.401860	2601.235385
573.756743	2674.332115
574.111570	2618.879423
574.466342	2651.646923
574.821059	2573.509038
575.175722	2626.441154
575.530330	2636.523462
575.884882	2623.920577
576.239380	2727.264231
576.593823	2681.893846
576.948211	2634.002885
577.302544	2634.002885
577.656823	2707.099615
578.011047	2608.797115
578.365216	2636.523462
578.719330	2697.017308
579.073389	2631.482308
579.427394	2618.879423
579.781344	2568.467885
580.135239	2644.085192
580.489080	2649.126346
580.842866	2697.017308
581.196597	2644.085192
581.550273	2649.126346
581.903895	2686.935000
582.257463	2618.879423
582.610975	2528.138654
582.964434	2717.181923
583.317837	2654.167500
583.671186	2588.632500
584.024481	2568.467885
584.377721	2634.002885
584.730906	2639.044038
585.084037	2621.400000
585.437113	2674.332115
585.790135	2593.673654
586.143103	2621.400000
586.496016	2649.126346
586.848874	2651.646923
587.201679	2515.535769
587.554428	2666.770385
587.907124	2616.358846
588.259765	2679.373269
588.612352	2606.276538
588.964884	2588.632500
589.317362	2588.632500
589.669786	2618.879423
590.022155	2583.591346
590.374470	2628.961731
590.726731	2628.961731
591.078937	2613.838269
591.431090	2568.467885
591.783188	2596.194231
592.135232	2669.290962
592.487222	2568.467885
592.839157	2611.317692
593.191038	2669.290962
593.542866	2664.249808
593.894639	2669.290962
594.246358	2623.920577
594.598022	2656.688077
594.949633	2563.426731
595.301190	2626.441154
595.652692	2613.838269
596.004141	2616.358846
596.355535	2598.714808
596.706876	2606.276538
597.058162	2659.208654
597.409395	2656.688077
597.760573	2634.002885
598.111698	2639.044038
598.462768	2659.208654
598.813785	2497.891731
599.164748	2608.797115
599.515657	2686.935000
599.866511	2613.838269
600.217312	2649.126346
600.568060	2603.755962
600.918753	2548.303269
601.269392	2623.920577
601.619978	2520.576923
601.970510	2543.262115
602.320988	2661.729231
602.671412	2664.249808
603.021783	2581.070769
603.372100	2712.140769
603.722363	2681.893846
604.072572	2686.935000
604.422728	2641.564615
604.772830	2676.852692
605.122878	2626.441154
605.472872	2611.317692
605.822813	2659.208654
606.172701	2616.358846
606.522534	2674.332115
606.872314	2628.961731
607.222041	2535.700385
607.571714	2593.673654
607.921333	2649.126346
608.270899	2631.482308
608.620411	2613.838269
608.969870	2593.673654
609.319276	2686.935000
609.668627	2684.414423
610.017926	2636.523462
610.367171	2636.523462
610.716362	2626.441154
611.065500	2618.879423
611.414585	2586.111923
611.763616	2694.496731
612.112594	2608.797115
612.461518	2724.743654
612.810389	2659.208654
613.159207	2639.044038
613.507971	2606.276538
613.856682	2568.467885
614.205340	2646.605769
614.553945	2578.550192
614.902496	2669.290962
615.250994	2568.467885
615.599439	2588.632500
615.947830	2644.085192
616.296169	2628.961731
616.644454	2573.509038
616.992686	2654.167500
617.340864	2649.126346
617.688990	2671.811538
618.037063	2679.373269
618.385082	2641.564615
618.733048	2666.770385
619.080961	2628.961731
619.428821	2671.811538
619.776628	2659.208654
620.124382	2712.140769
620.472083	2543.262115
620.819731	2659.208654
621.167326	2671.811538
621.514868	2608.797115
621.862357	2616.358846
622.209793	2606.276538
622.557176	2659.208654
622.904506	2606.276538
623.251783	2699.537885
623.599007	2583.591346
623.946179	2507.974038
624.293297	2613.838269
624.640363	2669.290962
624.987376	2528.138654
625.334336	2606.276538
625.681243	2603.755962
626.028097	2641.564615
626.374899	2654.167500
626.721647	2598.714808
627.068343	2618.879423
627.414987	2656.688077
627.761577	2651.646923
628.108115	2636.523462
628.454600	2608.797115
628.801032	2568.467885
629.147412	2583.591346
629.493739	2616.358846
629.840014	2613.838269
630.186236	2588.632500
630.532405	2639.044038
630.878521	2596.194231
631.224585	2613.838269
631.570597	2697.017308
631.916556	2613.838269
632.262462	2704.579038
632.608316	2618.879423
632.954117	2712.140769
633.299866	2664.249808
633.645562	2641.564615
633.991206	2631.482308
634.336797	2664.249808
634.682336	2601.235385
635.027823	2611.317692
635.373257	2702.058462
635.718639	2636.523462
636.063968	2656.688077
636.409245	2742.387692
636.754470	2651.646923
637.099642	2686.935000
637.444762	2694.496731
637.789829	2603.755962
638.134845	2626.441154
638.479808	2591.153077
638.824719	2674.332115
639.169577	2525.618077
639.514383	2591.153077
639.859137	2598.714808
640.203839	2576.029615
640.548489	2646.605769
640.893086	2649.126346
641.237632	2661.729231
641.582125	2628.961731
641.926566	2588.632500
642.270955	2618.879423
642.615292	2649.126346
642.959576	2676.852692
643.303809	2644.085192
643.647990	2623.920577
643.992118	2689.455577
644.336195	2664.249808
644.680219	2578.550192
645.024192	2565.947308
645.368112	2666.770385
645.711981	2608.797115
646.055797	2606.276538
646.399562	2679.373269
646.743274	2608.797115
647.086935	2628.961731
647.430544	2644.085192
647.774101	2639.044038
648.117606	2654.167500
648.461059	2598.714808
648.804460	2623.920577
649.147810	2626.441154
649.491108	2628.961731
649.834354	2621.400000
650.177548	2679.373269
650.520690	2576.029615
650.863781	2674.332115
651.206820	2644.085192
651.549807	2636.523462
651.892742	2608.797115
652.235626	2634.002885
652.578458	2565.947308
652.921238	2621.400000
653.263967	2598.714808
653.606644	2628.961731
653.949269	2616.358846
654.291843	2608.797115
654.634365	2636.523462
654.976836	2613.838269
655.319255	2598.714808
655.661622	2664.249808
656.003938	2644.085192
656.346203	2634.002885
656.688416	2601.235385
657.030577	2659.208654
657.372687	2545.782692
657.714746	2545.782692
658.056753	2676.852692
658.398708	2656.688077
658.740612	2644.085192
659.082465	2618.879423
659.424266	2664.249808
659.766016	2628.961731
660.107715	2628.961731
660.449362	2591.153077
660.790958	2583.591346
661.132503	2656.688077
661.473996	2613.838269
661.815438	2659.208654
662.156829	2636.523462
662.498168	2671.811538
662.839456	2649.126346
663.180693	2621.400000
663.521879	2578.550192
663.863013	2613.838269
664.204097	2646.605769
664.545129	2583.591346
664.886110	2641.564615
665.227040	2613.838269
665.567918	2535.700385
665.908746	2618.879423
666.249522	2651.646923
666.590248	2586.111923
666.930922	2681.893846
667.271545	2644.085192
667.612118	2649.126346
667.952639	2616.358846
668.293109	2593.673654
668.633528	2606.276538
668.973896	2656.688077
669.314213	2603.755962
669.654480	2578.550192
669.994695	2576.029615
670.334859	2578.550192
670.674973	2684.414423
671.015035	2661.729231
671.355047	2613.838269
671.695008	2674.332115
672.034918	2664.249808
672.374777	2576.029615
672.714585	2651.646923
673.054342	2631.482308
673.394049	2661.729231
673.733705	2636.523462
674.073310	2669.290962
674.412864	2641.564615
674.752368	2616.358846
675.091820	2616.358846
675.431223	2583.591346
675.770574	2679.373269
676.109875	2626.441154
676.449125	2659.208654
676.788324	2618.879423
677.127473	2576.029615
677.466571	2659.208654
677.805619	2573.509038
678.144616	2634.002885
678.483562	2634.002885
678.822458	2613.838269
679.161303	2659.208654
679.500098	2727.264231
679.838842	2621.400000
680.177535	2586.111923
680.516179	2616.358846
680.854771	2603.755962
681.193314	2573.509038
681.531805	2591.153077
681.870247	2578.550192
682.208638	2628.961731
682.546978	2656.688077
682.885268	2707.099615
683.223508	2606.276538
683.561697	2568.467885
683.899836	2634.002885
684.237925	2699.537885
684.575963	2659.208654
684.913951	2608.797115
685.251889	2593.673654
685.589776	2691.976154
685.927614	2634.002885
686.265401	2598.714808
686.603137	2593.673654
686.940824	2631.482308
687.278460	2626.441154
687.616046	2666.770385
687.953582	2669.290962
688.291068	2626.441154
688.628504	2611.317692
688.965889	2664.249808
689.303224	2664.249808
689.640510	2623.920577
689.977745	2634.002885
690.314930	2676.852692
690.652065	2717.181923
690.989150	2636.523462
691.326185	2621.400000
691.663170	2666.770385
692.000105	2659.208654
692.336990	2674.332115
692.673825	2603.755962
693.010610	2661.729231
693.347345	2654.167500
693.684030	2623.920577
694.020665	2686.935000
694.357251	2666.770385
694.693786	2616.358846
695.030272	2661.729231
695.366707	2681.893846
695.703093	2507.974038
696.039429	2593.673654
696.375716	2623.920577
696.711952	2601.235385
697.048139	2707.099615
697.384276	2659.208654
697.720363	2591.153077
698.056400	2702.058462
698.392388	2601.235385
698.728326	2613.838269
699.064214	2649.126346
699.400053	2636.523462
699.735842	2626.441154
700.071581	2570.988462
700.407270	2712.140769
700.742910	2598.714808
701.078501	2548.303269
701.414042	2583.591346
701.749533	2671.811538
702.084974	2601.235385
702.420366	2613.838269
702.755709	2573.509038
703.091002	2707.099615
703.426246	2646.605769
703.761440	2606.276538
704.096584	2631.482308
704.431679	2691.976154
704.766725	2613.838269
705.101721	2558.385577
705.436668	2583.591346
705.771565	2591.153077
706.106413	2535.700385
706.441212	2722.223077
706.775961	2664.249808
707.110661	2661.729231
707.445311	2560.906154
707.779913	2664.249808
708.114465	2545.782692
708.448967	2631.482308
708.783421	2666.770385
709.117825	2530.659231
709.452180	2601.235385
709.786485	2598.714808
710.120742	2606.276538
710.454949	2573.509038
710.789107	2581.070769
711.123216	2631.482308
711.457275	2603.755962
711.791286	2623.920577
712.125247	2560.906154
712.459159	2681.893846
712.793023	2596.194231
713.126837	2717.181923
713.460602	2686.935000
713.794318	2646.605769
714.127985	2626.441154
714.461602	2623.920577
714.795171	2518.056346
715.128691	2649.126346
715.462162	2583.591346
715.795584	2659.208654
716.128957	2570.988462
716.462281	2603.755962
716.795556	2568.467885
717.128782	2596.194231
717.461960	2634.002885
717.795088	2626.441154
718.128167	2671.811538
718.461198	2623.920577
718.794180	2598.714808
719.127113	2555.865000
719.459997	2588.632500
719.792833	2545.782692
720.125619	2621.400000
720.458357	2593.673654
720.791046	2543.262115
721.123686	2578.550192
721.456278	2628.961731
721.788821	2520.576923
722.121315	2686.935000
722.453761	2666.770385
722.786158	2598.714808
723.118506	2639.044038
723.450805	2611.317692
723.783056	2639.044038
724.115259	2699.537885
724.447412	2563.426731
724.779518	2669.290962
725.111574	2565.947308
725.443582	2593.673654
725.775542	2548.303269
726.107453	2636.523462
726.439315	2704.579038
726.771129	2573.509038
727.102895	2586.111923
727.434612	2613.838269
727.766281	2644.085192
728.097901	2631.482308
728.429473	2591.153077
728.760996	2623.920577
729.092471	2596.194231
729.423897	2626.441154
729.755276	2656.688077
730.086606	2722.223077
730.417887	2676.852692
730.749120	2603.755962
731.080305	2618.879423
731.411442	2568.467885
731.742530	2616.358846
732.073570	2649.126346
732.404562	2616.358846
732.735506	2598.714808
733.066401	2689.455577
733.397249	2568.467885
733.728048	2578.550192
734.058798	2644.085192
734.389501	2598.714808
734.720156	2608.797115
735.050762	2639.044038
735.381320	2664.249808
735.711831	2646.605769
736.042293	2558.385577
736.372707	2613.838269
736.703073	2583.591346
737.033391	2570.988462
737.363661	2583.591346
737.693883	2608.797115
738.024056	2581.070769
738.354182	2601.235385
738.684260	2676.852692
739.014290	2641.564615
739.344272	2649.126346
739.674207	2515.535769
740.004093	2656.688077
740.333931	2669.290962
740.663722	2646.605769
740.993464	2639.044038
741.323159	2634.002885
741.652806	2628.961731
741.982405	2709.620192
742.311956	2664.249808
742.641460	2623.920577
742.970915	2596.194231
743.300323	2568.467885
743.629683	2659.208654
743.958996	2661.729231
744.288260	2631.482308
744.617477	2588.632500
744.946647	2513.015192
745.275768	2608.797115
745.604842	2565.947308
745.933869	2576.029615
746.262847	2618.879423
746.591778	2631.482308
746.920662	2588.632500
747.249498	2593.673654
747.578286	2649.126346
747.907027	2649.126346
748.235720	2606.276538
748.564365	2543.262115
748.892963	2636.523462
749.221514	2639.044038
749.550017	2628.961731
749.878473	2613.838269
750.206881	2616.358846
750.535242	2654.167500
750.863555	2634.002885
751.191821	2603.755962
751.520039	2631.482308
751.848210	2628.961731
752.176334	2697.017308
752.504411	2591.153077
752.832440	2616.358846
753.160421	2641.564615
753.488356	2598.714808
753.816243	2623.920577
754.144082	2646.605769
754.471875	2634.002885
754.799620	2661.729231
755.127318	2628.961731
755.454969	2611.317692
755.782572	2644.085192
756.110129	2656.688077
756.437638	2656.688077
756.765100	2644.085192
757.092515	2581.070769
757.419882	2626.441154
757.747203	2603.755962
758.074477	2618.879423
758.401703	2601.235385
758.728882	2626.441154
759.056014	2573.509038
759.383099	2530.659231
759.710138	2639.044038
760.037129	2565.947308
760.364073	2553.344423
760.690970	2641.564615
761.017820	2520.576923
761.344623	2694.496731
761.671379	2603.755962
761.998088	2646.605769
762.324751	2636.523462
762.651366	2697.017308
762.977935	2656.688077
763.304456	2586.111923
763.630931	2684.414423
763.957359	2598.714808
764.283740	2644.085192
764.610074	2639.044038
764.936362	2578.550192
765.262602	2550.823846
765.588796	2674.332115
765.914943	2641.564615
766.241044	2664.249808
766.567097	2659.208654
766.893104	2626.441154
767.219064	2530.659231
767.544978	2626.441154
767.870845	2621.400000
768.196665	2603.755962
768.522438	2568.467885
768.848165	2656.688077
769.173846	2644.085192
769.499479	2591.153077
769.825066	2591.153077
770.150607	2628.961731
770.476101	2639.044038
770.801548	2581.070769
771.126949	2505.453462
771.452303	2560.906154
771.777611	2634.002885
772.102872	2588.632500
772.428087	2616.358846
772.753256	2623.920577
773.078378	2641.564615
773.403453	2616.358846
773.728482	2684.414423
774.053465	2613.838269
774.378401	2707.099615
774.703291	2515.535769
775.028135	2583.591346
775.352932	2606.276538
775.677683	2576.029615
776.002388	2613.838269
776.327046	2578.550192
776.651658	2601.235385
776.976224	2623.920577
777.300743	2664.249808
777.625216	2550.823846
777.949643	2558.385577
778.274024	2666.770385
778.598359	2490.330000
778.922647	2707.099615
779.246889	2656.688077
779.571086	2613.838269
779.895236	2659.208654
780.219339	2621.400000
780.543397	2578.550192
780.867409	2639.044038
781.191374	2666.770385
781.515294	2608.797115
781.839167	2621.400000
782.162995	2588.632500
782.486776	2649.126346
782.810511	2618.879423
783.134201	2578.550192
783.457844	2686.935000
783.781441	2613.838269
784.104993	2548.303269
784.428498	2583.591346
784.751958	2558.385577
785.075372	2583.591346
785.398739	2671.811538
785.722061	2639.044038
786.045337	2616.358846
786.368568	2608.797115
786.691752	2626.441154
787.014891	2576.029615
787.337983	2613.838269
787.661030	2583.591346
787.984031	2568.467885
788.306987	2644.085192
788.629897	2669.290962
788.952760	2651.646923
789.275579	2656.688077
789.598351	2659.208654
789.921078	2510.494615
790.243759	2639.044038
790.566395	2596.194231
790.888984	2684.414423
791.211529	2578.550192
791.534027	2591.153077
791.856480	2623.920577
792.178888	2583.591346
792.501249	2555.865000
792.823566	2628.961731
793.145836	2621.400000
793.468062	2651.646923
793.790241	2535.700385
794.112375	2568.467885
794.434464	2492.850577
794.756507	2631.482308
795.078505	2576.029615
795.400457	2598.714808
795.722364	2634.002885
796.044226	2591.153077
796.366042	2671.811538
796.687812	2649.126346
797.009538	2628.961731
797.331218	2606.276538
797.652852	2475.206538
797.974442	2606.276538
798.295986	2649.126346
798.617484	2634.002885
798.938938	2628.961731
799.260346	2603.755962
799.581709	2664.249808
799.903026	2533.179808
800.224299	2676.852692
800.545526	2634.002885
800.866708	2666.770385
801.187845	2601.235385
801.508936	2576.029615
801.829983	2563.426731
802.150984	2636.523462
802.471940	2553.344423
802.792851	2616.358846
803.113717	2613.838269
803.434538	2570.988462
803.755314	2623.920577
804.076045	2591.153077
804.396731	2654.167500
804.717372	2586.111923
805.037967	2616.358846
805.358518	2565.947308
805.679024	2611.317692
805.999485	2515.535769
806.319901	2613.838269
806.640272	2578.550192
806.960598	2613.838269
807.280879	2570.988462
807.601115	2558.385577
807.921306	2631.482308
808.241453	2694.496731
808.561554	2611.317692
808.881611	2671.811538
809.201623	2603.755962
809.521590	2641.564615
809.841513	2631.482308
810.161390	2591.153077
810.481223	2596.194231
810.801011	2560.906154
811.120755	2616.358846
811.440453	2545.782692
811.760107	2581.070769
812.079716	2563.426731
812.399281	2601.235385
812.718801	2644.085192
813.038276	2639.044038
813.357707	2611.317692
813.677093	2570.988462
813.996434	2601.235385
814.315731	2586.111923
814.634983	2699.537885
814.954191	2626.441154
815.273354	2606.276538
815.592473	2661.729231
815.911547	2618.879423
816.230577	2628.961731
816.549562	2608.797115
816.868502	2518.056346
817.187399	2596.194231
817.506250	2583.591346
817.825058	2598.714808
818.143821	2613.838269
818.462539	2639.044038
818.781213	2628.961731
819.099843	2641.564615
819.418429	2664.249808
819.736970	2545.782692
820.055466	2694.496731
820.373919	2628.961731
820.692327	2686.935000
821.010691	2540.741538
821.329011	2644.085192
821.647286	2621.400000
821.965517	2724.743654
822.283704	2729.784808
822.601847	2681.893846
822.919945	2686.935000
823.237999	2676.852692
823.556010	2671.811538
823.873976	2669.290962
824.191897	2626.441154
824.509775	2664.249808
824.827609	2598.714808
825.145398	2661.729231
825.463144	2644.085192
825.780845	2679.373269
826.098502	2535.700385
826.416116	2593.673654
826.733685	2697.017308
827.051210	2707.099615
827.368692	2573.509038
827.686129	2588.632500
828.003522	2555.865000
828.320872	2634.002885
828.638177	2674.332115
828.955439	2606.276538
829.272656	2634.002885
829.589830	2608.797115
829.906960	2601.235385
830.224046	2565.947308
830.541088	2649.126346
830.858086	2576.029615
831.175041	2618.879423
831.491952	2606.276538
831.808819	2538.220962
832.125642	2623.920577
832.442421	2598.714808
832.759157	2639.044038
833.075849	2593.673654
833.392497	2588.632500
833.709101	2606.276538
834.025662	2618.879423
834.342179	2649.126346
834.658653	2565.947308
834.975083	2568.467885
835.291469	2608.797115
835.607811	2523.097500
835.924110	2568.467885
836.240366	2618.879423
836.556578	2664.249808
836.872746	2563.426731
837.188871	2530.659231
837.504952	2588.632500
837.820990	2583.591346
838.136984	2515.535769
838.452935	2626.441154
838.768842	2646.605769
839.084706	2603.755962
839.400526	2596.194231
839.716303	2689.455577
840.032037	2608.797115
840.347727	2659.208654
840.663373	2656.688077
840.978977	2684.414423
841.294537	2689.455577
841.610054	2659.208654
841.925527	2598.714808
842.240957	2467.644808
842.556344	2631.482308
842.871687	2608.797115
843.186987	2639.044038
843.502244	2628.961731
843.817458	2603.755962
844.132629	2641.564615
844.447756	2664.249808
844.762840	2588.632500
845.077881	2573.509038
845.392879	2636.523462
845.707833	2540.741538
846.022745	2591.153077
846.337613	2618.879423
846.652438	2606.276538
846.967221	2664.249808
847.281960	2616.358846
847.596656	2576.029615
847.911309	2583.591346
848.225919	2719.702500
848.540485	2656.688077
848.855009	2543.262115
849.169490	2679.373269
849.483928	2591.153077
849.798323	2528.138654
850.112675	2639.044038
850.426984	2621.400000
850.741251	2523.097500
851.055474	2581.070769
851.369654	2654.167500
851.683792	2623.920577
851.997887	2545.782692
852.311938	2631.482308
852.625947	2591.153077
852.939914	2565.947308
853.253837	2525.618077
853.567718	2603.755962
853.881555	2656.688077
854.195350	2646.605769
854.509103	2608.797115
854.822812	2487.809423
855.136479	2626.441154
855.450103	2578.550192
855.763685	2538.220962
856.077224	2548.303269
856.390720	2613.838269
856.704173	2603.755962
857.017584	2588.632500
857.330953	2497.891731
857.644278	2664.249808
857.957561	2631.482308
858.270802	2565.947308
858.584000	2618.879423
858.897155	2583.591346
859.210268	2576.029615
859.523339	2596.194231
859.836367	2598.714808
860.149352	2563.426731
860.462295	2656.688077
860.775195	2598.714808
861.088054	2628.961731
861.400869	2613.838269
861.713642	2586.111923
862.026373	2608.797115
862.339062	2497.891731
862.651708	2568.467885
862.964312	2666.770385
863.276873	2634.002885
863.589392	2553.344423
863.901869	2628.961731
864.214303	2634.002885
864.526696	2558.385577
864.839045	2540.741538
865.151353	2576.029615
865.463619	2583.591346
865.775842	2545.782692
866.088023	2538.220962
866.400162	2606.276538
866.712258	2553.344423
867.024313	2651.646923
867.336325	2618.879423
867.648296	2578.550192
867.960224	2513.015192
868.272110	2621.400000
868.583954	2656.688077
868.895755	2618.879423
869.207515	2664.249808
869.519233	2666.770385
869.830909	2586.111923
870.142542	2603.755962
870.454134	2513.015192
870.765684	2616.358846
871.077191	2538.220962
871.388657	2573.509038
871.700081	2581.070769
872.011463	2661.729231
872.322803	2634.002885
872.634101	2502.932885
872.945357	2535.700385
873.256571	2520.576923
873.567744	2611.317692
873.878874	2550.823846
874.189963	2555.865000
874.501010	2563.426731
874.812015	2505.453462
875.122979	2651.646923
875.433900	2565.947308
875.744780	2623.920577
876.055618	2596.194231
876.366415	2598.714808
876.677169	2606.276538
876.987882	2568.467885
877.298554	2510.494615
877.609183	2689.455577
877.919771	2634.002885
878.230317	2578.550192
878.540822	2613.838269
878.851285	2601.235385
879.161707	2558.385577
879.472087	2606.276538
879.782425	2563.426731
880.092722	2545.782692
880.402977	2646.605769
880.713191	2563.426731
881.023363	2603.755962
881.333494	2636.523462
881.643583	2694.496731
881.953631	2674.332115
882.263637	2611.317692
882.573602	2681.893846
882.883526	2623.920577
883.193408	2596.194231
883.503248	2681.893846
883.813048	2666.770385
884.122806	2601.235385
884.432522	2666.770385
884.742197	2644.085192
885.051831	2601.235385
885.361424	2593.673654
885.670975	2686.935000
885.980485	2608.797115
886.289954	2611.317692
886.599382	2515.535769
886.908768	2636.523462
887.218113	2538.220962
887.527417	2689.455577
887.836680	2691.976154
888.145901	2588.632500
888.455082	2568.467885
888.764221	2669.290962
889.073319	2613.838269
889.382376	2586.111923
889.691392	2608.797115
890.000366	2583.591346
890.309300	2588.632500
890.618193	2570.988462
890.927044	2603.755962
891.235855	2583.591346
891.544625	2611.317692
891.853353	2528.138654
892.162041	2641.564615
892.470687	2591.153077
892.779293	2621.400000
893.087858	2616.358846
893.396381	2628.961731
893.704864	2636.523462
894.013306	2581.070769
894.321707	2586.111923
894.630068	2613.838269
894.938387	2628.961731
895.246665	2598.714808
895.554903	2641.564615
895.863100	2593.673654
896.171256	2656.688077
896.479371	2598.714808
896.787446	2618.879423
897.095480	2676.852692
897.403473	2550.823846
897.711425	2628.961731
898.019336	2603.755962
898.327207	2538.220962
898.635038	2613.838269
898.942827	2606.276538
899.250576	2598.714808
899.558284	2641.564615
899.865952	2563.426731
900.173579	2611.317692
900.481165	2613.838269
900.788711	2593.673654
901.096216	2596.194231
901.403681	2611.317692
901.711105	2570.988462
902.018489	2666.770385
902.325832	2535.700385
902.633135	2583.591346
902.940397	2525.618077
903.247619	2601.235385
903.554800	2644.085192
903.861941	2578.550192
904.169041	2601.235385
904.476101	2568.467885
904.783121	2732.305385
905.090100	2661.729231
905.397039	2634.002885
905.703938	2651.646923
906.010796	2518.056346
906.317614	2596.194231
906.624391	2591.153077
906.931129	2631.482308
907.237826	2555.865000
907.544483	2497.891731
907.851099	2533.179808
908.157675	2626.441154
908.464211	2636.523462
908.770707	2659.208654
909.077163	2613.838269
909.383578	2626.441154
909.689954	2578.550192
909.996289	2543.262115
910.302584	2608.797115
910.608839	2545.782692
910.915054	2618.879423
911.221229	2583.591346
911.527363	2641.564615
911.833458	2649.126346
912.139513	2583.591346
912.445527	2598.714808
912.751502	2581.070769
913.057436	2611.317692
913.363331	2578.550192
913.669186	2611.317692
913.975000	2598.714808
914.280775	2661.729231
914.586510	2606.276538
914.892205	2558.385577
915.197859	2596.194231
915.503475	2603.755962
915.809050	2560.906154
916.114585	2568.467885
916.420081	2628.961731
916.725536	2669.290962
917.030952	2636.523462
917.336328	2646.605769
917.641665	2644.085192
917.946961	2644.085192
918.252218	2583.591346
918.557435	2588.632500
918.862612	2588.632500
919.167750	2530.659231
919.472848	2621.400000
919.777906	2666.770385
920.082925	2639.044038
920.387904	2618.879423
920.692843	2621.400000
920.997743	2621.400000
921.302603	2644.085192
921.607423	2659.208654
921.912204	2623.920577
922.216946	2581.070769
922.521647	2581.070769
922.826310	2596.194231
923.130932	2664.249808
923.435516	2601.235385
923.740059	2576.029615
924.044564	2586.111923
924.349028	2593.673654
924.653454	2661.729231
924.957840	2540.741538
925.262186	2654.167500
925.566493	2613.838269
925.870761	2636.523462
926.174989	2560.906154
926.479178	2555.865000
926.783328	2570.988462
927.087438	2671.811538
927.391509	2644.085192
927.695541	2581.070769
927.999533	2583.591346
928.303486	2611.317692
928.607400	2636.523462
928.911275	2656.688077
929.215110	2631.482308
929.518906	2560.906154
929.822663	2555.865000
930.126381	2598.714808
930.430060	2548.303269
930.733699	2661.729231
931.037299	2596.194231
931.340861	2613.838269
931.644383	2603.755962
931.947866	2649.126346
932.251309	2646.605769
932.554714	2593.673654
932.858080	2616.358846
933.161407	2530.659231
933.464694	2634.002885
933.767943	2598.714808
934.071153	2581.070769
934.374323	2457.562500
934.677455	2565.947308
934.980548	2616.358846
935.283602	2583.591346
935.586617	2601.235385
935.889593	2639.044038
936.192530	2613.838269
936.495428	2639.044038
936.798287	2540.741538
937.101108	2631.482308
937.403890	2482.768269
937.706632	2606.276538
938.009336	2533.179808
938.312002	2636.523462
938.614628	2596.194231
938.917216	2570.988462
939.219765	2659.208654
939.522275	2525.618077
939.824747	2593.673654
940.127179	2639.044038
940.429573	2616.358846
940.731929	2618.879423
941.034246	2603.755962
941.336524	2565.947308
941.638763	2583.591346
941.940964	2583.591346
942.243126	2533.179808
942.545250	2586.111923
942.847335	2568.467885
943.149381	2611.317692
943.451389	2591.153077
943.753359	2576.029615
944.055290	2502.932885
944.357182	2613.838269
944.659036	2586.111923
944.960851	2570.988462
945.262628	2588.632500
945.564367	2626.441154
945.866067	2565.947308
946.167729	2598.714808
946.469352	2596.194231
946.770937	2649.126346
947.072484	2598.714808
947.373992	2603.755962
947.675462	2553.344423
947.976893	2568.467885
948.278286	2603.755962
948.579641	2618.879423
948.880958	2570.988462
949.182236	2601.235385
949.483476	2603.755962
949.784678	2626.441154
950.085841	2634.002885
950.386967	2576.029615
950.688054	2565.947308
950.989103	2596.194231
951.290114	2538.220962
951.591087	2606.276538
951.892021	2644.085192
952.192917	2659.208654
952.493776	2583.591346
952.794596	2598.714808
953.095378	2598.714808
953.396122	2586.111923
953.696828	2608.797115
953.997496	2601.235385
954.298126	2563.426731
954.598718	2568.467885
954.899272	2568.467885
955.199788	2603.755962
955.500266	2641.564615
955.800706	2676.852692
956.101108	2573.509038
956.401472	2664.249808
956.701798	2606.276538
957.002087	2560.906154
957.302337	2649.126346
957.602550	2530.659231
957.902724	2616.358846
958.202861	2618.879423
958.502960	2661.729231
958.803022	2548.303269
959.103045	2591.153077
959.403031	2613.838269
959.702979	2608.797115
960.002889	2621.400000
960.302762	2608.797115
960.602596	2601.235385
960.902393	2570.988462
961.202153	2568.467885
961.501875	2470.165385
961.801559	2507.974038
962.101205	2591.153077
962.400814	2495.371154
962.700385	2618.879423
962.999918	2676.852692
963.299414	2618.879423
963.598873	2636.523462
963.898293	2573.509038
964.197677	2644.085192
964.497022	2593.673654
964.796331	2639.044038
965.095601	2659.208654
965.394835	2596.194231
965.694030	2550.823846
965.993189	2666.770385
966.292309	2598.714808
966.591393	2608.797115
966.890439	2523.097500
967.189447	2530.659231
967.488419	2639.044038
967.787353	2598.714808
968.086249	2588.632500
968.385108	2611.317692
968.683930	2621.400000
968.982714	2634.002885
969.281462	2588.632500
969.580172	2563.426731
969.878844	2565.947308
970.177480	2656.688077
970.476078	2671.811538
970.774639	2583.591346
971.073162	2591.153077
971.371649	2603.755962
971.670098	2613.838269
971.968510	2591.153077
972.266885	2621.400000
972.565223	2485.288846
972.863524	2646.605769
973.161788	2611.317692
973.460014	2520.576923
973.758204	2601.235385
974.056356	2588.632500
974.354471	2634.002885
974.652550	2550.823846
974.950591	2581.070769
975.248595	2641.564615
975.546563	2654.167500
975.844493	2671.811538
976.142386	2586.111923
976.440243	2631.482308
976.738062	2596.194231
977.035845	2616.358846
977.333590	2601.235385
977.631299	2533.179808
977.928971	2636.523462
978.226606	2568.467885
978.524204	2639.044038
978.821765	2565.947308
979.119290	2550.823846
979.416777	2644.085192
979.714228	2618.879423
980.011642	2603.755962
980.309020	2523.097500
980.606360	2550.823846
980.903664	2646.605769
981.200931	2618.879423
981.498162	2510.494615
981.795356	2606.276538
982.092513	2626.441154
982.389633	2598.714808
982.686717	2593.673654
982.983764	2656.688077
983.280775	2664.249808
983.577749	2588.632500
983.874686	2628.961731
984.171587	2621.400000
984.468451	2649.126346
984.765279	2621.400000
985.062070	2583.591346
985.358824	2528.138654
985.655543	2520.576923
985.952224	2583.591346
986.248869	2666.770385
986.545478	2686.935000
986.842050	2639.044038
987.138586	2550.823846
987.435086	2712.140769
987.731549	2553.344423
988.027975	2548.303269
988.324366	2618.879423
988.620719	2596.194231
988.917037	2560.906154
989.213318	2581.070769
989.509563	2548.303269
989.805772	2573.509038
990.101944	2543.262115
990.398080	2626.441154
990.694180	2555.865000
990.990244	2628.961731
991.286271	2641.564615
991.582262	2636.523462
991.878217	2568.467885
992.174136	2649.126346
992.470019	2507.974038
992.765865	2646.605769
993.061676	2563.426731
993.357450	2593.673654
993.653188	2553.344423
993.948890	2603.755962
994.244556	2502.932885
994.540186	2581.070769
994.835780	2581.070769
995.131337	2560.906154
995.426859	2651.646923
995.722345	2671.811538
996.017795	2535.700385
996.313208	2535.700385
996.608586	2646.605769
996.903928	2656.688077
997.199234	2591.153077
997.494504	2502.932885
997.789738	2543.262115
998.084936	2578.550192
998.380099	2598.714808
998.675225	2611.317692
998.970316	2616.358846
999.265371	2525.618077
999.560390	2533.179808
999.855373	2603.755962
1000.150320	2611.317692
1000.445232	2598.714808
1000.740108	2628.961731
1001.034948	2666.770385
1001.329752	2555.865000
1001.624521	2626.441154
1001.919254	2618.879423
1002.213951	2608.797115
1002.508613	2563.426731
1002.803239	2603.755962
1003.097829	2502.932885
1003.392384	2649.126346
1003.686903	2613.838269
1003.981386	2570.988462
1004.275834	2560.906154
1004.570246	2530.659231
1004.864623	2593.673654
1005.158964	2565.947308
1005.453270	2626.441154
1005.747540	2495.371154
1006.041775	2535.700385
1006.335974	2611.317692
1006.630138	2573.509038
1006.924266	2603.755962
1007.218359	2543.262115
1007.512416	2543.262115
1007.806438	2626.441154
1008.100425	2555.865000
1008.394376	2586.111923
1008.688292	2596.194231
1008.982172	2480.247692
1009.276017	2603.755962
1009.569827	2502.932885
1009.863602	2553.344423
1010.157341	2578.550192
1010.451045	2646.605769
1010.744714	2581.070769
1011.038347	2616.358846
1011.331945	2666.770385
1011.625508	2613.838269
1011.919036	2613.838269
1012.212528	2651.646923
1012.505986	2598.714808
1012.799408	2583.591346
1013.092795	2611.317692
1013.386147	2671.811538
1013.679464	2616.358846
1013.972745	2598.714808
1014.265992	2560.906154
1014.559204	2591.153077
1014.852380	2581.070769
1015.145521	2709.620192
1015.438628	2603.755962
1015.731699	2601.235385
1016.024736	2691.976154
1016.317737	2576.029615
1016.610703	2523.097500
1016.903635	2631.482308
1017.196531	2686.935000
1017.489393	2646.605769
1017.782219	2588.632500
1018.075011	2606.276538
1018.367768	2560.906154
1018.660490	2654.167500
1018.953177	2654.167500
1019.245829	2654.167500
