Dividing Wavelength (nm)	Counts (n)	Blue Motor Position (mm): 0.000000	Red Motor Position (mm): 0.700000	
326.493990	2079.475962
326.888308	2079.475962
327.282561	2079.475962
327.676750	2069.393654
328.070874	2119.805192
328.464933	2006.379231
328.858929	2084.517115
329.252859	2087.037692
329.646726	2071.914231
330.040528	2122.325769
330.434265	2107.202308
330.827938	2265.998654
331.221547	2117.284615
331.615091	2079.475962
332.008571	2175.257885
332.401986	2208.025385
332.795338	2185.340192
333.188625	2288.683846
333.581847	2283.642692
333.975006	2245.834038
334.368100	2253.395769
334.761129	2371.862885
335.154095	2334.054231
335.546996	2346.657115
335.939833	2361.780577
336.332606	2386.986346
336.725315	2379.424615
337.117960	2356.739423
337.510540	2492.850577
337.903056	2414.712692
338.295508	2422.274423
338.687896	2515.535769
339.080220	2467.644808
339.472480	2525.618077
339.864676	2392.027500
340.256807	2424.795000
340.648875	2497.891731
341.040879	2457.562500
341.432818	2472.685962
341.824694	2500.412308
342.216506	2553.344423
342.608253	2487.809423
342.999937	2482.768269
343.391557	2490.330000
343.783113	2495.371154
344.174605	2535.700385
344.566033	2497.891731
344.957397	2545.782692
345.348697	2520.576923
345.739934	2513.015192
346.131106	2462.603654
346.522215	2452.521346
346.913260	2513.015192
347.304241	2490.330000
347.695159	2485.288846
348.086012	2510.494615
348.476802	2460.083077
348.867528	2505.453462
349.258191	2455.041923
349.648789	2422.274423
350.039324	2510.494615
350.429796	2409.671538
350.820203	2543.262115
351.210548	2472.685962
351.600828	2465.124231
351.991045	2434.877308
352.381198	2424.795000
352.771288	2419.753846
353.161314	2409.671538
353.551276	2366.821731
353.941175	2482.768269
354.331010	2513.015192
354.720782	2389.506923
355.110490	2475.206538
355.500135	2417.233269
355.889717	2434.877308
356.279235	2399.589231
356.668689	2424.795000
357.058080	2467.644808
357.447408	2407.150962
357.836672	2462.603654
358.225873	2434.877308
358.615010	2452.521346
359.004084	2361.780577
359.393095	2487.809423
359.782043	2525.618077
360.170927	2392.027500
360.559748	2510.494615
360.948505	2419.753846
361.337199	2412.192115
361.725830	2402.109808
362.114398	2535.700385
362.502903	2384.465769
362.891344	2434.877308
363.279722	2480.247692
363.668037	2500.412308
364.056289	2432.356731
364.444478	2543.262115
364.832603	2502.932885
365.220665	2404.630385
365.608665	2434.877308
365.996601	2379.424615
366.384474	2349.177692
366.772284	2384.465769
367.160031	2482.768269
367.547715	2467.644808
367.935336	2495.371154
368.322893	2470.165385
368.710388	2467.644808
369.097820	2480.247692
369.485189	2502.932885
369.872495	2487.809423
370.259738	2444.959615
370.646918	2462.603654
371.034035	2560.906154
371.421090	2409.671538
371.808081	2462.603654
372.195010	2462.603654
372.581875	2470.165385
372.968678	2414.712692
373.355418	2364.301154
373.742096	2500.412308
374.128710	2399.589231
374.515262	2444.959615
374.901751	2472.685962
375.288177	2467.644808
375.674540	2465.124231
376.060841	2510.494615
376.447079	2437.397885
376.833254	2465.124231
377.219367	2417.233269
377.605417	2402.109808
377.991404	2444.959615
378.377329	2457.562500
378.763191	2452.521346
379.148991	2518.056346
379.534727	2500.412308
379.920402	2432.356731
380.306013	2417.233269
380.691563	2404.630385
381.077049	2497.891731
381.462474	2460.083077
381.847835	2419.753846
382.233134	2437.397885
382.618371	2533.179808
383.003545	2477.727115
383.388657	2424.795000
383.773706	2500.412308
384.158693	2477.727115
384.543618	2465.124231
384.928480	2538.220962
385.313280	2397.068654
385.698017	2540.741538
386.082692	2492.850577
386.467305	2397.068654
386.851856	2477.727115
387.236344	2528.138654
387.620770	2495.371154
388.005133	2480.247692
388.389435	2457.562500
388.773674	2507.974038
389.157851	2472.685962
389.541965	2472.685962
389.926018	2429.836154
390.310008	2472.685962
390.693936	2417.233269
391.077802	2495.371154
391.461606	2470.165385
391.845348	2485.288846
392.229027	2455.041923
392.612645	2507.974038
392.996200	2477.727115
393.379694	2520.576923
393.763125	2447.480192
394.146494	2513.015192
394.529801	2472.685962
394.913047	2507.974038
395.296230	2460.083077
395.679351	2472.685962
396.062410	2515.535769
396.445408	2470.165385
396.828343	2427.315577
397.211217	2424.795000
397.594028	2414.712692
397.976778	2442.439038
398.359466	2460.083077
398.742092	2427.315577
399.124656	2412.192115
399.507158	2472.685962
399.889598	2515.535769
400.271977	2515.535769
400.654294	2558.385577
401.036549	2490.330000
401.418742	2414.712692
401.800874	2523.097500
402.182944	2518.056346
402.564952	2432.356731
402.946898	2384.465769
403.328783	2528.138654
403.710606	2384.465769
404.092367	2447.480192
404.474067	2535.700385
404.855705	2417.233269
405.237282	2462.603654
405.618797	2558.385577
406.000250	2523.097500
406.381642	2523.097500
406.762972	2442.439038
407.144240	2424.795000
407.525447	2427.315577
407.906593	2414.712692
408.287677	2414.712692
408.668700	2399.589231
409.049661	2422.274423
409.430560	2432.356731
409.811399	2437.397885
410.192176	2462.603654
410.572891	2480.247692
410.953545	2470.165385
411.334138	2470.165385
411.714669	2548.303269
412.095139	2500.412308
412.475547	2485.288846
412.855894	2515.535769
413.236180	2565.947308
413.616405	2402.109808
413.996568	2545.782692
414.376670	2422.274423
414.756711	2487.809423
415.136691	2543.262115
415.516609	2480.247692
415.896466	2543.262115
416.276262	2470.165385
416.655997	2487.809423
417.035670	2510.494615
417.415283	2429.836154
417.794834	2500.412308
418.174324	2470.165385
418.553753	2447.480192
418.933121	2424.795000
419.312428	2500.412308
419.691674	2374.383462
420.070859	2389.506923
420.449983	2507.974038
420.829045	2523.097500
421.208047	2485.288846
421.586988	2492.850577
421.965867	2460.083077
422.344686	2477.727115
422.723444	2460.083077
423.102141	2523.097500
423.480777	2540.741538
423.859352	2384.465769
424.237866	2533.179808
424.616319	2455.041923
424.994712	2570.988462
425.373044	2455.041923
425.751314	2397.068654
426.129524	2450.000769
426.507673	2457.562500
426.885762	2460.083077
427.263789	2502.932885
427.641756	2417.233269
428.019662	2404.630385
428.397508	2472.685962
428.775292	2470.165385
429.153016	2450.000769
429.530679	2502.932885
429.908282	2392.027500
430.285824	2485.288846
430.663305	2444.959615
431.040726	2414.712692
431.418086	2485.288846
431.795385	2460.083077
432.172624	2513.015192
432.549802	2407.150962
432.926920	2533.179808
433.303977	2502.932885
433.680974	2550.823846
434.057910	2525.618077
434.434786	2417.233269
434.811601	2485.288846
435.188355	2470.165385
435.565050	2455.041923
435.941683	2447.480192
436.318257	2533.179808
436.694770	2437.397885
437.071222	2581.070769
437.447614	2402.109808
437.823946	2497.891731
438.200218	2455.041923
438.576429	2462.603654
438.952580	2450.000769
439.328670	2520.576923
439.704700	2497.891731
440.080670	2573.509038
440.456580	2510.494615
440.832429	2485.288846
441.208218	2485.288846
441.583947	2518.056346
441.959616	2490.330000
442.335224	2500.412308
442.710773	2502.932885
443.086261	2553.344423
443.461689	2422.274423
443.837057	2555.865000
444.212365	2444.959615
444.587612	2525.618077
444.962800	2505.453462
445.337927	2560.906154
445.712995	2528.138654
446.088002	2497.891731
446.462949	2502.932885
446.837837	2538.220962
447.212664	2510.494615
447.587431	2432.356731
447.962139	2472.685962
448.336786	2404.630385
448.711374	2427.315577
449.085901	2505.453462
449.460369	2500.412308
449.834776	2500.412308
450.209124	2452.521346
450.583412	2502.932885
450.957640	2402.109808
451.331808	2465.124231
451.705917	2465.124231
452.079965	2439.918462
452.453954	2460.083077
452.827883	2470.165385
453.201752	2447.480192
453.575562	2482.768269
453.949311	2434.877308
454.323001	2455.041923
454.696632	2414.712692
455.070202	2548.303269
455.443713	2409.671538
455.817164	2437.397885
456.190556	2402.109808
456.563888	2502.932885
456.937160	2502.932885
457.310373	2540.741538
457.683526	2543.262115
458.056619	2510.494615
458.429653	2480.247692
458.802628	2525.618077
459.175542	2505.453462
459.548398	2510.494615
459.921194	2510.494615
460.293930	2535.700385
460.666607	2553.344423
461.039224	2523.097500
461.411782	2510.494615
461.784280	2485.288846
462.156719	2442.439038
462.529099	2525.618077
462.901419	2439.918462
463.273680	2465.124231
463.645882	2442.439038
464.018024	2515.535769
464.390106	2513.015192
464.762130	2505.453462
465.134094	2513.015192
465.505999	2404.630385
465.877845	2618.879423
466.249631	2444.959615
466.621358	2417.233269
466.993026	2550.823846
467.364634	2452.521346
467.736184	2578.550192
468.107674	2553.344423
468.479105	2467.644808
468.850477	2545.782692
469.221790	2555.865000
469.593043	2583.591346
469.964238	2429.836154
470.335373	2548.303269
470.706449	2422.274423
471.077467	2523.097500
471.448425	2500.412308
471.819324	2460.083077
472.190164	2492.850577
472.560945	2520.576923
472.931667	2450.000769
473.302330	2480.247692
473.672934	2470.165385
474.043479	2586.111923
474.413965	2490.330000
474.784393	2525.618077
475.154761	2560.906154
475.525070	2540.741538
475.895321	2417.233269
476.265513	2555.865000
476.635645	2462.603654
477.005719	2475.206538
477.375734	2581.070769
477.745691	2513.015192
478.115588	2553.344423
478.485427	2525.618077
478.855207	2487.809423
479.224928	2525.618077
479.594591	2480.247692
479.964194	2525.618077
480.333739	2437.397885
480.703226	2528.138654
481.072653	2467.644808
481.442022	2515.535769
481.811333	2507.974038
482.180584	2513.015192
482.549777	2538.220962
482.918912	2371.862885
483.287988	2533.179808
483.657005	2528.138654
484.025964	2545.782692
484.394864	2523.097500
484.763706	2465.124231
485.132489	2535.700385
485.501213	2563.426731
485.869879	2558.385577
486.238487	2500.412308
486.607036	2523.097500
486.975527	2482.768269
487.343959	2450.000769
487.712333	2553.344423
488.080648	2515.535769
488.448905	2485.288846
488.817104	2470.165385
489.185244	2555.865000
489.553326	2525.618077
489.921350	2588.632500
490.289315	2442.439038
490.657222	2505.453462
491.025070	2432.356731
491.392861	2447.480192
491.760593	2477.727115
492.128267	2500.412308
492.495883	2447.480192
492.863440	2576.029615
493.230939	2487.809423
493.598380	2518.056346
493.965763	2565.947308
494.333088	2472.685962
494.700354	2507.974038
495.067563	2502.932885
495.434713	2487.809423
495.801805	2427.315577
496.168839	2560.906154
496.535815	2462.603654
496.902733	2495.371154
497.269593	2558.385577
497.636395	2548.303269
498.003139	2500.412308
498.369825	2490.330000
498.736453	2568.467885
499.103023	2513.015192
499.469535	2523.097500
499.835989	2475.206538
500.202385	2455.041923
500.568723	2487.809423
500.935003	2455.041923
501.301226	2460.083077
501.667390	2528.138654
502.033497	2538.220962
502.399546	2563.426731
502.765537	2538.220962
503.131470	2530.659231
503.497345	2442.439038
503.863163	2528.138654
504.228923	2545.782692
504.594625	2381.945192
504.960269	2576.029615
505.325856	2480.247692
505.691385	2523.097500
506.056856	2442.439038
506.422270	2540.741538
506.787625	2528.138654
507.152924	2485.288846
507.518164	2475.206538
507.883347	2515.535769
508.248472	2470.165385
508.613540	2462.603654
508.978550	2528.138654
509.343503	2533.179808
509.708398	2497.891731
510.073236	2485.288846
510.438016	2535.700385
510.802738	2518.056346
511.167403	2510.494615
511.532010	2437.397885
511.896561	2457.562500
512.261053	2472.685962
512.625488	2528.138654
512.989866	2535.700385
513.354186	2492.850577
513.718449	2558.385577
514.082655	2540.741538
514.446803	2548.303269
514.810894	2452.521346
515.174927	2530.659231
515.538904	2563.426731
515.902822	2485.288846
516.266684	2452.521346
516.630488	2470.165385
516.994235	2495.371154
517.357925	2505.453462
517.721558	2482.768269
518.085133	2424.795000
518.448651	2409.671538
518.812112	2447.480192
519.175516	2513.015192
519.538863	2495.371154
519.902152	2558.385577
520.265385	2535.700385
520.628560	2558.385577
520.991678	2444.959615
521.354739	2467.644808
521.717743	2477.727115
522.080690	2502.932885
522.443580	2543.262115
522.806413	2442.439038
523.169189	2497.891731
523.531908	2482.768269
523.894569	2530.659231
524.257174	2535.700385
524.619722	2495.371154
524.982213	2497.891731
525.344647	2490.330000
525.707025	2545.782692
526.069345	2497.891731
526.431608	2543.262115
526.793815	2533.179808
527.155964	2500.412308
527.518057	2523.097500
527.880093	2578.550192
528.242072	2470.165385
528.603995	2515.535769
528.965860	2434.877308
529.327669	2515.535769
529.689421	2487.809423
530.051117	2540.741538
530.412755	2502.932885
530.774337	2513.015192
531.135862	2432.356731
531.497331	2507.974038
531.858743	2515.535769
532.220098	2515.535769
532.581396	2581.070769
532.942638	2530.659231
533.303824	2553.344423
533.664953	2427.315577
534.026025	2487.809423
534.387040	2555.865000
534.747999	2510.494615
535.108902	2540.741538
535.469748	2437.397885
535.830537	2563.426731
536.191270	2497.891731
536.551947	2540.741538
536.912567	2465.124231
537.273131	2513.015192
537.633638	2434.877308
537.994089	2452.521346
538.354483	2510.494615
538.714821	2502.932885
539.075103	2535.700385
539.435328	2472.685962
539.795497	2530.659231
540.155609	2550.823846
540.515665	2439.918462
540.875665	2442.439038
541.235609	2530.659231
541.595496	2490.330000
541.955328	2570.988462
542.315102	2520.576923
542.674821	2540.741538
543.034483	2510.494615
543.394090	2525.618077
543.753640	2465.124231
544.113134	2550.823846
544.472571	2460.083077
544.831953	2550.823846
545.191278	2553.344423
545.550548	2432.356731
545.909761	2540.741538
546.268918	2596.194231
546.628019	2570.988462
546.987064	2460.083077
547.346053	2495.371154
547.704986	2475.206538
548.063863	2452.521346
548.422684	2535.700385
548.781449	2465.124231
549.140158	2487.809423
549.498811	2538.220962
549.857408	2525.618077
550.215949	2437.397885
550.574434	2447.480192
550.932864	2548.303269
551.291237	2513.015192
551.649555	2573.509038
552.007817	2497.891731
552.366022	2502.932885
552.724173	2573.509038
553.082267	2475.206538
553.440305	2535.700385
553.798288	2497.891731
554.156215	2409.671538
554.514086	2535.700385
554.871902	2467.644808
555.229661	2568.467885
555.587365	2482.768269
555.945014	2495.371154
556.302606	2558.385577
556.660143	2568.467885
557.017625	2452.521346
557.375050	2424.795000
557.732421	2558.385577
558.089735	2427.315577
558.446994	2518.056346
558.804197	2505.453462
559.161345	2432.356731
559.518437	2523.097500
559.875474	2487.809423
560.232455	2497.891731
560.589381	2548.303269
560.946251	2455.041923
561.303065	2429.836154
561.659825	2513.015192
562.016528	2482.768269
562.373177	2487.809423
562.729770	2538.220962
563.086307	2470.165385
563.442789	2470.165385
563.799216	2495.371154
564.155587	2487.809423
564.511904	2502.932885
564.868164	2570.988462
565.224370	2576.029615
565.580520	2447.480192
565.936615	2462.603654
566.292654	2424.795000
566.648638	2616.358846
567.004567	2462.603654
567.360441	2533.179808
567.716260	2475.206538
568.072023	2523.097500
568.427732	2583.591346
568.783385	2414.712692
569.138982	2520.576923
569.494525	2553.344423
569.850013	2570.988462
570.205445	2550.823846
570.560823	2553.344423
570.916145	2555.865000
571.271412	2611.317692
571.626625	2535.700385
571.981782	2591.153077
572.336884	2495.371154
572.691931	2492.850577
573.046923	2555.865000
573.401860	2543.262115
573.756743	2505.453462
574.111570	2518.056346
574.466342	2424.795000
574.821059	2467.644808
575.175722	2530.659231
575.530330	2477.727115
575.884882	2427.315577
576.239380	2467.644808
576.593823	2477.727115
576.948211	2565.947308
577.302544	2417.233269
577.656823	2553.344423
578.011047	2518.056346
578.365216	2528.138654
578.719330	2482.768269
579.073389	2457.562500
579.427394	2460.083077
579.781344	2472.685962
580.135239	2402.109808
580.489080	2490.330000
580.842866	2573.509038
581.196597	2550.823846
581.550273	2510.494615
581.903895	2485.288846
582.257463	2530.659231
582.610975	2465.124231
582.964434	2480.247692
583.317837	2505.453462
583.671186	2568.467885
584.024481	2581.070769
584.377721	2528.138654
584.730906	2555.865000
585.084037	2427.315577
585.437113	2452.521346
585.790135	2485.288846
586.143103	2568.467885
586.496016	2437.397885
586.848874	2548.303269
587.201679	2399.589231
587.554428	2538.220962
587.907124	2482.768269
588.259765	2487.809423
588.612352	2497.891731
588.964884	2525.618077
589.317362	2487.809423
589.669786	2470.165385
590.022155	2467.644808
590.374470	2482.768269
590.726731	2502.932885
591.078937	2523.097500
591.431090	2525.618077
591.783188	2518.056346
592.135232	2515.535769
592.487222	2515.535769
592.839157	2520.576923
593.191038	2452.521346
593.542866	2548.303269
593.894639	2477.727115
594.246358	2482.768269
594.598022	2565.947308
594.949633	2460.083077
595.301190	2507.974038
595.652692	2563.426731
596.004141	2470.165385
596.355535	2497.891731
596.706876	2409.671538
597.058162	2447.480192
597.409395	2470.165385
597.760573	2525.618077
598.111698	2502.932885
598.462768	2444.959615
598.813785	2432.356731
599.164748	2460.083077
599.515657	2472.685962
599.866511	2480.247692
600.217312	2427.315577
600.568060	2439.918462
600.918753	2500.412308
601.269392	2515.535769
601.619978	2591.153077
601.970510	2558.385577
602.320988	2505.453462
602.671412	2490.330000
603.021783	2502.932885
603.372100	2570.988462
603.722363	2548.303269
604.072572	2427.315577
604.422728	2515.535769
604.772830	2470.165385
605.122878	2460.083077
605.472872	2523.097500
605.822813	2492.850577
606.172701	2462.603654
606.522534	2530.659231
606.872314	2505.453462
607.222041	2450.000769
607.571714	2495.371154
607.921333	2550.823846
608.270899	2485.288846
608.620411	2457.562500
608.969870	2525.618077
609.319276	2477.727115
609.668627	2450.000769
610.017926	2507.974038
610.367171	2528.138654
610.716362	2502.932885
611.065500	2462.603654
611.414585	2490.330000
611.763616	2573.509038
612.112594	2513.015192
612.461518	2450.000769
612.810389	2490.330000
613.159207	2550.823846
613.507971	2555.865000
613.856682	2495.371154
614.205340	2424.795000
614.553945	2530.659231
614.902496	2565.947308
615.250994	2573.509038
615.599439	2523.097500
615.947830	2523.097500
616.296169	2535.700385
616.644454	2563.426731
616.992686	2505.453462
617.340864	2460.083077
617.688990	2455.041923
618.037063	2548.303269
618.385082	2475.206538
618.733048	2472.685962
619.080961	2510.494615
619.428821	2568.467885
619.776628	2477.727115
620.124382	2497.891731
620.472083	2444.959615
620.819731	2424.795000
621.167326	2392.027500
621.514868	2603.755962
621.862357	2523.097500
622.209793	2472.685962
622.557176	2548.303269
622.904506	2641.564615
623.251783	2424.795000
623.599007	2490.330000
623.946179	2470.165385
624.293297	2578.550192
624.640363	2591.153077
624.987376	2482.768269
625.334336	2399.589231
625.681243	2565.947308
626.028097	2492.850577
626.374899	2530.659231
626.721647	2520.576923
627.068343	2424.795000
627.414987	2502.932885
627.761577	2480.247692
628.108115	2515.535769
628.454600	2525.618077
628.801032	2442.439038
629.147412	2560.906154
629.493739	2490.330000
629.840014	2497.891731
630.186236	2472.685962
630.532405	2505.453462
630.878521	2460.083077
631.224585	2510.494615
631.570597	2507.974038
631.916556	2525.618077
632.262462	2457.562500
632.608316	2455.041923
632.954117	2540.741538
633.299866	2492.850577
633.645562	2467.644808
633.991206	2457.562500
634.336797	2482.768269
634.682336	2510.494615
635.027823	2455.041923
635.373257	2467.644808
635.718639	2588.632500
636.063968	2520.576923
636.409245	2495.371154
636.754470	2603.755962
637.099642	2452.521346
637.444762	2563.426731
637.789829	2475.206538
638.134845	2422.274423
638.479808	2540.741538
638.824719	2394.548077
639.169577	2535.700385
639.514383	2452.521346
639.859137	2450.000769
640.203839	2495.371154
640.548489	2482.768269
640.893086	2533.179808
641.237632	2424.795000
641.582125	2500.412308
641.926566	2487.809423
642.270955	2540.741538
642.615292	2515.535769
642.959576	2553.344423
643.303809	2560.906154
643.647990	2492.850577
643.992118	2485.288846
644.336195	2502.932885
644.680219	2475.206538
645.024192	2520.576923
645.368112	2439.918462
645.711981	2518.056346
646.055797	2535.700385
646.399562	2467.644808
646.743274	2510.494615
647.086935	2525.618077
647.430544	2634.002885
647.774101	2427.315577
648.117606	2477.727115
648.461059	2505.453462
648.804460	2467.644808
649.147810	2495.371154
649.491108	2432.356731
649.834354	2472.685962
650.177548	2442.439038
650.520690	2482.768269
650.863781	2538.220962
651.206820	2510.494615
651.549807	2429.836154
651.892742	2525.618077
652.235626	2510.494615
652.578458	2513.015192
652.921238	2535.700385
653.263967	2455.041923
653.606644	2583.591346
653.949269	2550.823846
654.291843	2450.000769
654.634365	2427.315577
654.976836	2462.603654
655.319255	2530.659231
655.661622	2545.782692
656.003938	2480.247692
656.346203	2528.138654
656.688416	2495.371154
657.030577	2429.836154
657.372687	2482.768269
657.714746	2470.165385
658.056753	2538.220962
658.398708	2402.109808
658.740612	2525.618077
659.082465	2485.288846
659.424266	2404.630385
659.766016	2518.056346
660.107715	2394.548077
660.449362	2528.138654
660.790958	2513.015192
661.132503	2518.056346
661.473996	2533.179808
661.815438	2593.673654
662.156829	2492.850577
662.498168	2505.453462
662.839456	2568.467885
663.180693	2505.453462
663.521879	2535.700385
663.863013	2480.247692
664.204097	2528.138654
664.545129	2447.480192
664.886110	2472.685962
665.227040	2533.179808
665.567918	2550.823846
665.908746	2477.727115
666.249522	2462.603654
666.590248	2424.795000
666.930922	2460.083077
667.271545	2606.276538
667.612118	2538.220962
667.952639	2515.535769
668.293109	2523.097500
668.633528	2485.288846
668.973896	2492.850577
669.314213	2518.056346
669.654480	2523.097500
669.994695	2510.494615
670.334859	2462.603654
670.674973	2460.083077
671.015035	2447.480192
671.355047	2490.330000
671.695008	2535.700385
672.034918	2515.535769
672.374777	2455.041923
672.714585	2492.850577
673.054342	2450.000769
673.394049	2492.850577
673.733705	2538.220962
674.073310	2492.850577
674.412864	2540.741538
674.752368	2480.247692
675.091820	2455.041923
675.431223	2533.179808
675.770574	2470.165385
676.109875	2505.453462
676.449125	2480.247692
676.788324	2533.179808
677.127473	2550.823846
677.466571	2505.453462
677.805619	2573.509038
678.144616	2455.041923
678.483562	2560.906154
678.822458	2485.288846
679.161303	2492.850577
679.500098	2485.288846
679.838842	2533.179808
680.177535	2520.576923
680.516179	2533.179808
680.854771	2480.247692
681.193314	2432.356731
681.531805	2565.947308
681.870247	2475.206538
682.208638	2480.247692
682.546978	2510.494615
682.885268	2576.029615
683.223508	2427.315577
683.561697	2497.891731
683.899836	2505.453462
684.237925	2545.782692
684.575963	2492.850577
684.913951	2492.850577
685.251889	2487.809423
685.589776	2513.015192
685.927614	2452.521346
686.265401	2520.576923
686.603137	2490.330000
686.940824	2553.344423
687.278460	2480.247692
687.616046	2475.206538
687.953582	2470.165385
688.291068	2576.029615
688.628504	2475.206538
688.965889	2429.836154
689.303224	2462.603654
689.640510	2545.782692
689.977745	2482.768269
690.314930	2518.056346
690.652065	2460.083077
690.989150	2520.576923
691.326185	2457.562500
691.663170	2394.548077
692.000105	2462.603654
692.336990	2460.083077
692.673825	2404.630385
693.010610	2548.303269
693.347345	2538.220962
693.684030	2540.741538
694.020665	2535.700385
694.357251	2497.891731
694.693786	2507.974038
695.030272	2523.097500
695.366707	2555.865000
695.703093	2381.945192
696.039429	2548.303269
696.375716	2497.891731
696.711952	2419.753846
697.048139	2518.056346
697.384276	2576.029615
697.720363	2543.262115
698.056400	2381.945192
698.392388	2515.535769
698.728326	2578.550192
699.064214	2482.768269
699.400053	2586.111923
699.735842	2470.165385
700.071581	2548.303269
700.407270	2553.344423
700.742910	2500.412308
701.078501	2472.685962
701.414042	2475.206538
701.749533	2548.303269
702.084974	2510.494615
702.420366	2490.330000
702.755709	2424.795000
703.091002	2543.262115
703.426246	2513.015192
703.761440	2465.124231
704.096584	2545.782692
704.431679	2497.891731
704.766725	2555.865000
705.101721	2455.041923
705.436668	2462.603654
705.771565	2427.315577
706.106413	2523.097500
706.441212	2437.397885
706.775961	2467.644808
707.110661	2480.247692
707.445311	2472.685962
707.779913	2480.247692
708.114465	2518.056346
708.448967	2472.685962
708.783421	2520.576923
709.117825	2560.906154
709.452180	2485.288846
709.786485	2442.439038
710.120742	2596.194231
710.454949	2424.795000
710.789107	2465.124231
711.123216	2447.480192
711.457275	2520.576923
711.791286	2513.015192
712.125247	2558.385577
712.459159	2497.891731
712.793023	2452.521346
713.126837	2525.618077
713.460602	2480.247692
713.794318	2553.344423
714.127985	2497.891731
714.461602	2576.029615
714.795171	2492.850577
715.128691	2530.659231
715.462162	2490.330000
715.795584	2518.056346
716.128957	2477.727115
716.462281	2460.083077
716.795556	2450.000769
717.128782	2475.206538
717.461960	2432.356731
717.795088	2467.644808
718.128167	2480.247692
718.461198	2505.453462
718.794180	2462.603654
719.127113	2570.988462
719.459997	2568.467885
719.792833	2460.083077
720.125619	2528.138654
720.458357	2475.206538
720.791046	2601.235385
721.123686	2538.220962
721.456278	2465.124231
721.788821	2553.344423
722.121315	2407.150962
722.453761	2510.494615
722.786158	2563.426731
723.118506	2513.015192
723.450805	2500.412308
723.783056	2497.891731
724.115259	2520.576923
724.447412	2485.288846
724.779518	2444.959615
725.111574	2490.330000
725.443582	2583.591346
725.775542	2510.494615
726.107453	2381.945192
726.439315	2518.056346
726.771129	2495.371154
727.102895	2515.535769
727.434612	2581.070769
727.766281	2505.453462
728.097901	2487.809423
728.429473	2407.150962
728.760996	2407.150962
729.092471	2505.453462
729.423897	2548.303269
729.755276	2533.179808
730.086606	2568.467885
730.417887	2613.838269
730.749120	2427.315577
731.080305	2593.673654
731.411442	2485.288846
731.742530	2482.768269
732.073570	2596.194231
732.404562	2538.220962
732.735506	2470.165385
733.066401	2523.097500
733.397249	2565.947308
733.728048	2492.850577
734.058798	2462.603654
734.389501	2540.741538
734.720156	2540.741538
735.050762	2518.056346
735.381320	2555.865000
735.711831	2439.918462
736.042293	2545.782692
736.372707	2465.124231
736.703073	2578.550192
737.033391	2472.685962
737.363661	2535.700385
737.693883	2523.097500
738.024056	2533.179808
738.354182	2472.685962
738.684260	2500.412308
739.014290	2513.015192
739.344272	2520.576923
739.674207	2535.700385
740.004093	2495.371154
740.333931	2439.918462
740.663722	2565.947308
740.993464	2535.700385
741.323159	2538.220962
741.652806	2462.603654
741.982405	2535.700385
742.311956	2573.509038
742.641460	2462.603654
742.970915	2528.138654
743.300323	2495.371154
743.629683	2467.644808
743.958996	2540.741538
744.288260	2409.671538
744.617477	2487.809423
744.946647	2452.521346
745.275768	2457.562500
745.604842	2490.330000
745.933869	2535.700385
746.262847	2467.644808
746.591778	2485.288846
746.920662	2392.027500
747.249498	2500.412308
747.578286	2477.727115
747.907027	2487.809423
748.235720	2558.385577
748.564365	2450.000769
748.892963	2460.083077
749.221514	2518.056346
749.550017	2452.521346
749.878473	2467.644808
750.206881	2545.782692
750.535242	2490.330000
750.863555	2462.603654
751.191821	2520.576923
751.520039	2472.685962
751.848210	2558.385577
752.176334	2495.371154
752.504411	2470.165385
752.832440	2500.412308
753.160421	2429.836154
753.488356	2467.644808
753.816243	2442.439038
754.144082	2480.247692
754.471875	2460.083077
754.799620	2535.700385
755.127318	2502.932885
755.454969	2490.330000
755.782572	2460.083077
756.110129	2550.823846
756.437638	2538.220962
756.765100	2586.111923
757.092515	2450.000769
757.419882	2495.371154
757.747203	2485.288846
758.074477	2432.356731
758.401703	2523.097500
758.728882	2434.877308
759.056014	2442.439038
759.383099	2553.344423
759.710138	2434.877308
760.037129	2560.906154
760.364073	2513.015192
760.690970	2460.083077
761.017820	2515.535769
761.344623	2588.632500
761.671379	2399.589231
761.998088	2490.330000
762.324751	2555.865000
762.651366	2497.891731
762.977935	2573.509038
763.304456	2485.288846
763.630931	2470.165385
763.957359	2583.591346
764.283740	2578.550192
764.610074	2495.371154
764.936362	2386.986346
765.262602	2535.700385
765.588796	2591.153077
765.914943	2467.644808
766.241044	2467.644808
766.567097	2528.138654
766.893104	2528.138654
767.219064	2525.618077
767.544978	2487.809423
767.870845	2573.509038
768.196665	2462.603654
768.522438	2502.932885
768.848165	2548.303269
769.173846	2462.603654
769.499479	2555.865000
769.825066	2490.330000
770.150607	2485.288846
770.476101	2457.562500
770.801548	2450.000769
771.126949	2417.233269
771.452303	2455.041923
771.777611	2492.850577
772.102872	2462.603654
772.428087	2485.288846
772.753256	2442.439038
773.078378	2437.397885
773.403453	2485.288846
773.728482	2490.330000
774.053465	2477.727115
774.378401	2505.453462
774.703291	2518.056346
775.028135	2422.274423
775.352932	2470.165385
775.677683	2502.932885
776.002388	2533.179808
776.327046	2417.233269
776.651658	2470.165385
776.976224	2480.247692
777.300743	2460.083077
777.625216	2495.371154
777.949643	2366.821731
778.274024	2485.288846
778.598359	2596.194231
778.922647	2505.453462
779.246889	2513.015192
779.571086	2457.562500
779.895236	2548.303269
780.219339	2513.015192
780.543397	2457.562500
780.867409	2515.535769
781.191374	2518.056346
781.515294	2386.986346
781.839167	2591.153077
782.162995	2482.768269
782.486776	2543.262115
782.810511	2452.521346
783.134201	2578.550192
783.457844	2520.576923
783.781441	2475.206538
784.104993	2505.453462
784.428498	2510.494615
784.751958	2422.274423
785.075372	2439.918462
785.398739	2533.179808
785.722061	2548.303269
786.045337	2485.288846
786.368568	2450.000769
786.691752	2465.124231
787.014891	2495.371154
787.337983	2487.809423
787.661030	2467.644808
787.984031	2485.288846
788.306987	2492.850577
788.629897	2447.480192
788.952760	2523.097500
789.275579	2472.685962
789.598351	2442.439038
789.921078	2465.124231
790.243759	2482.768269
790.566395	2596.194231
790.888984	2470.165385
791.211529	2475.206538
791.534027	2417.233269
791.856480	2530.659231
792.178888	2452.521346
792.501249	2444.959615
792.823566	2543.262115
793.145836	2543.262115
793.468062	2515.535769
793.790241	2444.959615
794.112375	2497.891731
794.434464	2460.083077
794.756507	2444.959615
795.078505	2608.797115
795.400457	2412.192115
795.722364	2417.233269
796.044226	2570.988462
796.366042	2497.891731
796.687812	2472.685962
797.009538	2520.576923
797.331218	2528.138654
797.652852	2510.494615
797.974442	2533.179808
798.295986	2530.659231
798.617484	2434.877308
798.938938	2487.809423
799.260346	2419.753846
799.581709	2505.453462
799.903026	2555.865000
800.224299	2447.480192
800.545526	2528.138654
800.866708	2470.165385
801.187845	2583.591346
801.508936	2543.262115
801.829983	2538.220962
802.150984	2497.891731
802.471940	2555.865000
802.792851	2515.535769
803.113717	2540.741538
803.434538	2482.768269
803.755314	2523.097500
804.076045	2608.797115
804.396731	2497.891731
804.717372	2465.124231
805.037967	2495.371154
805.358518	2500.412308
805.679024	2472.685962
805.999485	2513.015192
806.319901	2518.056346
806.640272	2457.562500
806.960598	2475.206538
807.280879	2470.165385
807.601115	2465.124231
807.921306	2573.509038
808.241453	2442.439038
808.561554	2513.015192
808.881611	2480.247692
809.201623	2563.426731
809.521590	2500.412308
809.841513	2515.535769
810.161390	2500.412308
810.481223	2510.494615
810.801011	2570.988462
811.120755	2570.988462
811.440453	2502.932885
811.760107	2500.412308
812.079716	2596.194231
812.399281	2460.083077
812.718801	2510.494615
813.038276	2419.753846
813.357707	2500.412308
813.677093	2563.426731
813.996434	2500.412308
814.315731	2510.494615
814.634983	2525.618077
814.954191	2540.741538
815.273354	2515.535769
815.592473	2450.000769
815.911547	2455.041923
816.230577	2548.303269
816.549562	2455.041923
816.868502	2472.685962
817.187399	2545.782692
817.506250	2477.727115
817.825058	2492.850577
818.143821	2507.974038
818.462539	2545.782692
818.781213	2497.891731
819.099843	2523.097500
819.418429	2555.865000
819.736970	2497.891731
820.055466	2543.262115
820.373919	2548.303269
820.692327	2495.371154
821.010691	2507.974038
821.329011	2447.480192
821.647286	2500.412308
821.965517	2568.467885
822.283704	2543.262115
822.601847	2371.862885
822.919945	2492.850577
823.237999	2495.371154
823.556010	2502.932885
823.873976	2591.153077
824.191897	2475.206538
824.509775	2465.124231
824.827609	2447.480192
825.145398	2535.700385
825.463144	2475.206538
825.780845	2492.850577
826.098502	2452.521346
826.416116	2497.891731
826.733685	2538.220962
827.051210	2467.644808
827.368692	2495.371154
827.686129	2465.124231
828.003522	2412.192115
828.320872	2487.809423
828.638177	2543.262115
828.955439	2528.138654
829.272656	2482.768269
829.589830	2515.535769
829.906960	2472.685962
830.224046	2490.330000
830.541088	2538.220962
830.858086	2505.453462
831.175041	2507.974038
831.491952	2520.576923
831.808819	2450.000769
832.125642	2497.891731
832.442421	2558.385577
832.759157	2502.932885
833.075849	2550.823846
833.392497	2485.288846
833.709101	2533.179808
834.025662	2482.768269
834.342179	2485.288846
834.658653	2515.535769
834.975083	2502.932885
835.291469	2505.453462
835.607811	2520.576923
835.924110	2462.603654
836.240366	2492.850577
836.556578	2500.412308
836.872746	2523.097500
837.188871	2545.782692
837.504952	2515.535769
837.820990	2429.836154
838.136984	2500.412308
838.452935	2540.741538
838.768842	2442.439038
839.084706	2497.891731
839.400526	2399.589231
839.716303	2465.124231
840.032037	2470.165385
840.347727	2555.865000
840.663373	2427.315577
840.978977	2485.288846
841.294537	2447.480192
841.610054	2560.906154
841.925527	2548.303269
842.240957	2558.385577
842.556344	2513.015192
842.871687	2628.961731
843.186987	2500.412308
843.502244	2477.727115
843.817458	2598.714808
844.132629	2470.165385
844.447756	2583.591346
844.762840	2485.288846
845.077881	2502.932885
845.392879	2472.685962
845.707833	2515.535769
846.022745	2409.671538
846.337613	2518.056346
846.652438	2601.235385
846.967221	2389.506923
847.281960	2482.768269
847.596656	2485.288846
847.911309	2432.356731
848.225919	2555.865000
848.540485	2480.247692
848.855009	2535.700385
849.169490	2457.562500
849.483928	2424.795000
849.798323	2477.727115
850.112675	2409.671538
850.426984	2502.932885
850.741251	2568.467885
851.055474	2467.644808
851.369654	2513.015192
851.683792	2455.041923
851.997887	2495.371154
852.311938	2437.397885
852.625947	2417.233269
852.939914	2535.700385
853.253837	2492.850577
853.567718	2513.015192
853.881555	2457.562500
854.195350	2442.439038
854.509103	2563.426731
854.822812	2455.041923
855.136479	2419.753846
855.450103	2523.097500
855.763685	2500.412308
856.077224	2434.877308
856.390720	2563.426731
856.704173	2444.959615
857.017584	2439.918462
857.330953	2510.494615
857.644278	2588.632500
857.957561	2520.576923
858.270802	2477.727115
858.584000	2465.124231
858.897155	2465.124231
859.210268	2533.179808
859.523339	2576.029615
859.836367	2487.809423
860.149352	2452.521346
860.462295	2482.768269
860.775195	2545.782692
861.088054	2487.809423
861.400869	2447.480192
861.713642	2596.194231
862.026373	2525.618077
862.339062	2558.385577
862.651708	2432.356731
862.964312	2392.027500
863.276873	2427.315577
863.589392	2523.097500
863.901869	2392.027500
864.214303	2475.206538
864.526696	2495.371154
864.839045	2568.467885
865.151353	2439.918462
865.463619	2465.124231
865.775842	2442.439038
866.088023	2513.015192
866.400162	2457.562500
866.712258	2596.194231
867.024313	2538.220962
867.336325	2480.247692
867.648296	2525.618077
867.960224	2492.850577
868.272110	2462.603654
868.583954	2477.727115
868.895755	2434.877308
869.207515	2507.974038
869.519233	2450.000769
869.830909	2520.576923
870.142542	2477.727115
870.454134	2467.644808
870.765684	2568.467885
871.077191	2505.453462
871.388657	2500.412308
871.700081	2482.768269
872.011463	2563.426731
872.322803	2497.891731
872.634101	2452.521346
872.945357	2414.712692
873.256571	2535.700385
873.567744	2490.330000
873.878874	2523.097500
874.189963	2460.083077
874.501010	2528.138654
874.812015	2513.015192
875.122979	2535.700385
875.433900	2455.041923
875.744780	2510.494615
876.055618	2462.603654
876.366415	2429.836154
876.677169	2442.439038
876.987882	2487.809423
877.298554	2510.494615
877.609183	2389.506923
877.919771	2455.041923
878.230317	2470.165385
878.540822	2472.685962
878.851285	2450.000769
879.161707	2429.836154
879.472087	2417.233269
879.782425	2429.836154
880.092722	2495.371154
880.402977	2455.041923
880.713191	2490.330000
881.023363	2422.274423
881.333494	2460.083077
881.643583	2548.303269
881.953631	2523.097500
882.263637	2525.618077
882.573602	2394.548077
882.883526	2480.247692
883.193408	2472.685962
883.503248	2515.535769
883.813048	2523.097500
884.122806	2497.891731
884.432522	2434.877308
884.742197	2444.959615
885.051831	2507.974038
885.361424	2535.700385
885.670975	2392.027500
885.980485	2507.974038
886.289954	2543.262115
886.599382	2528.138654
886.908768	2523.097500
887.218113	2495.371154
887.527417	2578.550192
887.836680	2429.836154
888.145901	2533.179808
888.455082	2480.247692
888.764221	2477.727115
889.073319	2523.097500
889.382376	2434.877308
889.691392	2505.453462
890.000366	2530.659231
890.309300	2518.056346
890.618193	2515.535769
890.927044	2513.015192
891.235855	2507.974038
891.544625	2439.918462
891.853353	2467.644808
892.162041	2447.480192
892.470687	2510.494615
892.779293	2467.644808
893.087858	2480.247692
893.396381	2492.850577
893.704864	2482.768269
894.013306	2480.247692
894.321707	2558.385577
894.630068	2465.124231
894.938387	2500.412308
895.246665	2510.494615
895.554903	2399.589231
895.863100	2507.974038
896.171256	2462.603654
896.479371	2495.371154
896.787446	2505.453462
897.095480	2515.535769
897.403473	2497.891731
897.711425	2505.453462
898.019336	2457.562500
898.327207	2543.262115
898.635038	2462.603654
898.942827	2558.385577
899.250576	2578.550192
899.558284	2447.480192
899.865952	2530.659231
900.173579	2535.700385
900.481165	2472.685962
900.788711	2487.809423
901.096216	2482.768269
901.403681	2470.165385
901.711105	2487.809423
902.018489	2399.589231
902.325832	2452.521346
902.633135	2490.330000
902.940397	2535.700385
903.247619	2513.015192
903.554800	2374.383462
903.861941	2460.083077
904.169041	2444.959615
904.476101	2346.657115
904.783121	2505.453462
905.090100	2513.015192
905.397039	2470.165385
905.703938	2407.150962
906.010796	2563.426731
906.317614	2593.673654
906.624391	2450.000769
906.931129	2485.288846
907.237826	2492.850577
907.544483	2500.412308
907.851099	2419.753846
908.157675	2465.124231
908.464211	2497.891731
908.770707	2374.383462
909.077163	2525.618077
909.383578	2470.165385
909.689954	2472.685962
909.996289	2487.809423
910.302584	2472.685962
910.608839	2492.850577
910.915054	2520.576923
911.221229	2515.535769
911.527363	2462.603654
911.833458	2530.659231
912.139513	2460.083077
912.445527	2505.453462
912.751502	2457.562500
913.057436	2505.453462
913.363331	2530.659231
913.669186	2470.165385
913.975000	2477.727115
914.280775	2548.303269
914.586510	2472.685962
914.892205	2480.247692
915.197859	2490.330000
915.503475	2563.426731
915.809050	2487.809423
916.114585	2560.906154
916.420081	2490.330000
916.725536	2495.371154
917.030952	2525.618077
917.336328	2528.138654
917.641665	2460.083077
917.946961	2480.247692
918.252218	2427.315577
918.557435	2538.220962
918.862612	2563.426731
919.167750	2520.576923
919.472848	2510.494615
919.777906	2492.850577
920.082925	2472.685962
920.387904	2490.330000
920.692843	2404.630385
920.997743	2439.918462
921.302603	2535.700385
921.607423	2429.836154
921.912204	2439.918462
922.216946	2528.138654
922.521647	2480.247692
922.826310	2457.562500
923.130932	2485.288846
923.435516	2434.877308
923.740059	2533.179808
924.044564	2409.671538
924.349028	2553.344423
924.653454	2492.850577
924.957840	2467.644808
925.262186	2409.671538
925.566493	2424.795000
925.870761	2500.412308
926.174989	2530.659231
926.479178	2487.809423
926.783328	2475.206538
927.087438	2507.974038
927.391509	2520.576923
927.695541	2424.795000
927.999533	2472.685962
928.303486	2492.850577
928.607400	2467.644808
928.911275	2485.288846
929.215110	2487.809423
929.518906	2581.070769
929.822663	2485.288846
930.126381	2482.768269
930.430060	2472.685962
930.733699	2432.356731
931.037299	2439.918462
931.340861	2417.233269
931.644383	2510.494615
931.947866	2485.288846
932.251309	2500.412308
932.554714	2490.330000
932.858080	2477.727115
933.161407	2465.124231
933.464694	2513.015192
933.767943	2470.165385
934.071153	2550.823846
934.374323	2467.644808
934.677455	2492.850577
934.980548	2475.206538
935.283602	2505.453462
935.586617	2470.165385
935.889593	2472.685962
936.192530	2460.083077
936.495428	2518.056346
936.798287	2462.603654
937.101108	2505.453462
937.403890	2450.000769
937.706632	2576.029615
938.009336	2573.509038
938.312002	2465.124231
938.614628	2543.262115
938.917216	2530.659231
939.219765	2538.220962
939.522275	2515.535769
939.824747	2482.768269
940.127179	2555.865000
940.429573	2540.741538
940.731929	2482.768269
941.034246	2472.685962
941.336524	2465.124231
941.638763	2432.356731
941.940964	2505.453462
942.243126	2465.124231
942.545250	2581.070769
942.847335	2452.521346
943.149381	2460.083077
943.451389	2467.644808
943.753359	2482.768269
944.055290	2510.494615
944.357182	2510.494615
944.659036	2470.165385
944.960851	2472.685962
945.262628	2500.412308
945.564367	2616.358846
945.866067	2495.371154
946.167729	2500.412308
946.469352	2505.453462
946.770937	2475.206538
947.072484	2482.768269
947.373992	2497.891731
947.675462	2480.247692
947.976893	2543.262115
948.278286	2447.480192
948.579641	2429.836154
948.880958	2427.315577
949.182236	2535.700385
949.483476	2409.671538
949.784678	2422.274423
950.085841	2540.741538
950.386967	2447.480192
950.688054	2407.150962
950.989103	2500.412308
951.290114	2424.795000
951.591087	2576.029615
951.892021	2558.385577
952.192917	2442.439038
952.493776	2500.412308
952.794596	2507.974038
953.095378	2528.138654
953.396122	2447.480192
953.696828	2505.453462
953.997496	2475.206538
954.298126	2502.932885
954.598718	2497.891731
954.899272	2457.562500
955.199788	2467.644808
955.500266	2553.344423
955.800706	2515.535769
956.101108	2457.562500
956.401472	2452.521346
956.701798	2412.192115
957.002087	2520.576923
957.302337	2472.685962
957.602550	2548.303269
957.902724	2455.041923
958.202861	2394.548077
958.502960	2500.412308
958.803022	2510.494615
959.103045	2523.097500
959.403031	2417.233269
959.702979	2573.509038
960.002889	2591.153077
960.302762	2455.041923
960.602596	2475.206538
960.902393	2583.591346
961.202153	2434.877308
961.501875	2535.700385
961.801559	2432.356731
962.101205	2513.015192
962.400814	2485.288846
962.700385	2497.891731
962.999918	2507.974038
963.299414	2490.330000
963.598873	2480.247692
963.898293	2518.056346
964.197677	2442.439038
964.497022	2502.932885
964.796331	2560.906154
965.095601	2480.247692
965.394835	2462.603654
965.694030	2480.247692
965.993189	2570.988462
966.292309	2384.465769
966.591393	2505.453462
966.890439	2434.877308
967.189447	2460.083077
967.488419	2384.465769
967.787353	2477.727115
968.086249	2528.138654
968.385108	2467.644808
968.683930	2460.083077
968.982714	2477.727115
969.281462	2452.521346
969.580172	2371.862885
969.878844	2502.932885
970.177480	2480.247692
970.476078	2427.315577
970.774639	2545.782692
971.073162	2455.041923
971.371649	2409.671538
971.670098	2555.865000
971.968510	2487.809423
972.266885	2518.056346
972.565223	2538.220962
972.863524	2460.083077
973.161788	2392.027500
973.460014	2462.603654
973.758204	2442.439038
974.056356	2487.809423
974.354471	2485.288846
974.652550	2540.741538
974.950591	2414.712692
975.248595	2470.165385
975.546563	2568.467885
975.844493	2553.344423
976.142386	2455.041923
976.440243	2513.015192
976.738062	2434.877308
977.035845	2523.097500
977.333590	2460.083077
977.631299	2513.015192
977.928971	2530.659231
978.226606	2497.891731
978.524204	2525.618077
978.821765	2591.153077
979.119290	2515.535769
979.416777	2470.165385
979.714228	2482.768269
980.011642	2432.356731
980.309020	2586.111923
980.606360	2492.850577
980.903664	2570.988462
981.200931	2535.700385
981.498162	2444.959615
981.795356	2472.685962
982.092513	2591.153077
982.389633	2480.247692
982.686717	2593.673654
982.983764	2452.521346
983.280775	2490.330000
983.577749	2490.330000
983.874686	2606.276538
984.171587	2490.330000
984.468451	2485.288846
984.765279	2530.659231
985.062070	2389.506923
985.358824	2477.727115
985.655543	2455.041923
985.952224	2492.850577
986.248869	2444.959615
986.545478	2419.753846
986.842050	2492.850577
987.138586	2487.809423
987.435086	2515.535769
987.731549	2548.303269
988.027975	2450.000769
988.324366	2434.877308
988.620719	2462.603654
988.917037	2502.932885
989.213318	2507.974038
989.509563	2434.877308
989.805772	2518.056346
990.101944	2535.700385
990.398080	2480.247692
990.694180	2457.562500
990.990244	2452.521346
991.286271	2553.344423
991.582262	2507.974038
991.878217	2535.700385
992.174136	2573.509038
992.470019	2434.877308
992.765865	2565.947308
993.061676	2533.179808
993.357450	2366.821731
993.653188	2525.618077
993.948890	2583.591346
994.244556	2492.850577
994.540186	2560.906154
994.835780	2528.138654
995.131337	2502.932885
995.426859	2465.124231
995.722345	2465.124231
996.017795	2510.494615
996.313208	2492.850577
996.608586	2485.288846
996.903928	2492.850577
997.199234	2487.809423
997.494504	2470.165385
997.789738	2535.700385
998.084936	2467.644808
998.380099	2500.412308
998.675225	2558.385577
998.970316	2505.453462
999.265371	2487.809423
999.560390	2507.974038
999.855373	2434.877308
1000.150320	2427.315577
1000.445232	2397.068654
1000.740108	2402.109808
1001.034948	2533.179808
1001.329752	2462.603654
1001.624521	2487.809423
1001.919254	2533.179808
1002.213951	2505.453462
1002.508613	2555.865000
1002.803239	2510.494615
1003.097829	2437.397885
1003.392384	2475.206538
1003.686903	2513.015192
1003.981386	2452.521346
1004.275834	2520.576923
1004.570246	2457.562500
1004.864623	2467.644808
1005.158964	2455.041923
1005.453270	2455.041923
1005.747540	2530.659231
1006.041775	2467.644808
1006.335974	2528.138654
1006.630138	2437.397885
1006.924266	2467.644808
1007.218359	2419.753846
1007.512416	2462.603654
1007.806438	2442.439038
1008.100425	2513.015192
1008.394376	2447.480192
1008.688292	2520.576923
1008.982172	2475.206538
1009.276017	2475.206538
1009.569827	2465.124231
1009.863602	2528.138654
1010.157341	2515.535769
1010.451045	2513.015192
1010.744714	2492.850577
1011.038347	2553.344423
1011.331945	2563.426731
1011.625508	2533.179808
1011.919036	2485.288846
1012.212528	2439.918462
1012.505986	2535.700385
1012.799408	2475.206538
1013.092795	2530.659231
1013.386147	2477.727115
1013.679464	2480.247692
1013.972745	2502.932885
1014.265992	2533.179808
1014.559204	2394.548077
1014.852380	2502.932885
1015.145521	2576.029615
1015.438628	2450.000769
1015.731699	2465.124231
1016.024736	2452.521346
1016.317737	2576.029615
1016.610703	2528.138654
1016.903635	2490.330000
1017.196531	2452.521346
1017.489393	2460.083077
1017.782219	2467.644808
1018.075011	2548.303269
1018.367768	2450.000769
1018.660490	2545.782692
1018.953177	2545.782692
1019.245829	2545.782692
