Dividing Wavelength (nm)	Counts (n)	Blue Motor Position (mm): 0.000000	Red Motor Position (mm): 2.600000	
326.493990	2150.052115
326.888308	2150.052115
327.282561	2150.052115
327.676750	2089.558269
328.070874	2104.681731
328.464933	2107.202308
328.858929	2051.749615
329.252859	2124.846346
329.646726	2051.749615
330.040528	2064.352500
330.434265	2087.037692
330.827938	2139.969808
331.221547	2074.434808
331.615091	2230.710577
332.008571	2210.545962
332.401986	2243.313462
332.795338	2208.025385
333.188625	2286.163269
333.581847	2273.560385
333.975006	2323.971923
334.368100	2286.163269
334.761129	2238.272308
335.154095	2301.286731
335.546996	2311.369038
335.939833	2407.150962
336.332606	2447.480192
336.725315	2409.671538
337.117960	2339.095385
337.510540	2389.506923
337.903056	2386.986346
338.295508	2422.274423
338.687896	2475.206538
339.080220	2470.165385
339.472480	2560.906154
339.864676	2507.974038
340.256807	2475.206538
340.648875	2437.397885
341.040879	2434.877308
341.432818	2444.959615
341.824694	2492.850577
342.216506	2507.974038
342.608253	2432.356731
342.999937	2376.904038
343.391557	2523.097500
343.783113	2419.753846
344.174605	2502.932885
344.566033	2480.247692
344.957397	2442.439038
345.348697	2465.124231
345.739934	2439.918462
346.131106	2439.918462
346.522215	2439.918462
346.913260	2505.453462
347.304241	2452.521346
347.695159	2500.412308
348.086012	2485.288846
348.476802	2475.206538
348.867528	2452.521346
349.258191	2530.659231
349.648789	2404.630385
350.039324	2518.056346
350.429796	2432.356731
350.820203	2495.371154
351.210548	2429.836154
351.600828	2442.439038
351.991045	2412.192115
352.381198	2505.453462
352.771288	2442.439038
353.161314	2465.124231
353.551276	2434.877308
353.941175	2399.589231
354.331010	2518.056346
354.720782	2394.548077
355.110490	2523.097500
355.500135	2442.439038
355.889717	2414.712692
356.279235	2397.068654
356.668689	2397.068654
357.058080	2450.000769
357.447408	2465.124231
357.836672	2482.768269
358.225873	2457.562500
358.615010	2422.274423
359.004084	2404.630385
359.393095	2366.821731
359.782043	2470.165385
360.170927	2518.056346
360.559748	2409.671538
360.948505	2371.862885
361.337199	2507.974038
361.725830	2450.000769
362.114398	2467.644808
362.502903	2485.288846
362.891344	2495.371154
363.279722	2437.397885
363.668037	2525.618077
364.056289	2442.439038
364.444478	2477.727115
364.832603	2462.603654
365.220665	2492.850577
365.608665	2402.109808
365.996601	2424.795000
366.384474	2462.603654
366.772284	2460.083077
367.160031	2480.247692
367.547715	2399.589231
367.935336	2366.821731
368.322893	2515.535769
368.710388	2394.548077
369.097820	2470.165385
369.485189	2434.877308
369.872495	2447.480192
370.259738	2487.809423
370.646918	2472.685962
371.034035	2394.548077
371.421090	2472.685962
371.808081	2407.150962
372.195010	2376.904038
372.581875	2470.165385
372.968678	2376.904038
373.355418	2470.165385
373.742096	2356.739423
374.128710	2472.685962
374.515262	2510.494615
374.901751	2386.986346
375.288177	2455.041923
375.674540	2402.109808
376.060841	2404.630385
376.447079	2510.494615
376.833254	2482.768269
377.219367	2442.439038
377.605417	2399.589231
377.991404	2457.562500
378.377329	2525.618077
378.763191	2450.000769
379.148991	2480.247692
379.534727	2475.206538
379.920402	2462.603654
380.306013	2392.027500
380.691563	2485.288846
381.077049	2505.453462
381.462474	2477.727115
381.847835	2419.753846
382.233134	2399.589231
382.618371	2402.109808
383.003545	2548.303269
383.388657	2487.809423
383.773706	2500.412308
384.158693	2475.206538
384.543618	2465.124231
384.928480	2502.932885
385.313280	2477.727115
385.698017	2500.412308
386.082692	2457.562500
386.467305	2412.192115
386.851856	2450.000769
387.236344	2487.809423
387.620770	2490.330000
388.005133	2427.315577
388.389435	2455.041923
388.773674	2485.288846
389.157851	2386.986346
389.541965	2450.000769
389.926018	2371.862885
390.310008	2502.932885
390.693936	2442.439038
391.077802	2442.439038
391.461606	2460.083077
391.845348	2460.083077
392.229027	2495.371154
392.612645	2485.288846
392.996200	2515.535769
393.379694	2515.535769
393.763125	2455.041923
394.146494	2381.945192
394.529801	2583.591346
394.913047	2412.192115
395.296230	2487.809423
395.679351	2437.397885
396.062410	2505.453462
396.445408	2490.330000
396.828343	2434.877308
397.211217	2472.685962
397.594028	2497.891731
397.976778	2492.850577
398.359466	2439.918462
398.742092	2472.685962
399.124656	2495.371154
399.507158	2497.891731
399.889598	2455.041923
400.271977	2394.548077
400.654294	2550.823846
401.036549	2452.521346
401.418742	2452.521346
401.800874	2427.315577
402.182944	2407.150962
402.564952	2439.918462
402.946898	2490.330000
403.328783	2520.576923
403.710606	2442.439038
404.092367	2422.274423
404.474067	2470.165385
404.855705	2470.165385
405.237282	2424.795000
405.618797	2470.165385
406.000250	2460.083077
406.381642	2470.165385
406.762972	2434.877308
407.144240	2402.109808
407.525447	2500.412308
407.906593	2490.330000
408.287677	2510.494615
408.668700	2578.550192
409.049661	2460.083077
409.430560	2480.247692
409.811399	2409.671538
410.192176	2460.083077
410.572891	2482.768269
410.953545	2495.371154
411.334138	2500.412308
411.714669	2389.506923
412.095139	2535.700385
412.475547	2444.959615
412.855894	2548.303269
413.236180	2505.453462
413.616405	2510.494615
413.996568	2457.562500
414.376670	2497.891731
414.756711	2482.768269
415.136691	2482.768269
415.516609	2424.795000
415.896466	2447.480192
416.276262	2432.356731
416.655997	2364.301154
417.035670	2510.494615
417.415283	2477.727115
417.794834	2427.315577
418.174324	2510.494615
418.553753	2507.974038
418.933121	2465.124231
419.312428	2513.015192
419.691674	2477.727115
420.070859	2424.795000
420.449983	2497.891731
420.829045	2513.015192
421.208047	2470.165385
421.586988	2467.644808
421.965867	2573.509038
422.344686	2518.056346
422.723444	2515.535769
423.102141	2525.618077
423.480777	2553.344423
423.859352	2455.041923
424.237866	2452.521346
424.616319	2437.397885
424.994712	2427.315577
425.373044	2460.083077
425.751314	2392.027500
426.129524	2434.877308
426.507673	2467.644808
426.885762	2447.480192
427.263789	2485.288846
427.641756	2495.371154
428.019662	2518.056346
428.397508	2427.315577
428.775292	2472.685962
429.153016	2502.932885
429.530679	2492.850577
429.908282	2447.480192
430.285824	2407.150962
430.663305	2490.330000
431.040726	2394.548077
431.418086	2550.823846
431.795385	2472.685962
432.172624	2467.644808
432.549802	2439.918462
432.926920	2462.603654
433.303977	2606.276538
433.680974	2444.959615
434.057910	2573.509038
434.434786	2475.206538
434.811601	2480.247692
435.188355	2432.356731
435.565050	2477.727115
435.941683	2485.288846
436.318257	2518.056346
436.694770	2455.041923
437.071222	2460.083077
437.447614	2371.862885
437.823946	2492.850577
438.200218	2563.426731
438.576429	2472.685962
438.952580	2414.712692
439.328670	2444.959615
439.704700	2530.659231
440.080670	2455.041923
440.456580	2444.959615
440.832429	2397.068654
441.208218	2518.056346
441.583947	2485.288846
441.959616	2573.509038
442.335224	2477.727115
442.710773	2477.727115
443.086261	2482.768269
443.461689	2487.809423
443.837057	2505.453462
444.212365	2513.015192
444.587612	2452.521346
444.962800	2505.453462
445.337927	2482.768269
445.712995	2442.439038
446.088002	2490.330000
446.462949	2495.371154
446.837837	2568.467885
447.212664	2570.988462
447.587431	2470.165385
447.962139	2515.535769
448.336786	2447.480192
448.711374	2507.974038
449.085901	2490.330000
449.460369	2525.618077
449.834776	2568.467885
450.209124	2482.768269
450.583412	2467.644808
450.957640	2465.124231
451.331808	2487.809423
451.705917	2538.220962
452.079965	2505.453462
452.453954	2548.303269
452.827883	2573.509038
453.201752	2467.644808
453.575562	2497.891731
453.949311	2427.315577
454.323001	2634.002885
454.696632	2409.671538
455.070202	2381.945192
455.443713	2538.220962
455.817164	2502.932885
456.190556	2515.535769
456.563888	2439.918462
456.937160	2450.000769
457.310373	2472.685962
457.683526	2465.124231
458.056619	2507.974038
458.429653	2545.782692
458.802628	2555.865000
459.175542	2465.124231
459.548398	2533.179808
459.921194	2467.644808
460.293930	2477.727115
460.666607	2427.315577
461.039224	2472.685962
461.411782	2444.959615
461.784280	2538.220962
462.156719	2513.015192
462.529099	2543.262115
462.901419	2399.589231
463.273680	2482.768269
463.645882	2533.179808
464.018024	2475.206538
464.390106	2631.482308
464.762130	2530.659231
465.134094	2495.371154
465.505999	2439.918462
465.877845	2472.685962
466.249631	2530.659231
466.621358	2419.753846
466.993026	2528.138654
467.364634	2404.630385
467.736184	2450.000769
468.107674	2485.288846
468.479105	2495.371154
468.850477	2472.685962
469.221790	2462.603654
469.593043	2586.111923
469.964238	2477.727115
470.335373	2457.562500
470.706449	2510.494615
471.077467	2460.083077
471.448425	2457.562500
471.819324	2507.974038
472.190164	2462.603654
472.560945	2414.712692
472.931667	2455.041923
473.302330	2477.727115
473.672934	2518.056346
474.043479	2434.877308
474.413965	2462.603654
474.784393	2437.397885
475.154761	2472.685962
475.525070	2523.097500
475.895321	2477.727115
476.265513	2485.288846
476.635645	2548.303269
477.005719	2424.795000
477.375734	2480.247692
477.745691	2487.809423
478.115588	2472.685962
478.485427	2462.603654
478.855207	2482.768269
479.224928	2540.741538
479.594591	2467.644808
479.964194	2520.576923
480.333739	2434.877308
480.703226	2475.206538
481.072653	2525.618077
481.442022	2513.015192
481.811333	2535.700385
482.180584	2548.303269
482.549777	2553.344423
482.918912	2578.550192
483.287988	2439.918462
483.657005	2538.220962
484.025964	2487.809423
484.394864	2520.576923
484.763706	2482.768269
485.132489	2646.605769
485.501213	2432.356731
485.869879	2528.138654
486.238487	2409.671538
486.607036	2586.111923
486.975527	2472.685962
487.343959	2535.700385
487.712333	2492.850577
488.080648	2505.453462
488.448905	2442.439038
488.817104	2465.124231
489.185244	2422.274423
489.553326	2470.165385
489.921350	2538.220962
490.289315	2475.206538
490.657222	2518.056346
491.025070	2475.206538
491.392861	2550.823846
491.760593	2492.850577
492.128267	2528.138654
492.495883	2507.974038
492.863440	2553.344423
493.230939	2495.371154
493.598380	2525.618077
493.965763	2402.109808
494.333088	2563.426731
494.700354	2399.589231
495.067563	2563.426731
495.434713	2492.850577
495.801805	2510.494615
496.168839	2490.330000
496.535815	2460.083077
496.902733	2490.330000
497.269593	2560.906154
497.636395	2515.535769
498.003139	2485.288846
498.369825	2540.741538
498.736453	2460.083077
499.103023	2414.712692
499.469535	2462.603654
499.835989	2523.097500
500.202385	2475.206538
500.568723	2439.918462
500.935003	2447.480192
501.301226	2444.959615
501.667390	2465.124231
502.033497	2518.056346
502.399546	2490.330000
502.765537	2402.109808
503.131470	2417.233269
503.497345	2457.562500
503.863163	2427.315577
504.228923	2495.371154
504.594625	2505.453462
504.960269	2477.727115
505.325856	2477.727115
505.691385	2543.262115
506.056856	2442.439038
506.422270	2487.809423
506.787625	2502.932885
507.152924	2538.220962
507.518164	2515.535769
507.883347	2505.453462
508.248472	2477.727115
508.613540	2505.453462
508.978550	2402.109808
509.343503	2528.138654
509.708398	2533.179808
510.073236	2487.809423
510.438016	2583.591346
510.802738	2530.659231
511.167403	2548.303269
511.532010	2490.330000
511.896561	2482.768269
512.261053	2515.535769
512.625488	2444.959615
512.989866	2487.809423
513.354186	2455.041923
513.718449	2500.412308
514.082655	2432.356731
514.446803	2447.480192
514.810894	2497.891731
515.174927	2432.356731
515.538904	2434.877308
515.902822	2550.823846
516.266684	2497.891731
516.630488	2487.809423
516.994235	2399.589231
517.357925	2507.974038
517.721558	2500.412308
518.085133	2513.015192
518.448651	2523.097500
518.812112	2424.795000
519.175516	2477.727115
519.538863	2444.959615
519.902152	2485.288846
520.265385	2596.194231
520.628560	2432.356731
520.991678	2502.932885
521.354739	2467.644808
521.717743	2573.509038
522.080690	2513.015192
522.443580	2475.206538
522.806413	2490.330000
523.169189	2457.562500
523.531908	2465.124231
523.894569	2460.083077
524.257174	2492.850577
524.619722	2505.453462
524.982213	2497.891731
525.344647	2447.480192
525.707025	2520.576923
526.069345	2455.041923
526.431608	2502.932885
526.793815	2492.850577
527.155964	2533.179808
527.518057	2470.165385
527.880093	2507.974038
528.242072	2545.782692
528.603995	2510.494615
528.965860	2500.412308
529.327669	2555.865000
529.689421	2497.891731
530.051117	2457.562500
530.412755	2576.029615
530.774337	2455.041923
531.135862	2513.015192
531.497331	2477.727115
531.858743	2477.727115
532.220098	2523.097500
532.581396	2487.809423
532.942638	2520.576923
533.303824	2603.755962
533.664953	2492.850577
534.026025	2495.371154
534.387040	2502.932885
534.747999	2444.959615
535.108902	2470.165385
535.469748	2515.535769
535.830537	2502.932885
536.191270	2460.083077
536.551947	2497.891731
536.912567	2581.070769
537.273131	2487.809423
537.633638	2550.823846
537.994089	2439.918462
538.354483	2528.138654
538.714821	2505.453462
539.075103	2422.274423
539.435328	2555.865000
539.795497	2525.618077
540.155609	2457.562500
540.515665	2518.056346
540.875665	2520.576923
541.235609	2518.056346
541.595496	2502.932885
541.955328	2502.932885
542.315102	2528.138654
542.674821	2530.659231
543.034483	2472.685962
543.394090	2510.494615
543.753640	2480.247692
544.113134	2457.562500
544.472571	2535.700385
544.831953	2545.782692
545.191278	2540.741538
545.550548	2500.412308
545.909761	2487.809423
546.268918	2497.891731
546.628019	2482.768269
546.987064	2535.700385
547.346053	2555.865000
547.704986	2437.397885
548.063863	2553.344423
548.422684	2495.371154
548.781449	2563.426731
549.140158	2518.056346
549.498811	2563.426731
549.857408	2485.288846
550.215949	2558.385577
550.574434	2495.371154
550.932864	2507.974038
551.291237	2419.753846
551.649555	2487.809423
552.007817	2472.685962
552.366022	2482.768269
552.724173	2523.097500
553.082267	2490.330000
553.440305	2492.850577
553.798288	2495.371154
554.156215	2500.412308
554.514086	2525.618077
554.871902	2485.288846
555.229661	2475.206538
555.587365	2523.097500
555.945014	2470.165385
556.302606	2407.150962
556.660143	2573.509038
557.017625	2523.097500
557.375050	2470.165385
557.732421	2480.247692
558.089735	2578.550192
558.446994	2490.330000
558.804197	2525.618077
559.161345	2450.000769
559.518437	2444.959615
559.875474	2482.768269
560.232455	2525.618077
560.589381	2533.179808
560.946251	2505.453462
561.303065	2487.809423
561.659825	2480.247692
562.016528	2417.233269
562.373177	2560.906154
562.729770	2518.056346
563.086307	2442.439038
563.442789	2450.000769
563.799216	2492.850577
564.155587	2535.700385
564.511904	2487.809423
564.868164	2495.371154
565.224370	2581.070769
565.580520	2434.877308
565.936615	2502.932885
566.292654	2457.562500
566.648638	2543.262115
567.004567	2500.412308
567.360441	2472.685962
567.716260	2490.330000
568.072023	2482.768269
568.427732	2490.330000
568.783385	2540.741538
569.138982	2424.795000
569.494525	2465.124231
569.850013	2535.700385
570.205445	2581.070769
570.560823	2460.083077
570.916145	2482.768269
571.271412	2507.974038
571.626625	2563.426731
571.981782	2500.412308
572.336884	2480.247692
572.691931	2450.000769
573.046923	2533.179808
573.401860	2444.959615
573.756743	2490.330000
574.111570	2439.918462
574.466342	2490.330000
574.821059	2455.041923
575.175722	2502.932885
575.530330	2424.795000
575.884882	2515.535769
576.239380	2535.700385
576.593823	2437.397885
576.948211	2480.247692
577.302544	2513.015192
577.656823	2392.027500
578.011047	2432.356731
578.365216	2492.850577
578.719330	2591.153077
579.073389	2439.918462
579.427394	2495.371154
579.781344	2535.700385
580.135239	2500.412308
580.489080	2495.371154
580.842866	2495.371154
581.196597	2452.521346
581.550273	2518.056346
581.903895	2475.206538
582.257463	2513.015192
582.610975	2492.850577
582.964434	2515.535769
583.317837	2492.850577
583.671186	2507.974038
584.024481	2520.576923
584.377721	2424.795000
584.730906	2543.262115
585.084037	2510.494615
585.437113	2513.015192
585.790135	2485.288846
586.143103	2548.303269
586.496016	2505.453462
586.848874	2475.206538
587.201679	2530.659231
587.554428	2553.344423
587.907124	2538.220962
588.259765	2568.467885
588.612352	2397.068654
588.964884	2444.959615
589.317362	2475.206538
589.669786	2528.138654
590.022155	2497.891731
590.374470	2502.932885
590.726731	2507.974038
591.078937	2528.138654
591.431090	2533.179808
591.783188	2513.015192
592.135232	2500.412308
592.487222	2442.439038
592.839157	2487.809423
593.191038	2500.412308
593.542866	2460.083077
593.894639	2510.494615
594.246358	2460.083077
594.598022	2477.727115
594.949633	2510.494615
595.301190	2540.741538
595.652692	2475.206538
596.004141	2500.412308
596.355535	2472.685962
596.706876	2525.618077
597.058162	2535.700385
597.409395	2558.385577
597.760573	2475.206538
598.111698	2500.412308
598.462768	2588.632500
598.813785	2528.138654
599.164748	2528.138654
599.515657	2553.344423
599.866511	2540.741538
600.217312	2467.644808
600.568060	2482.768269
600.918753	2497.891731
601.269392	2434.877308
601.619978	2460.083077
601.970510	2528.138654
602.320988	2520.576923
602.671412	2507.974038
603.021783	2487.809423
603.372100	2555.865000
603.722363	2548.303269
604.072572	2414.712692
604.422728	2477.727115
604.772830	2543.262115
605.122878	2492.850577
605.472872	2457.562500
605.822813	2462.603654
606.172701	2507.974038
606.522534	2555.865000
606.872314	2480.247692
607.222041	2462.603654
607.571714	2490.330000
607.921333	2477.727115
608.270899	2518.056346
608.620411	2460.083077
608.969870	2525.618077
609.319276	2495.371154
609.668627	2467.644808
610.017926	2502.932885
610.367171	2450.000769
610.716362	2477.727115
611.065500	2482.768269
611.414585	2568.467885
611.763616	2545.782692
612.112594	2505.453462
612.461518	2452.521346
612.810389	2520.576923
613.159207	2528.138654
613.507971	2477.727115
613.856682	2533.179808
614.205340	2525.618077
614.553945	2485.288846
614.902496	2543.262115
615.250994	2412.192115
615.599439	2490.330000
615.947830	2402.109808
616.296169	2507.974038
616.644454	2414.712692
616.992686	2535.700385
617.340864	2460.083077
617.688990	2520.576923
618.037063	2523.097500
618.385082	2417.233269
618.733048	2487.809423
619.080961	2550.823846
619.428821	2525.618077
619.776628	2480.247692
620.124382	2422.274423
620.472083	2573.509038
620.819731	2485.288846
621.167326	2523.097500
621.514868	2475.206538
621.862357	2434.877308
622.209793	2545.782692
622.557176	2568.467885
622.904506	2470.165385
623.251783	2513.015192
623.599007	2417.233269
623.946179	2492.850577
624.293297	2513.015192
624.640363	2520.576923
624.987376	2460.083077
625.334336	2492.850577
625.681243	2500.412308
626.028097	2581.070769
626.374899	2540.741538
626.721647	2404.630385
627.068343	2535.700385
627.414987	2490.330000
627.761577	2555.865000
628.108115	2500.412308
628.454600	2513.015192
628.801032	2518.056346
629.147412	2480.247692
629.493739	2497.891731
629.840014	2480.247692
630.186236	2616.358846
630.532405	2462.603654
630.878521	2520.576923
631.224585	2477.727115
631.570597	2505.453462
631.916556	2487.809423
632.262462	2581.070769
632.608316	2485.288846
632.954117	2518.056346
633.299866	2447.480192
633.645562	2386.986346
633.991206	2576.029615
634.336797	2513.015192
634.682336	2422.274423
635.027823	2477.727115
635.373257	2538.220962
635.718639	2593.673654
636.063968	2404.630385
636.409245	2565.947308
636.754470	2447.480192
637.099642	2452.521346
637.444762	2500.412308
637.789829	2502.932885
638.134845	2462.603654
638.479808	2467.644808
638.824719	2505.453462
639.169577	2480.247692
639.514383	2540.741538
639.859137	2591.153077
640.203839	2467.644808
640.548489	2497.891731
640.893086	2530.659231
641.237632	2434.877308
641.582125	2545.782692
641.926566	2513.015192
642.270955	2553.344423
642.615292	2495.371154
642.959576	2573.509038
643.303809	2538.220962
643.647990	2525.618077
643.992118	2475.206538
644.336195	2513.015192
644.680219	2560.906154
645.024192	2452.521346
645.368112	2412.192115
645.711981	2417.233269
646.055797	2540.741538
646.399562	2490.330000
646.743274	2505.453462
647.086935	2480.247692
647.430544	2502.932885
647.774101	2500.412308
648.117606	2530.659231
648.461059	2477.727115
648.804460	2505.453462
649.147810	2535.700385
649.491108	2495.371154
649.834354	2550.823846
650.177548	2548.303269
650.520690	2467.644808
650.863781	2523.097500
651.206820	2477.727115
651.549807	2510.494615
651.892742	2523.097500
652.235626	2502.932885
652.578458	2500.412308
652.921238	2397.068654
653.263967	2530.659231
653.606644	2545.782692
653.949269	2455.041923
654.291843	2555.865000
654.634365	2528.138654
654.976836	2455.041923
655.319255	2492.850577
655.661622	2568.467885
656.003938	2523.097500
656.346203	2442.439038
656.688416	2472.685962
657.030577	2525.618077
657.372687	2573.509038
657.714746	2515.535769
658.056753	2434.877308
658.398708	2535.700385
658.740612	2507.974038
659.082465	2510.494615
659.424266	2518.056346
659.766016	2492.850577
660.107715	2548.303269
660.449362	2533.179808
660.790958	2475.206538
661.132503	2513.015192
661.473996	2565.947308
661.815438	2502.932885
662.156829	2485.288846
662.498168	2528.138654
662.839456	2480.247692
663.180693	2528.138654
663.521879	2550.823846
663.863013	2528.138654
664.204097	2523.097500
664.545129	2530.659231
664.886110	2538.220962
665.227040	2470.165385
665.567918	2467.644808
665.908746	2480.247692
666.249522	2495.371154
666.590248	2523.097500
666.930922	2424.795000
667.271545	2482.768269
667.612118	2570.988462
667.952639	2513.015192
668.293109	2510.494615
668.633528	2492.850577
668.973896	2439.918462
669.314213	2450.000769
669.654480	2540.741538
669.994695	2485.288846
670.334859	2505.453462
670.674973	2475.206538
671.015035	2570.988462
671.355047	2570.988462
671.695008	2513.015192
672.034918	2417.233269
672.374777	2507.974038
672.714585	2515.535769
673.054342	2490.330000
673.394049	2470.165385
673.733705	2573.509038
674.073310	2442.439038
674.412864	2502.932885
674.752368	2490.330000
675.091820	2485.288846
675.431223	2510.494615
675.770574	2505.453462
676.109875	2414.712692
676.449125	2555.865000
676.788324	2417.233269
677.127473	2525.618077
677.466571	2482.768269
677.805619	2513.015192
678.144616	2492.850577
678.483562	2563.426731
678.822458	2523.097500
679.161303	2560.906154
679.500098	2480.247692
679.838842	2591.153077
680.177535	2429.836154
680.516179	2429.836154
680.854771	2530.659231
681.193314	2560.906154
681.531805	2515.535769
681.870247	2495.371154
682.208638	2475.206538
682.546978	2439.918462
682.885268	2495.371154
683.223508	2452.521346
683.561697	2477.727115
683.899836	2523.097500
684.237925	2424.795000
684.575963	2528.138654
684.913951	2520.576923
685.251889	2462.603654
685.589776	2540.741538
685.927614	2477.727115
686.265401	2528.138654
686.603137	2535.700385
686.940824	2424.795000
687.278460	2465.124231
687.616046	2487.809423
687.953582	2467.644808
688.291068	2548.303269
688.628504	2467.644808
688.965889	2583.591346
689.303224	2513.015192
689.640510	2482.768269
689.977745	2543.262115
690.314930	2487.809423
690.652065	2510.494615
690.989150	2510.494615
691.326185	2530.659231
691.663170	2510.494615
692.000105	2417.233269
692.336990	2505.453462
692.673825	2480.247692
693.010610	2550.823846
693.347345	2510.494615
693.684030	2452.521346
694.020665	2472.685962
694.357251	2465.124231
694.693786	2545.782692
695.030272	2434.877308
695.366707	2545.782692
695.703093	2444.959615
696.039429	2467.644808
696.375716	2492.850577
696.711952	2513.015192
697.048139	2533.179808
697.384276	2528.138654
697.720363	2472.685962
698.056400	2525.618077
698.392388	2515.535769
698.728326	2450.000769
699.064214	2507.974038
699.400053	2460.083077
699.735842	2513.015192
700.071581	2568.467885
700.407270	2560.906154
700.742910	2533.179808
701.078501	2455.041923
701.414042	2495.371154
701.749533	2442.439038
702.084974	2399.589231
702.420366	2550.823846
702.755709	2487.809423
703.091002	2507.974038
703.426246	2535.700385
703.761440	2500.412308
704.096584	2520.576923
704.431679	2513.015192
704.766725	2543.262115
705.101721	2447.480192
705.436668	2480.247692
705.771565	2495.371154
706.106413	2444.959615
706.441212	2596.194231
706.775961	2553.344423
707.110661	2505.453462
707.445311	2467.644808
707.779913	2518.056346
708.114465	2487.809423
708.448967	2525.618077
708.783421	2492.850577
709.117825	2518.056346
709.452180	2452.521346
709.786485	2523.097500
710.120742	2412.192115
710.454949	2560.906154
710.789107	2533.179808
711.123216	2490.330000
711.457275	2530.659231
711.791286	2460.083077
712.125247	2455.041923
712.459159	2500.412308
712.793023	2525.618077
713.126837	2520.576923
713.460602	2586.111923
713.794318	2513.015192
714.127985	2591.153077
714.461602	2467.644808
714.795171	2505.453462
715.128691	2472.685962
715.462162	2455.041923
715.795584	2505.453462
716.128957	2502.932885
716.462281	2437.397885
716.795556	2500.412308
717.128782	2578.550192
717.461960	2513.015192
717.795088	2495.371154
718.128167	2507.974038
718.461198	2515.535769
718.794180	2507.974038
719.127113	2505.453462
719.459997	2472.685962
719.792833	2497.891731
720.125619	2472.685962
720.458357	2462.603654
720.791046	2482.768269
721.123686	2490.330000
721.456278	2518.056346
721.788821	2505.453462
722.121315	2581.070769
722.453761	2485.288846
722.786158	2505.453462
723.118506	2538.220962
723.450805	2427.315577
723.783056	2515.535769
724.115259	2452.521346
724.447412	2482.768269
724.779518	2462.603654
725.111574	2472.685962
725.443582	2457.562500
725.775542	2510.494615
726.107453	2515.535769
726.439315	2505.453462
726.771129	2490.330000
727.102895	2487.809423
727.434612	2581.070769
727.766281	2528.138654
728.097901	2492.850577
728.429473	2444.959615
728.760996	2472.685962
729.092471	2520.576923
729.423897	2518.056346
729.755276	2475.206538
730.086606	2437.397885
730.417887	2490.330000
730.749120	2465.124231
731.080305	2518.056346
731.411442	2472.685962
731.742530	2462.603654
732.073570	2490.330000
732.404562	2437.397885
732.735506	2523.097500
733.066401	2414.712692
733.397249	2540.741538
733.728048	2555.865000
734.058798	2528.138654
734.389501	2545.782692
734.720156	2412.192115
735.050762	2429.836154
735.381320	2502.932885
735.711831	2452.521346
736.042293	2603.755962
736.372707	2586.111923
736.703073	2495.371154
737.033391	2500.412308
737.363661	2429.836154
737.693883	2520.576923
738.024056	2417.233269
738.354182	2528.138654
738.684260	2475.206538
739.014290	2470.165385
739.344272	2500.412308
739.674207	2492.850577
740.004093	2507.974038
740.333931	2472.685962
740.663722	2530.659231
740.993464	2560.906154
741.323159	2535.700385
741.652806	2422.274423
741.982405	2470.165385
742.311956	2480.247692
742.641460	2560.906154
742.970915	2578.550192
743.300323	2455.041923
743.629683	2510.494615
743.958996	2581.070769
744.288260	2424.795000
744.617477	2482.768269
744.946647	2492.850577
745.275768	2540.741538
745.604842	2470.165385
745.933869	2492.850577
746.262847	2450.000769
746.591778	2530.659231
746.920662	2460.083077
747.249498	2429.836154
747.578286	2465.124231
747.907027	2414.712692
748.235720	2470.165385
748.564365	2500.412308
748.892963	2434.877308
749.221514	2568.467885
749.550017	2533.179808
749.878473	2475.206538
750.206881	2540.741538
750.535242	2573.509038
750.863555	2518.056346
751.191821	2530.659231
751.520039	2538.220962
751.848210	2525.618077
752.176334	2525.618077
752.504411	2472.685962
752.832440	2455.041923
753.160421	2477.727115
753.488356	2437.397885
753.816243	2507.974038
754.144082	2555.865000
754.471875	2457.562500
754.799620	2452.521346
755.127318	2482.768269
755.454969	2528.138654
755.782572	2472.685962
756.110129	2528.138654
756.437638	2490.330000
756.765100	2535.700385
757.092515	2487.809423
757.419882	2520.576923
757.747203	2538.220962
758.074477	2495.371154
758.401703	2528.138654
758.728882	2462.603654
759.056014	2485.288846
759.383099	2573.509038
759.710138	2452.521346
760.037129	2538.220962
760.364073	2475.206538
760.690970	2513.015192
761.017820	2475.206538
761.344623	2535.700385
761.671379	2477.727115
761.998088	2523.097500
762.324751	2560.906154
762.651366	2417.233269
762.977935	2487.809423
763.304456	2573.509038
763.630931	2540.741538
763.957359	2540.741538
764.283740	2497.891731
764.610074	2548.303269
764.936362	2424.795000
765.262602	2444.959615
765.588796	2570.988462
765.914943	2482.768269
766.241044	2457.562500
766.567097	2492.850577
766.893104	2497.891731
767.219064	2394.548077
767.544978	2490.330000
767.870845	2558.385577
768.196665	2525.618077
768.522438	2588.632500
768.848165	2482.768269
769.173846	2550.823846
769.499479	2452.521346
769.825066	2497.891731
770.150607	2432.356731
770.476101	2444.959615
770.801548	2470.165385
771.126949	2480.247692
771.452303	2502.932885
771.777611	2520.576923
772.102872	2472.685962
772.428087	2535.700385
772.753256	2429.836154
773.078378	2560.906154
773.403453	2485.288846
773.728482	2525.618077
774.053465	2462.603654
774.378401	2535.700385
774.703291	2535.700385
775.028135	2457.562500
775.352932	2538.220962
775.677683	2439.918462
776.002388	2543.262115
776.327046	2442.439038
776.651658	2533.179808
776.976224	2442.439038
777.300743	2414.712692
777.625216	2439.918462
777.949643	2439.918462
778.274024	2576.029615
778.598359	2550.823846
778.922647	2447.480192
779.246889	2444.959615
779.571086	2591.153077
779.895236	2487.809423
780.219339	2525.618077
780.543397	2518.056346
780.867409	2563.426731
781.191374	2465.124231
781.515294	2487.809423
781.839167	2477.727115
782.162995	2482.768269
782.486776	2465.124231
782.810511	2462.603654
783.134201	2513.015192
783.457844	2502.932885
783.781441	2455.041923
784.104993	2507.974038
784.428498	2500.412308
784.751958	2525.618077
785.075372	2465.124231
785.398739	2477.727115
785.722061	2528.138654
786.045337	2510.494615
786.368568	2477.727115
786.691752	2538.220962
787.014891	2487.809423
787.337983	2417.233269
787.661030	2480.247692
787.984031	2533.179808
788.306987	2447.480192
788.629897	2518.056346
788.952760	2533.179808
789.275579	2470.165385
789.598351	2596.194231
789.921078	2502.932885
790.243759	2477.727115
790.566395	2480.247692
790.888984	2520.576923
791.211529	2553.344423
791.534027	2565.947308
791.856480	2477.727115
792.178888	2485.288846
792.501249	2460.083077
792.823566	2495.371154
793.145836	2543.262115
793.468062	2467.644808
793.790241	2558.385577
794.112375	2530.659231
794.434464	2427.315577
794.756507	2439.918462
795.078505	2482.768269
795.400457	2417.233269
795.722364	2540.741538
796.044226	2487.809423
796.366042	2500.412308
796.687812	2444.959615
797.009538	2467.644808
797.331218	2439.918462
797.652852	2482.768269
797.974442	2495.371154
798.295986	2523.097500
798.617484	2523.097500
798.938938	2439.918462
799.260346	2419.753846
799.581709	2513.015192
799.903026	2414.712692
800.224299	2570.988462
800.545526	2450.000769
800.866708	2565.947308
801.187845	2444.959615
801.508936	2427.315577
801.829983	2409.671538
802.150984	2515.535769
802.471940	2497.891731
802.792851	2407.150962
803.113717	2513.015192
803.434538	2470.165385
803.755314	2462.603654
804.076045	2518.056346
804.396731	2518.056346
804.717372	2560.906154
805.037967	2465.124231
805.358518	2505.453462
805.679024	2437.397885
805.999485	2472.685962
806.319901	2444.959615
806.640272	2538.220962
806.960598	2563.426731
807.280879	2467.644808
807.601115	2596.194231
807.921306	2518.056346
808.241453	2563.426731
808.561554	2419.753846
808.881611	2563.426731
809.201623	2507.974038
809.521590	2386.986346
809.841513	2500.412308
810.161390	2570.988462
810.481223	2460.083077
810.801011	2533.179808
811.120755	2492.850577
811.440453	2450.000769
811.760107	2505.453462
812.079716	2495.371154
812.399281	2455.041923
812.718801	2540.741538
813.038276	2550.823846
813.357707	2497.891731
813.677093	2507.974038
813.996434	2528.138654
814.315731	2535.700385
814.634983	2414.712692
814.954191	2402.109808
815.273354	2452.521346
815.592473	2533.179808
815.911547	2513.015192
816.230577	2422.274423
816.549562	2520.576923
816.868502	2465.124231
817.187399	2409.671538
817.506250	2490.330000
817.825058	2485.288846
818.143821	2515.535769
818.462539	2538.220962
818.781213	2490.330000
819.099843	2530.659231
819.418429	2502.932885
819.736970	2502.932885
820.055466	2472.685962
820.373919	2475.206538
820.692327	2490.330000
821.010691	2570.988462
821.329011	2505.453462
821.647286	2495.371154
821.965517	2482.768269
822.283704	2439.918462
822.601847	2490.330000
822.919945	2518.056346
823.237999	2497.891731
823.556010	2505.453462
823.873976	2490.330000
824.191897	2555.865000
824.509775	2568.467885
824.827609	2548.303269
825.145398	2553.344423
825.463144	2450.000769
825.780845	2502.932885
826.098502	2533.179808
826.416116	2513.015192
826.733685	2434.877308
827.051210	2465.124231
827.368692	2500.412308
827.686129	2434.877308
828.003522	2455.041923
828.320872	2507.974038
828.638177	2402.109808
828.955439	2515.535769
829.272656	2492.850577
829.589830	2492.850577
829.906960	2462.603654
830.224046	2520.576923
830.541088	2432.356731
830.858086	2450.000769
831.175041	2465.124231
831.491952	2414.712692
831.808819	2520.576923
832.125642	2490.330000
832.442421	2480.247692
832.759157	2523.097500
833.075849	2487.809423
833.392497	2596.194231
833.709101	2490.330000
834.025662	2550.823846
834.342179	2545.782692
834.658653	2467.644808
834.975083	2548.303269
835.291469	2470.165385
835.607811	2490.330000
835.924110	2487.809423
836.240366	2472.685962
836.556578	2528.138654
836.872746	2369.342308
837.188871	2505.453462
837.504952	2538.220962
837.820990	2495.371154
838.136984	2452.521346
838.452935	2490.330000
838.768842	2487.809423
839.084706	2523.097500
839.400526	2462.603654
839.716303	2485.288846
840.032037	2480.247692
840.347727	2583.591346
840.663373	2525.618077
840.978977	2540.741538
841.294537	2427.315577
841.610054	2470.165385
841.925527	2520.576923
842.240957	2523.097500
842.556344	2450.000769
842.871687	2467.644808
843.186987	2455.041923
843.502244	2560.906154
843.817458	2510.494615
844.132629	2570.988462
844.447756	2417.233269
844.762840	2613.838269
845.077881	2560.906154
845.392879	2601.235385
845.707833	2475.206538
846.022745	2528.138654
846.337613	2455.041923
846.652438	2475.206538
846.967221	2525.618077
847.281960	2477.727115
847.596656	2487.809423
847.911309	2427.315577
848.225919	2462.603654
848.540485	2351.698269
848.855009	2528.138654
849.169490	2442.439038
849.483928	2558.385577
849.798323	2450.000769
850.112675	2560.906154
850.426984	2487.809423
850.741251	2510.494615
851.055474	2472.685962
851.369654	2490.330000
851.683792	2394.548077
851.997887	2497.891731
852.311938	2460.083077
852.625947	2460.083077
852.939914	2399.589231
853.253837	2502.932885
853.567718	2427.315577
853.881555	2535.700385
854.195350	2495.371154
854.509103	2485.288846
854.822812	2424.795000
855.136479	2452.521346
855.450103	2432.356731
855.763685	2417.233269
856.077224	2528.138654
856.390720	2371.862885
856.704173	2450.000769
857.017584	2495.371154
857.330953	2407.150962
857.644278	2487.809423
857.957561	2444.959615
858.270802	2520.576923
858.584000	2543.262115
858.897155	2492.850577
859.210268	2477.727115
859.523339	2623.920577
859.836367	2490.330000
860.149352	2545.782692
860.462295	2439.918462
860.775195	2452.521346
861.088054	2530.659231
861.400869	2586.111923
861.713642	2477.727115
862.026373	2530.659231
862.339062	2480.247692
862.651708	2555.865000
862.964312	2523.097500
863.276873	2457.562500
863.589392	2550.823846
863.901869	2555.865000
864.214303	2492.850577
864.526696	2500.412308
864.839045	2497.891731
865.151353	2500.412308
865.463619	2402.109808
865.775842	2500.412308
866.088023	2470.165385
866.400162	2467.644808
866.712258	2485.288846
867.024313	2414.712692
867.336325	2424.795000
867.648296	2555.865000
867.960224	2492.850577
868.272110	2553.344423
868.583954	2553.344423
868.895755	2487.809423
869.207515	2513.015192
869.519233	2434.877308
869.830909	2515.535769
870.142542	2510.494615
870.454134	2472.685962
870.765684	2500.412308
871.077191	2432.356731
871.388657	2497.891731
871.700081	2444.959615
872.011463	2404.630385
872.322803	2475.206538
872.634101	2510.494615
872.945357	2528.138654
873.256571	2533.179808
873.567744	2513.015192
873.878874	2462.603654
874.189963	2596.194231
874.501010	2507.974038
874.812015	2450.000769
875.122979	2470.165385
875.433900	2490.330000
875.744780	2472.685962
876.055618	2568.467885
876.366415	2429.836154
876.677169	2576.029615
876.987882	2475.206538
877.298554	2429.836154
877.609183	2381.945192
877.919771	2535.700385
878.230317	2543.262115
878.540822	2513.015192
878.851285	2510.494615
879.161707	2495.371154
879.472087	2523.097500
879.782425	2505.453462
880.092722	2510.494615
880.402977	2515.535769
880.713191	2513.015192
881.023363	2570.988462
881.333494	2593.673654
881.643583	2485.288846
881.953631	2492.850577
882.263637	2480.247692
882.573602	2525.618077
882.883526	2460.083077
883.193408	2538.220962
883.503248	2520.576923
883.813048	2444.959615
884.122806	2518.056346
884.432522	2560.906154
884.742197	2518.056346
885.051831	2545.782692
885.361424	2518.056346
885.670975	2523.097500
885.980485	2470.165385
886.289954	2397.068654
886.599382	2543.262115
886.908768	2502.932885
887.218113	2530.659231
887.527417	2520.576923
887.836680	2487.809423
888.145901	2460.083077
888.455082	2429.836154
888.764221	2495.371154
889.073319	2475.206538
889.382376	2497.891731
889.691392	2495.371154
890.000366	2510.494615
890.309300	2432.356731
890.618193	2523.097500
890.927044	2518.056346
891.235855	2427.315577
891.544625	2424.795000
891.853353	2535.700385
892.162041	2510.494615
892.470687	2482.768269
892.779293	2513.015192
893.087858	2477.727115
893.396381	2528.138654
893.704864	2485.288846
894.013306	2500.412308
894.321707	2555.865000
894.630068	2462.603654
894.938387	2487.809423
895.246665	2457.562500
895.554903	2404.630385
895.863100	2543.262115
896.171256	2570.988462
896.479371	2477.727115
896.787446	2422.274423
897.095480	2452.521346
897.403473	2470.165385
897.711425	2460.083077
898.019336	2392.027500
898.327207	2470.165385
898.635038	2495.371154
898.942827	2520.576923
899.250576	2540.741538
899.558284	2500.412308
899.865952	2419.753846
900.173579	2502.932885
900.481165	2510.494615
900.788711	2540.741538
901.096216	2414.712692
901.403681	2570.988462
901.711105	2480.247692
902.018489	2465.124231
902.325832	2460.083077
902.633135	2462.603654
902.940397	2560.906154
903.247619	2465.124231
903.554800	2427.315577
903.861941	2485.288846
904.169041	2500.412308
904.476101	2525.618077
904.783121	2568.467885
905.090100	2457.562500
905.397039	2442.439038
905.703938	2444.959615
906.010796	2417.233269
906.317614	2513.015192
906.624391	2507.974038
906.931129	2465.124231
907.237826	2447.480192
907.544483	2477.727115
907.851099	2500.412308
908.157675	2588.632500
908.464211	2457.562500
908.770707	2386.986346
909.077163	2457.562500
909.383578	2505.453462
909.689954	2502.932885
909.996289	2533.179808
910.302584	2513.015192
910.608839	2472.685962
910.915054	2523.097500
911.221229	2404.630385
911.527363	2485.288846
911.833458	2450.000769
912.139513	2510.494615
912.445527	2525.618077
912.751502	2447.480192
913.057436	2518.056346
913.363331	2485.288846
913.669186	2495.371154
913.975000	2513.015192
914.280775	2447.480192
914.586510	2482.768269
914.892205	2427.315577
915.197859	2538.220962
915.503475	2439.918462
915.809050	2558.385577
916.114585	2414.712692
916.420081	2432.356731
916.725536	2513.015192
917.030952	2530.659231
917.336328	2507.974038
917.641665	2467.644808
917.946961	2530.659231
918.252218	2550.823846
918.557435	2485.288846
918.862612	2462.603654
919.167750	2477.727115
919.472848	2530.659231
919.777906	2490.330000
920.082925	2628.961731
920.387904	2424.795000
920.692843	2422.274423
920.997743	2485.288846
921.302603	2460.083077
921.607423	2492.850577
921.912204	2477.727115
922.216946	2505.453462
922.521647	2437.397885
922.826310	2505.453462
923.130932	2535.700385
923.435516	2513.015192
923.740059	2533.179808
924.044564	2523.097500
924.349028	2533.179808
924.653454	2457.562500
924.957840	2530.659231
925.262186	2505.453462
925.566493	2495.371154
925.870761	2510.494615
926.174989	2452.521346
926.479178	2455.041923
926.783328	2578.550192
927.087438	2502.932885
927.391509	2444.959615
927.695541	2515.535769
927.999533	2442.439038
928.303486	2528.138654
928.607400	2465.124231
928.911275	2513.015192
929.215110	2553.344423
929.518906	2485.288846
929.822663	2497.891731
930.126381	2553.344423
930.430060	2500.412308
930.733699	2550.823846
931.037299	2467.644808
931.340861	2482.768269
931.644383	2505.453462
931.947866	2591.153077
932.251309	2384.465769
932.554714	2528.138654
932.858080	2480.247692
933.161407	2437.397885
933.464694	2520.576923
933.767943	2477.727115
934.071153	2538.220962
934.374323	2495.371154
934.677455	2477.727115
934.980548	2455.041923
935.283602	2417.233269
935.586617	2528.138654
935.889593	2533.179808
936.192530	2538.220962
936.495428	2442.439038
936.798287	2417.233269
937.101108	2442.439038
937.403890	2490.330000
937.706632	2603.755962
938.009336	2555.865000
938.312002	2462.603654
938.614628	2510.494615
938.917216	2470.165385
939.219765	2475.206538
939.522275	2477.727115
939.824747	2545.782692
940.127179	2460.083077
940.429573	2470.165385
940.731929	2487.809423
941.034246	2482.768269
941.336524	2507.974038
941.638763	2555.865000
941.940964	2465.124231
942.243126	2538.220962
942.545250	2510.494615
942.847335	2518.056346
943.149381	2523.097500
943.451389	2482.768269
943.753359	2533.179808
944.055290	2465.124231
944.357182	2573.509038
944.659036	2510.494615
944.960851	2515.535769
945.262628	2555.865000
945.564367	2513.015192
945.866067	2510.494615
946.167729	2450.000769
946.469352	2543.262115
946.770937	2573.509038
947.072484	2480.247692
947.373992	2485.288846
947.675462	2404.630385
947.976893	2520.576923
948.278286	2525.618077
948.579641	2570.988462
948.880958	2477.727115
949.182236	2472.685962
949.483476	2465.124231
949.784678	2513.015192
950.085841	2455.041923
950.386967	2482.768269
950.688054	2540.741538
950.989103	2487.809423
951.290114	2606.276538
951.591087	2548.303269
951.892021	2480.247692
952.192917	2515.535769
952.493776	2442.439038
952.794596	2573.509038
953.095378	2558.385577
953.396122	2535.700385
953.696828	2447.480192
953.997496	2540.741538
954.298126	2490.330000
954.598718	2558.385577
954.899272	2457.562500
955.199788	2482.768269
955.500266	2540.741538
955.800706	2450.000769
956.101108	2553.344423
956.401472	2482.768269
956.701798	2540.741538
957.002087	2490.330000
957.302337	2465.124231
957.602550	2596.194231
957.902724	2510.494615
958.202861	2530.659231
958.502960	2419.753846
958.803022	2538.220962
959.103045	2472.685962
959.403031	2505.453462
959.702979	2505.453462
960.002889	2520.576923
960.302762	2492.850577
960.602596	2530.659231
960.902393	2513.015192
961.202153	2467.644808
961.501875	2460.083077
961.801559	2465.124231
962.101205	2439.918462
962.400814	2510.494615
962.700385	2447.480192
962.999918	2495.371154
963.299414	2548.303269
963.598873	2515.535769
963.898293	2530.659231
964.197677	2573.509038
964.497022	2548.303269
964.796331	2462.603654
965.095601	2513.015192
965.394835	2510.494615
965.694030	2404.630385
965.993189	2563.426731
966.292309	2515.535769
966.591393	2545.782692
966.890439	2510.494615
967.189447	2563.426731
967.488419	2475.206538
967.787353	2472.685962
968.086249	2467.644808
968.385108	2470.165385
968.683930	2510.494615
968.982714	2548.303269
969.281462	2515.535769
969.580172	2502.932885
969.878844	2470.165385
970.177480	2424.795000
970.476078	2502.932885
970.774639	2442.439038
971.073162	2434.877308
971.371649	2444.959615
971.670098	2437.397885
971.968510	2480.247692
972.266885	2480.247692
972.565223	2457.562500
972.863524	2482.768269
973.161788	2507.974038
973.460014	2465.124231
973.758204	2399.589231
974.056356	2538.220962
974.354471	2525.618077
974.652550	2492.850577
974.950591	2452.521346
975.248595	2505.453462
975.546563	2507.974038
975.844493	2593.673654
976.142386	2485.288846
976.440243	2500.412308
976.738062	2507.974038
977.035845	2538.220962
977.333590	2535.700385
977.631299	2427.315577
977.928971	2480.247692
978.226606	2472.685962
978.524204	2432.356731
978.821765	2442.439038
979.119290	2497.891731
979.416777	2475.206538
979.714228	2550.823846
980.011642	2465.124231
980.309020	2576.029615
980.606360	2568.467885
980.903664	2437.397885
981.200931	2444.959615
981.498162	2523.097500
981.795356	2437.397885
982.092513	2482.768269
982.389633	2548.303269
982.686717	2538.220962
982.983764	2560.906154
983.280775	2442.439038
983.577749	2505.453462
983.874686	2472.685962
984.171587	2497.891731
984.468451	2470.165385
984.765279	2399.589231
985.062070	2492.850577
985.358824	2545.782692
985.655543	2442.439038
985.952224	2480.247692
986.248869	2515.535769
986.545478	2525.618077
986.842050	2386.986346
987.138586	2480.247692
987.435086	2515.535769
987.731549	2507.974038
988.027975	2523.097500
988.324366	2477.727115
988.620719	2520.576923
988.917037	2563.426731
989.213318	2427.315577
989.509563	2515.535769
989.805772	2462.603654
990.101944	2384.465769
990.398080	2525.618077
990.694180	2523.097500
990.990244	2492.850577
991.286271	2475.206538
991.582262	2472.685962
991.878217	2361.780577
992.174136	2545.782692
992.470019	2434.877308
992.765865	2467.644808
993.061676	2520.576923
993.357450	2429.836154
993.653188	2462.603654
993.948890	2457.562500
994.244556	2467.644808
994.540186	2515.535769
994.835780	2475.206538
995.131337	2480.247692
995.426859	2477.727115
995.722345	2457.562500
996.017795	2462.603654
996.313208	2507.974038
996.608586	2465.124231
996.903928	2497.891731
997.199234	2487.809423
997.494504	2450.000769
997.789738	2457.562500
998.084936	2538.220962
998.380099	2467.644808
998.675225	2447.480192
998.970316	2490.330000
999.265371	2523.097500
999.560390	2502.932885
999.855373	2492.850577
1000.150320	2412.192115
1000.445232	2419.753846
1000.740108	2510.494615
1001.034948	2530.659231
1001.329752	2455.041923
1001.624521	2520.576923
1001.919254	2394.548077
1002.213951	2535.700385
1002.508613	2434.877308
1002.803239	2487.809423
1003.097829	2495.371154
1003.392384	2482.768269
1003.686903	2538.220962
1003.981386	2523.097500
1004.275834	2518.056346
1004.570246	2427.315577
1004.864623	2530.659231
1005.158964	2417.233269
1005.453270	2490.330000
1005.747540	2442.439038
1006.041775	2563.426731
1006.335974	2434.877308
1006.630138	2487.809423
1006.924266	2495.371154
1007.218359	2586.111923
1007.512416	2455.041923
1007.806438	2482.768269
1008.100425	2507.974038
1008.394376	2482.768269
1008.688292	2417.233269
1008.982172	2502.932885
1009.276017	2545.782692
1009.569827	2538.220962
1009.863602	2450.000769
1010.157341	2528.138654
1010.451045	2520.576923
1010.744714	2553.344423
1011.038347	2457.562500
1011.331945	2515.535769
1011.625508	2467.644808
1011.919036	2510.494615
1012.212528	2465.124231
1012.505986	2553.344423
1012.799408	2452.521346
1013.092795	2523.097500
1013.386147	2450.000769
1013.679464	2538.220962
1013.972745	2364.301154
1014.265992	2439.918462
1014.559204	2515.535769
1014.852380	2439.918462
1015.145521	2492.850577
1015.438628	2502.932885
1015.731699	2470.165385
1016.024736	2518.056346
1016.317737	2485.288846
1016.610703	2485.288846
1016.903635	2460.083077
1017.196531	2535.700385
1017.489393	2447.480192
1017.782219	2492.850577
1018.075011	2432.356731
1018.367768	2540.741538
1018.660490	2447.480192
1018.953177	2447.480192
1019.245829	2447.480192
