Dividing Wavelength (nm)	Counts (n)	Blue Motor Position (mm): 0.000000	Red Motor Position (mm): 0.200000	
326.493990	2117.284615
326.888308	2117.284615
327.282561	2117.284615
327.676750	2079.475962
328.070874	2061.831923
328.464933	2092.078846
328.858929	2076.955385
329.252859	2039.146731
329.646726	2036.626154
330.040528	2109.722885
330.434265	2139.969808
330.827938	2092.078846
331.221547	2147.531538
331.615091	2142.490385
332.008571	2167.696154
332.401986	2228.190000
332.795338	2165.175577
333.188625	2233.231154
333.581847	2276.080962
333.975006	2228.190000
334.368100	2359.260000
334.761129	2341.615962
335.154095	2296.245577
335.546996	2331.533654
335.939833	2369.342308
336.332606	2313.889615
336.725315	2339.095385
337.117960	2366.821731
337.510540	2394.548077
337.903056	2480.247692
338.295508	2432.356731
338.687896	2495.371154
339.080220	2477.727115
339.472480	2381.945192
339.864676	2485.288846
340.256807	2429.836154
340.648875	2462.603654
341.040879	2568.467885
341.432818	2465.124231
341.824694	2472.685962
342.216506	2500.412308
342.608253	2419.753846
342.999937	2442.439038
343.391557	2472.685962
343.783113	2450.000769
344.174605	2586.111923
344.566033	2434.877308
344.957397	2525.618077
345.348697	2394.548077
345.739934	2510.494615
346.131106	2457.562500
346.522215	2487.809423
346.913260	2472.685962
347.304241	2528.138654
347.695159	2399.589231
348.086012	2497.891731
348.476802	2447.480192
348.867528	2490.330000
349.258191	2457.562500
349.648789	2555.865000
350.039324	2472.685962
350.429796	2447.480192
350.820203	2409.671538
351.210548	2432.356731
351.600828	2497.891731
351.991045	2455.041923
352.381198	2386.986346
352.771288	2460.083077
353.161314	2379.424615
353.551276	2402.109808
353.941175	2417.233269
354.331010	2543.262115
354.720782	2404.630385
355.110490	2374.383462
355.500135	2495.371154
355.889717	2407.150962
356.279235	2429.836154
356.668689	2422.274423
357.058080	2427.315577
357.447408	2437.397885
357.836672	2397.068654
358.225873	2414.712692
358.615010	2394.548077
359.004084	2397.068654
359.393095	2492.850577
359.782043	2507.974038
360.170927	2467.644808
360.559748	2472.685962
360.948505	2432.356731
361.337199	2470.165385
361.725830	2402.109808
362.114398	2472.685962
362.502903	2389.506923
362.891344	2394.548077
363.279722	2460.083077
363.668037	2576.029615
364.056289	2470.165385
364.444478	2505.453462
364.832603	2381.945192
365.220665	2429.836154
365.608665	2457.562500
365.996601	2450.000769
366.384474	2412.192115
366.772284	2444.959615
367.160031	2434.877308
367.547715	2447.480192
367.935336	2470.165385
368.322893	2394.548077
368.710388	2497.891731
369.097820	2407.150962
369.485189	2422.274423
369.872495	2409.671538
370.259738	2507.974038
370.646918	2447.480192
371.034035	2437.397885
371.421090	2419.753846
371.808081	2505.453462
372.195010	2422.274423
372.581875	2462.603654
372.968678	2432.356731
373.355418	2369.342308
373.742096	2507.974038
374.128710	2354.218846
374.515262	2404.630385
374.901751	2495.371154
375.288177	2404.630385
375.674540	2472.685962
376.060841	2422.274423
376.447079	2492.850577
376.833254	2397.068654
377.219367	2477.727115
377.605417	2450.000769
377.991404	2530.659231
378.377329	2409.671538
378.763191	2518.056346
379.148991	2442.439038
379.534727	2379.424615
379.920402	2540.741538
380.306013	2424.795000
380.691563	2482.768269
381.077049	2485.288846
381.462474	2540.741538
381.847835	2525.618077
382.233134	2492.850577
382.618371	2409.671538
383.003545	2482.768269
383.388657	2475.206538
383.773706	2528.138654
384.158693	2460.083077
384.543618	2480.247692
384.928480	2480.247692
385.313280	2502.932885
385.698017	2432.356731
386.082692	2444.959615
386.467305	2510.494615
386.851856	2389.506923
387.236344	2450.000769
387.620770	2485.288846
388.005133	2447.480192
388.389435	2450.000769
388.773674	2520.576923
389.157851	2455.041923
389.541965	2412.192115
389.926018	2331.533654
390.310008	2500.412308
390.693936	2429.836154
391.077802	2487.809423
391.461606	2460.083077
391.845348	2429.836154
392.229027	2510.494615
392.612645	2434.877308
392.996200	2482.768269
393.379694	2429.836154
393.763125	2475.206538
394.146494	2475.206538
394.529801	2482.768269
394.913047	2545.782692
395.296230	2434.877308
395.679351	2502.932885
396.062410	2381.945192
396.445408	2490.330000
396.828343	2447.480192
397.211217	2462.603654
397.594028	2414.712692
397.976778	2505.453462
398.359466	2465.124231
398.742092	2462.603654
399.124656	2455.041923
399.507158	2553.344423
399.889598	2518.056346
400.271977	2447.480192
400.654294	2490.330000
401.036549	2442.439038
401.418742	2434.877308
401.800874	2437.397885
402.182944	2528.138654
402.564952	2460.083077
402.946898	2515.535769
403.328783	2447.480192
403.710606	2558.385577
404.092367	2457.562500
404.474067	2389.506923
404.855705	2513.015192
405.237282	2412.192115
405.618797	2518.056346
406.000250	2472.685962
406.381642	2485.288846
406.762972	2500.412308
407.144240	2460.083077
407.525447	2437.397885
407.906593	2490.330000
408.287677	2452.521346
408.668700	2505.453462
409.049661	2505.453462
409.430560	2502.932885
409.811399	2424.795000
410.192176	2490.330000
410.572891	2432.356731
410.953545	2392.027500
411.334138	2535.700385
411.714669	2477.727115
412.095139	2520.576923
412.475547	2475.206538
412.855894	2460.083077
413.236180	2523.097500
413.616405	2583.591346
413.996568	2500.412308
414.376670	2477.727115
414.756711	2540.741538
415.136691	2470.165385
415.516609	2485.288846
415.896466	2485.288846
416.276262	2518.056346
416.655997	2424.795000
417.035670	2505.453462
417.415283	2432.356731
417.794834	2447.480192
418.174324	2518.056346
418.553753	2442.439038
418.933121	2568.467885
419.312428	2399.589231
419.691674	2533.179808
420.070859	2492.850577
420.449983	2505.453462
420.829045	2427.315577
421.208047	2480.247692
421.586988	2465.124231
421.965867	2480.247692
422.344686	2507.974038
422.723444	2523.097500
423.102141	2535.700385
423.480777	2487.809423
423.859352	2455.041923
424.237866	2452.521346
424.616319	2480.247692
424.994712	2467.644808
425.373044	2457.562500
425.751314	2533.179808
426.129524	2475.206538
426.507673	2495.371154
426.885762	2487.809423
427.263789	2558.385577
427.641756	2470.165385
428.019662	2548.303269
428.397508	2492.850577
428.775292	2513.015192
429.153016	2381.945192
429.530679	2455.041923
429.908282	2457.562500
430.285824	2510.494615
430.663305	2560.906154
431.040726	2520.576923
431.418086	2533.179808
431.795385	2558.385577
432.172624	2470.165385
432.549802	2419.753846
432.926920	2520.576923
433.303977	2525.618077
433.680974	2472.685962
434.057910	2555.865000
434.434786	2434.877308
434.811601	2424.795000
435.188355	2392.027500
435.565050	2475.206538
435.941683	2432.356731
436.318257	2518.056346
436.694770	2523.097500
437.071222	2555.865000
437.447614	2502.932885
437.823946	2460.083077
438.200218	2482.768269
438.576429	2465.124231
438.952580	2472.685962
439.328670	2460.083077
439.704700	2525.618077
440.080670	2530.659231
440.456580	2477.727115
440.832429	2475.206538
441.208218	2460.083077
441.583947	2533.179808
441.959616	2535.700385
442.335224	2543.262115
442.710773	2528.138654
443.086261	2450.000769
443.461689	2439.918462
443.837057	2507.974038
444.212365	2409.671538
444.587612	2422.274423
444.962800	2480.247692
445.337927	2490.330000
445.712995	2482.768269
446.088002	2495.371154
446.462949	2500.412308
446.837837	2450.000769
447.212664	2535.700385
447.587431	2444.959615
447.962139	2518.056346
448.336786	2515.535769
448.711374	2510.494615
449.085901	2497.891731
449.460369	2407.150962
449.834776	2583.591346
450.209124	2437.397885
450.583412	2495.371154
450.957640	2392.027500
451.331808	2482.768269
451.705917	2515.535769
452.079965	2487.809423
452.453954	2518.056346
452.827883	2495.371154
453.201752	2520.576923
453.575562	2477.727115
453.949311	2568.467885
454.323001	2543.262115
454.696632	2518.056346
455.070202	2545.782692
455.443713	2457.562500
455.817164	2422.274423
456.190556	2540.741538
456.563888	2467.644808
456.937160	2422.274423
457.310373	2507.974038
457.683526	2394.548077
458.056619	2576.029615
458.429653	2487.809423
458.802628	2555.865000
459.175542	2507.974038
459.548398	2553.344423
459.921194	2427.315577
460.293930	2502.932885
460.666607	2412.192115
461.039224	2477.727115
461.411782	2460.083077
461.784280	2538.220962
462.156719	2505.453462
462.529099	2505.453462
462.901419	2447.480192
463.273680	2555.865000
463.645882	2523.097500
464.018024	2593.673654
464.390106	2452.521346
464.762130	2528.138654
465.134094	2457.562500
465.505999	2490.330000
465.877845	2434.877308
466.249631	2490.330000
466.621358	2437.397885
466.993026	2528.138654
467.364634	2434.877308
467.736184	2442.439038
468.107674	2424.795000
468.479105	2472.685962
468.850477	2487.809423
469.221790	2497.891731
469.593043	2455.041923
469.964238	2482.768269
470.335373	2455.041923
470.706449	2533.179808
471.077467	2467.644808
471.448425	2477.727115
471.819324	2490.330000
472.190164	2502.932885
472.560945	2500.412308
472.931667	2472.685962
473.302330	2492.850577
473.672934	2434.877308
474.043479	2515.535769
474.413965	2429.836154
474.784393	2349.177692
475.154761	2505.453462
475.525070	2533.179808
475.895321	2422.274423
476.265513	2465.124231
476.635645	2399.589231
477.005719	2553.344423
477.375734	2525.618077
477.745691	2429.836154
478.115588	2543.262115
478.485427	2535.700385
478.855207	2439.918462
479.224928	2502.932885
479.594591	2434.877308
479.964194	2444.959615
480.333739	2502.932885
480.703226	2470.165385
481.072653	2414.712692
481.442022	2427.315577
481.811333	2523.097500
482.180584	2480.247692
482.549777	2485.288846
482.918912	2452.521346
483.287988	2457.562500
483.657005	2485.288846
484.025964	2465.124231
484.394864	2427.315577
484.763706	2525.618077
485.132489	2518.056346
485.501213	2538.220962
485.869879	2507.974038
486.238487	2548.303269
486.607036	2487.809423
486.975527	2386.986346
487.343959	2518.056346
487.712333	2477.727115
488.080648	2553.344423
488.448905	2437.397885
488.817104	2502.932885
489.185244	2497.891731
489.553326	2442.439038
489.921350	2485.288846
490.289315	2573.509038
490.657222	2444.959615
491.025070	2467.644808
491.392861	2460.083077
491.760593	2497.891731
492.128267	2520.576923
492.495883	2518.056346
492.863440	2447.480192
493.230939	2465.124231
493.598380	2437.397885
493.965763	2576.029615
494.333088	2457.562500
494.700354	2467.644808
495.067563	2518.056346
495.434713	2467.644808
495.801805	2568.467885
496.168839	2502.932885
496.535815	2507.974038
496.902733	2452.521346
497.269593	2502.932885
497.636395	2553.344423
498.003139	2470.165385
498.369825	2563.426731
498.736453	2480.247692
499.103023	2455.041923
499.469535	2485.288846
499.835989	2535.700385
500.202385	2429.836154
500.568723	2581.070769
500.935003	2467.644808
501.301226	2593.673654
501.667390	2386.986346
502.033497	2555.865000
502.399546	2505.453462
502.765537	2447.480192
503.131470	2535.700385
503.497345	2427.315577
503.863163	2507.974038
504.228923	2492.850577
504.594625	2477.727115
504.960269	2472.685962
505.325856	2518.056346
505.691385	2513.015192
506.056856	2565.947308
506.422270	2528.138654
506.787625	2475.206538
507.152924	2492.850577
507.518164	2450.000769
507.883347	2492.850577
508.248472	2553.344423
508.613540	2492.850577
508.978550	2515.535769
509.343503	2434.877308
509.708398	2470.165385
510.073236	2455.041923
510.438016	2500.412308
510.802738	2618.879423
511.167403	2497.891731
511.532010	2465.124231
511.896561	2528.138654
512.261053	2450.000769
512.625488	2487.809423
512.989866	2502.932885
513.354186	2472.685962
513.718449	2482.768269
514.082655	2460.083077
514.446803	2507.974038
514.810894	2379.424615
515.174927	2540.741538
515.538904	2570.988462
515.902822	2530.659231
516.266684	2427.315577
516.630488	2465.124231
516.994235	2540.741538
517.357925	2530.659231
517.721558	2495.371154
518.085133	2497.891731
518.448651	2432.356731
518.812112	2460.083077
519.175516	2414.712692
519.538863	2513.015192
519.902152	2477.727115
520.265385	2470.165385
520.628560	2576.029615
520.991678	2513.015192
521.354739	2475.206538
521.717743	2523.097500
522.080690	2505.453462
522.443580	2502.932885
522.806413	2475.206538
523.169189	2497.891731
523.531908	2419.753846
523.894569	2477.727115
524.257174	2530.659231
524.619722	2472.685962
524.982213	2507.974038
525.344647	2591.153077
525.707025	2437.397885
526.069345	2490.330000
526.431608	2485.288846
526.793815	2442.439038
527.155964	2444.959615
527.518057	2507.974038
527.880093	2530.659231
528.242072	2442.439038
528.603995	2530.659231
528.965860	2533.179808
529.327669	2492.850577
529.689421	2530.659231
530.051117	2500.412308
530.412755	2480.247692
530.774337	2500.412308
531.135862	2525.618077
531.497331	2525.618077
531.858743	2565.947308
532.220098	2530.659231
532.581396	2525.618077
532.942638	2518.056346
533.303824	2397.068654
533.664953	2523.097500
534.026025	2480.247692
534.387040	2442.439038
534.747999	2482.768269
535.108902	2533.179808
535.469748	2525.618077
535.830537	2485.288846
536.191270	2530.659231
536.551947	2429.836154
536.912567	2394.548077
537.273131	2467.644808
537.633638	2457.562500
537.994089	2394.548077
538.354483	2475.206538
538.714821	2487.809423
539.075103	2543.262115
539.435328	2472.685962
539.795497	2432.356731
540.155609	2502.932885
540.515665	2467.644808
540.875665	2414.712692
541.235609	2530.659231
541.595496	2470.165385
541.955328	2560.906154
542.315102	2452.521346
542.674821	2457.562500
543.034483	2525.618077
543.394090	2550.823846
543.753640	2520.576923
544.113134	2475.206538
544.472571	2513.015192
544.831953	2437.397885
545.191278	2510.494615
545.550548	2460.083077
545.909761	2477.727115
546.268918	2444.959615
546.628019	2467.644808
546.987064	2480.247692
547.346053	2439.918462
547.704986	2442.439038
548.063863	2467.644808
548.422684	2492.850577
548.781449	2460.083077
549.140158	2455.041923
549.498811	2490.330000
549.857408	2492.850577
550.215949	2465.124231
550.574434	2500.412308
550.932864	2533.179808
551.291237	2444.959615
551.649555	2520.576923
552.007817	2437.397885
552.366022	2475.206538
552.724173	2520.576923
553.082267	2402.109808
553.440305	2475.206538
553.798288	2467.644808
554.156215	2412.192115
554.514086	2520.576923
554.871902	2520.576923
555.229661	2543.262115
555.587365	2553.344423
555.945014	2530.659231
556.302606	2505.453462
556.660143	2545.782692
557.017625	2465.124231
557.375050	2444.959615
557.732421	2485.288846
558.089735	2477.727115
558.446994	2477.727115
558.804197	2497.891731
559.161345	2548.303269
559.518437	2548.303269
559.875474	2472.685962
560.232455	2467.644808
560.589381	2397.068654
560.946251	2472.685962
561.303065	2477.727115
561.659825	2439.918462
562.016528	2497.891731
562.373177	2442.439038
562.729770	2419.753846
563.086307	2578.550192
563.442789	2505.453462
563.799216	2457.562500
564.155587	2510.494615
564.511904	2510.494615
564.868164	2381.945192
565.224370	2548.303269
565.580520	2497.891731
565.936615	2495.371154
566.292654	2525.618077
566.648638	2475.206538
567.004567	2558.385577
567.360441	2417.233269
567.716260	2492.850577
568.072023	2497.891731
568.427732	2397.068654
568.783385	2497.891731
569.138982	2447.480192
569.494525	2389.506923
569.850013	2523.097500
570.205445	2472.685962
570.560823	2518.056346
570.916145	2457.562500
571.271412	2510.494615
571.626625	2480.247692
571.981782	2581.070769
572.336884	2513.015192
572.691931	2412.192115
573.046923	2470.165385
573.401860	2480.247692
573.756743	2490.330000
574.111570	2525.618077
574.466342	2555.865000
574.821059	2485.288846
575.175722	2505.453462
575.530330	2520.576923
575.884882	2467.644808
576.239380	2477.727115
576.593823	2513.015192
576.948211	2518.056346
577.302544	2439.918462
577.656823	2513.015192
578.011047	2502.932885
578.365216	2429.836154
578.719330	2462.603654
579.073389	2455.041923
579.427394	2570.988462
579.781344	2540.741538
580.135239	2515.535769
580.489080	2434.877308
580.842866	2538.220962
581.196597	2515.535769
581.550273	2545.782692
581.903895	2502.932885
582.257463	2543.262115
582.610975	2502.932885
582.964434	2497.891731
583.317837	2583.591346
583.671186	2465.124231
584.024481	2586.111923
584.377721	2565.947308
584.730906	2507.974038
585.084037	2530.659231
585.437113	2467.644808
585.790135	2422.274423
586.143103	2528.138654
586.496016	2487.809423
586.848874	2530.659231
587.201679	2477.727115
587.554428	2505.453462
587.907124	2457.562500
588.259765	2523.097500
588.612352	2530.659231
588.964884	2487.809423
589.317362	2467.644808
589.669786	2482.768269
590.022155	2480.247692
590.374470	2490.330000
590.726731	2543.262115
591.078937	2528.138654
591.431090	2500.412308
591.783188	2505.453462
592.135232	2500.412308
592.487222	2515.535769
592.839157	2502.932885
593.191038	2444.959615
593.542866	2543.262115
593.894639	2510.494615
594.246358	2427.315577
594.598022	2515.535769
594.949633	2467.644808
595.301190	2525.618077
595.652692	2460.083077
596.004141	2513.015192
596.355535	2533.179808
596.706876	2528.138654
597.058162	2573.509038
597.409395	2505.453462
597.760573	2460.083077
598.111698	2490.330000
598.462768	2467.644808
598.813785	2510.494615
599.164748	2548.303269
599.515657	2560.906154
599.866511	2550.823846
600.217312	2452.521346
600.568060	2540.741538
600.918753	2472.685962
601.269392	2490.330000
601.619978	2424.795000
601.970510	2535.700385
602.320988	2530.659231
602.671412	2460.083077
603.021783	2485.288846
603.372100	2563.426731
603.722363	2492.850577
604.072572	2450.000769
604.422728	2490.330000
604.772830	2447.480192
605.122878	2490.330000
605.472872	2470.165385
605.822813	2555.865000
606.172701	2424.795000
606.522534	2538.220962
606.872314	2379.424615
607.222041	2419.753846
607.571714	2528.138654
607.921333	2462.603654
608.270899	2578.550192
608.620411	2505.453462
608.969870	2515.535769
609.319276	2533.179808
609.668627	2540.741538
610.017926	2538.220962
610.367171	2432.356731
610.716362	2538.220962
611.065500	2495.371154
611.414585	2485.288846
611.763616	2563.426731
612.112594	2455.041923
612.461518	2563.426731
612.810389	2538.220962
613.159207	2558.385577
613.507971	2485.288846
613.856682	2502.932885
614.205340	2520.576923
614.553945	2513.015192
614.902496	2533.179808
615.250994	2397.068654
615.599439	2495.371154
615.947830	2480.247692
616.296169	2525.618077
616.644454	2480.247692
616.992686	2472.685962
617.340864	2513.015192
617.688990	2475.206538
618.037063	2558.385577
618.385082	2500.412308
618.733048	2555.865000
619.080961	2520.576923
619.428821	2543.262115
619.776628	2497.891731
620.124382	2490.330000
620.472083	2523.097500
620.819731	2434.877308
621.167326	2450.000769
621.514868	2492.850577
621.862357	2530.659231
622.209793	2490.330000
622.557176	2518.056346
622.904506	2379.424615
623.251783	2500.412308
623.599007	2465.124231
623.946179	2404.630385
624.293297	2533.179808
624.640363	2444.959615
624.987376	2570.988462
625.334336	2412.192115
625.681243	2533.179808
626.028097	2455.041923
626.374899	2528.138654
626.721647	2409.671538
627.068343	2545.782692
627.414987	2465.124231
627.761577	2528.138654
628.108115	2497.891731
628.454600	2515.535769
628.801032	2447.480192
629.147412	2507.974038
629.493739	2492.850577
629.840014	2447.480192
630.186236	2553.344423
630.532405	2457.562500
630.878521	2497.891731
631.224585	2586.111923
631.570597	2543.262115
631.916556	2505.453462
632.262462	2507.974038
632.608316	2513.015192
632.954117	2538.220962
633.299866	2520.576923
633.645562	2482.768269
633.991206	2492.850577
634.336797	2485.288846
634.682336	2528.138654
635.027823	2475.206538
635.373257	2530.659231
635.718639	2505.453462
636.063968	2518.056346
636.409245	2507.974038
636.754470	2477.727115
637.099642	2550.823846
637.444762	2457.562500
637.789829	2513.015192
638.134845	2513.015192
638.479808	2568.467885
638.824719	2500.412308
639.169577	2402.109808
639.514383	2475.206538
639.859137	2475.206538
640.203839	2528.138654
640.548489	2515.535769
640.893086	2409.671538
641.237632	2497.891731
641.582125	2482.768269
641.926566	2472.685962
642.270955	2533.179808
642.615292	2480.247692
642.959576	2502.932885
643.303809	2495.371154
643.647990	2505.453462
643.992118	2540.741538
644.336195	2495.371154
644.680219	2450.000769
645.024192	2487.809423
645.368112	2593.673654
645.711981	2505.453462
646.055797	2487.809423
646.399562	2505.453462
646.743274	2487.809423
647.086935	2535.700385
647.430544	2573.509038
647.774101	2502.932885
648.117606	2447.480192
648.461059	2523.097500
648.804460	2548.303269
649.147810	2450.000769
649.491108	2586.111923
649.834354	2472.685962
650.177548	2515.535769
650.520690	2528.138654
650.863781	2500.412308
651.206820	2432.356731
651.549807	2515.535769
651.892742	2477.727115
652.235626	2472.685962
652.578458	2450.000769
652.921238	2480.247692
653.263967	2502.932885
653.606644	2477.727115
653.949269	2510.494615
654.291843	2515.535769
654.634365	2444.959615
654.976836	2480.247692
655.319255	2492.850577
655.661622	2455.041923
656.003938	2548.303269
656.346203	2543.262115
656.688416	2439.918462
657.030577	2480.247692
657.372687	2482.768269
657.714746	2442.439038
658.056753	2485.288846
658.398708	2545.782692
658.740612	2500.412308
659.082465	2485.288846
659.424266	2450.000769
659.766016	2507.974038
660.107715	2502.932885
660.449362	2510.494615
660.790958	2447.480192
661.132503	2510.494615
661.473996	2477.727115
661.815438	2510.494615
662.156829	2565.947308
662.498168	2427.315577
662.839456	2510.494615
663.180693	2528.138654
663.521879	2490.330000
663.863013	2487.809423
664.204097	2563.426731
664.545129	2460.083077
664.886110	2528.138654
665.227040	2535.700385
665.567918	2513.015192
665.908746	2419.753846
666.249522	2535.700385
666.590248	2497.891731
666.930922	2492.850577
667.271545	2601.235385
667.612118	2490.330000
667.952639	2497.891731
668.293109	2497.891731
668.633528	2505.453462
668.973896	2439.918462
669.314213	2490.330000
669.654480	2472.685962
669.994695	2477.727115
670.334859	2538.220962
670.674973	2525.618077
671.015035	2540.741538
671.355047	2439.918462
671.695008	2502.932885
672.034918	2497.891731
672.374777	2487.809423
672.714585	2389.506923
673.054342	2525.618077
673.394049	2480.247692
673.733705	2447.480192
674.073310	2502.932885
674.412864	2515.535769
674.752368	2412.192115
675.091820	2510.494615
675.431223	2472.685962
675.770574	2490.330000
676.109875	2472.685962
676.449125	2490.330000
676.788324	2439.918462
677.127473	2490.330000
677.466571	2460.083077
677.805619	2591.153077
678.144616	2540.741538
678.483562	2550.823846
678.822458	2530.659231
679.161303	2530.659231
679.500098	2460.083077
679.838842	2520.576923
680.177535	2485.288846
680.516179	2485.288846
680.854771	2480.247692
681.193314	2570.988462
681.531805	2490.330000
681.870247	2513.015192
682.208638	2563.426731
682.546978	2596.194231
682.885268	2460.083077
683.223508	2465.124231
683.561697	2465.124231
683.899836	2525.618077
684.237925	2518.056346
684.575963	2455.041923
684.913951	2568.467885
685.251889	2497.891731
685.589776	2467.644808
685.927614	2578.550192
686.265401	2558.385577
686.603137	2538.220962
686.940824	2457.562500
687.278460	2558.385577
687.616046	2462.603654
687.953582	2573.509038
688.291068	2518.056346
688.628504	2543.262115
688.965889	2462.603654
689.303224	2485.288846
689.640510	2545.782692
689.977745	2432.356731
690.314930	2475.206538
690.652065	2550.823846
690.989150	2548.303269
691.326185	2472.685962
691.663170	2455.041923
692.000105	2437.397885
692.336990	2555.865000
692.673825	2457.562500
693.010610	2565.947308
693.347345	2477.727115
693.684030	2457.562500
694.020665	2487.809423
694.357251	2528.138654
694.693786	2568.467885
695.030272	2523.097500
695.366707	2533.179808
695.703093	2407.150962
696.039429	2447.480192
696.375716	2497.891731
696.711952	2495.371154
697.048139	2550.823846
697.384276	2417.233269
697.720363	2538.220962
698.056400	2462.603654
698.392388	2442.439038
698.728326	2490.330000
699.064214	2472.685962
699.400053	2497.891731
699.735842	2520.576923
700.071581	2505.453462
700.407270	2475.206538
700.742910	2444.959615
701.078501	2487.809423
701.414042	2545.782692
701.749533	2518.056346
702.084974	2457.562500
702.420366	2502.932885
702.755709	2452.521346
703.091002	2497.891731
703.426246	2432.356731
703.761440	2513.015192
704.096584	2515.535769
704.431679	2490.330000
704.766725	2507.974038
705.101721	2475.206538
705.436668	2465.124231
705.771565	2543.262115
706.106413	2439.918462
706.441212	2467.644808
706.775961	2462.603654
707.110661	2548.303269
707.445311	2490.330000
707.779913	2576.029615
708.114465	2462.603654
708.448967	2475.206538
708.783421	2447.480192
709.117825	2485.288846
709.452180	2518.056346
709.786485	2530.659231
710.120742	2502.932885
710.454949	2538.220962
710.789107	2477.727115
711.123216	2457.562500
711.457275	2495.371154
711.791286	2434.877308
712.125247	2412.192115
712.459159	2518.056346
712.793023	2563.426731
713.126837	2513.015192
713.460602	2412.192115
713.794318	2485.288846
714.127985	2467.644808
714.461602	2490.330000
714.795171	2409.671538
715.128691	2550.823846
715.462162	2422.274423
715.795584	2402.109808
716.128957	2485.288846
716.462281	2399.589231
716.795556	2515.535769
717.128782	2480.247692
717.461960	2450.000769
717.795088	2528.138654
718.128167	2429.836154
718.461198	2583.591346
718.794180	2414.712692
719.127113	2455.041923
719.459997	2563.426731
719.792833	2465.124231
720.125619	2490.330000
720.458357	2528.138654
720.791046	2533.179808
721.123686	2510.494615
721.456278	2502.932885
721.788821	2455.041923
722.121315	2513.015192
722.453761	2419.753846
722.786158	2485.288846
723.118506	2444.959615
723.450805	2462.603654
723.783056	2444.959615
724.115259	2480.247692
724.447412	2502.932885
724.779518	2548.303269
725.111574	2485.288846
725.443582	2528.138654
725.775542	2465.124231
726.107453	2374.383462
726.439315	2442.439038
726.771129	2528.138654
727.102895	2518.056346
727.434612	2513.015192
727.766281	2452.521346
728.097901	2500.412308
728.429473	2548.303269
728.760996	2452.521346
729.092471	2540.741538
729.423897	2515.535769
729.755276	2535.700385
730.086606	2518.056346
730.417887	2510.494615
730.749120	2465.124231
731.080305	2568.467885
731.411442	2492.850577
731.742530	2538.220962
732.073570	2434.877308
732.404562	2502.932885
732.735506	2432.356731
733.066401	2525.618077
733.397249	2578.550192
733.728048	2502.932885
734.058798	2555.865000
734.389501	2444.959615
734.720156	2548.303269
735.050762	2482.768269
735.381320	2560.906154
735.711831	2402.109808
736.042293	2518.056346
736.372707	2507.974038
736.703073	2475.206538
737.033391	2500.412308
737.363661	2439.918462
737.693883	2492.850577
738.024056	2538.220962
738.354182	2507.974038
738.684260	2444.959615
739.014290	2444.959615
739.344272	2535.700385
739.674207	2487.809423
740.004093	2452.521346
740.333931	2457.562500
740.663722	2523.097500
740.993464	2487.809423
741.323159	2518.056346
741.652806	2505.453462
741.982405	2462.603654
742.311956	2480.247692
742.641460	2573.509038
742.970915	2482.768269
743.300323	2492.850577
743.629683	2470.165385
743.958996	2480.247692
744.288260	2510.494615
744.617477	2520.576923
744.946647	2500.412308
745.275768	2530.659231
745.604842	2591.153077
745.933869	2439.918462
746.262847	2545.782692
746.591778	2424.795000
746.920662	2475.206538
747.249498	2490.330000
747.578286	2525.618077
747.907027	2432.356731
748.235720	2573.509038
748.564365	2487.809423
748.892963	2450.000769
749.221514	2442.439038
749.550017	2439.918462
749.878473	2439.918462
750.206881	2528.138654
750.535242	2485.288846
750.863555	2535.700385
751.191821	2465.124231
751.520039	2485.288846
751.848210	2487.809423
752.176334	2518.056346
752.504411	2578.550192
752.832440	2487.809423
753.160421	2588.632500
753.488356	2472.685962
753.816243	2563.426731
754.144082	2462.603654
754.471875	2442.439038
754.799620	2497.891731
755.127318	2460.083077
755.454969	2545.782692
755.782572	2495.371154
756.110129	2465.124231
756.437638	2528.138654
756.765100	2450.000769
757.092515	2467.644808
757.419882	2422.274423
757.747203	2553.344423
758.074477	2412.192115
758.401703	2444.959615
758.728882	2427.315577
759.056014	2485.288846
759.383099	2565.947308
759.710138	2475.206538
760.037129	2507.974038
760.364073	2457.562500
760.690970	2492.850577
761.017820	2482.768269
761.344623	2513.015192
761.671379	2477.727115
761.998088	2482.768269
762.324751	2444.959615
762.651366	2560.906154
762.977935	2444.959615
763.304456	2482.768269
763.630931	2555.865000
763.957359	2452.521346
764.283740	2485.288846
764.610074	2482.768269
764.936362	2545.782692
765.262602	2492.850577
765.588796	2550.823846
765.914943	2593.673654
766.241044	2540.741538
766.567097	2457.562500
766.893104	2485.288846
767.219064	2465.124231
767.544978	2505.453462
767.870845	2480.247692
768.196665	2523.097500
768.522438	2462.603654
768.848165	2533.179808
769.173846	2467.644808
769.499479	2540.741538
769.825066	2490.330000
770.150607	2470.165385
770.476101	2520.576923
770.801548	2492.850577
771.126949	2500.412308
771.452303	2480.247692
771.777611	2500.412308
772.102872	2470.165385
772.428087	2550.823846
772.753256	2475.206538
773.078378	2490.330000
773.403453	2586.111923
773.728482	2520.576923
774.053465	2419.753846
774.378401	2462.603654
774.703291	2525.618077
775.028135	2472.685962
775.352932	2439.918462
775.677683	2570.988462
776.002388	2505.453462
776.327046	2543.262115
776.651658	2525.618077
776.976224	2495.371154
777.300743	2581.070769
777.625216	2487.809423
777.949643	2535.700385
778.274024	2437.397885
778.598359	2528.138654
778.922647	2545.782692
779.246889	2457.562500
779.571086	2497.891731
779.895236	2432.356731
780.219339	2507.974038
780.543397	2492.850577
780.867409	2513.015192
781.191374	2497.891731
781.515294	2601.235385
781.839167	2412.192115
782.162995	2444.959615
782.486776	2444.959615
782.810511	2472.685962
783.134201	2510.494615
783.457844	2465.124231
783.781441	2482.768269
784.104993	2528.138654
784.428498	2525.618077
784.751958	2535.700385
785.075372	2507.974038
785.398739	2540.741538
785.722061	2538.220962
786.045337	2588.632500
786.368568	2447.480192
786.691752	2548.303269
787.014891	2439.918462
787.337983	2467.644808
787.661030	2502.932885
787.984031	2598.714808
788.306987	2507.974038
788.629897	2505.453462
788.952760	2467.644808
789.275579	2545.782692
789.598351	2543.262115
789.921078	2447.480192
790.243759	2502.932885
790.566395	2518.056346
790.888984	2568.467885
791.211529	2570.988462
791.534027	2437.397885
791.856480	2581.070769
792.178888	2477.727115
792.501249	2482.768269
792.823566	2475.206538
793.145836	2427.315577
793.468062	2550.823846
793.790241	2457.562500
794.112375	2510.494615
794.434464	2386.986346
794.756507	2523.097500
795.078505	2510.494615
795.400457	2397.068654
795.722364	2470.165385
796.044226	2417.233269
796.366042	2475.206538
796.687812	2480.247692
797.009538	2507.974038
797.331218	2510.494615
797.652852	2533.179808
797.974442	2467.644808
798.295986	2444.959615
798.617484	2487.809423
798.938938	2520.576923
799.260346	2470.165385
799.581709	2472.685962
799.903026	2563.426731
800.224299	2588.632500
800.545526	2485.288846
800.866708	2495.371154
801.187845	2429.836154
801.508936	2520.576923
801.829983	2502.932885
802.150984	2477.727115
802.471940	2518.056346
802.792851	2384.465769
803.113717	2520.576923
803.434538	2505.453462
803.755314	2447.480192
804.076045	2477.727115
804.396731	2603.755962
804.717372	2535.700385
805.037967	2467.644808
805.358518	2523.097500
805.679024	2462.603654
805.999485	2500.412308
806.319901	2502.932885
806.640272	2422.274423
806.960598	2515.535769
807.280879	2470.165385
807.601115	2570.988462
807.921306	2500.412308
808.241453	2560.906154
808.561554	2422.274423
808.881611	2460.083077
809.201623	2530.659231
809.521590	2460.083077
809.841513	2490.330000
810.161390	2490.330000
810.481223	2545.782692
810.801011	2475.206538
811.120755	2409.671538
811.440453	2520.576923
811.760107	2444.959615
812.079716	2538.220962
812.399281	2457.562500
812.718801	2510.494615
813.038276	2409.671538
813.357707	2558.385577
813.677093	2467.644808
813.996434	2402.109808
814.315731	2475.206538
814.634983	2424.795000
814.954191	2472.685962
815.273354	2497.891731
815.592473	2475.206538
815.911547	2507.974038
816.230577	2518.056346
816.549562	2535.700385
816.868502	2447.480192
817.187399	2457.562500
817.506250	2553.344423
817.825058	2543.262115
818.143821	2588.632500
818.462539	2462.603654
818.781213	2558.385577
819.099843	2450.000769
819.418429	2460.083077
819.736970	2492.850577
820.055466	2560.906154
820.373919	2507.974038
820.692327	2409.671538
821.010691	2515.535769
821.329011	2545.782692
821.647286	2455.041923
821.965517	2417.233269
822.283704	2455.041923
822.601847	2538.220962
822.919945	2412.192115
823.237999	2447.480192
823.556010	2457.562500
823.873976	2568.467885
824.191897	2447.480192
824.509775	2490.330000
824.827609	2553.344423
825.145398	2407.150962
825.463144	2518.056346
825.780845	2472.685962
826.098502	2530.659231
826.416116	2515.535769
826.733685	2472.685962
827.051210	2467.644808
827.368692	2520.576923
827.686129	2455.041923
828.003522	2623.920577
828.320872	2465.124231
828.638177	2482.768269
828.955439	2465.124231
829.272656	2467.644808
829.589830	2485.288846
829.906960	2502.932885
830.224046	2515.535769
830.541088	2507.974038
830.858086	2462.603654
831.175041	2528.138654
831.491952	2470.165385
831.808819	2472.685962
832.125642	2487.809423
832.442421	2450.000769
832.759157	2538.220962
833.075849	2470.165385
833.392497	2485.288846
833.709101	2558.385577
834.025662	2480.247692
834.342179	2452.521346
834.658653	2490.330000
834.975083	2492.850577
835.291469	2553.344423
835.607811	2470.165385
835.924110	2550.823846
836.240366	2565.947308
836.556578	2439.918462
836.872746	2510.494615
837.188871	2606.276538
837.504952	2485.288846
837.820990	2538.220962
838.136984	2495.371154
838.452935	2540.741538
838.768842	2507.974038
839.084706	2518.056346
839.400526	2447.480192
839.716303	2472.685962
840.032037	2490.330000
840.347727	2523.097500
840.663373	2457.562500
840.978977	2397.068654
841.294537	2480.247692
841.610054	2530.659231
841.925527	2475.206538
842.240957	2548.303269
842.556344	2457.562500
842.871687	2475.206538
843.186987	2419.753846
843.502244	2507.974038
843.817458	2386.986346
844.132629	2558.385577
844.447756	2502.932885
844.762840	2470.165385
845.077881	2467.644808
845.392879	2402.109808
845.707833	2487.809423
846.022745	2455.041923
846.337613	2540.741538
846.652438	2432.356731
846.967221	2570.988462
847.281960	2502.932885
847.596656	2492.850577
847.911309	2480.247692
848.225919	2495.371154
848.540485	2510.494615
848.855009	2596.194231
849.169490	2419.753846
849.483928	2530.659231
849.798323	2497.891731
850.112675	2490.330000
850.426984	2548.303269
850.741251	2485.288846
851.055474	2520.576923
851.369654	2472.685962
851.683792	2480.247692
851.997887	2457.562500
852.311938	2457.562500
852.625947	2540.741538
852.939914	2535.700385
853.253837	2525.618077
853.567718	2381.945192
853.881555	2513.015192
854.195350	2434.877308
854.509103	2437.397885
854.822812	2457.562500
855.136479	2419.753846
855.450103	2414.712692
855.763685	2513.015192
856.077224	2452.521346
856.390720	2487.809423
856.704173	2505.453462
857.017584	2487.809423
857.330953	2581.070769
857.644278	2505.453462
857.957561	2548.303269
858.270802	2402.109808
858.584000	2533.179808
858.897155	2500.412308
859.210268	2472.685962
859.523339	2518.056346
859.836367	2444.959615
860.149352	2434.877308
860.462295	2465.124231
860.775195	2510.494615
861.088054	2507.974038
861.400869	2533.179808
861.713642	2533.179808
862.026373	2452.521346
862.339062	2505.453462
862.651708	2502.932885
862.964312	2424.795000
863.276873	2505.453462
863.589392	2470.165385
863.901869	2543.262115
864.214303	2419.753846
864.526696	2497.891731
864.839045	2417.233269
865.151353	2485.288846
865.463619	2480.247692
865.775842	2389.506923
866.088023	2487.809423
866.400162	2452.521346
866.712258	2543.262115
867.024313	2439.918462
867.336325	2465.124231
867.648296	2482.768269
867.960224	2475.206538
868.272110	2480.247692
868.583954	2525.618077
868.895755	2523.097500
869.207515	2591.153077
869.519233	2568.467885
869.830909	2540.741538
870.142542	2507.974038
870.454134	2414.712692
870.765684	2490.330000
871.077191	2472.685962
871.388657	2429.836154
871.700081	2513.015192
872.011463	2513.015192
872.322803	2540.741538
872.634101	2520.576923
872.945357	2495.371154
873.256571	2515.535769
873.567744	2455.041923
873.878874	2460.083077
874.189963	2490.330000
874.501010	2427.315577
874.812015	2472.685962
875.122979	2442.439038
875.433900	2510.494615
875.744780	2460.083077
876.055618	2507.974038
876.366415	2455.041923
876.677169	2465.124231
876.987882	2480.247692
877.298554	2465.124231
877.609183	2487.809423
877.919771	2502.932885
878.230317	2513.015192
878.540822	2414.712692
878.851285	2467.644808
879.161707	2447.480192
879.472087	2465.124231
879.782425	2490.330000
880.092722	2472.685962
880.402977	2513.015192
880.713191	2502.932885
881.023363	2452.521346
881.333494	2485.288846
881.643583	2495.371154
881.953631	2495.371154
882.263637	2550.823846
882.573602	2515.535769
882.883526	2472.685962
883.193408	2502.932885
883.503248	2502.932885
883.813048	2399.589231
884.122806	2497.891731
884.432522	2455.041923
884.742197	2525.618077
885.051831	2399.589231
885.361424	2525.618077
885.670975	2492.850577
885.980485	2543.262115
886.289954	2386.986346
886.599382	2621.400000
886.908768	2412.192115
887.218113	2490.330000
887.527417	2485.288846
887.836680	2558.385577
888.145901	2530.659231
888.455082	2540.741538
888.764221	2540.741538
889.073319	2472.685962
889.382376	2548.303269
889.691392	2510.494615
890.000366	2495.371154
890.309300	2510.494615
890.618193	2455.041923
890.927044	2452.521346
891.235855	2470.165385
891.544625	2502.932885
891.853353	2460.083077
892.162041	2407.150962
892.470687	2540.741538
892.779293	2485.288846
893.087858	2414.712692
893.396381	2485.288846
893.704864	2457.562500
894.013306	2480.247692
894.321707	2533.179808
894.630068	2432.356731
894.938387	2437.397885
895.246665	2573.509038
895.554903	2460.083077
895.863100	2475.206538
896.171256	2470.165385
896.479371	2578.550192
896.787446	2520.576923
897.095480	2530.659231
897.403473	2513.015192
897.711425	2399.589231
898.019336	2487.809423
898.327207	2480.247692
898.635038	2485.288846
898.942827	2480.247692
899.250576	2485.288846
899.558284	2492.850577
899.865952	2455.041923
900.173579	2502.932885
900.481165	2444.959615
900.788711	2492.850577
901.096216	2460.083077
901.403681	2432.356731
901.711105	2540.741538
902.018489	2507.974038
902.325832	2515.535769
902.633135	2515.535769
902.940397	2515.535769
903.247619	2510.494615
903.554800	2543.262115
903.861941	2528.138654
904.169041	2452.521346
904.476101	2467.644808
904.783121	2429.836154
905.090100	2565.947308
905.397039	2482.768269
905.703938	2530.659231
906.010796	2492.850577
906.317614	2460.083077
906.624391	2482.768269
906.931129	2470.165385
907.237826	2510.494615
907.544483	2429.836154
907.851099	2555.865000
908.157675	2520.576923
908.464211	2495.371154
908.770707	2560.906154
909.077163	2429.836154
909.383578	2533.179808
909.689954	2495.371154
909.996289	2472.685962
910.302584	2429.836154
910.608839	2505.453462
910.915054	2495.371154
911.221229	2573.509038
911.527363	2480.247692
911.833458	2409.671538
912.139513	2533.179808
912.445527	2397.068654
912.751502	2490.330000
913.057436	2505.453462
913.363331	2455.041923
913.669186	2414.712692
913.975000	2457.562500
914.280775	2475.206538
914.586510	2513.015192
914.892205	2477.727115
915.197859	2462.603654
915.503475	2492.850577
915.809050	2578.550192
916.114585	2540.741538
916.420081	2513.015192
916.725536	2495.371154
917.030952	2495.371154
917.336328	2507.974038
917.641665	2460.083077
917.946961	2515.535769
918.252218	2412.192115
918.557435	2482.768269
918.862612	2477.727115
919.167750	2419.753846
919.472848	2447.480192
919.777906	2550.823846
920.082925	2465.124231
920.387904	2502.932885
920.692843	2495.371154
920.997743	2497.891731
921.302603	2450.000769
921.607423	2467.644808
921.912204	2550.823846
922.216946	2417.233269
922.521647	2477.727115
922.826310	2434.877308
923.130932	2477.727115
923.435516	2455.041923
923.740059	2502.932885
924.044564	2422.274423
924.349028	2533.179808
924.653454	2457.562500
924.957840	2472.685962
925.262186	2545.782692
925.566493	2434.877308
925.870761	2555.865000
926.174989	2412.192115
926.479178	2470.165385
926.783328	2502.932885
927.087438	2442.439038
927.391509	2502.932885
927.695541	2414.712692
927.999533	2505.453462
928.303486	2495.371154
928.607400	2490.330000
928.911275	2450.000769
929.215110	2507.974038
929.518906	2402.109808
929.822663	2467.644808
930.126381	2545.782692
930.430060	2460.083077
930.733699	2492.850577
931.037299	2460.083077
931.340861	2462.603654
931.644383	2548.303269
931.947866	2510.494615
932.251309	2576.029615
932.554714	2490.330000
932.858080	2500.412308
933.161407	2553.344423
933.464694	2510.494615
933.767943	2477.727115
934.071153	2465.124231
934.374323	2450.000769
934.677455	2480.247692
934.980548	2490.330000
935.283602	2452.521346
935.586617	2553.344423
935.889593	2414.712692
936.192530	2475.206538
936.495428	2490.330000
936.798287	2475.206538
937.101108	2444.959615
937.403890	2442.439038
937.706632	2492.850577
938.009336	2525.618077
938.312002	2432.356731
938.614628	2487.809423
938.917216	2460.083077
939.219765	2520.576923
939.522275	2467.644808
939.824747	2560.906154
940.127179	2447.480192
940.429573	2520.576923
940.731929	2409.671538
941.034246	2477.727115
941.336524	2550.823846
941.638763	2533.179808
941.940964	2505.453462
942.243126	2475.206538
942.545250	2472.685962
942.847335	2550.823846
943.149381	2485.288846
943.451389	2497.891731
943.753359	2669.290962
944.055290	2535.700385
944.357182	2500.412308
944.659036	2427.315577
944.960851	2518.056346
945.262628	2513.015192
945.564367	2533.179808
945.866067	2455.041923
946.167729	2507.974038
946.469352	2548.303269
946.770937	2490.330000
947.072484	2470.165385
947.373992	2507.974038
947.675462	2437.397885
947.976893	2497.891731
948.278286	2495.371154
948.579641	2525.618077
948.880958	2482.768269
949.182236	2497.891731
949.483476	2492.850577
949.784678	2477.727115
950.085841	2392.027500
950.386967	2450.000769
950.688054	2528.138654
950.989103	2490.330000
951.290114	2518.056346
951.591087	2444.959615
951.892021	2495.371154
952.192917	2523.097500
952.493776	2414.712692
952.794596	2523.097500
953.095378	2482.768269
953.396122	2462.603654
953.696828	2540.741538
953.997496	2467.644808
954.298126	2500.412308
954.598718	2409.671538
954.899272	2525.618077
955.199788	2505.453462
955.500266	2422.274423
955.800706	2434.877308
956.101108	2540.741538
956.401472	2543.262115
956.701798	2543.262115
957.002087	2465.124231
957.302337	2497.891731
957.602550	2495.371154
957.902724	2460.083077
958.202861	2555.865000
958.502960	2442.439038
958.803022	2462.603654
959.103045	2467.644808
959.403031	2560.906154
959.702979	2477.727115
960.002889	2490.330000
960.302762	2444.959615
960.602596	2513.015192
960.902393	2495.371154
961.202153	2427.315577
961.501875	2495.371154
961.801559	2513.015192
962.101205	2515.535769
962.400814	2457.562500
962.700385	2523.097500
962.999918	2548.303269
963.299414	2530.659231
963.598873	2472.685962
963.898293	2553.344423
964.197677	2409.671538
964.497022	2553.344423
964.796331	2515.535769
965.095601	2540.741538
965.394835	2394.548077
965.694030	2485.288846
965.993189	2455.041923
966.292309	2432.356731
966.591393	2480.247692
966.890439	2502.932885
967.189447	2462.603654
967.488419	2593.673654
967.787353	2414.712692
968.086249	2520.576923
968.385108	2490.330000
968.683930	2495.371154
968.982714	2525.618077
969.281462	2467.644808
969.580172	2535.700385
969.878844	2460.083077
970.177480	2507.974038
970.476078	2523.097500
970.774639	2457.562500
971.073162	2487.809423
971.371649	2490.330000
971.670098	2417.233269
971.968510	2500.412308
972.266885	2457.562500
972.565223	2492.850577
972.863524	2460.083077
973.161788	2543.262115
973.460014	2439.918462
973.758204	2518.056346
974.056356	2455.041923
974.354471	2429.836154
974.652550	2545.782692
974.950591	2495.371154
975.248595	2558.385577
975.546563	2492.850577
975.844493	2510.494615
976.142386	2467.644808
976.440243	2523.097500
976.738062	2447.480192
977.035845	2429.836154
977.333590	2540.741538
977.631299	2507.974038
977.928971	2485.288846
978.226606	2497.891731
978.524204	2450.000769
978.821765	2439.918462
979.119290	2452.521346
979.416777	2548.303269
979.714228	2543.262115
980.011642	2475.206538
980.309020	2480.247692
980.606360	2540.741538
980.903664	2487.809423
981.200931	2545.782692
981.498162	2507.974038
981.795356	2520.576923
982.092513	2500.412308
982.389633	2543.262115
982.686717	2568.467885
982.983764	2538.220962
983.280775	2611.317692
983.577749	2460.083077
983.874686	2525.618077
984.171587	2507.974038
984.468451	2452.521346
984.765279	2530.659231
985.062070	2450.000769
985.358824	2472.685962
985.655543	2462.603654
985.952224	2510.494615
986.248869	2455.041923
986.545478	2480.247692
986.842050	2460.083077
987.138586	2465.124231
987.435086	2434.877308
987.731549	2422.274423
988.027975	2510.494615
988.324366	2510.494615
988.620719	2422.274423
988.917037	2442.439038
989.213318	2500.412308
989.509563	2500.412308
989.805772	2596.194231
990.101944	2510.494615
990.398080	2444.959615
990.694180	2560.906154
990.990244	2475.206538
991.286271	2543.262115
991.582262	2520.576923
991.878217	2497.891731
992.174136	2495.371154
992.470019	2568.467885
992.765865	2510.494615
993.061676	2505.453462
993.357450	2518.056346
993.653188	2497.891731
993.948890	2533.179808
994.244556	2515.535769
994.540186	2462.603654
994.835780	2513.015192
995.131337	2417.233269
995.426859	2495.371154
995.722345	2518.056346
996.017795	2555.865000
996.313208	2510.494615
996.608586	2507.974038
996.903928	2472.685962
997.199234	2442.439038
997.494504	2502.932885
997.789738	2369.342308
998.084936	2477.727115
998.380099	2414.712692
998.675225	2500.412308
998.970316	2510.494615
999.265371	2480.247692
999.560390	2417.233269
999.855373	2507.974038
1000.150320	2480.247692
1000.445232	2530.659231
1000.740108	2485.288846
1001.034948	2553.344423
1001.329752	2497.891731
1001.624521	2475.206538
1001.919254	2550.823846
1002.213951	2482.768269
1002.508613	2545.782692
1002.803239	2422.274423
1003.097829	2447.480192
1003.392384	2490.330000
1003.686903	2565.947308
1003.981386	2472.685962
1004.275834	2455.041923
1004.570246	2523.097500
1004.864623	2500.412308
1005.158964	2548.303269
1005.453270	2429.836154
1005.747540	2462.603654
1006.041775	2460.083077
1006.335974	2470.165385
1006.630138	2437.397885
1006.924266	2490.330000
1007.218359	2475.206538
1007.512416	2545.782692
1007.806438	2439.918462
1008.100425	2507.974038
1008.394376	2465.124231
1008.688292	2452.521346
1008.982172	2528.138654
1009.276017	2485.288846
1009.569827	2533.179808
1009.863602	2422.274423
1010.157341	2500.412308
1010.451045	2513.015192
1010.744714	2412.192115
1011.038347	2409.671538
1011.331945	2485.288846
1011.625508	2535.700385
1011.919036	2475.206538
1012.212528	2495.371154
1012.505986	2450.000769
1012.799408	2558.385577
1013.092795	2392.027500
1013.386147	2558.385577
1013.679464	2432.356731
1013.972745	2465.124231
1014.265992	2437.397885
1014.559204	2465.124231
1014.852380	2608.797115
1015.145521	2485.288846
1015.438628	2538.220962
1015.731699	2538.220962
1016.024736	2548.303269
1016.317737	2462.603654
1016.610703	2543.262115
1016.903635	2467.644808
1017.196531	2487.809423
1017.489393	2548.303269
1017.782219	2389.506923
1018.075011	2460.083077
1018.367768	2533.179808
1018.660490	2538.220962
1018.953177	2538.220962
1019.245829	2538.220962
