Dividing Wavelength (nm)	Counts (n)	Blue Motor Position (mm): 0.000000	Red Motor Position (mm): 3.600000	
326.493990	2046.708462
326.888308	2046.708462
327.282561	2046.708462
327.676750	2066.873077
328.070874	2069.393654
328.464933	2066.873077
328.858929	2049.229038
329.252859	2064.352500
329.646726	2162.655000
330.040528	2132.408077
330.434265	2087.037692
330.827938	2066.873077
331.221547	2124.846346
331.615091	2150.052115
332.008571	2145.010962
332.401986	2152.572692
332.795338	2238.272308
333.188625	2276.080962
333.581847	2308.848462
333.975006	2336.574808
334.368100	2296.245577
334.761129	2213.066538
335.154095	2336.574808
335.546996	2228.190000
335.939833	2386.986346
336.332606	2316.410192
336.725315	2432.356731
337.117960	2381.945192
337.510540	2414.712692
337.903056	2331.533654
338.295508	2462.603654
338.687896	2470.165385
339.080220	2480.247692
339.472480	2472.685962
339.864676	2495.371154
340.256807	2495.371154
340.648875	2439.918462
341.040879	2475.206538
341.432818	2434.877308
341.824694	2538.220962
342.216506	2513.015192
342.608253	2439.918462
342.999937	2538.220962
343.391557	2462.603654
343.783113	2407.150962
344.174605	2490.330000
344.566033	2404.630385
344.957397	2477.727115
345.348697	2545.782692
345.739934	2502.932885
346.131106	2465.124231
346.522215	2467.644808
346.913260	2538.220962
347.304241	2371.862885
347.695159	2545.782692
348.086012	2457.562500
348.476802	2422.274423
348.867528	2462.603654
349.258191	2434.877308
349.648789	2507.974038
350.039324	2376.904038
350.429796	2530.659231
350.820203	2409.671538
351.210548	2432.356731
351.600828	2467.644808
351.991045	2507.974038
352.381198	2399.589231
352.771288	2419.753846
353.161314	2439.918462
353.551276	2366.821731
353.941175	2482.768269
354.331010	2409.671538
354.720782	2495.371154
355.110490	2364.301154
355.500135	2341.615962
355.889717	2359.260000
356.279235	2545.782692
356.668689	2427.315577
357.058080	2487.809423
357.447408	2460.083077
357.836672	2374.383462
358.225873	2452.521346
358.615010	2553.344423
359.004084	2412.192115
359.393095	2480.247692
359.782043	2371.862885
360.170927	2399.589231
360.559748	2470.165385
360.948505	2414.712692
361.337199	2470.165385
361.725830	2359.260000
362.114398	2470.165385
362.502903	2475.206538
362.891344	2386.986346
363.279722	2505.453462
363.668037	2450.000769
364.056289	2535.700385
364.444478	2402.109808
364.832603	2507.974038
365.220665	2432.356731
365.608665	2500.412308
365.996601	2432.356731
366.384474	2364.301154
366.772284	2412.192115
367.160031	2394.548077
367.547715	2439.918462
367.935336	2434.877308
368.322893	2407.150962
368.710388	2354.218846
369.097820	2467.644808
369.485189	2460.083077
369.872495	2457.562500
370.259738	2447.480192
370.646918	2513.015192
371.034035	2442.439038
371.421090	2500.412308
371.808081	2482.768269
372.195010	2392.027500
372.581875	2495.371154
372.968678	2450.000769
373.355418	2419.753846
373.742096	2490.330000
374.128710	2444.959615
374.515262	2502.932885
374.901751	2419.753846
375.288177	2455.041923
375.674540	2379.424615
376.060841	2492.850577
376.447079	2399.589231
376.833254	2475.206538
377.219367	2462.603654
377.605417	2495.371154
377.991404	2409.671538
378.377329	2525.618077
378.763191	2437.397885
379.148991	2384.465769
379.534727	2482.768269
379.920402	2460.083077
380.306013	2457.562500
380.691563	2437.397885
381.077049	2462.603654
381.462474	2414.712692
381.847835	2495.371154
382.233134	2442.439038
382.618371	2523.097500
383.003545	2485.288846
383.388657	2437.397885
383.773706	2467.644808
384.158693	2505.453462
384.543618	2495.371154
384.928480	2543.262115
385.313280	2402.109808
385.698017	2417.233269
386.082692	2533.179808
386.467305	2422.274423
386.851856	2409.671538
387.236344	2495.371154
387.620770	2422.274423
388.005133	2470.165385
388.389435	2419.753846
388.773674	2535.700385
389.157851	2432.356731
389.541965	2404.630385
389.926018	2505.453462
390.310008	2414.712692
390.693936	2417.233269
391.077802	2439.918462
391.461606	2477.727115
391.845348	2472.685962
392.229027	2422.274423
392.612645	2497.891731
392.996200	2515.535769
393.379694	2523.097500
393.763125	2419.753846
394.146494	2475.206538
394.529801	2386.986346
394.913047	2447.480192
395.296230	2500.412308
395.679351	2460.083077
396.062410	2487.809423
396.445408	2528.138654
396.828343	2492.850577
397.211217	2560.906154
397.594028	2505.453462
397.976778	2452.521346
398.359466	2518.056346
398.742092	2520.576923
399.124656	2455.041923
399.507158	2392.027500
399.889598	2465.124231
400.271977	2452.521346
400.654294	2515.535769
401.036549	2467.644808
401.418742	2389.506923
401.800874	2507.974038
402.182944	2419.753846
402.564952	2427.315577
402.946898	2462.603654
403.328783	2419.753846
403.710606	2513.015192
404.092367	2470.165385
404.474067	2497.891731
404.855705	2429.836154
405.237282	2525.618077
405.618797	2480.247692
406.000250	2515.535769
406.381642	2397.068654
406.762972	2490.330000
407.144240	2432.356731
407.525447	2480.247692
407.906593	2553.344423
408.287677	2492.850577
408.668700	2520.576923
409.049661	2450.000769
409.430560	2475.206538
409.811399	2495.371154
410.192176	2565.947308
410.572891	2490.330000
410.953545	2439.918462
411.334138	2533.179808
411.714669	2518.056346
412.095139	2442.439038
412.475547	2475.206538
412.855894	2470.165385
413.236180	2565.947308
413.616405	2472.685962
413.996568	2389.506923
414.376670	2492.850577
414.756711	2485.288846
415.136691	2457.562500
415.516609	2480.247692
415.896466	2540.741538
416.276262	2465.124231
416.655997	2447.480192
417.035670	2507.974038
417.415283	2515.535769
417.794834	2581.070769
418.174324	2482.768269
418.553753	2502.932885
418.933121	2402.109808
419.312428	2523.097500
419.691674	2500.412308
420.070859	2460.083077
420.449983	2434.877308
420.829045	2530.659231
421.208047	2480.247692
421.586988	2500.412308
421.965867	2439.918462
422.344686	2507.974038
422.723444	2470.165385
423.102141	2520.576923
423.480777	2470.165385
423.859352	2525.618077
424.237866	2371.862885
424.616319	2515.535769
424.994712	2520.576923
425.373044	2530.659231
425.751314	2507.974038
426.129524	2490.330000
426.507673	2502.932885
426.885762	2439.918462
427.263789	2535.700385
427.641756	2507.974038
428.019662	2545.782692
428.397508	2434.877308
428.775292	2581.070769
429.153016	2497.891731
429.530679	2538.220962
429.908282	2442.439038
430.285824	2417.233269
430.663305	2439.918462
431.040726	2497.891731
431.418086	2437.397885
431.795385	2480.247692
432.172624	2543.262115
432.549802	2434.877308
432.926920	2513.015192
433.303977	2462.603654
433.680974	2485.288846
434.057910	2465.124231
434.434786	2497.891731
434.811601	2505.453462
435.188355	2439.918462
435.565050	2462.603654
435.941683	2482.768269
436.318257	2392.027500
436.694770	2437.397885
437.071222	2419.753846
437.447614	2485.288846
437.823946	2505.453462
438.200218	2414.712692
438.576429	2528.138654
438.952580	2409.671538
439.328670	2472.685962
439.704700	2578.550192
440.080670	2568.467885
440.456580	2412.192115
440.832429	2576.029615
441.208218	2495.371154
441.583947	2507.974038
441.959616	2487.809423
442.335224	2520.576923
442.710773	2472.685962
443.086261	2487.809423
443.461689	2432.356731
443.837057	2482.768269
444.212365	2480.247692
444.587612	2515.535769
444.962800	2492.850577
445.337927	2505.453462
445.712995	2530.659231
446.088002	2414.712692
446.462949	2523.097500
446.837837	2384.465769
447.212664	2533.179808
447.587431	2379.424615
447.962139	2497.891731
448.336786	2439.918462
448.711374	2407.150962
449.085901	2545.782692
449.460369	2465.124231
449.834776	2492.850577
450.209124	2465.124231
450.583412	2492.850577
450.957640	2543.262115
451.331808	2528.138654
451.705917	2475.206538
452.079965	2558.385577
452.453954	2500.412308
452.827883	2500.412308
453.201752	2507.974038
453.575562	2472.685962
453.949311	2442.439038
454.323001	2540.741538
454.696632	2419.753846
455.070202	2523.097500
455.443713	2560.906154
455.817164	2545.782692
456.190556	2455.041923
456.563888	2455.041923
456.937160	2560.906154
457.310373	2495.371154
457.683526	2452.521346
458.056619	2523.097500
458.429653	2507.974038
458.802628	2560.906154
459.175542	2467.644808
459.548398	2525.618077
459.921194	2490.330000
460.293930	2523.097500
460.666607	2500.412308
461.039224	2533.179808
461.411782	2487.809423
461.784280	2495.371154
462.156719	2505.453462
462.529099	2510.494615
462.901419	2515.535769
463.273680	2467.644808
463.645882	2497.891731
464.018024	2533.179808
464.390106	2389.506923
464.762130	2432.356731
465.134094	2422.274423
465.505999	2427.315577
465.877845	2500.412308
466.249631	2434.877308
466.621358	2404.630385
466.993026	2535.700385
467.364634	2523.097500
467.736184	2535.700385
468.107674	2427.315577
468.479105	2442.439038
468.850477	2553.344423
469.221790	2434.877308
469.593043	2502.932885
469.964238	2472.685962
470.335373	2490.330000
470.706449	2510.494615
471.077467	2507.974038
471.448425	2525.618077
471.819324	2470.165385
472.190164	2621.400000
472.560945	2530.659231
472.931667	2422.274423
473.302330	2477.727115
473.672934	2470.165385
474.043479	2545.782692
474.413965	2550.823846
474.784393	2495.371154
475.154761	2502.932885
475.525070	2490.330000
475.895321	2487.809423
476.265513	2465.124231
476.635645	2518.056346
477.005719	2460.083077
477.375734	2455.041923
477.745691	2518.056346
478.115588	2447.480192
478.485427	2482.768269
478.855207	2495.371154
479.224928	2533.179808
479.594591	2563.426731
479.964194	2528.138654
480.333739	2540.741538
480.703226	2472.685962
481.072653	2455.041923
481.442022	2490.330000
481.811333	2386.986346
482.180584	2530.659231
482.549777	2470.165385
482.918912	2513.015192
483.287988	2500.412308
483.657005	2588.632500
484.025964	2515.535769
484.394864	2540.741538
484.763706	2500.412308
485.132489	2450.000769
485.501213	2487.809423
485.869879	2397.068654
486.238487	2399.589231
486.607036	2510.494615
486.975527	2495.371154
487.343959	2533.179808
487.712333	2487.809423
488.080648	2525.618077
488.448905	2596.194231
488.817104	2447.480192
489.185244	2505.453462
489.553326	2548.303269
489.921350	2502.932885
490.289315	2381.945192
490.657222	2497.891731
491.025070	2462.603654
491.392861	2507.974038
491.760593	2490.330000
492.128267	2490.330000
492.495883	2528.138654
492.863440	2500.412308
493.230939	2502.932885
493.598380	2490.330000
493.965763	2490.330000
494.333088	2477.727115
494.700354	2520.576923
495.067563	2495.371154
495.434713	2465.124231
495.801805	2520.576923
496.168839	2497.891731
496.535815	2450.000769
496.902733	2528.138654
497.269593	2467.644808
497.636395	2525.618077
498.003139	2502.932885
498.369825	2470.165385
498.736453	2417.233269
499.103023	2457.562500
499.469535	2603.755962
499.835989	2520.576923
500.202385	2475.206538
500.568723	2507.974038
500.935003	2477.727115
501.301226	2515.535769
501.667390	2490.330000
502.033497	2558.385577
502.399546	2432.356731
502.765537	2487.809423
503.131470	2502.932885
503.497345	2576.029615
503.863163	2457.562500
504.228923	2565.947308
504.594625	2422.274423
504.960269	2480.247692
505.325856	2467.644808
505.691385	2492.850577
506.056856	2402.109808
506.422270	2500.412308
506.787625	2455.041923
507.152924	2523.097500
507.518164	2505.453462
507.883347	2450.000769
508.248472	2525.618077
508.613540	2502.932885
508.978550	2540.741538
509.343503	2497.891731
509.708398	2439.918462
510.073236	2477.727115
510.438016	2439.918462
510.802738	2510.494615
511.167403	2472.685962
511.532010	2450.000769
511.896561	2427.315577
512.261053	2490.330000
512.625488	2460.083077
512.989866	2520.576923
513.354186	2434.877308
513.718449	2538.220962
514.082655	2525.618077
514.446803	2460.083077
514.810894	2429.836154
515.174927	2558.385577
515.538904	2513.015192
515.902822	2452.521346
516.266684	2570.988462
516.630488	2450.000769
516.994235	2477.727115
517.357925	2465.124231
517.721558	2555.865000
518.085133	2490.330000
518.448651	2490.330000
518.812112	2457.562500
519.175516	2543.262115
519.538863	2457.562500
519.902152	2510.494615
520.265385	2505.453462
520.628560	2477.727115
520.991678	2500.412308
521.354739	2432.356731
521.717743	2581.070769
522.080690	2492.850577
522.443580	2513.015192
522.806413	2439.918462
523.169189	2505.453462
523.531908	2485.288846
523.894569	2465.124231
524.257174	2540.741538
524.619722	2455.041923
524.982213	2543.262115
525.344647	2472.685962
525.707025	2553.344423
526.069345	2500.412308
526.431608	2513.015192
526.793815	2475.206538
527.155964	2505.453462
527.518057	2550.823846
527.880093	2439.918462
528.242072	2419.753846
528.603995	2518.056346
528.965860	2467.644808
529.327669	2520.576923
529.689421	2429.836154
530.051117	2515.535769
530.412755	2487.809423
530.774337	2568.467885
531.135862	2490.330000
531.497331	2419.753846
531.858743	2513.015192
532.220098	2452.521346
532.581396	2507.974038
532.942638	2550.823846
533.303824	2444.959615
533.664953	2520.576923
534.026025	2525.618077
534.387040	2497.891731
534.747999	2581.070769
535.108902	2533.179808
535.469748	2505.453462
535.830537	2502.932885
536.191270	2513.015192
536.551947	2510.494615
536.912567	2530.659231
537.273131	2437.397885
537.633638	2429.836154
537.994089	2444.959615
538.354483	2550.823846
538.714821	2510.494615
539.075103	2563.426731
539.435328	2480.247692
539.795497	2583.591346
540.155609	2475.206538
540.515665	2490.330000
540.875665	2515.535769
541.235609	2460.083077
541.595496	2450.000769
541.955328	2492.850577
542.315102	2515.535769
542.674821	2507.974038
543.034483	2591.153077
543.394090	2515.535769
543.753640	2475.206538
544.113134	2558.385577
544.472571	2623.920577
544.831953	2434.877308
545.191278	2472.685962
545.550548	2437.397885
545.909761	2573.509038
546.268918	2490.330000
546.628019	2497.891731
546.987064	2460.083077
547.346053	2447.480192
547.704986	2485.288846
548.063863	2480.247692
548.422684	2507.974038
548.781449	2450.000769
549.140158	2462.603654
549.498811	2467.644808
549.857408	2550.823846
550.215949	2432.356731
550.574434	2500.412308
550.932864	2565.947308
551.291237	2457.562500
551.649555	2455.041923
552.007817	2510.494615
552.366022	2520.576923
552.724173	2518.056346
553.082267	2452.521346
553.440305	2513.015192
553.798288	2530.659231
554.156215	2475.206538
554.514086	2497.891731
554.871902	2565.947308
555.229661	2429.836154
555.587365	2485.288846
555.945014	2538.220962
556.302606	2497.891731
556.660143	2432.356731
557.017625	2465.124231
557.375050	2487.809423
557.732421	2487.809423
558.089735	2538.220962
558.446994	2450.000769
558.804197	2452.521346
559.161345	2482.768269
559.518437	2533.179808
559.875474	2502.932885
560.232455	2601.235385
560.589381	2525.618077
560.946251	2434.877308
561.303065	2465.124231
561.659825	2520.576923
562.016528	2560.906154
562.373177	2482.768269
562.729770	2543.262115
563.086307	2502.932885
563.442789	2495.371154
563.799216	2545.782692
564.155587	2460.083077
564.511904	2490.330000
564.868164	2515.535769
565.224370	2558.385577
565.580520	2442.439038
565.936615	2475.206538
566.292654	2470.165385
566.648638	2492.850577
567.004567	2482.768269
567.360441	2535.700385
567.716260	2477.727115
568.072023	2515.535769
568.427732	2480.247692
568.783385	2490.330000
569.138982	2462.603654
569.494525	2523.097500
569.850013	2452.521346
570.205445	2500.412308
570.560823	2475.206538
570.916145	2485.288846
571.271412	2510.494615
571.626625	2419.753846
571.981782	2455.041923
572.336884	2492.850577
572.691931	2578.550192
573.046923	2429.836154
573.401860	2515.535769
573.756743	2447.480192
574.111570	2480.247692
574.466342	2538.220962
574.821059	2490.330000
575.175722	2502.932885
575.530330	2482.768269
575.884882	2490.330000
576.239380	2452.521346
576.593823	2439.918462
576.948211	2460.083077
577.302544	2414.712692
577.656823	2495.371154
578.011047	2555.865000
578.365216	2490.330000
578.719330	2500.412308
579.073389	2568.467885
579.427394	2432.356731
579.781344	2427.315577
580.135239	2485.288846
580.489080	2429.836154
580.842866	2593.673654
581.196597	2490.330000
581.550273	2538.220962
581.903895	2477.727115
582.257463	2485.288846
582.610975	2429.836154
582.964434	2414.712692
583.317837	2513.015192
583.671186	2518.056346
584.024481	2548.303269
584.377721	2424.795000
584.730906	2507.974038
585.084037	2510.494615
585.437113	2533.179808
585.790135	2553.344423
586.143103	2492.850577
586.496016	2573.509038
586.848874	2485.288846
587.201679	2424.795000
587.554428	2560.906154
587.907124	2555.865000
588.259765	2505.453462
588.612352	2603.755962
588.964884	2452.521346
589.317362	2520.576923
589.669786	2432.356731
590.022155	2553.344423
590.374470	2450.000769
590.726731	2525.618077
591.078937	2460.083077
591.431090	2379.424615
591.783188	2475.206538
592.135232	2450.000769
592.487222	2447.480192
592.839157	2520.576923
593.191038	2530.659231
593.542866	2533.179808
593.894639	2495.371154
594.246358	2457.562500
594.598022	2460.083077
594.949633	2480.247692
595.301190	2495.371154
595.652692	2507.974038
596.004141	2518.056346
596.355535	2455.041923
596.706876	2530.659231
597.058162	2472.685962
597.409395	2477.727115
597.760573	2437.397885
598.111698	2477.727115
598.462768	2450.000769
598.813785	2485.288846
599.164748	2578.550192
599.515657	2477.727115
599.866511	2548.303269
600.217312	2450.000769
600.568060	2502.932885
600.918753	2497.891731
601.269392	2593.673654
601.619978	2513.015192
601.970510	2500.412308
602.320988	2495.371154
602.671412	2573.509038
603.021783	2505.453462
603.372100	2500.412308
603.722363	2490.330000
604.072572	2447.480192
604.422728	2490.330000
604.772830	2513.015192
605.122878	2404.630385
605.472872	2490.330000
605.822813	2593.673654
606.172701	2439.918462
606.522534	2495.371154
606.872314	2558.385577
607.222041	2530.659231
607.571714	2555.865000
607.921333	2570.988462
608.270899	2492.850577
608.620411	2538.220962
608.969870	2465.124231
609.319276	2578.550192
609.668627	2460.083077
610.017926	2500.412308
610.367171	2507.974038
610.716362	2452.521346
611.065500	2492.850577
611.414585	2434.877308
611.763616	2525.618077
612.112594	2548.303269
612.461518	2525.618077
612.810389	2475.206538
613.159207	2507.974038
613.507971	2507.974038
613.856682	2543.262115
614.205340	2563.426731
614.553945	2492.850577
614.902496	2397.068654
615.250994	2457.562500
615.599439	2500.412308
615.947830	2525.618077
616.296169	2515.535769
616.644454	2543.262115
616.992686	2492.850577
617.340864	2520.576923
617.688990	2492.850577
618.037063	2507.974038
618.385082	2555.865000
618.733048	2525.618077
619.080961	2515.535769
619.428821	2530.659231
619.776628	2452.521346
620.124382	2427.315577
620.472083	2497.891731
620.819731	2528.138654
621.167326	2424.795000
621.514868	2480.247692
621.862357	2492.850577
622.209793	2462.603654
622.557176	2513.015192
622.904506	2492.850577
623.251783	2485.288846
623.599007	2495.371154
623.946179	2475.206538
624.293297	2535.700385
624.640363	2530.659231
624.987376	2422.274423
625.334336	2487.809423
625.681243	2543.262115
626.028097	2523.097500
626.374899	2490.330000
626.721647	2475.206538
627.068343	2523.097500
627.414987	2490.330000
627.761577	2586.111923
628.108115	2450.000769
628.454600	2553.344423
628.801032	2525.618077
629.147412	2510.494615
629.493739	2513.015192
629.840014	2460.083077
630.186236	2515.535769
630.532405	2457.562500
630.878521	2470.165385
631.224585	2500.412308
631.570597	2581.070769
631.916556	2538.220962
632.262462	2523.097500
632.608316	2470.165385
632.954117	2485.288846
633.299866	2485.288846
633.645562	2518.056346
633.991206	2500.412308
634.336797	2419.753846
634.682336	2507.974038
635.027823	2507.974038
635.373257	2477.727115
635.718639	2555.865000
636.063968	2525.618077
636.409245	2518.056346
636.754470	2497.891731
637.099642	2538.220962
637.444762	2361.780577
637.789829	2472.685962
638.134845	2462.603654
638.479808	2487.809423
638.824719	2472.685962
639.169577	2470.165385
639.514383	2450.000769
639.859137	2596.194231
640.203839	2518.056346
640.548489	2525.618077
640.893086	2510.494615
641.237632	2480.247692
641.582125	2573.509038
641.926566	2472.685962
642.270955	2518.056346
642.615292	2450.000769
642.959576	2560.906154
643.303809	2424.795000
643.647990	2535.700385
643.992118	2578.550192
644.336195	2505.453462
644.680219	2485.288846
645.024192	2543.262115
645.368112	2472.685962
645.711981	2472.685962
646.055797	2482.768269
646.399562	2538.220962
646.743274	2465.124231
647.086935	2500.412308
647.430544	2570.988462
647.774101	2439.918462
648.117606	2513.015192
648.461059	2523.097500
648.804460	2480.247692
649.147810	2460.083077
649.491108	2515.535769
649.834354	2470.165385
650.177548	2515.535769
650.520690	2475.206538
650.863781	2535.700385
651.206820	2462.603654
651.549807	2500.412308
651.892742	2507.974038
652.235626	2457.562500
652.578458	2492.850577
652.921238	2460.083077
653.263967	2480.247692
653.606644	2518.056346
653.949269	2553.344423
654.291843	2591.153077
654.634365	2545.782692
654.976836	2520.576923
655.319255	2492.850577
655.661622	2444.959615
656.003938	2475.206538
656.346203	2528.138654
656.688416	2545.782692
657.030577	2480.247692
657.372687	2528.138654
657.714746	2543.262115
658.056753	2548.303269
658.398708	2482.768269
658.740612	2520.576923
659.082465	2513.015192
659.424266	2465.124231
659.766016	2452.521346
660.107715	2465.124231
660.449362	2500.412308
660.790958	2439.918462
661.132503	2502.932885
661.473996	2485.288846
661.815438	2397.068654
662.156829	2455.041923
662.498168	2475.206538
662.839456	2565.947308
663.180693	2477.727115
663.521879	2492.850577
663.863013	2412.192115
664.204097	2507.974038
664.545129	2553.344423
664.886110	2487.809423
665.227040	2500.412308
665.567918	2470.165385
665.908746	2472.685962
666.249522	2444.959615
666.590248	2502.932885
666.930922	2490.330000
667.271545	2394.548077
667.612118	2470.165385
667.952639	2462.603654
668.293109	2545.782692
668.633528	2460.083077
668.973896	2462.603654
669.314213	2439.918462
669.654480	2560.906154
669.994695	2437.397885
670.334859	2475.206538
670.674973	2485.288846
671.015035	2490.330000
671.355047	2540.741538
671.695008	2548.303269
672.034918	2497.891731
672.374777	2523.097500
672.714585	2591.153077
673.054342	2545.782692
673.394049	2432.356731
673.733705	2563.426731
674.073310	2455.041923
674.412864	2485.288846
674.752368	2507.974038
675.091820	2414.712692
675.431223	2525.618077
675.770574	2407.150962
676.109875	2487.809423
676.449125	2457.562500
676.788324	2482.768269
677.127473	2487.809423
677.466571	2492.850577
677.805619	2472.685962
678.144616	2523.097500
678.483562	2540.741538
678.822458	2452.521346
679.161303	2545.782692
679.500098	2470.165385
679.838842	2576.029615
680.177535	2419.753846
680.516179	2545.782692
680.854771	2497.891731
681.193314	2565.947308
681.531805	2528.138654
681.870247	2520.576923
682.208638	2492.850577
682.546978	2518.056346
682.885268	2477.727115
683.223508	2528.138654
683.561697	2465.124231
683.899836	2465.124231
684.237925	2422.274423
684.575963	2558.385577
684.913951	2432.356731
685.251889	2487.809423
685.589776	2452.521346
685.927614	2535.700385
686.265401	2618.879423
686.603137	2419.753846
686.940824	2538.220962
687.278460	2460.083077
687.616046	2523.097500
687.953582	2482.768269
688.291068	2515.535769
688.628504	2452.521346
688.965889	2475.206538
689.303224	2490.330000
689.640510	2500.412308
689.977745	2568.467885
690.314930	2490.330000
690.652065	2462.603654
690.989150	2576.029615
691.326185	2485.288846
691.663170	2442.439038
692.000105	2455.041923
692.336990	2581.070769
692.673825	2482.768269
693.010610	2502.932885
693.347345	2500.412308
693.684030	2528.138654
694.020665	2475.206538
694.357251	2505.453462
694.693786	2429.836154
695.030272	2545.782692
695.366707	2533.179808
695.703093	2593.673654
696.039429	2528.138654
696.375716	2550.823846
696.711952	2422.274423
697.048139	2565.947308
697.384276	2555.865000
697.720363	2427.315577
698.056400	2565.947308
698.392388	2485.288846
698.728326	2502.932885
699.064214	2578.550192
699.400053	2518.056346
699.735842	2492.850577
700.071581	2558.385577
700.407270	2460.083077
700.742910	2437.397885
701.078501	2533.179808
701.414042	2480.247692
701.749533	2543.262115
702.084974	2439.918462
702.420366	2447.480192
702.755709	2450.000769
703.091002	2485.288846
703.426246	2455.041923
703.761440	2576.029615
704.096584	2477.727115
704.431679	2525.618077
704.766725	2482.768269
705.101721	2492.850577
705.436668	2518.056346
705.771565	2588.632500
706.106413	2442.439038
706.441212	2555.865000
706.775961	2434.877308
707.110661	2437.397885
707.445311	2538.220962
707.779913	2550.823846
708.114465	2462.603654
708.448967	2523.097500
708.783421	2538.220962
709.117825	2553.344423
709.452180	2475.206538
709.786485	2510.494615
710.120742	2586.111923
710.454949	2472.685962
710.789107	2485.288846
711.123216	2492.850577
711.457275	2525.618077
711.791286	2467.644808
712.125247	2520.576923
712.459159	2553.344423
712.793023	2505.453462
713.126837	2513.015192
713.460602	2518.056346
713.794318	2505.453462
714.127985	2465.124231
714.461602	2492.850577
714.795171	2495.371154
715.128691	2563.426731
715.462162	2523.097500
715.795584	2523.097500
716.128957	2530.659231
716.462281	2477.727115
716.795556	2520.576923
717.128782	2530.659231
717.461960	2520.576923
717.795088	2450.000769
718.128167	2452.521346
718.461198	2500.412308
718.794180	2530.659231
719.127113	2586.111923
719.459997	2505.453462
719.792833	2490.330000
720.125619	2475.206538
720.458357	2475.206538
720.791046	2472.685962
721.123686	2528.138654
721.456278	2460.083077
721.788821	2452.521346
722.121315	2457.562500
722.453761	2570.988462
722.786158	2507.974038
723.118506	2510.494615
723.450805	2465.124231
723.783056	2523.097500
724.115259	2495.371154
724.447412	2518.056346
724.779518	2439.918462
725.111574	2467.644808
725.443582	2535.700385
725.775542	2558.385577
726.107453	2598.714808
726.439315	2450.000769
726.771129	2553.344423
727.102895	2538.220962
727.434612	2477.727115
727.766281	2437.397885
728.097901	2505.453462
728.429473	2495.371154
728.760996	2442.439038
729.092471	2457.562500
729.423897	2477.727115
729.755276	2477.727115
730.086606	2523.097500
730.417887	2550.823846
730.749120	2502.932885
731.080305	2543.262115
731.411442	2603.755962
731.742530	2495.371154
732.073570	2485.288846
732.404562	2455.041923
732.735506	2485.288846
733.066401	2450.000769
733.397249	2507.974038
733.728048	2523.097500
734.058798	2462.603654
734.389501	2507.974038
734.720156	2520.576923
735.050762	2543.262115
735.381320	2465.124231
735.711831	2555.865000
736.042293	2513.015192
736.372707	2555.865000
736.703073	2525.618077
737.033391	2553.344423
737.363661	2462.603654
737.693883	2500.412308
738.024056	2502.932885
738.354182	2457.562500
738.684260	2495.371154
739.014290	2399.589231
739.344272	2530.659231
739.674207	2470.165385
740.004093	2497.891731
740.333931	2492.850577
740.663722	2515.535769
740.993464	2470.165385
741.323159	2515.535769
741.652806	2518.056346
741.982405	2475.206538
742.311956	2538.220962
742.641460	2505.453462
742.970915	2513.015192
743.300323	2497.891731
743.629683	2497.891731
743.958996	2457.562500
744.288260	2528.138654
744.617477	2480.247692
744.946647	2553.344423
745.275768	2467.644808
745.604842	2472.685962
745.933869	2482.768269
746.262847	2535.700385
746.591778	2510.494615
746.920662	2452.521346
747.249498	2500.412308
747.578286	2465.124231
747.907027	2543.262115
748.235720	2419.753846
748.564365	2460.083077
748.892963	2444.959615
749.221514	2502.932885
749.550017	2576.029615
749.878473	2475.206538
750.206881	2470.165385
750.535242	2528.138654
750.863555	2485.288846
751.191821	2462.603654
751.520039	2538.220962
751.848210	2470.165385
752.176334	2432.356731
752.504411	2538.220962
752.832440	2545.782692
753.160421	2487.809423
753.488356	2505.453462
753.816243	2515.535769
754.144082	2528.138654
754.471875	2482.768269
754.799620	2432.356731
755.127318	2467.644808
755.454969	2477.727115
755.782572	2502.932885
756.110129	2560.906154
756.437638	2444.959615
756.765100	2492.850577
757.092515	2437.397885
757.419882	2455.041923
757.747203	2475.206538
758.074477	2518.056346
758.401703	2465.124231
758.728882	2558.385577
759.056014	2553.344423
759.383099	2417.233269
759.710138	2467.644808
760.037129	2543.262115
760.364073	2533.179808
760.690970	2525.618077
761.017820	2427.315577
761.344623	2507.974038
761.671379	2460.083077
761.998088	2560.906154
762.324751	2497.891731
762.651366	2452.521346
762.977935	2497.891731
763.304456	2490.330000
763.630931	2555.865000
763.957359	2427.315577
764.283740	2550.823846
764.610074	2507.974038
764.936362	2470.165385
765.262602	2477.727115
765.588796	2487.809423
765.914943	2465.124231
766.241044	2472.685962
766.567097	2444.959615
766.893104	2366.821731
767.219064	2507.974038
767.544978	2482.768269
767.870845	2576.029615
768.196665	2502.932885
768.522438	2452.521346
768.848165	2553.344423
769.173846	2510.494615
769.499479	2467.644808
769.825066	2414.712692
770.150607	2510.494615
770.476101	2510.494615
770.801548	2480.247692
771.126949	2507.974038
771.452303	2507.974038
771.777611	2485.288846
772.102872	2409.671538
772.428087	2490.330000
772.753256	2487.809423
773.078378	2482.768269
773.403453	2452.521346
773.728482	2535.700385
774.053465	2545.782692
774.378401	2543.262115
774.703291	2460.083077
775.028135	2495.371154
775.352932	2432.356731
775.677683	2528.138654
776.002388	2450.000769
776.327046	2545.782692
776.651658	2482.768269
776.976224	2570.988462
777.300743	2467.644808
777.625216	2560.906154
777.949643	2452.521346
778.274024	2530.659231
778.598359	2450.000769
778.922647	2523.097500
779.246889	2460.083077
779.571086	2520.576923
779.895236	2444.959615
780.219339	2515.535769
780.543397	2424.795000
780.867409	2485.288846
781.191374	2530.659231
781.515294	2558.385577
781.839167	2543.262115
782.162995	2507.974038
782.486776	2467.644808
782.810511	2450.000769
783.134201	2482.768269
783.457844	2601.235385
783.781441	2502.932885
784.104993	2518.056346
784.428498	2505.453462
784.751958	2465.124231
785.075372	2495.371154
785.398739	2460.083077
785.722061	2507.974038
786.045337	2548.303269
786.368568	2568.467885
786.691752	2437.397885
787.014891	2500.412308
787.337983	2442.439038
787.661030	2472.685962
787.984031	2457.562500
788.306987	2442.439038
788.629897	2515.535769
788.952760	2550.823846
789.275579	2520.576923
789.598351	2457.562500
789.921078	2535.700385
790.243759	2452.521346
790.566395	2429.836154
790.888984	2596.194231
791.211529	2533.179808
791.534027	2422.274423
791.856480	2500.412308
792.178888	2404.630385
792.501249	2533.179808
792.823566	2515.535769
793.145836	2444.959615
793.468062	2460.083077
793.790241	2528.138654
794.112375	2550.823846
794.434464	2502.932885
794.756507	2563.426731
795.078505	2540.741538
795.400457	2528.138654
795.722364	2500.412308
796.044226	2550.823846
796.366042	2515.535769
796.687812	2465.124231
797.009538	2472.685962
797.331218	2465.124231
797.652852	2540.741538
797.974442	2477.727115
798.295986	2568.467885
798.617484	2485.288846
798.938938	2442.439038
799.260346	2550.823846
799.581709	2507.974038
799.903026	2543.262115
800.224299	2578.550192
800.545526	2535.700385
800.866708	2565.947308
801.187845	2482.768269
801.508936	2505.453462
801.829983	2462.603654
802.150984	2548.303269
802.471940	2462.603654
802.792851	2525.618077
803.113717	2497.891731
803.434538	2495.371154
803.755314	2432.356731
804.076045	2414.712692
804.396731	2457.562500
804.717372	2502.932885
805.037967	2553.344423
805.358518	2535.700385
805.679024	2583.591346
805.999485	2533.179808
806.319901	2460.083077
806.640272	2586.111923
806.960598	2477.727115
807.280879	2460.083077
807.601115	2505.453462
807.921306	2510.494615
808.241453	2482.768269
808.561554	2518.056346
808.881611	2510.494615
809.201623	2513.015192
809.521590	2470.165385
809.841513	2530.659231
810.161390	2538.220962
810.481223	2470.165385
810.801011	2450.000769
811.120755	2455.041923
811.440453	2444.959615
811.760107	2467.644808
812.079716	2490.330000
812.399281	2485.288846
812.718801	2528.138654
813.038276	2548.303269
813.357707	2422.274423
813.677093	2540.741538
813.996434	2452.521346
814.315731	2558.385577
814.634983	2528.138654
814.954191	2480.247692
815.273354	2485.288846
815.592473	2515.535769
815.911547	2457.562500
816.230577	2477.727115
816.549562	2500.412308
816.868502	2568.467885
817.187399	2523.097500
817.506250	2497.891731
817.825058	2507.974038
818.143821	2444.959615
818.462539	2533.179808
818.781213	2530.659231
819.099843	2492.850577
819.418429	2538.220962
819.736970	2427.315577
820.055466	2520.576923
820.373919	2490.330000
820.692327	2520.576923
821.010691	2412.192115
821.329011	2502.932885
821.647286	2530.659231
821.965517	2485.288846
822.283704	2485.288846
822.601847	2465.124231
822.919945	2460.083077
823.237999	2525.618077
823.556010	2563.426731
823.873976	2538.220962
824.191897	2442.439038
824.509775	2591.153077
824.827609	2487.809423
825.145398	2500.412308
825.463144	2523.097500
825.780845	2540.741538
826.098502	2661.729231
826.416116	2452.521346
826.733685	2510.494615
827.051210	2434.877308
827.368692	2490.330000
827.686129	2450.000769
828.003522	2535.700385
828.320872	2384.465769
828.638177	2427.315577
828.955439	2429.836154
829.272656	2439.918462
829.589830	2482.768269
829.906960	2492.850577
830.224046	2397.068654
830.541088	2520.576923
830.858086	2470.165385
831.175041	2470.165385
831.491952	2475.206538
831.808819	2447.480192
832.125642	2485.288846
832.442421	2535.700385
832.759157	2439.918462
833.075849	2548.303269
833.392497	2437.397885
833.709101	2507.974038
834.025662	2533.179808
834.342179	2565.947308
834.658653	2568.467885
834.975083	2467.644808
835.291469	2422.274423
835.607811	2560.906154
835.924110	2422.274423
836.240366	2553.344423
836.556578	2492.850577
836.872746	2505.453462
837.188871	2450.000769
837.504952	2515.535769
837.820990	2485.288846
838.136984	2480.247692
838.452935	2502.932885
838.768842	2490.330000
839.084706	2452.521346
839.400526	2477.727115
839.716303	2439.918462
840.032037	2505.453462
840.347727	2465.124231
840.663373	2510.494615
840.978977	2513.015192
841.294537	2555.865000
841.610054	2447.480192
841.925527	2482.768269
842.240957	2510.494615
842.556344	2500.412308
842.871687	2482.768269
843.186987	2558.385577
843.502244	2475.206538
843.817458	2429.836154
844.132629	2455.041923
844.447756	2530.659231
844.762840	2427.315577
845.077881	2528.138654
845.392879	2500.412308
845.707833	2381.945192
846.022745	2384.465769
846.337613	2432.356731
846.652438	2538.220962
846.967221	2540.741538
847.281960	2434.877308
847.596656	2487.809423
847.911309	2439.918462
848.225919	2477.727115
848.540485	2419.753846
848.855009	2487.809423
849.169490	2432.356731
849.483928	2490.330000
849.798323	2457.562500
850.112675	2570.988462
850.426984	2492.850577
850.741251	2424.795000
851.055474	2555.865000
851.369654	2432.356731
851.683792	2540.741538
851.997887	2394.548077
852.311938	2467.644808
852.625947	2462.603654
852.939914	2535.700385
853.253837	2444.959615
853.567718	2472.685962
853.881555	2492.850577
854.195350	2460.083077
854.509103	2477.727115
854.822812	2427.315577
855.136479	2525.618077
855.450103	2429.836154
855.763685	2500.412308
856.077224	2452.521346
856.390720	2518.056346
856.704173	2507.974038
857.017584	2525.618077
857.330953	2475.206538
857.644278	2455.041923
857.957561	2492.850577
858.270802	2497.891731
858.584000	2432.356731
858.897155	2487.809423
859.210268	2573.509038
859.523339	2495.371154
859.836367	2457.562500
860.149352	2475.206538
860.462295	2507.974038
860.775195	2500.412308
861.088054	2452.521346
861.400869	2472.685962
861.713642	2553.344423
862.026373	2543.262115
862.339062	2399.589231
862.651708	2500.412308
862.964312	2460.083077
863.276873	2530.659231
863.589392	2450.000769
863.901869	2419.753846
864.214303	2515.535769
864.526696	2394.548077
864.839045	2439.918462
865.151353	2495.371154
865.463619	2520.576923
865.775842	2533.179808
866.088023	2381.945192
866.400162	2540.741538
866.712258	2538.220962
867.024313	2510.494615
867.336325	2505.453462
867.648296	2540.741538
867.960224	2450.000769
868.272110	2472.685962
868.583954	2485.288846
868.895755	2427.315577
869.207515	2455.041923
869.519233	2515.535769
869.830909	2414.712692
870.142542	2467.644808
870.454134	2457.562500
870.765684	2487.809423
871.077191	2442.439038
871.388657	2462.603654
871.700081	2427.315577
872.011463	2507.974038
872.322803	2513.015192
872.634101	2475.206538
872.945357	2429.836154
873.256571	2507.974038
873.567744	2492.850577
873.878874	2485.288846
874.189963	2452.521346
874.501010	2439.918462
874.812015	2528.138654
875.122979	2530.659231
875.433900	2462.603654
875.744780	2450.000769
876.055618	2520.576923
876.366415	2528.138654
876.677169	2475.206538
876.987882	2545.782692
877.298554	2555.865000
877.609183	2455.041923
877.919771	2492.850577
878.230317	2492.850577
878.540822	2497.891731
878.851285	2462.603654
879.161707	2467.644808
879.472087	2576.029615
879.782425	2550.823846
880.092722	2533.179808
880.402977	2581.070769
880.713191	2472.685962
881.023363	2502.932885
881.333494	2455.041923
881.643583	2576.029615
881.953631	2535.700385
882.263637	2586.111923
882.573602	2450.000769
882.883526	2528.138654
883.193408	2502.932885
883.503248	2492.850577
883.813048	2523.097500
884.122806	2545.782692
884.432522	2528.138654
884.742197	2470.165385
885.051831	2520.576923
885.361424	2455.041923
885.670975	2558.385577
885.980485	2492.850577
886.289954	2475.206538
886.599382	2434.877308
886.908768	2492.850577
887.218113	2573.509038
887.527417	2525.618077
887.836680	2457.562500
888.145901	2432.356731
888.455082	2510.494615
888.764221	2570.988462
889.073319	2507.974038
889.382376	2543.262115
889.691392	2455.041923
890.000366	2480.247692
890.309300	2535.700385
890.618193	2462.603654
890.927044	2419.753846
891.235855	2462.603654
891.544625	2565.947308
891.853353	2452.521346
892.162041	2545.782692
892.470687	2470.165385
892.779293	2465.124231
893.087858	2447.480192
893.396381	2555.865000
893.704864	2487.809423
894.013306	2510.494615
894.321707	2457.562500
894.630068	2543.262115
894.938387	2608.797115
895.246665	2462.603654
895.554903	2550.823846
895.863100	2523.097500
896.171256	2505.453462
896.479371	2553.344423
896.787446	2530.659231
897.095480	2560.906154
897.403473	2530.659231
897.711425	2487.809423
898.019336	2500.412308
898.327207	2510.494615
898.635038	2525.618077
898.942827	2480.247692
899.250576	2523.097500
899.558284	2399.589231
899.865952	2505.453462
900.173579	2432.356731
900.481165	2505.453462
900.788711	2500.412308
901.096216	2495.371154
901.403681	2462.603654
901.711105	2490.330000
902.018489	2502.932885
902.325832	2404.630385
902.633135	2482.768269
902.940397	2621.400000
903.247619	2505.453462
903.554800	2485.288846
903.861941	2573.509038
904.169041	2444.959615
904.476101	2460.083077
904.783121	2487.809423
905.090100	2558.385577
905.397039	2505.453462
905.703938	2437.397885
906.010796	2394.548077
906.317614	2502.932885
906.624391	2422.274423
906.931129	2497.891731
907.237826	2513.015192
907.544483	2502.932885
907.851099	2500.412308
908.157675	2480.247692
908.464211	2457.562500
908.770707	2500.412308
909.077163	2460.083077
909.383578	2586.111923
909.689954	2475.206538
909.996289	2487.809423
910.302584	2520.576923
910.608839	2485.288846
910.915054	2608.797115
911.221229	2442.439038
911.527363	2492.850577
911.833458	2414.712692
912.139513	2513.015192
912.445527	2558.385577
912.751502	2505.453462
913.057436	2439.918462
913.363331	2533.179808
913.669186	2535.700385
913.975000	2467.644808
914.280775	2578.550192
914.586510	2581.070769
914.892205	2525.618077
915.197859	2573.509038
915.503475	2477.727115
915.809050	2518.056346
916.114585	2424.795000
916.420081	2502.932885
916.725536	2510.494615
917.030952	2533.179808
917.336328	2497.891731
917.641665	2497.891731
917.946961	2434.877308
918.252218	2389.506923
918.557435	2495.371154
918.862612	2548.303269
919.167750	2533.179808
919.472848	2528.138654
919.777906	2515.535769
920.082925	2553.344423
920.387904	2518.056346
920.692843	2460.083077
920.997743	2452.521346
921.302603	2462.603654
921.607423	2555.865000
921.912204	2502.932885
922.216946	2480.247692
922.521647	2515.535769
922.826310	2460.083077
923.130932	2543.262115
923.435516	2419.753846
923.740059	2470.165385
924.044564	2472.685962
924.349028	2470.165385
924.653454	2480.247692
924.957840	2399.589231
925.262186	2505.453462
925.566493	2424.795000
925.870761	2475.206538
926.174989	2485.288846
926.479178	2485.288846
926.783328	2568.467885
927.087438	2467.644808
927.391509	2442.439038
927.695541	2386.986346
927.999533	2502.932885
928.303486	2432.356731
928.607400	2507.974038
928.911275	2535.700385
929.215110	2518.056346
929.518906	2465.124231
929.822663	2485.288846
930.126381	2482.768269
930.430060	2538.220962
930.733699	2497.891731
931.037299	2518.056346
931.340861	2518.056346
931.644383	2444.959615
931.947866	2452.521346
932.251309	2533.179808
932.554714	2472.685962
932.858080	2457.562500
933.161407	2518.056346
933.464694	2404.630385
933.767943	2515.535769
934.071153	2510.494615
934.374323	2538.220962
934.677455	2543.262115
934.980548	2528.138654
935.283602	2487.809423
935.586617	2450.000769
935.889593	2502.932885
936.192530	2525.618077
936.495428	2477.727115
936.798287	2482.768269
937.101108	2465.124231
937.403890	2616.358846
937.706632	2583.591346
938.009336	2528.138654
938.312002	2444.959615
938.614628	2442.439038
938.917216	2472.685962
939.219765	2480.247692
939.522275	2543.262115
939.824747	2492.850577
940.127179	2490.330000
940.429573	2485.288846
940.731929	2439.918462
941.034246	2535.700385
941.336524	2510.494615
941.638763	2490.330000
941.940964	2467.644808
942.243126	2455.041923
942.545250	2331.533654
942.847335	2434.877308
943.149381	2480.247692
943.451389	2548.303269
943.753359	2538.220962
944.055290	2434.877308
944.357182	2437.397885
944.659036	2374.383462
944.960851	2477.727115
945.262628	2477.727115
945.564367	2502.932885
945.866067	2482.768269
946.167729	2497.891731
946.469352	2467.644808
946.770937	2427.315577
947.072484	2460.083077
947.373992	2525.618077
947.675462	2462.603654
947.976893	2371.862885
948.278286	2548.303269
948.579641	2495.371154
948.880958	2533.179808
949.182236	2444.959615
949.483476	2525.618077
949.784678	2583.591346
950.085841	2452.521346
950.386967	2485.288846
950.688054	2573.509038
950.989103	2457.562500
951.290114	2444.959615
951.591087	2434.877308
951.892021	2477.727115
952.192917	2460.083077
952.493776	2502.932885
952.794596	2397.068654
953.095378	2452.521346
953.396122	2583.591346
953.696828	2540.741538
953.997496	2434.877308
954.298126	2392.027500
954.598718	2495.371154
954.899272	2555.865000
955.199788	2470.165385
955.500266	2477.727115
955.800706	2535.700385
956.101108	2507.974038
956.401472	2477.727115
956.701798	2520.576923
957.002087	2427.315577
957.302337	2497.891731
957.602550	2452.521346
957.902724	2507.974038
958.202861	2510.494615
958.502960	2518.056346
958.803022	2482.768269
959.103045	2500.412308
959.403031	2548.303269
959.702979	2505.453462
960.002889	2518.056346
960.302762	2379.424615
960.602596	2500.412308
960.902393	2467.644808
961.202153	2583.591346
961.501875	2457.562500
961.801559	2535.700385
962.101205	2485.288846
962.400814	2518.056346
962.700385	2490.330000
962.999918	2487.809423
963.299414	2553.344423
963.598873	2477.727115
963.898293	2467.644808
964.197677	2495.371154
964.497022	2538.220962
964.796331	2500.412308
965.095601	2452.521346
965.394835	2523.097500
965.694030	2467.644808
965.993189	2538.220962
966.292309	2581.070769
966.591393	2530.659231
966.890439	2460.083077
967.189447	2523.097500
967.488419	2497.891731
967.787353	2465.124231
968.086249	2460.083077
968.385108	2475.206538
968.683930	2480.247692
968.982714	2487.809423
969.281462	2533.179808
969.580172	2495.371154
969.878844	2472.685962
970.177480	2520.576923
970.476078	2477.727115
970.774639	2500.412308
971.073162	2507.974038
971.371649	2510.494615
971.670098	2520.576923
971.968510	2502.932885
972.266885	2550.823846
972.565223	2523.097500
972.863524	2515.535769
973.161788	2480.247692
973.460014	2530.659231
973.758204	2525.618077
974.056356	2530.659231
974.354471	2573.509038
974.652550	2455.041923
974.950591	2525.618077
975.248595	2563.426731
975.546563	2520.576923
975.844493	2490.330000
976.142386	2492.850577
976.440243	2462.603654
976.738062	2475.206538
977.035845	2465.124231
977.333590	2455.041923
977.631299	2510.494615
977.928971	2500.412308
978.226606	2447.480192
978.524204	2462.603654
978.821765	2497.891731
979.119290	2414.712692
979.416777	2500.412308
979.714228	2528.138654
980.011642	2505.453462
980.309020	2467.644808
980.606360	2407.150962
980.903664	2495.371154
981.200931	2507.974038
981.498162	2462.603654
981.795356	2407.150962
982.092513	2472.685962
982.389633	2422.274423
982.686717	2507.974038
982.983764	2455.041923
983.280775	2432.356731
983.577749	2460.083077
983.874686	2460.083077
984.171587	2492.850577
984.468451	2513.015192
984.765279	2475.206538
985.062070	2465.124231
985.358824	2460.083077
985.655543	2444.959615
985.952224	2394.548077
986.248869	2497.891731
986.545478	2487.809423
986.842050	2470.165385
987.138586	2507.974038
987.435086	2467.644808
987.731549	2417.233269
988.027975	2502.932885
988.324366	2495.371154
988.620719	2452.521346
988.917037	2487.809423
989.213318	2457.562500
989.509563	2450.000769
989.805772	2457.562500
990.101944	2520.576923
990.398080	2502.932885
990.694180	2467.644808
990.990244	2535.700385
991.286271	2492.850577
991.582262	2439.918462
991.878217	2465.124231
992.174136	2447.480192
992.470019	2518.056346
992.765865	2409.671538
993.061676	2525.618077
993.357450	2533.179808
993.653188	2417.233269
993.948890	2518.056346
994.244556	2460.083077
994.540186	2502.932885
994.835780	2394.548077
995.131337	2432.356731
995.426859	2392.027500
995.722345	2465.124231
996.017795	2455.041923
996.313208	2437.397885
996.608586	2510.494615
996.903928	2515.535769
997.199234	2538.220962
997.494504	2492.850577
997.789738	2417.233269
998.084936	2500.412308
998.380099	2507.974038
998.675225	2472.685962
998.970316	2500.412308
999.265371	2523.097500
999.560390	2515.535769
999.855373	2432.356731
1000.150320	2419.753846
1000.445232	2404.630385
1000.740108	2505.453462
1001.034948	2553.344423
1001.329752	2505.453462
1001.624521	2434.877308
1001.919254	2588.632500
1002.213951	2487.809423
1002.508613	2480.247692
1002.803239	2533.179808
1003.097829	2452.521346
1003.392384	2457.562500
1003.686903	2407.150962
1003.981386	2565.947308
1004.275834	2576.029615
1004.570246	2470.165385
1004.864623	2472.685962
1005.158964	2543.262115
1005.453270	2548.303269
1005.747540	2533.179808
1006.041775	2520.576923
1006.335974	2505.453462
1006.630138	2424.795000
1006.924266	2467.644808
1007.218359	2480.247692
1007.512416	2455.041923
1007.806438	2467.644808
1008.100425	2578.550192
1008.394376	2442.439038
1008.688292	2465.124231
1008.982172	2482.768269
1009.276017	2412.192115
1009.569827	2603.755962
1009.863602	2439.918462
1010.157341	2583.591346
1010.451045	2409.671538
1010.744714	2525.618077
1011.038347	2429.836154
1011.331945	2439.918462
1011.625508	2450.000769
1011.919036	2500.412308
1012.212528	2497.891731
1012.505986	2535.700385
1012.799408	2455.041923
1013.092795	2480.247692
1013.386147	2399.589231
1013.679464	2472.685962
1013.972745	2427.315577
1014.265992	2477.727115
1014.559204	2450.000769
1014.852380	2439.918462
1015.145521	2465.124231
1015.438628	2462.603654
1015.731699	2447.480192
1016.024736	2450.000769
1016.317737	2455.041923
1016.610703	2427.315577
1016.903635	2505.453462
1017.196531	2523.097500
1017.489393	2485.288846
1017.782219	2548.303269
1018.075011	2513.015192
1018.367768	2477.727115
1018.660490	2419.753846
1018.953177	2419.753846
1019.245829	2419.753846
