Dividing Wavelength (nm)	Counts (n)	Blue Motor Position (mm): 0.000000	Red Motor Position (mm): 5.300000	
326.493990	2134.928654
326.888308	2134.928654
327.282561	2134.928654
327.676750	2104.681731
328.070874	2076.955385
328.464933	2119.805192
328.858929	2071.914231
329.252859	2127.366923
329.646726	2029.064423
330.040528	2076.955385
330.434265	2112.243462
330.827938	2150.052115
331.221547	2117.284615
331.615091	2137.449231
332.008571	2218.107692
332.401986	2185.340192
332.795338	2218.107692
333.188625	2253.395769
333.581847	2218.107692
333.975006	2318.930769
334.368100	2386.986346
334.761129	2303.807308
335.154095	2255.916346
335.546996	2349.177692
335.939833	2394.548077
336.332606	2407.150962
336.725315	2447.480192
337.117960	2457.562500
337.510540	2434.877308
337.903056	2376.904038
338.295508	2437.397885
338.687896	2402.109808
339.080220	2422.274423
339.472480	2447.480192
339.864676	2497.891731
340.256807	2442.439038
340.648875	2535.700385
341.040879	2460.083077
341.432818	2376.904038
341.824694	2432.356731
342.216506	2480.247692
342.608253	2487.809423
342.999937	2586.111923
343.391557	2472.685962
343.783113	2379.424615
344.174605	2460.083077
344.566033	2467.644808
344.957397	2487.809423
345.348697	2500.412308
345.739934	2434.877308
346.131106	2495.371154
346.522215	2477.727115
346.913260	2477.727115
347.304241	2540.741538
347.695159	2422.274423
348.086012	2417.233269
348.476802	2402.109808
348.867528	2497.891731
349.258191	2414.712692
349.648789	2419.753846
350.039324	2412.192115
350.429796	2490.330000
350.820203	2477.727115
351.210548	2427.315577
351.600828	2419.753846
351.991045	2424.795000
352.381198	2500.412308
352.771288	2523.097500
353.161314	2432.356731
353.551276	2389.506923
353.941175	2417.233269
354.331010	2535.700385
354.720782	2465.124231
355.110490	2490.330000
355.500135	2404.630385
355.889717	2381.945192
356.279235	2381.945192
356.668689	2457.562500
357.058080	2465.124231
357.447408	2482.768269
357.836672	2384.465769
358.225873	2475.206538
358.615010	2331.533654
359.004084	2442.439038
359.393095	2500.412308
359.782043	2381.945192
360.170927	2457.562500
360.559748	2434.877308
360.948505	2439.918462
361.337199	2434.877308
361.725830	2500.412308
362.114398	2477.727115
362.502903	2442.439038
362.891344	2389.506923
363.279722	2381.945192
363.668037	2510.494615
364.056289	2457.562500
364.444478	2409.671538
364.832603	2434.877308
365.220665	2444.959615
365.608665	2429.836154
365.996601	2457.562500
366.384474	2465.124231
366.772284	2457.562500
367.160031	2437.397885
367.547715	2399.589231
367.935336	2402.109808
368.322893	2366.821731
368.710388	2502.932885
369.097820	2502.932885
369.485189	2414.712692
369.872495	2424.795000
370.259738	2412.192115
370.646918	2470.165385
371.034035	2429.836154
371.421090	2316.410192
371.808081	2452.521346
372.195010	2434.877308
372.581875	2510.494615
372.968678	2404.630385
373.355418	2482.768269
373.742096	2475.206538
374.128710	2487.809423
374.515262	2475.206538
374.901751	2407.150962
375.288177	2429.836154
375.674540	2447.480192
376.060841	2523.097500
376.447079	2482.768269
376.833254	2447.480192
377.219367	2606.276538
377.605417	2497.891731
377.991404	2434.877308
378.377329	2369.342308
378.763191	2467.644808
379.148991	2462.603654
379.534727	2472.685962
379.920402	2502.932885
380.306013	2465.124231
380.691563	2482.768269
381.077049	2470.165385
381.462474	2550.823846
381.847835	2480.247692
382.233134	2412.192115
382.618371	2465.124231
383.003545	2480.247692
383.388657	2515.535769
383.773706	2419.753846
384.158693	2434.877308
384.543618	2482.768269
384.928480	2475.206538
385.313280	2497.891731
385.698017	2450.000769
386.082692	2381.945192
386.467305	2505.453462
386.851856	2452.521346
387.236344	2497.891731
387.620770	2480.247692
388.005133	2485.288846
388.389435	2513.015192
388.773674	2439.918462
389.157851	2457.562500
389.541965	2455.041923
389.926018	2472.685962
390.310008	2465.124231
390.693936	2455.041923
391.077802	2482.768269
391.461606	2487.809423
391.845348	2429.836154
392.229027	2513.015192
392.612645	2442.439038
392.996200	2490.330000
393.379694	2472.685962
393.763125	2485.288846
394.146494	2485.288846
394.529801	2490.330000
394.913047	2455.041923
395.296230	2485.288846
395.679351	2553.344423
396.062410	2482.768269
396.445408	2470.165385
396.828343	2381.945192
397.211217	2487.809423
397.594028	2414.712692
397.976778	2500.412308
398.359466	2495.371154
398.742092	2424.795000
399.124656	2467.644808
399.507158	2386.986346
399.889598	2465.124231
400.271977	2422.274423
400.654294	2386.986346
401.036549	2553.344423
401.418742	2447.480192
401.800874	2487.809423
402.182944	2480.247692
402.564952	2502.932885
402.946898	2444.959615
403.328783	2457.562500
403.710606	2528.138654
404.092367	2485.288846
404.474067	2500.412308
404.855705	2502.932885
405.237282	2447.480192
405.618797	2523.097500
406.000250	2381.945192
406.381642	2525.618077
406.762972	2515.535769
407.144240	2437.397885
407.525447	2500.412308
407.906593	2414.712692
408.287677	2487.809423
408.668700	2482.768269
409.049661	2507.974038
409.430560	2490.330000
409.811399	2472.685962
410.192176	2397.068654
410.572891	2495.371154
410.953545	2482.768269
411.334138	2525.618077
411.714669	2480.247692
412.095139	2492.850577
412.475547	2548.303269
412.855894	2490.330000
413.236180	2513.015192
413.616405	2475.206538
413.996568	2485.288846
414.376670	2538.220962
414.756711	2535.700385
415.136691	2500.412308
415.516609	2402.109808
415.896466	2472.685962
416.276262	2518.056346
416.655997	2447.480192
417.035670	2444.959615
417.415283	2455.041923
417.794834	2470.165385
418.174324	2507.974038
418.553753	2497.891731
418.933121	2432.356731
419.312428	2447.480192
419.691674	2485.288846
420.070859	2432.356731
420.449983	2457.562500
420.829045	2505.453462
421.208047	2417.233269
421.586988	2427.315577
421.965867	2434.877308
422.344686	2553.344423
422.723444	2452.521346
423.102141	2437.397885
423.480777	2432.356731
423.859352	2523.097500
424.237866	2429.836154
424.616319	2510.494615
424.994712	2583.591346
425.373044	2520.576923
425.751314	2475.206538
426.129524	2490.330000
426.507673	2515.535769
426.885762	2444.959615
427.263789	2535.700385
427.641756	2558.385577
428.019662	2444.959615
428.397508	2427.315577
428.775292	2477.727115
429.153016	2507.974038
429.530679	2462.603654
429.908282	2417.233269
430.285824	2427.315577
430.663305	2482.768269
431.040726	2523.097500
431.418086	2555.865000
431.795385	2507.974038
432.172624	2457.562500
432.549802	2550.823846
432.926920	2434.877308
433.303977	2437.397885
433.680974	2346.657115
434.057910	2533.179808
434.434786	2455.041923
434.811601	2543.262115
435.188355	2487.809423
435.565050	2492.850577
435.941683	2515.535769
436.318257	2407.150962
436.694770	2535.700385
437.071222	2427.315577
437.447614	2444.959615
437.823946	2462.603654
438.200218	2497.891731
438.576429	2497.891731
438.952580	2538.220962
439.328670	2462.603654
439.704700	2465.124231
440.080670	2462.603654
440.456580	2472.685962
440.832429	2492.850577
441.208218	2465.124231
441.583947	2518.056346
441.959616	2450.000769
442.335224	2560.906154
442.710773	2455.041923
443.086261	2462.603654
443.461689	2533.179808
443.837057	2460.083077
444.212365	2439.918462
444.587612	2568.467885
444.962800	2460.083077
445.337927	2475.206538
445.712995	2515.535769
446.088002	2439.918462
446.462949	2507.974038
446.837837	2444.959615
447.212664	2482.768269
447.587431	2452.521346
447.962139	2475.206538
448.336786	2452.521346
448.711374	2507.974038
449.085901	2429.836154
449.460369	2429.836154
449.834776	2472.685962
450.209124	2505.453462
450.583412	2432.356731
450.957640	2545.782692
451.331808	2455.041923
451.705917	2565.947308
452.079965	2492.850577
452.453954	2475.206538
452.827883	2462.603654
453.201752	2447.480192
453.575562	2513.015192
453.949311	2394.548077
454.323001	2427.315577
454.696632	2495.371154
455.070202	2507.974038
455.443713	2505.453462
455.817164	2523.097500
456.190556	2477.727115
456.563888	2528.138654
456.937160	2543.262115
457.310373	2513.015192
457.683526	2505.453462
458.056619	2472.685962
458.429653	2543.262115
458.802628	2535.700385
459.175542	2470.165385
459.548398	2518.056346
459.921194	2460.083077
460.293930	2480.247692
460.666607	2427.315577
461.039224	2450.000769
461.411782	2492.850577
461.784280	2560.906154
462.156719	2570.988462
462.529099	2507.974038
462.901419	2460.083077
463.273680	2495.371154
463.645882	2455.041923
464.018024	2439.918462
464.390106	2538.220962
464.762130	2535.700385
465.134094	2477.727115
465.505999	2513.015192
465.877845	2465.124231
466.249631	2528.138654
466.621358	2467.644808
466.993026	2518.056346
467.364634	2525.618077
467.736184	2593.673654
468.107674	2472.685962
468.479105	2507.974038
468.850477	2507.974038
469.221790	2507.974038
469.593043	2495.371154
469.964238	2510.494615
470.335373	2427.315577
470.706449	2442.439038
471.077467	2467.644808
471.448425	2472.685962
471.819324	2434.877308
472.190164	2467.644808
472.560945	2535.700385
472.931667	2467.644808
473.302330	2450.000769
473.672934	2492.850577
474.043479	2528.138654
474.413965	2477.727115
474.784393	2492.850577
475.154761	2444.959615
475.525070	2515.535769
475.895321	2472.685962
476.265513	2482.768269
476.635645	2545.782692
477.005719	2462.603654
477.375734	2543.262115
477.745691	2404.630385
478.115588	2510.494615
478.485427	2427.315577
478.855207	2500.412308
479.224928	2570.988462
479.594591	2482.768269
479.964194	2520.576923
480.333739	2568.467885
480.703226	2500.412308
481.072653	2525.618077
481.442022	2540.741538
481.811333	2490.330000
482.180584	2497.891731
482.549777	2540.741538
482.918912	2447.480192
483.287988	2525.618077
483.657005	2465.124231
484.025964	2558.385577
484.394864	2510.494615
484.763706	2538.220962
485.132489	2507.974038
485.501213	2437.397885
485.869879	2487.809423
486.238487	2444.959615
486.607036	2492.850577
486.975527	2523.097500
487.343959	2487.809423
487.712333	2523.097500
488.080648	2427.315577
488.448905	2520.576923
488.817104	2485.288846
489.185244	2412.192115
489.553326	2510.494615
489.921350	2437.397885
490.289315	2485.288846
490.657222	2477.727115
491.025070	2520.576923
491.392861	2485.288846
491.760593	2482.768269
492.128267	2528.138654
492.495883	2513.015192
492.863440	2434.877308
493.230939	2457.562500
493.598380	2470.165385
493.965763	2467.644808
494.333088	2525.618077
494.700354	2482.768269
495.067563	2513.015192
495.434713	2565.947308
495.801805	2598.714808
496.168839	2462.603654
496.535815	2470.165385
496.902733	2490.330000
497.269593	2422.274423
497.636395	2507.974038
498.003139	2455.041923
498.369825	2470.165385
498.736453	2540.741538
499.103023	2540.741538
499.469535	2457.562500
499.835989	2533.179808
500.202385	2480.247692
500.568723	2409.671538
500.935003	2480.247692
501.301226	2457.562500
501.667390	2565.947308
502.033497	2444.959615
502.399546	2525.618077
502.765537	2485.288846
503.131470	2523.097500
503.497345	2467.644808
503.863163	2583.591346
504.228923	2578.550192
504.594625	2462.603654
504.960269	2570.988462
505.325856	2457.562500
505.691385	2500.412308
506.056856	2523.097500
506.422270	2495.371154
506.787625	2520.576923
507.152924	2442.439038
507.518164	2389.506923
507.883347	2545.782692
508.248472	2447.480192
508.613540	2500.412308
508.978550	2455.041923
509.343503	2490.330000
509.708398	2492.850577
510.073236	2492.850577
510.438016	2485.288846
510.802738	2487.809423
511.167403	2611.317692
511.532010	2555.865000
511.896561	2460.083077
512.261053	2472.685962
512.625488	2452.521346
512.989866	2565.947308
513.354186	2467.644808
513.718449	2495.371154
514.082655	2576.029615
514.446803	2545.782692
514.810894	2497.891731
515.174927	2497.891731
515.538904	2482.768269
515.902822	2482.768269
516.266684	2472.685962
516.630488	2447.480192
516.994235	2477.727115
517.357925	2540.741538
517.721558	2444.959615
518.085133	2470.165385
518.448651	2533.179808
518.812112	2502.932885
519.175516	2525.618077
519.538863	2568.467885
519.902152	2429.836154
520.265385	2565.947308
520.628560	2520.576923
520.991678	2462.603654
521.354739	2543.262115
521.717743	2560.906154
522.080690	2558.385577
522.443580	2555.865000
522.806413	2404.630385
523.169189	2545.782692
523.531908	2470.165385
523.894569	2523.097500
524.257174	2492.850577
524.619722	2482.768269
524.982213	2452.521346
525.344647	2535.700385
525.707025	2465.124231
526.069345	2530.659231
526.431608	2444.959615
526.793815	2510.494615
527.155964	2513.015192
527.518057	2563.426731
527.880093	2515.535769
528.242072	2528.138654
528.603995	2520.576923
528.965860	2555.865000
529.327669	2530.659231
529.689421	2528.138654
530.051117	2482.768269
530.412755	2570.988462
530.774337	2502.932885
531.135862	2515.535769
531.497331	2563.426731
531.858743	2480.247692
532.220098	2419.753846
532.581396	2485.288846
532.942638	2528.138654
533.303824	2450.000769
533.664953	2560.906154
534.026025	2525.618077
534.387040	2467.644808
534.747999	2462.603654
535.108902	2606.276538
535.469748	2540.741538
535.830537	2553.344423
536.191270	2462.603654
536.551947	2545.782692
536.912567	2437.397885
537.273131	2540.741538
537.633638	2429.836154
537.994089	2510.494615
538.354483	2477.727115
538.714821	2533.179808
539.075103	2439.918462
539.435328	2525.618077
539.795497	2515.535769
540.155609	2513.015192
540.515665	2540.741538
540.875665	2439.918462
541.235609	2467.644808
541.595496	2553.344423
541.955328	2576.029615
542.315102	2460.083077
542.674821	2555.865000
543.034483	2487.809423
543.394090	2540.741538
543.753640	2558.385577
544.113134	2581.070769
544.472571	2462.603654
544.831953	2553.344423
545.191278	2475.206538
545.550548	2502.932885
545.909761	2581.070769
546.268918	2500.412308
546.628019	2455.041923
546.987064	2487.809423
547.346053	2545.782692
547.704986	2500.412308
548.063863	2444.959615
548.422684	2462.603654
548.781449	2462.603654
549.140158	2462.603654
549.498811	2455.041923
549.857408	2482.768269
550.215949	2540.741538
550.574434	2530.659231
550.932864	2535.700385
551.291237	2417.233269
551.649555	2576.029615
552.007817	2450.000769
552.366022	2515.535769
552.724173	2482.768269
553.082267	2533.179808
553.440305	2477.727115
553.798288	2596.194231
554.156215	2533.179808
554.514086	2530.659231
554.871902	2510.494615
555.229661	2533.179808
555.587365	2502.932885
555.945014	2525.618077
556.302606	2490.330000
556.660143	2515.535769
557.017625	2500.412308
557.375050	2389.506923
557.732421	2497.891731
558.089735	2505.453462
558.446994	2482.768269
558.804197	2550.823846
559.161345	2500.412308
559.518437	2553.344423
559.875474	2533.179808
560.232455	2465.124231
560.589381	2480.247692
560.946251	2424.795000
561.303065	2545.782692
561.659825	2460.083077
562.016528	2487.809423
562.373177	2490.330000
562.729770	2543.262115
563.086307	2467.644808
563.442789	2414.712692
563.799216	2553.344423
564.155587	2515.535769
564.511904	2480.247692
564.868164	2553.344423
565.224370	2447.480192
565.580520	2505.453462
565.936615	2452.521346
566.292654	2555.865000
566.648638	2389.506923
567.004567	2502.932885
567.360441	2578.550192
567.716260	2424.795000
568.072023	2472.685962
568.427732	2475.206538
568.783385	2510.494615
569.138982	2447.480192
569.494525	2487.809423
569.850013	2505.453462
570.205445	2452.521346
570.560823	2545.782692
570.916145	2437.397885
571.271412	2513.015192
571.626625	2467.644808
571.981782	2515.535769
572.336884	2492.850577
572.691931	2487.809423
573.046923	2515.535769
573.401860	2502.932885
573.756743	2528.138654
574.111570	2495.371154
574.466342	2543.262115
574.821059	2477.727115
575.175722	2455.041923
575.530330	2492.850577
575.884882	2457.562500
576.239380	2535.700385
576.593823	2533.179808
576.948211	2513.015192
577.302544	2455.041923
577.656823	2502.932885
578.011047	2543.262115
578.365216	2475.206538
578.719330	2485.288846
579.073389	2427.315577
579.427394	2485.288846
579.781344	2586.111923
580.135239	2528.138654
580.489080	2538.220962
580.842866	2497.891731
581.196597	2507.974038
581.550273	2407.150962
581.903895	2538.220962
582.257463	2457.562500
582.610975	2538.220962
582.964434	2467.644808
583.317837	2528.138654
583.671186	2487.809423
584.024481	2447.480192
584.377721	2568.467885
584.730906	2442.439038
585.084037	2578.550192
585.437113	2457.562500
585.790135	2477.727115
586.143103	2467.644808
586.496016	2500.412308
586.848874	2412.192115
587.201679	2477.727115
587.554428	2528.138654
587.907124	2467.644808
588.259765	2515.535769
588.612352	2444.959615
588.964884	2518.056346
589.317362	2507.974038
589.669786	2507.974038
590.022155	2548.303269
590.374470	2487.809423
590.726731	2578.550192
591.078937	2467.644808
591.431090	2487.809423
591.783188	2518.056346
592.135232	2487.809423
592.487222	2462.603654
592.839157	2497.891731
593.191038	2497.891731
593.542866	2513.015192
593.894639	2467.644808
594.246358	2500.412308
594.598022	2472.685962
594.949633	2558.385577
595.301190	2510.494615
595.652692	2492.850577
596.004141	2535.700385
596.355535	2515.535769
596.706876	2568.467885
597.058162	2515.535769
597.409395	2475.206538
597.760573	2568.467885
598.111698	2548.303269
598.462768	2497.891731
598.813785	2518.056346
599.164748	2427.315577
599.515657	2528.138654
599.866511	2467.644808
600.217312	2513.015192
600.568060	2447.480192
600.918753	2518.056346
601.269392	2518.056346
601.619978	2487.809423
601.970510	2570.988462
602.320988	2457.562500
602.671412	2487.809423
603.021783	2538.220962
603.372100	2538.220962
603.722363	2475.206538
604.072572	2452.521346
604.422728	2402.109808
604.772830	2497.891731
605.122878	2457.562500
605.472872	2518.056346
605.822813	2495.371154
606.172701	2576.029615
606.522534	2427.315577
606.872314	2507.974038
607.222041	2518.056346
607.571714	2518.056346
607.921333	2492.850577
608.270899	2497.891731
608.620411	2487.809423
608.969870	2523.097500
609.319276	2558.385577
609.668627	2470.165385
610.017926	2437.397885
610.367171	2528.138654
610.716362	2480.247692
611.065500	2518.056346
611.414585	2475.206538
611.763616	2502.932885
612.112594	2462.603654
612.461518	2525.618077
612.810389	2502.932885
613.159207	2462.603654
613.507971	2434.877308
613.856682	2434.877308
614.205340	2487.809423
614.553945	2384.465769
614.902496	2535.700385
615.250994	2487.809423
615.599439	2502.932885
615.947830	2457.562500
616.296169	2477.727115
616.644454	2487.809423
616.992686	2548.303269
617.340864	2540.741538
617.688990	2513.015192
618.037063	2507.974038
618.385082	2447.480192
618.733048	2487.809423
619.080961	2535.700385
619.428821	2535.700385
619.776628	2593.673654
620.124382	2518.056346
620.472083	2528.138654
620.819731	2528.138654
621.167326	2487.809423
621.514868	2429.836154
621.862357	2553.344423
622.209793	2558.385577
622.557176	2578.550192
622.904506	2598.714808
623.251783	2581.070769
623.599007	2444.959615
623.946179	2447.480192
624.293297	2442.439038
624.640363	2467.644808
624.987376	2530.659231
625.334336	2513.015192
625.681243	2618.879423
626.028097	2510.494615
626.374899	2513.015192
626.721647	2465.124231
627.068343	2475.206538
627.414987	2513.015192
627.761577	2465.124231
628.108115	2535.700385
628.454600	2523.097500
628.801032	2528.138654
629.147412	2500.412308
629.493739	2442.439038
629.840014	2437.397885
630.186236	2470.165385
630.532405	2533.179808
630.878521	2550.823846
631.224585	2434.877308
631.570597	2487.809423
631.916556	2465.124231
632.262462	2485.288846
632.608316	2490.330000
632.954117	2538.220962
633.299866	2447.480192
633.645562	2497.891731
633.991206	2477.727115
634.336797	2525.618077
634.682336	2523.097500
635.027823	2497.891731
635.373257	2467.644808
635.718639	2578.550192
636.063968	2558.385577
636.409245	2576.029615
636.754470	2533.179808
637.099642	2558.385577
637.444762	2548.303269
637.789829	2538.220962
638.134845	2518.056346
638.479808	2540.741538
638.824719	2502.932885
639.169577	2513.015192
639.514383	2513.015192
639.859137	2427.315577
640.203839	2450.000769
640.548489	2465.124231
640.893086	2455.041923
641.237632	2379.424615
641.582125	2558.385577
641.926566	2495.371154
642.270955	2482.768269
642.615292	2417.233269
642.959576	2545.782692
643.303809	2523.097500
643.647990	2578.550192
643.992118	2485.288846
644.336195	2573.509038
644.680219	2548.303269
645.024192	2505.453462
645.368112	2533.179808
645.711981	2538.220962
646.055797	2591.153077
646.399562	2533.179808
646.743274	2513.015192
647.086935	2485.288846
647.430544	2462.603654
647.774101	2586.111923
648.117606	2500.412308
648.461059	2505.453462
648.804460	2477.727115
649.147810	2434.877308
649.491108	2538.220962
649.834354	2455.041923
650.177548	2427.315577
650.520690	2518.056346
650.863781	2457.562500
651.206820	2447.480192
651.549807	2588.632500
651.892742	2518.056346
652.235626	2487.809423
652.578458	2558.385577
652.921238	2447.480192
653.263967	2538.220962
653.606644	2482.768269
653.949269	2578.550192
654.291843	2432.356731
654.634365	2482.768269
654.976836	2518.056346
655.319255	2510.494615
655.661622	2502.932885
656.003938	2500.412308
656.346203	2455.041923
656.688416	2452.521346
657.030577	2586.111923
657.372687	2444.959615
657.714746	2525.618077
658.056753	2467.644808
658.398708	2475.206538
658.740612	2518.056346
659.082465	2467.644808
659.424266	2447.480192
659.766016	2497.891731
660.107715	2507.974038
660.449362	2528.138654
660.790958	2497.891731
661.132503	2452.521346
661.473996	2457.562500
661.815438	2472.685962
662.156829	2507.974038
662.498168	2538.220962
662.839456	2495.371154
663.180693	2588.632500
663.521879	2500.412308
663.863013	2502.932885
664.204097	2447.480192
664.545129	2603.755962
664.886110	2528.138654
665.227040	2470.165385
665.567918	2414.712692
665.908746	2417.233269
666.249522	2525.618077
666.590248	2487.809423
666.930922	2414.712692
667.271545	2598.714808
667.612118	2457.562500
667.952639	2497.891731
668.293109	2477.727115
668.633528	2513.015192
668.973896	2528.138654
669.314213	2502.932885
669.654480	2432.356731
669.994695	2497.891731
670.334859	2470.165385
670.674973	2538.220962
671.015035	2540.741538
671.355047	2490.330000
671.695008	2588.632500
672.034918	2485.288846
672.374777	2543.262115
672.714585	2419.753846
673.054342	2560.906154
673.394049	2558.385577
673.733705	2553.344423
674.073310	2545.782692
674.412864	2515.535769
674.752368	2475.206538
675.091820	2477.727115
675.431223	2505.453462
675.770574	2477.727115
676.109875	2492.850577
676.449125	2538.220962
676.788324	2462.603654
677.127473	2528.138654
677.466571	2457.562500
677.805619	2535.700385
678.144616	2472.685962
678.483562	2570.988462
678.822458	2518.056346
679.161303	2487.809423
679.500098	2502.932885
679.838842	2555.865000
680.177535	2480.247692
680.516179	2482.768269
680.854771	2563.426731
681.193314	2545.782692
681.531805	2432.356731
681.870247	2586.111923
682.208638	2460.083077
682.546978	2444.959615
682.885268	2518.056346
683.223508	2555.865000
683.561697	2482.768269
683.899836	2535.700385
684.237925	2533.179808
684.575963	2462.603654
684.913951	2578.550192
685.251889	2540.741538
685.589776	2492.850577
685.927614	2500.412308
686.265401	2475.206538
686.603137	2502.932885
686.940824	2525.618077
687.278460	2455.041923
687.616046	2530.659231
687.953582	2538.220962
688.291068	2460.083077
688.628504	2573.509038
688.965889	2477.727115
689.303224	2510.494615
689.640510	2502.932885
689.977745	2490.330000
690.314930	2495.371154
690.652065	2442.439038
690.989150	2500.412308
691.326185	2465.124231
691.663170	2560.906154
692.000105	2518.056346
692.336990	2455.041923
692.673825	2485.288846
693.010610	2437.397885
693.347345	2550.823846
693.684030	2492.850577
694.020665	2548.303269
694.357251	2462.603654
694.693786	2507.974038
695.030272	2475.206538
695.366707	2495.371154
695.703093	2553.344423
696.039429	2545.782692
696.375716	2518.056346
696.711952	2457.562500
697.048139	2548.303269
697.384276	2490.330000
697.720363	2482.768269
698.056400	2437.397885
698.392388	2477.727115
698.728326	2497.891731
699.064214	2404.630385
699.400053	2409.671538
699.735842	2568.467885
700.071581	2442.439038
700.407270	2507.974038
700.742910	2492.850577
701.078501	2510.494615
701.414042	2417.233269
701.749533	2525.618077
702.084974	2543.262115
702.420366	2576.029615
702.755709	2490.330000
703.091002	2462.603654
703.426246	2487.809423
703.761440	2505.453462
704.096584	2523.097500
704.431679	2424.795000
704.766725	2480.247692
705.101721	2482.768269
705.436668	2518.056346
705.771565	2581.070769
706.106413	2553.344423
706.441212	2465.124231
706.775961	2460.083077
707.110661	2457.562500
707.445311	2450.000769
707.779913	2450.000769
708.114465	2533.179808
708.448967	2515.535769
708.783421	2477.727115
709.117825	2460.083077
709.452180	2555.865000
709.786485	2465.124231
710.120742	2553.344423
710.454949	2507.974038
710.789107	2495.371154
711.123216	2472.685962
711.457275	2528.138654
711.791286	2535.700385
712.125247	2502.932885
712.459159	2528.138654
712.793023	2485.288846
713.126837	2507.974038
713.460602	2467.644808
713.794318	2485.288846
714.127985	2558.385577
714.461602	2502.932885
714.795171	2573.509038
715.128691	2507.974038
715.462162	2452.521346
715.795584	2553.344423
716.128957	2520.576923
716.462281	2475.206538
716.795556	2548.303269
717.128782	2485.288846
717.461960	2515.535769
717.795088	2545.782692
718.128167	2477.727115
718.461198	2518.056346
718.794180	2528.138654
719.127113	2528.138654
719.459997	2538.220962
719.792833	2457.562500
720.125619	2477.727115
720.458357	2593.673654
720.791046	2487.809423
721.123686	2548.303269
721.456278	2427.315577
721.788821	2412.192115
722.121315	2500.412308
722.453761	2568.467885
722.786158	2507.974038
723.118506	2467.644808
723.450805	2500.412308
723.783056	2429.836154
724.115259	2553.344423
724.447412	2523.097500
724.779518	2538.220962
725.111574	2555.865000
725.443582	2485.288846
725.775542	2485.288846
726.107453	2455.041923
726.439315	2457.562500
726.771129	2558.385577
727.102895	2457.562500
727.434612	2538.220962
727.766281	2492.850577
728.097901	2578.550192
728.429473	2518.056346
728.760996	2442.439038
729.092471	2472.685962
729.423897	2510.494615
729.755276	2487.809423
730.086606	2553.344423
730.417887	2460.083077
730.749120	2500.412308
731.080305	2631.482308
731.411442	2492.850577
731.742530	2465.124231
732.073570	2570.988462
732.404562	2460.083077
732.735506	2520.576923
733.066401	2444.959615
733.397249	2467.644808
733.728048	2465.124231
734.058798	2535.700385
734.389501	2525.618077
734.720156	2568.467885
735.050762	2523.097500
735.381320	2437.397885
735.711831	2487.809423
736.042293	2518.056346
736.372707	2513.015192
736.703073	2409.671538
737.033391	2533.179808
737.363661	2467.644808
737.693883	2447.480192
738.024056	2460.083077
738.354182	2485.288846
738.684260	2565.947308
739.014290	2462.603654
739.344272	2447.480192
739.674207	2495.371154
740.004093	2472.685962
740.333931	2523.097500
740.663722	2510.494615
740.993464	2472.685962
741.323159	2467.644808
741.652806	2485.288846
741.982405	2505.453462
742.311956	2540.741538
742.641460	2505.453462
742.970915	2507.974038
743.300323	2492.850577
743.629683	2563.426731
743.958996	2550.823846
744.288260	2452.521346
744.617477	2432.356731
744.946647	2490.330000
745.275768	2465.124231
745.604842	2495.371154
745.933869	2475.206538
746.262847	2424.795000
746.591778	2465.124231
746.920662	2497.891731
747.249498	2568.467885
747.578286	2462.603654
747.907027	2553.344423
748.235720	2437.397885
748.564365	2462.603654
748.892963	2452.521346
749.221514	2470.165385
749.550017	2470.165385
749.878473	2487.809423
750.206881	2444.959615
750.535242	2455.041923
750.863555	2439.918462
751.191821	2379.424615
751.520039	2457.562500
751.848210	2548.303269
752.176334	2548.303269
752.504411	2500.412308
752.832440	2570.988462
753.160421	2422.274423
753.488356	2437.397885
753.816243	2518.056346
754.144082	2475.206538
754.471875	2535.700385
754.799620	2550.823846
755.127318	2573.509038
755.454969	2437.397885
755.782572	2427.315577
756.110129	2467.644808
756.437638	2530.659231
756.765100	2505.453462
757.092515	2452.521346
757.419882	2482.768269
757.747203	2533.179808
758.074477	2490.330000
758.401703	2513.015192
758.728882	2485.288846
759.056014	2530.659231
759.383099	2540.741538
759.710138	2520.576923
760.037129	2520.576923
760.364073	2563.426731
760.690970	2429.836154
761.017820	2460.083077
761.344623	2460.083077
761.671379	2485.288846
761.998088	2470.165385
762.324751	2490.330000
762.651366	2545.782692
762.977935	2470.165385
763.304456	2603.755962
763.630931	2460.083077
763.957359	2535.700385
764.283740	2513.015192
764.610074	2505.453462
764.936362	2409.671538
765.262602	2525.618077
765.588796	2417.233269
765.914943	2409.671538
766.241044	2528.138654
766.567097	2565.947308
766.893104	2523.097500
767.219064	2548.303269
767.544978	2414.712692
767.870845	2548.303269
768.196665	2467.644808
768.522438	2535.700385
768.848165	2573.509038
769.173846	2447.480192
769.499479	2457.562500
769.825066	2487.809423
770.150607	2518.056346
770.476101	2444.959615
770.801548	2523.097500
771.126949	2452.521346
771.452303	2477.727115
771.777611	2462.603654
772.102872	2523.097500
772.428087	2490.330000
772.753256	2525.618077
773.078378	2417.233269
773.403453	2525.618077
773.728482	2465.124231
774.053465	2495.371154
774.378401	2568.467885
774.703291	2538.220962
775.028135	2442.439038
775.352932	2568.467885
775.677683	2477.727115
776.002388	2502.932885
776.327046	2467.644808
776.651658	2475.206538
776.976224	2472.685962
777.300743	2608.797115
777.625216	2455.041923
777.949643	2452.521346
778.274024	2482.768269
778.598359	2485.288846
778.922647	2578.550192
779.246889	2467.644808
779.571086	2550.823846
779.895236	2439.918462
780.219339	2563.426731
780.543397	2492.850577
780.867409	2467.644808
781.191374	2465.124231
781.515294	2444.959615
781.839167	2444.959615
782.162995	2460.083077
782.486776	2568.467885
782.810511	2528.138654
783.134201	2467.644808
783.457844	2598.714808
783.781441	2444.959615
784.104993	2538.220962
784.428498	2538.220962
784.751958	2568.467885
785.075372	2538.220962
785.398739	2523.097500
785.722061	2588.632500
786.045337	2492.850577
786.368568	2523.097500
786.691752	2422.274423
787.014891	2470.165385
787.337983	2452.521346
787.661030	2495.371154
787.984031	2490.330000
788.306987	2550.823846
788.629897	2500.412308
788.952760	2505.453462
789.275579	2523.097500
789.598351	2555.865000
789.921078	2555.865000
790.243759	2520.576923
790.566395	2507.974038
790.888984	2424.795000
791.211529	2548.303269
791.534027	2507.974038
791.856480	2475.206538
792.178888	2487.809423
792.501249	2462.603654
792.823566	2447.480192
793.145836	2452.521346
793.468062	2477.727115
793.790241	2462.603654
794.112375	2495.371154
794.434464	2578.550192
794.756507	2480.247692
795.078505	2548.303269
795.400457	2444.959615
795.722364	2442.439038
796.044226	2472.685962
796.366042	2515.535769
796.687812	2492.850577
797.009538	2538.220962
797.331218	2485.288846
797.652852	2485.288846
797.974442	2477.727115
798.295986	2470.165385
798.617484	2518.056346
798.938938	2518.056346
799.260346	2548.303269
799.581709	2432.356731
799.903026	2535.700385
800.224299	2523.097500
800.545526	2492.850577
800.866708	2513.015192
801.187845	2601.235385
801.508936	2477.727115
801.829983	2485.288846
802.150984	2535.700385
802.471940	2505.453462
802.792851	2485.288846
803.113717	2533.179808
803.434538	2497.891731
803.755314	2477.727115
804.076045	2472.685962
804.396731	2447.480192
804.717372	2460.083077
805.037967	2497.891731
805.358518	2482.768269
805.679024	2465.124231
805.999485	2457.562500
806.319901	2540.741538
806.640272	2452.521346
806.960598	2525.618077
807.280879	2502.932885
807.601115	2487.809423
807.921306	2530.659231
808.241453	2414.712692
808.561554	2533.179808
808.881611	2520.576923
809.201623	2553.344423
809.521590	2495.371154
809.841513	2376.904038
810.161390	2560.906154
810.481223	2535.700385
810.801011	2444.959615
811.120755	2467.644808
811.440453	2457.562500
811.760107	2439.918462
812.079716	2533.179808
812.399281	2442.439038
812.718801	2492.850577
813.038276	2437.397885
813.357707	2555.865000
813.677093	2530.659231
813.996434	2475.206538
814.315731	2505.453462
814.634983	2452.521346
814.954191	2492.850577
815.273354	2450.000769
815.592473	2563.426731
815.911547	2518.056346
816.230577	2581.070769
816.549562	2500.412308
816.868502	2550.823846
817.187399	2455.041923
817.506250	2538.220962
817.825058	2495.371154
818.143821	2470.165385
818.462539	2525.618077
818.781213	2452.521346
819.099843	2452.521346
819.418429	2492.850577
819.736970	2475.206538
820.055466	2533.179808
820.373919	2470.165385
820.692327	2505.453462
821.010691	2495.371154
821.329011	2558.385577
821.647286	2515.535769
821.965517	2530.659231
822.283704	2513.015192
822.601847	2538.220962
822.919945	2563.426731
823.237999	2477.727115
823.556010	2444.959615
823.873976	2530.659231
824.191897	2593.673654
824.509775	2419.753846
824.827609	2422.274423
825.145398	2533.179808
825.463144	2535.700385
825.780845	2510.494615
826.098502	2505.453462
826.416116	2540.741538
826.733685	2490.330000
827.051210	2497.891731
827.368692	2555.865000
827.686129	2507.974038
828.003522	2500.412308
828.320872	2439.918462
828.638177	2487.809423
828.955439	2462.603654
829.272656	2502.932885
829.589830	2525.618077
829.906960	2576.029615
830.224046	2492.850577
830.541088	2515.535769
830.858086	2465.124231
831.175041	2513.015192
831.491952	2523.097500
831.808819	2515.535769
832.125642	2578.550192
832.442421	2472.685962
832.759157	2525.618077
833.075849	2581.070769
833.392497	2533.179808
833.709101	2497.891731
834.025662	2535.700385
834.342179	2533.179808
834.658653	2540.741538
834.975083	2581.070769
835.291469	2513.015192
835.607811	2518.056346
835.924110	2535.700385
836.240366	2444.959615
836.556578	2495.371154
836.872746	2500.412308
837.188871	2518.056346
837.504952	2447.480192
837.820990	2528.138654
838.136984	2487.809423
838.452935	2550.823846
838.768842	2497.891731
839.084706	2502.932885
839.400526	2407.150962
839.716303	2437.397885
840.032037	2500.412308
840.347727	2558.385577
840.663373	2444.959615
840.978977	2533.179808
841.294537	2457.562500
841.610054	2530.659231
841.925527	2462.603654
842.240957	2507.974038
842.556344	2490.330000
842.871687	2402.109808
843.186987	2530.659231
843.502244	2576.029615
843.817458	2533.179808
844.132629	2525.618077
844.447756	2495.371154
844.762840	2460.083077
845.077881	2548.303269
845.392879	2389.506923
845.707833	2518.056346
846.022745	2573.509038
846.337613	2510.494615
846.652438	2507.974038
846.967221	2495.371154
847.281960	2558.385577
847.596656	2475.206538
847.911309	2475.206538
848.225919	2487.809423
848.540485	2432.356731
848.855009	2487.809423
849.169490	2507.974038
849.483928	2588.632500
849.798323	2467.644808
850.112675	2570.988462
850.426984	2492.850577
850.741251	2598.714808
851.055474	2553.344423
851.369654	2487.809423
851.683792	2495.371154
851.997887	2465.124231
852.311938	2543.262115
852.625947	2409.671538
852.939914	2533.179808
853.253837	2507.974038
853.567718	2457.562500
853.881555	2419.753846
854.195350	2510.494615
854.509103	2444.959615
854.822812	2487.809423
855.136479	2457.562500
855.450103	2500.412308
855.763685	2414.712692
856.077224	2356.739423
856.390720	2523.097500
856.704173	2548.303269
857.017584	2470.165385
857.330953	2452.521346
857.644278	2497.891731
857.957561	2495.371154
858.270802	2462.603654
858.584000	2505.453462
858.897155	2439.918462
859.210268	2472.685962
859.523339	2533.179808
859.836367	2439.918462
860.149352	2502.932885
860.462295	2500.412308
860.775195	2576.029615
861.088054	2399.589231
861.400869	2535.700385
861.713642	2510.494615
862.026373	2500.412308
862.339062	2442.439038
862.651708	2576.029615
862.964312	2507.974038
863.276873	2485.288846
863.589392	2444.959615
863.901869	2550.823846
864.214303	2538.220962
864.526696	2427.315577
864.839045	2563.426731
865.151353	2467.644808
865.463619	2515.535769
865.775842	2502.932885
866.088023	2477.727115
866.400162	2450.000769
866.712258	2507.974038
867.024313	2477.727115
867.336325	2495.371154
867.648296	2543.262115
867.960224	2465.124231
868.272110	2392.027500
868.583954	2482.768269
868.895755	2507.974038
869.207515	2399.589231
869.519233	2533.179808
869.830909	2490.330000
870.142542	2480.247692
870.454134	2528.138654
870.765684	2510.494615
871.077191	2475.206538
871.388657	2505.453462
871.700081	2475.206538
872.011463	2447.480192
872.322803	2525.618077
872.634101	2528.138654
872.945357	2538.220962
873.256571	2432.356731
873.567744	2563.426731
873.878874	2548.303269
874.189963	2513.015192
874.501010	2472.685962
874.812015	2545.782692
875.122979	2550.823846
875.433900	2558.385577
875.744780	2515.535769
876.055618	2465.124231
876.366415	2447.480192
876.677169	2470.165385
876.987882	2558.385577
877.298554	2442.439038
877.609183	2497.891731
877.919771	2523.097500
878.230317	2424.795000
878.540822	2513.015192
878.851285	2455.041923
879.161707	2518.056346
879.472087	2465.124231
879.782425	2487.809423
880.092722	2450.000769
880.402977	2462.603654
880.713191	2497.891731
881.023363	2467.644808
881.333494	2467.644808
881.643583	2414.712692
881.953631	2495.371154
882.263637	2472.685962
882.573602	2518.056346
882.883526	2482.768269
883.193408	2487.809423
883.503248	2472.685962
883.813048	2485.288846
884.122806	2563.426731
884.432522	2409.671538
884.742197	2482.768269
885.051831	2500.412308
885.361424	2442.439038
885.670975	2429.836154
885.980485	2505.453462
886.289954	2560.906154
886.599382	2525.618077
886.908768	2510.494615
887.218113	2530.659231
887.527417	2427.315577
887.836680	2510.494615
888.145901	2523.097500
888.455082	2394.548077
888.764221	2444.959615
889.073319	2563.426731
889.382376	2535.700385
889.691392	2470.165385
890.000366	2533.179808
890.309300	2543.262115
890.618193	2530.659231
890.927044	2543.262115
891.235855	2424.795000
891.544625	2450.000769
891.853353	2495.371154
892.162041	2475.206538
892.470687	2495.371154
892.779293	2412.192115
893.087858	2535.700385
893.396381	2543.262115
893.704864	2492.850577
894.013306	2467.644808
894.321707	2505.453462
894.630068	2447.480192
894.938387	2434.877308
895.246665	2465.124231
895.554903	2563.426731
895.863100	2548.303269
896.171256	2507.974038
896.479371	2412.192115
896.787446	2467.644808
897.095480	2540.741538
897.403473	2497.891731
897.711425	2457.562500
898.019336	2591.153077
898.327207	2548.303269
898.635038	2460.083077
898.942827	2447.480192
899.250576	2523.097500
899.558284	2530.659231
899.865952	2457.562500
900.173579	2490.330000
900.481165	2487.809423
900.788711	2525.618077
901.096216	2429.836154
901.403681	2563.426731
901.711105	2455.041923
902.018489	2507.974038
902.325832	2553.344423
902.633135	2515.535769
902.940397	2414.712692
903.247619	2497.891731
903.554800	2528.138654
903.861941	2480.247692
904.169041	2472.685962
904.476101	2477.727115
904.783121	2447.480192
905.090100	2457.562500
905.397039	2470.165385
905.703938	2480.247692
906.010796	2472.685962
906.317614	2538.220962
906.624391	2447.480192
906.931129	2606.276538
907.237826	2500.412308
907.544483	2515.535769
907.851099	2467.644808
908.157675	2462.603654
908.464211	2457.562500
908.770707	2530.659231
909.077163	2548.303269
909.383578	2518.056346
909.689954	2434.877308
909.996289	2502.932885
910.302584	2444.959615
910.608839	2533.179808
910.915054	2452.521346
911.221229	2467.644808
911.527363	2500.412308
911.833458	2502.932885
912.139513	2500.412308
912.445527	2510.494615
912.751502	2513.015192
913.057436	2570.988462
913.363331	2520.576923
913.669186	2520.576923
913.975000	2470.165385
914.280775	2545.782692
914.586510	2465.124231
914.892205	2424.795000
915.197859	2485.288846
915.503475	2500.412308
915.809050	2502.932885
916.114585	2507.974038
916.420081	2462.603654
916.725536	2462.603654
917.030952	2465.124231
917.336328	2500.412308
917.641665	2467.644808
917.946961	2505.453462
918.252218	2535.700385
918.557435	2497.891731
918.862612	2550.823846
919.167750	2528.138654
919.472848	2518.056346
919.777906	2447.480192
920.082925	2497.891731
920.387904	2636.523462
920.692843	2376.904038
920.997743	2543.262115
921.302603	2442.439038
921.607423	2543.262115
921.912204	2487.809423
922.216946	2452.521346
922.521647	2450.000769
922.826310	2475.206538
923.130932	2444.959615
923.435516	2518.056346
923.740059	2394.548077
924.044564	2495.371154
924.349028	2492.850577
924.653454	2518.056346
924.957840	2543.262115
925.262186	2538.220962
925.566493	2573.509038
925.870761	2424.795000
926.174989	2548.303269
926.479178	2560.906154
926.783328	2427.315577
927.087438	2555.865000
927.391509	2457.562500
927.695541	2533.179808
927.999533	2450.000769
928.303486	2553.344423
928.607400	2472.685962
928.911275	2457.562500
929.215110	2495.371154
929.518906	2576.029615
929.822663	2520.576923
930.126381	2540.741538
930.430060	2487.809423
930.733699	2457.562500
931.037299	2482.768269
931.340861	2555.865000
931.644383	2490.330000
931.947866	2513.015192
932.251309	2502.932885
932.554714	2480.247692
932.858080	2447.480192
933.161407	2505.453462
933.464694	2555.865000
933.767943	2485.288846
934.071153	2550.823846
934.374323	2472.685962
934.677455	2513.015192
934.980548	2513.015192
935.283602	2477.727115
935.586617	2490.330000
935.889593	2570.988462
936.192530	2480.247692
936.495428	2470.165385
936.798287	2543.262115
937.101108	2475.206538
937.403890	2409.671538
937.706632	2565.947308
938.009336	2485.288846
938.312002	2470.165385
938.614628	2427.315577
938.917216	2470.165385
939.219765	2487.809423
939.522275	2502.932885
939.824747	2510.494615
940.127179	2452.521346
940.429573	2525.618077
940.731929	2452.521346
941.034246	2520.576923
941.336524	2439.918462
941.638763	2414.712692
941.940964	2513.015192
942.243126	2434.877308
942.545250	2485.288846
942.847335	2510.494615
943.149381	2608.797115
943.451389	2485.288846
943.753359	2553.344423
944.055290	2538.220962
944.357182	2490.330000
944.659036	2467.644808
944.960851	2497.891731
945.262628	2565.947308
945.564367	2462.603654
945.866067	2419.753846
946.167729	2412.192115
946.469352	2417.233269
946.770937	2563.426731
947.072484	2429.836154
947.373992	2455.041923
947.675462	2485.288846
947.976893	2472.685962
948.278286	2480.247692
948.579641	2515.535769
948.880958	2523.097500
949.182236	2487.809423
949.483476	2535.700385
949.784678	2444.959615
950.085841	2467.644808
950.386967	2586.111923
950.688054	2386.986346
950.989103	2482.768269
951.290114	2422.274423
951.591087	2487.809423
951.892021	2432.356731
952.192917	2543.262115
952.493776	2419.753846
952.794596	2480.247692
953.095378	2553.344423
953.396122	2465.124231
953.696828	2495.371154
953.997496	2525.618077
954.298126	2450.000769
954.598718	2495.371154
954.899272	2543.262115
955.199788	2568.467885
955.500266	2487.809423
955.800706	2419.753846
956.101108	2487.809423
956.401472	2409.671538
956.701798	2407.150962
957.002087	2467.644808
957.302337	2525.618077
957.602550	2462.603654
957.902724	2540.741538
958.202861	2457.562500
958.502960	2507.974038
958.803022	2386.986346
959.103045	2490.330000
959.403031	2505.453462
959.702979	2487.809423
960.002889	2563.426731
960.302762	2422.274423
960.602596	2480.247692
960.902393	2482.768269
961.202153	2447.480192
961.501875	2651.646923
961.801559	2450.000769
962.101205	2555.865000
962.400814	2465.124231
962.700385	2437.397885
962.999918	2560.906154
963.299414	2490.330000
963.598873	2568.467885
963.898293	2442.439038
964.197677	2422.274423
964.497022	2500.412308
964.796331	2565.947308
965.095601	2422.274423
965.394835	2510.494615
965.694030	2550.823846
965.993189	2465.124231
966.292309	2528.138654
966.591393	2505.453462
966.890439	2591.153077
967.189447	2439.918462
967.488419	2467.644808
967.787353	2553.344423
968.086249	2477.727115
968.385108	2465.124231
968.683930	2414.712692
968.982714	2502.932885
969.281462	2540.741538
969.580172	2452.521346
969.878844	2442.439038
970.177480	2538.220962
970.476078	2555.865000
970.774639	2475.206538
971.073162	2520.576923
971.371649	2490.330000
971.670098	2457.562500
971.968510	2376.904038
972.266885	2402.109808
972.565223	2500.412308
972.863524	2450.000769
973.161788	2533.179808
973.460014	2432.356731
973.758204	2500.412308
974.056356	2515.535769
974.354471	2444.959615
974.652550	2520.576923
974.950591	2475.206538
975.248595	2540.741538
975.546563	2422.274423
975.844493	2472.685962
976.142386	2409.671538
976.440243	2397.068654
976.738062	2520.576923
977.035845	2480.247692
977.333590	2530.659231
977.631299	2389.506923
977.928971	2482.768269
978.226606	2485.288846
978.524204	2490.330000
978.821765	2525.618077
979.119290	2450.000769
979.416777	2500.412308
979.714228	2497.891731
980.011642	2434.877308
980.309020	2467.644808
980.606360	2510.494615
980.903664	2510.494615
981.200931	2417.233269
981.498162	2528.138654
981.795356	2381.945192
982.092513	2414.712692
982.389633	2460.083077
982.686717	2528.138654
982.983764	2422.274423
983.280775	2576.029615
983.577749	2477.727115
983.874686	2500.412308
984.171587	2437.397885
984.468451	2495.371154
984.765279	2482.768269
985.062070	2528.138654
985.358824	2460.083077
985.655543	2412.192115
985.952224	2477.727115
986.248869	2485.288846
986.545478	2462.603654
986.842050	2490.330000
987.138586	2439.918462
987.435086	2523.097500
987.731549	2528.138654
988.027975	2490.330000
988.324366	2455.041923
988.620719	2565.947308
988.917037	2470.165385
989.213318	2513.015192
989.509563	2439.918462
989.805772	2623.920577
990.101944	2528.138654
990.398080	2465.124231
990.694180	2576.029615
990.990244	2434.877308
991.286271	2485.288846
991.582262	2457.562500
991.878217	2513.015192
992.174136	2467.644808
992.470019	2538.220962
992.765865	2482.768269
993.061676	2548.303269
993.357450	2480.247692
993.653188	2563.426731
993.948890	2447.480192
994.244556	2500.412308
994.540186	2397.068654
994.835780	2450.000769
995.131337	2495.371154
995.426859	2518.056346
995.722345	2480.247692
996.017795	2442.439038
996.313208	2414.712692
996.608586	2623.920577
996.903928	2553.344423
997.199234	2520.576923
997.494504	2434.877308
997.789738	2578.550192
998.084936	2475.206538
998.380099	2490.330000
998.675225	2414.712692
998.970316	2487.809423
999.265371	2538.220962
999.560390	2487.809423
999.855373	2490.330000
1000.150320	2528.138654
1000.445232	2467.644808
1000.740108	2507.974038
1001.034948	2472.685962
1001.329752	2500.412308
1001.624521	2462.603654
1001.919254	2558.385577
1002.213951	2477.727115
1002.508613	2480.247692
1002.803239	2434.877308
1003.097829	2515.535769
1003.392384	2457.562500
1003.686903	2452.521346
1003.981386	2470.165385
1004.275834	2492.850577
1004.570246	2482.768269
1004.864623	2502.932885
1005.158964	2525.618077
1005.453270	2495.371154
1005.747540	2439.918462
1006.041775	2475.206538
1006.335974	2500.412308
1006.630138	2447.480192
1006.924266	2447.480192
1007.218359	2500.412308
1007.512416	2553.344423
1007.806438	2480.247692
1008.100425	2533.179808
1008.394376	2502.932885
1008.688292	2550.823846
1008.982172	2565.947308
1009.276017	2424.795000
1009.569827	2545.782692
1009.863602	2450.000769
1010.157341	2510.494615
1010.451045	2513.015192
1010.744714	2502.932885
1011.038347	2326.492500
1011.331945	2455.041923
1011.625508	2540.741538
1011.919036	2460.083077
1012.212528	2475.206538
1012.505986	2497.891731
1012.799408	2513.015192
1013.092795	2450.000769
1013.386147	2465.124231
1013.679464	2477.727115
1013.972745	2533.179808
1014.265992	2460.083077
1014.559204	2505.453462
1014.852380	2457.562500
1015.145521	2497.891731
1015.438628	2520.576923
1015.731699	2470.165385
1016.024736	2492.850577
1016.317737	2462.603654
1016.610703	2462.603654
1016.903635	2450.000769
1017.196531	2505.453462
1017.489393	2470.165385
1017.782219	2439.918462
1018.075011	2495.371154
1018.367768	2510.494615
1018.660490	2518.056346
1018.953177	2518.056346
1019.245829	2518.056346
