Dividing Wavelength (nm)	Counts (n)	Blue Motor Position (mm): 0.000000	Red Motor Position (mm): 9.200000	
326.493990	2170.216731
326.888308	2170.216731
327.282561	2170.216731
327.676750	2089.558269
328.070874	2132.408077
328.464933	2071.914231
328.858929	2147.531538
329.252859	2094.599423
329.646726	2152.572692
330.040528	2134.928654
330.434265	2119.805192
330.827938	2132.408077
331.221547	2210.545962
331.615091	2205.504808
332.008571	2094.599423
332.401986	2137.449231
332.795338	2260.957500
333.188625	2197.943077
333.581847	2301.286731
333.975006	2326.492500
334.368100	2283.642692
334.761129	2268.519231
335.154095	2303.807308
335.546996	2329.013077
335.939833	2361.780577
336.332606	2326.492500
336.725315	2349.177692
337.117960	2417.233269
337.510540	2414.712692
337.903056	2364.301154
338.295508	2487.809423
338.687896	2419.753846
339.080220	2442.439038
339.472480	2356.739423
339.864676	2422.274423
340.256807	2452.521346
340.648875	2515.535769
341.040879	2364.301154
341.432818	2482.768269
341.824694	2429.836154
342.216506	2424.795000
342.608253	2573.509038
342.999937	2482.768269
343.391557	2515.535769
343.783113	2465.124231
344.174605	2452.521346
344.566033	2495.371154
344.957397	2515.535769
345.348697	2447.480192
345.739934	2533.179808
346.131106	2465.124231
346.522215	2472.685962
346.913260	2427.315577
347.304241	2492.850577
347.695159	2429.836154
348.086012	2457.562500
348.476802	2495.371154
348.867528	2507.974038
349.258191	2475.206538
349.648789	2450.000769
350.039324	2386.986346
350.429796	2392.027500
350.820203	2457.562500
351.210548	2407.150962
351.600828	2414.712692
351.991045	2457.562500
352.381198	2439.918462
352.771288	2497.891731
353.161314	2417.233269
353.551276	2457.562500
353.941175	2523.097500
354.331010	2460.083077
354.720782	2457.562500
355.110490	2492.850577
355.500135	2492.850577
355.889717	2550.823846
356.279235	2414.712692
356.668689	2497.891731
357.058080	2460.083077
357.447408	2450.000769
357.836672	2444.959615
358.225873	2392.027500
358.615010	2417.233269
359.004084	2399.589231
359.393095	2500.412308
359.782043	2407.150962
360.170927	2480.247692
360.559748	2407.150962
360.948505	2500.412308
361.337199	2444.959615
361.725830	2447.480192
362.114398	2439.918462
362.502903	2502.932885
362.891344	2429.836154
363.279722	2528.138654
363.668037	2477.727115
364.056289	2606.276538
364.444478	2490.330000
364.832603	2349.177692
365.220665	2482.768269
365.608665	2457.562500
365.996601	2422.274423
366.384474	2404.630385
366.772284	2444.959615
367.160031	2490.330000
367.547715	2412.192115
367.935336	2475.206538
368.322893	2477.727115
368.710388	2578.550192
369.097820	2460.083077
369.485189	2490.330000
369.872495	2402.109808
370.259738	2417.233269
370.646918	2397.068654
371.034035	2439.918462
371.421090	2490.330000
371.808081	2470.165385
372.195010	2412.192115
372.581875	2462.603654
372.968678	2399.589231
373.355418	2399.589231
373.742096	2550.823846
374.128710	2490.330000
374.515262	2444.959615
374.901751	2409.671538
375.288177	2495.371154
375.674540	2444.959615
376.060841	2480.247692
376.447079	2487.809423
376.833254	2460.083077
377.219367	2442.439038
377.605417	2452.521346
377.991404	2429.836154
378.377329	2402.109808
378.763191	2490.330000
379.148991	2389.506923
379.534727	2455.041923
379.920402	2429.836154
380.306013	2419.753846
380.691563	2404.630385
381.077049	2495.371154
381.462474	2447.480192
381.847835	2475.206538
382.233134	2424.795000
382.618371	2497.891731
383.003545	2502.932885
383.388657	2417.233269
383.773706	2502.932885
384.158693	2417.233269
384.543618	2427.315577
384.928480	2424.795000
385.313280	2452.521346
385.698017	2465.124231
386.082692	2502.932885
386.467305	2487.809423
386.851856	2538.220962
387.236344	2495.371154
387.620770	2437.397885
388.005133	2510.494615
388.389435	2417.233269
388.773674	2507.974038
389.157851	2447.480192
389.541965	2543.262115
389.926018	2450.000769
390.310008	2487.809423
390.693936	2366.821731
391.077802	2518.056346
391.461606	2419.753846
391.845348	2505.453462
392.229027	2472.685962
392.612645	2513.015192
392.996200	2507.974038
393.379694	2530.659231
393.763125	2603.755962
394.146494	2434.877308
394.529801	2550.823846
394.913047	2452.521346
395.296230	2485.288846
395.679351	2560.906154
396.062410	2407.150962
396.445408	2470.165385
396.828343	2485.288846
397.211217	2447.480192
397.594028	2480.247692
397.976778	2442.439038
398.359466	2490.330000
398.742092	2487.809423
399.124656	2563.426731
399.507158	2419.753846
399.889598	2520.576923
400.271977	2414.712692
400.654294	2482.768269
401.036549	2414.712692
401.418742	2515.535769
401.800874	2364.301154
402.182944	2437.397885
402.564952	2505.453462
402.946898	2467.644808
403.328783	2417.233269
403.710606	2538.220962
404.092367	2437.397885
404.474067	2563.426731
404.855705	2452.521346
405.237282	2553.344423
405.618797	2477.727115
406.000250	2457.562500
406.381642	2480.247692
406.762972	2470.165385
407.144240	2470.165385
407.525447	2497.891731
407.906593	2588.632500
408.287677	2409.671538
408.668700	2409.671538
409.049661	2535.700385
409.430560	2523.097500
409.811399	2507.974038
410.192176	2490.330000
410.572891	2434.877308
410.953545	2518.056346
411.334138	2465.124231
411.714669	2427.315577
412.095139	2495.371154
412.475547	2427.315577
412.855894	2442.439038
413.236180	2482.768269
413.616405	2523.097500
413.996568	2523.097500
414.376670	2482.768269
414.756711	2485.288846
415.136691	2470.165385
415.516609	2409.671538
415.896466	2439.918462
416.276262	2429.836154
416.655997	2487.809423
417.035670	2490.330000
417.415283	2515.535769
417.794834	2525.618077
418.174324	2490.330000
418.553753	2543.262115
418.933121	2480.247692
419.312428	2407.150962
419.691674	2422.274423
420.070859	2505.453462
420.449983	2505.453462
420.829045	2555.865000
421.208047	2462.603654
421.586988	2570.988462
421.965867	2442.439038
422.344686	2417.233269
422.723444	2407.150962
423.102141	2480.247692
423.480777	2525.618077
423.859352	2485.288846
424.237866	2492.850577
424.616319	2467.644808
424.994712	2480.247692
425.373044	2568.467885
425.751314	2533.179808
426.129524	2485.288846
426.507673	2538.220962
426.885762	2510.494615
427.263789	2523.097500
427.641756	2490.330000
428.019662	2376.904038
428.397508	2492.850577
428.775292	2455.041923
429.153016	2540.741538
429.530679	2450.000769
429.908282	2412.192115
430.285824	2530.659231
430.663305	2452.521346
431.040726	2439.918462
431.418086	2545.782692
431.795385	2505.453462
432.172624	2455.041923
432.549802	2515.535769
432.926920	2485.288846
433.303977	2422.274423
433.680974	2442.439038
434.057910	2472.685962
434.434786	2462.603654
434.811601	2578.550192
435.188355	2505.453462
435.565050	2510.494615
435.941683	2570.988462
436.318257	2520.576923
436.694770	2477.727115
437.071222	2442.439038
437.447614	2369.342308
437.823946	2565.947308
438.200218	2490.330000
438.576429	2518.056346
438.952580	2414.712692
439.328670	2505.453462
439.704700	2573.509038
440.080670	2480.247692
440.456580	2482.768269
440.832429	2447.480192
441.208218	2457.562500
441.583947	2470.165385
441.959616	2581.070769
442.335224	2450.000769
442.710773	2447.480192
443.086261	2482.768269
443.461689	2540.741538
443.837057	2485.288846
444.212365	2500.412308
444.587612	2543.262115
444.962800	2470.165385
445.337927	2424.795000
445.712995	2397.068654
446.088002	2485.288846
446.462949	2434.877308
446.837837	2500.412308
447.212664	2528.138654
447.587431	2442.439038
447.962139	2513.015192
448.336786	2502.932885
448.711374	2520.576923
449.085901	2482.768269
449.460369	2530.659231
449.834776	2515.535769
450.209124	2470.165385
450.583412	2379.424615
450.957640	2490.330000
451.331808	2414.712692
451.705917	2467.644808
452.079965	2465.124231
452.453954	2485.288846
452.827883	2495.371154
453.201752	2513.015192
453.575562	2492.850577
453.949311	2502.932885
454.323001	2492.850577
454.696632	2548.303269
455.070202	2550.823846
455.443713	2455.041923
455.817164	2520.576923
456.190556	2475.206538
456.563888	2472.685962
456.937160	2535.700385
457.310373	2528.138654
457.683526	2444.959615
458.056619	2472.685962
458.429653	2485.288846
458.802628	2497.891731
459.175542	2502.932885
459.548398	2452.521346
459.921194	2460.083077
460.293930	2462.603654
460.666607	2447.480192
461.039224	2555.865000
461.411782	2470.165385
461.784280	2470.165385
462.156719	2550.823846
462.529099	2487.809423
462.901419	2422.274423
463.273680	2515.535769
463.645882	2439.918462
464.018024	2510.494615
464.390106	2442.439038
464.762130	2470.165385
465.134094	2523.097500
465.505999	2515.535769
465.877845	2510.494615
466.249631	2520.576923
466.621358	2515.535769
466.993026	2545.782692
467.364634	2497.891731
467.736184	2540.741538
468.107674	2490.330000
468.479105	2608.797115
468.850477	2472.685962
469.221790	2502.932885
469.593043	2455.041923
469.964238	2530.659231
470.335373	2462.603654
470.706449	2540.741538
471.077467	2495.371154
471.448425	2502.932885
471.819324	2439.918462
472.190164	2475.206538
472.560945	2460.083077
472.931667	2457.562500
473.302330	2465.124231
473.672934	2510.494615
474.043479	2497.891731
474.413965	2444.959615
474.784393	2427.315577
475.154761	2523.097500
475.525070	2510.494615
475.895321	2432.356731
476.265513	2492.850577
476.635645	2417.233269
477.005719	2475.206538
477.375734	2455.041923
477.745691	2444.959615
478.115588	2535.700385
478.485427	2457.562500
478.855207	2462.603654
479.224928	2492.850577
479.594591	2447.480192
479.964194	2558.385577
480.333739	2417.233269
480.703226	2404.630385
481.072653	2500.412308
481.442022	2407.150962
481.811333	2457.562500
482.180584	2528.138654
482.549777	2487.809423
482.918912	2480.247692
483.287988	2432.356731
483.657005	2492.850577
484.025964	2573.509038
484.394864	2427.315577
484.763706	2480.247692
485.132489	2510.494615
485.501213	2480.247692
485.869879	2535.700385
486.238487	2548.303269
486.607036	2434.877308
486.975527	2530.659231
487.343959	2540.741538
487.712333	2407.150962
488.080648	2492.850577
488.448905	2553.344423
488.817104	2515.535769
489.185244	2500.412308
489.553326	2528.138654
489.921350	2545.782692
490.289315	2520.576923
490.657222	2507.974038
491.025070	2550.823846
491.392861	2533.179808
491.760593	2573.509038
492.128267	2475.206538
492.495883	2553.344423
492.863440	2525.618077
493.230939	2414.712692
493.598380	2429.836154
493.965763	2412.192115
494.333088	2490.330000
494.700354	2583.591346
495.067563	2462.603654
495.434713	2480.247692
495.801805	2424.795000
496.168839	2555.865000
496.535815	2495.371154
496.902733	2475.206538
497.269593	2434.877308
497.636395	2543.262115
498.003139	2518.056346
498.369825	2518.056346
498.736453	2487.809423
499.103023	2492.850577
499.469535	2596.194231
499.835989	2502.932885
500.202385	2482.768269
500.568723	2497.891731
500.935003	2510.494615
501.301226	2447.480192
501.667390	2576.029615
502.033497	2450.000769
502.399546	2513.015192
502.765537	2475.206538
503.131470	2507.974038
503.497345	2588.632500
503.863163	2510.494615
504.228923	2540.741538
504.594625	2502.932885
504.960269	2487.809423
505.325856	2487.809423
505.691385	2550.823846
506.056856	2515.535769
506.422270	2475.206538
506.787625	2583.591346
507.152924	2492.850577
507.518164	2505.453462
507.883347	2442.439038
508.248472	2487.809423
508.613540	2495.371154
508.978550	2545.782692
509.343503	2543.262115
509.708398	2455.041923
510.073236	2538.220962
510.438016	2513.015192
510.802738	2397.068654
511.167403	2439.918462
511.532010	2492.850577
511.896561	2502.932885
512.261053	2490.330000
512.625488	2492.850577
512.989866	2460.083077
513.354186	2500.412308
513.718449	2444.959615
514.082655	2515.535769
514.446803	2455.041923
514.810894	2495.371154
515.174927	2490.330000
515.538904	2568.467885
515.902822	2568.467885
516.266684	2513.015192
516.630488	2528.138654
516.994235	2560.906154
517.357925	2482.768269
517.721558	2437.397885
518.085133	2555.865000
518.448651	2507.974038
518.812112	2505.453462
519.175516	2530.659231
519.538863	2487.809423
519.902152	2523.097500
520.265385	2487.809423
520.628560	2538.220962
520.991678	2465.124231
521.354739	2497.891731
521.717743	2429.836154
522.080690	2502.932885
522.443580	2422.274423
522.806413	2558.385577
523.169189	2502.932885
523.531908	2434.877308
523.894569	2515.535769
524.257174	2485.288846
524.619722	2407.150962
524.982213	2570.988462
525.344647	2578.550192
525.707025	2538.220962
526.069345	2422.274423
526.431608	2533.179808
526.793815	2525.618077
527.155964	2523.097500
527.518057	2407.150962
527.880093	2520.576923
528.242072	2500.412308
528.603995	2518.056346
528.965860	2429.836154
529.327669	2497.891731
529.689421	2490.330000
530.051117	2409.671538
530.412755	2472.685962
530.774337	2490.330000
531.135862	2538.220962
531.497331	2450.000769
531.858743	2515.535769
532.220098	2490.330000
532.581396	2535.700385
532.942638	2482.768269
533.303824	2475.206538
533.664953	2497.891731
534.026025	2525.618077
534.387040	2492.850577
534.747999	2545.782692
535.108902	2538.220962
535.469748	2553.344423
535.830537	2482.768269
536.191270	2444.959615
536.551947	2538.220962
536.912567	2477.727115
537.273131	2470.165385
537.633638	2540.741538
537.994089	2538.220962
538.354483	2523.097500
538.714821	2497.891731
539.075103	2510.494615
539.435328	2485.288846
539.795497	2462.603654
540.155609	2460.083077
540.515665	2563.426731
540.875665	2550.823846
541.235609	2472.685962
541.595496	2475.206538
541.955328	2530.659231
542.315102	2470.165385
542.674821	2505.453462
543.034483	2495.371154
543.394090	2538.220962
543.753640	2450.000769
544.113134	2525.618077
544.472571	2381.945192
544.831953	2492.850577
545.191278	2442.439038
545.550548	2439.918462
545.909761	2487.809423
546.268918	2495.371154
546.628019	2429.836154
546.987064	2490.330000
547.346053	2450.000769
547.704986	2583.591346
548.063863	2497.891731
548.422684	2490.330000
548.781449	2495.371154
549.140158	2475.206538
549.498811	2439.918462
549.857408	2538.220962
550.215949	2525.618077
550.574434	2437.397885
550.932864	2492.850577
551.291237	2560.906154
551.649555	2523.097500
552.007817	2467.644808
552.366022	2523.097500
552.724173	2505.453462
553.082267	2530.659231
553.440305	2555.865000
553.798288	2563.426731
554.156215	2651.646923
554.514086	2467.644808
554.871902	2520.576923
555.229661	2502.932885
555.587365	2475.206538
555.945014	2550.823846
556.302606	2467.644808
556.660143	2540.741538
557.017625	2414.712692
557.375050	2507.974038
557.732421	2495.371154
558.089735	2538.220962
558.446994	2470.165385
558.804197	2533.179808
559.161345	2452.521346
559.518437	2472.685962
559.875474	2361.780577
560.232455	2394.548077
560.589381	2480.247692
560.946251	2409.671538
561.303065	2530.659231
561.659825	2409.671538
562.016528	2538.220962
562.373177	2475.206538
562.729770	2424.795000
563.086307	2545.782692
563.442789	2555.865000
563.799216	2538.220962
564.155587	2482.768269
564.511904	2472.685962
564.868164	2432.356731
565.224370	2467.644808
565.580520	2513.015192
565.936615	2465.124231
566.292654	2530.659231
566.648638	2500.412308
567.004567	2492.850577
567.360441	2455.041923
567.716260	2518.056346
568.072023	2470.165385
568.427732	2465.124231
568.783385	2535.700385
569.138982	2472.685962
569.494525	2558.385577
569.850013	2419.753846
570.205445	2583.591346
570.560823	2392.027500
570.916145	2465.124231
571.271412	2528.138654
571.626625	2495.371154
571.981782	2591.153077
572.336884	2560.906154
572.691931	2533.179808
573.046923	2492.850577
573.401860	2558.385577
573.756743	2480.247692
574.111570	2550.823846
574.466342	2434.877308
574.821059	2490.330000
575.175722	2513.015192
575.530330	2570.988462
575.884882	2444.959615
576.239380	2518.056346
576.593823	2505.453462
576.948211	2505.453462
577.302544	2444.959615
577.656823	2472.685962
578.011047	2477.727115
578.365216	2442.439038
578.719330	2402.109808
579.073389	2543.262115
579.427394	2530.659231
579.781344	2462.603654
580.135239	2490.330000
580.489080	2510.494615
580.842866	2424.795000
581.196597	2520.576923
581.550273	2485.288846
581.903895	2424.795000
582.257463	2505.453462
582.610975	2538.220962
582.964434	2555.865000
583.317837	2513.015192
583.671186	2533.179808
584.024481	2513.015192
584.377721	2533.179808
584.730906	2497.891731
585.084037	2384.465769
585.437113	2429.836154
585.790135	2525.618077
586.143103	2490.330000
586.496016	2487.809423
586.848874	2452.521346
587.201679	2515.535769
587.554428	2427.315577
587.907124	2515.535769
588.259765	2497.891731
588.612352	2530.659231
588.964884	2497.891731
589.317362	2422.274423
589.669786	2467.644808
590.022155	2452.521346
590.374470	2475.206538
590.726731	2477.727115
591.078937	2419.753846
591.431090	2492.850577
591.783188	2570.988462
592.135232	2548.303269
592.487222	2502.932885
592.839157	2490.330000
593.191038	2414.712692
593.542866	2394.548077
593.894639	2533.179808
594.246358	2460.083077
594.598022	2439.918462
594.949633	2492.850577
595.301190	2548.303269
595.652692	2530.659231
596.004141	2586.111923
596.355535	2359.260000
596.706876	2555.865000
597.058162	2482.768269
597.409395	2490.330000
597.760573	2523.097500
598.111698	2500.412308
598.462768	2558.385577
598.813785	2525.618077
599.164748	2530.659231
599.515657	2409.671538
599.866511	2429.836154
600.217312	2487.809423
600.568060	2507.974038
600.918753	2485.288846
601.269392	2560.906154
601.619978	2404.630385
601.970510	2553.344423
602.320988	2442.439038
602.671412	2487.809423
603.021783	2530.659231
603.372100	2518.056346
603.722363	2570.988462
604.072572	2450.000769
604.422728	2523.097500
604.772830	2530.659231
605.122878	2487.809423
605.472872	2490.330000
605.822813	2505.453462
606.172701	2560.906154
606.522534	2510.494615
606.872314	2528.138654
607.222041	2520.576923
607.571714	2523.097500
607.921333	2480.247692
608.270899	2530.659231
608.620411	2432.356731
608.969870	2581.070769
609.319276	2465.124231
609.668627	2419.753846
610.017926	2475.206538
610.367171	2565.947308
610.716362	2515.535769
611.065500	2432.356731
611.414585	2540.741538
611.763616	2407.150962
612.112594	2543.262115
612.461518	2437.397885
612.810389	2429.836154
613.159207	2535.700385
613.507971	2412.192115
613.856682	2500.412308
614.205340	2548.303269
614.553945	2515.535769
614.902496	2447.480192
615.250994	2545.782692
615.599439	2530.659231
615.947830	2548.303269
616.296169	2507.974038
616.644454	2487.809423
616.992686	2472.685962
617.340864	2515.535769
617.688990	2492.850577
618.037063	2497.891731
618.385082	2492.850577
618.733048	2490.330000
619.080961	2593.673654
619.428821	2535.700385
619.776628	2518.056346
620.124382	2540.741538
620.472083	2460.083077
620.819731	2450.000769
621.167326	2442.439038
621.514868	2528.138654
621.862357	2434.877308
622.209793	2530.659231
622.557176	2450.000769
622.904506	2555.865000
623.251783	2523.097500
623.599007	2568.467885
623.946179	2515.535769
624.293297	2540.741538
624.640363	2502.932885
624.987376	2444.959615
625.334336	2513.015192
625.681243	2563.426731
626.028097	2450.000769
626.374899	2485.288846
626.721647	2502.932885
627.068343	2429.836154
627.414987	2510.494615
627.761577	2485.288846
628.108115	2513.015192
628.454600	2450.000769
628.801032	2485.288846
629.147412	2560.906154
629.493739	2513.015192
629.840014	2525.618077
630.186236	2500.412308
630.532405	2528.138654
630.878521	2485.288846
631.224585	2570.988462
631.570597	2518.056346
631.916556	2535.700385
632.262462	2482.768269
632.608316	2518.056346
632.954117	2515.535769
633.299866	2518.056346
633.645562	2442.439038
633.991206	2490.330000
634.336797	2457.562500
634.682336	2538.220962
635.027823	2502.932885
635.373257	2530.659231
635.718639	2515.535769
636.063968	2507.974038
636.409245	2507.974038
636.754470	2465.124231
637.099642	2475.206538
637.444762	2558.385577
637.789829	2507.974038
638.134845	2513.015192
638.479808	2437.397885
638.824719	2457.562500
639.169577	2528.138654
639.514383	2518.056346
639.859137	2424.795000
640.203839	2578.550192
640.548489	2477.727115
640.893086	2482.768269
641.237632	2553.344423
641.582125	2553.344423
641.926566	2417.233269
642.270955	2422.274423
642.615292	2495.371154
642.959576	2530.659231
643.303809	2465.124231
643.647990	2482.768269
643.992118	2500.412308
644.336195	2518.056346
644.680219	2505.453462
645.024192	2507.974038
645.368112	2555.865000
645.711981	2510.494615
646.055797	2467.644808
646.399562	2518.056346
646.743274	2492.850577
647.086935	2507.974038
647.430544	2545.782692
647.774101	2518.056346
648.117606	2538.220962
648.461059	2520.576923
648.804460	2442.439038
649.147810	2482.768269
649.491108	2533.179808
649.834354	2457.562500
650.177548	2419.753846
650.520690	2550.823846
650.863781	2520.576923
651.206820	2550.823846
651.549807	2467.644808
651.892742	2515.535769
652.235626	2520.576923
652.578458	2560.906154
652.921238	2394.548077
653.263967	2472.685962
653.606644	2507.974038
653.949269	2515.535769
654.291843	2535.700385
654.634365	2437.397885
654.976836	2475.206538
655.319255	2553.344423
655.661622	2528.138654
656.003938	2563.426731
656.346203	2502.932885
656.688416	2523.097500
657.030577	2465.124231
657.372687	2513.015192
657.714746	2515.535769
658.056753	2455.041923
658.398708	2550.823846
658.740612	2497.891731
659.082465	2560.906154
659.424266	2523.097500
659.766016	2487.809423
660.107715	2500.412308
660.449362	2538.220962
660.790958	2485.288846
661.132503	2460.083077
661.473996	2507.974038
661.815438	2530.659231
662.156829	2457.562500
662.498168	2467.644808
662.839456	2520.576923
663.180693	2538.220962
663.521879	2460.083077
663.863013	2538.220962
664.204097	2472.685962
664.545129	2530.659231
664.886110	2528.138654
665.227040	2530.659231
665.567918	2477.727115
665.908746	2495.371154
666.249522	2555.865000
666.590248	2543.262115
666.930922	2596.194231
667.271545	2507.974038
667.612118	2518.056346
667.952639	2442.439038
668.293109	2414.712692
668.633528	2487.809423
668.973896	2417.233269
669.314213	2523.097500
669.654480	2581.070769
669.994695	2407.150962
670.334859	2518.056346
670.674973	2518.056346
671.015035	2540.741538
671.355047	2470.165385
671.695008	2563.426731
672.034918	2477.727115
672.374777	2558.385577
672.714585	2475.206538
673.054342	2520.576923
673.394049	2505.453462
673.733705	2533.179808
674.073310	2472.685962
674.412864	2507.974038
674.752368	2495.371154
675.091820	2502.932885
675.431223	2601.235385
675.770574	2444.959615
676.109875	2518.056346
676.449125	2583.591346
676.788324	2439.918462
677.127473	2510.494615
677.466571	2467.644808
677.805619	2603.755962
678.144616	2520.576923
678.483562	2540.741538
678.822458	2490.330000
679.161303	2513.015192
679.500098	2601.235385
679.838842	2530.659231
680.177535	2530.659231
680.516179	2591.153077
680.854771	2535.700385
681.193314	2520.576923
681.531805	2434.877308
681.870247	2525.618077
682.208638	2510.494615
682.546978	2518.056346
682.885268	2450.000769
683.223508	2518.056346
683.561697	2553.344423
683.899836	2525.618077
684.237925	2422.274423
684.575963	2510.494615
684.913951	2613.838269
685.251889	2515.535769
685.589776	2457.562500
685.927614	2500.412308
686.265401	2576.029615
686.603137	2394.548077
686.940824	2518.056346
687.278460	2548.303269
687.616046	2505.453462
687.953582	2497.891731
688.291068	2533.179808
688.628504	2477.727115
688.965889	2563.426731
689.303224	2507.974038
689.640510	2477.727115
689.977745	2444.959615
690.314930	2412.192115
690.652065	2560.906154
690.989150	2482.768269
691.326185	2573.509038
691.663170	2442.439038
692.000105	2515.535769
692.336990	2500.412308
692.673825	2550.823846
693.010610	2510.494615
693.347345	2455.041923
693.684030	2467.644808
694.020665	2515.535769
694.357251	2490.330000
694.693786	2505.453462
695.030272	2437.397885
695.366707	2457.562500
695.703093	2523.097500
696.039429	2475.206538
696.375716	2533.179808
696.711952	2452.521346
697.048139	2528.138654
697.384276	2500.412308
697.720363	2523.097500
698.056400	2500.412308
698.392388	2510.494615
698.728326	2548.303269
699.064214	2465.124231
699.400053	2510.494615
699.735842	2404.630385
700.071581	2485.288846
700.407270	2482.768269
700.742910	2533.179808
701.078501	2591.153077
701.414042	2402.109808
701.749533	2533.179808
702.084974	2455.041923
702.420366	2525.618077
702.755709	2480.247692
703.091002	2460.083077
703.426246	2515.535769
703.761440	2392.027500
704.096584	2507.974038
704.431679	2545.782692
704.766725	2404.630385
705.101721	2457.562500
705.436668	2439.918462
705.771565	2568.467885
706.106413	2513.015192
706.441212	2513.015192
706.775961	2528.138654
707.110661	2535.700385
707.445311	2477.727115
707.779913	2465.124231
708.114465	2530.659231
708.448967	2553.344423
708.783421	2447.480192
709.117825	2487.809423
709.452180	2563.426731
709.786485	2560.906154
710.120742	2495.371154
710.454949	2502.932885
710.789107	2447.480192
711.123216	2515.535769
711.457275	2480.247692
711.791286	2518.056346
712.125247	2581.070769
712.459159	2467.644808
712.793023	2613.838269
713.126837	2495.371154
713.460602	2502.932885
713.794318	2444.959615
714.127985	2538.220962
714.461602	2389.506923
714.795171	2462.603654
715.128691	2495.371154
715.462162	2472.685962
715.795584	2553.344423
716.128957	2444.959615
716.462281	2470.165385
716.795556	2457.562500
717.128782	2560.906154
717.461960	2515.535769
717.795088	2447.480192
718.128167	2480.247692
718.461198	2467.644808
718.794180	2495.371154
719.127113	2477.727115
719.459997	2533.179808
719.792833	2470.165385
720.125619	2523.097500
720.458357	2452.521346
720.791046	2462.603654
721.123686	2389.506923
721.456278	2495.371154
721.788821	2414.712692
722.121315	2409.671538
722.453761	2535.700385
722.786158	2485.288846
723.118506	2386.986346
723.450805	2487.809423
723.783056	2505.453462
724.115259	2462.603654
724.447412	2472.685962
724.779518	2472.685962
725.111574	2417.233269
725.443582	2467.644808
725.775542	2485.288846
726.107453	2414.712692
726.439315	2480.247692
726.771129	2543.262115
727.102895	2472.685962
727.434612	2573.509038
727.766281	2447.480192
728.097901	2455.041923
728.429473	2485.288846
728.760996	2500.412308
729.092471	2490.330000
729.423897	2497.891731
729.755276	2467.644808
730.086606	2507.974038
730.417887	2530.659231
730.749120	2545.782692
731.080305	2507.974038
731.411442	2563.426731
731.742530	2442.439038
732.073570	2480.247692
732.404562	2523.097500
732.735506	2482.768269
733.066401	2500.412308
733.397249	2465.124231
733.728048	2470.165385
734.058798	2490.330000
734.389501	2510.494615
734.720156	2495.371154
735.050762	2533.179808
735.381320	2490.330000
735.711831	2570.988462
736.042293	2591.153077
736.372707	2573.509038
736.703073	2495.371154
737.033391	2450.000769
737.363661	2439.918462
737.693883	2460.083077
738.024056	2374.383462
738.354182	2467.644808
738.684260	2525.618077
739.014290	2389.506923
739.344272	2470.165385
739.674207	2417.233269
740.004093	2457.562500
740.333931	2497.891731
740.663722	2450.000769
740.993464	2505.453462
741.323159	2457.562500
741.652806	2462.603654
741.982405	2492.850577
742.311956	2576.029615
742.641460	2507.974038
742.970915	2563.426731
743.300323	2525.618077
743.629683	2576.029615
743.958996	2523.097500
744.288260	2477.727115
744.617477	2444.959615
744.946647	2573.509038
745.275768	2462.603654
745.604842	2500.412308
745.933869	2462.603654
746.262847	2513.015192
746.591778	2520.576923
746.920662	2465.124231
747.249498	2591.153077
747.578286	2530.659231
747.907027	2550.823846
748.235720	2535.700385
748.564365	2477.727115
748.892963	2465.124231
749.221514	2409.671538
749.550017	2515.535769
749.878473	2492.850577
750.206881	2497.891731
750.535242	2598.714808
750.863555	2455.041923
751.191821	2467.644808
751.520039	2465.124231
751.848210	2467.644808
752.176334	2447.480192
752.504411	2462.603654
752.832440	2513.015192
753.160421	2548.303269
753.488356	2507.974038
753.816243	2558.385577
754.144082	2470.165385
754.471875	2535.700385
754.799620	2558.385577
755.127318	2482.768269
755.454969	2543.262115
755.782572	2460.083077
756.110129	2513.015192
756.437638	2533.179808
756.765100	2505.453462
757.092515	2470.165385
757.419882	2470.165385
757.747203	2525.618077
758.074477	2500.412308
758.401703	2366.821731
758.728882	2555.865000
759.056014	2424.795000
759.383099	2467.644808
759.710138	2419.753846
760.037129	2573.509038
760.364073	2538.220962
760.690970	2513.015192
761.017820	2422.274423
761.344623	2520.576923
761.671379	2455.041923
761.998088	2477.727115
762.324751	2485.288846
762.651366	2550.823846
762.977935	2540.741538
763.304456	2397.068654
763.630931	2548.303269
763.957359	2573.509038
764.283740	2515.535769
764.610074	2485.288846
764.936362	2457.562500
765.262602	2507.974038
765.588796	2530.659231
765.914943	2497.891731
766.241044	2553.344423
766.567097	2518.056346
766.893104	2543.262115
767.219064	2450.000769
767.544978	2497.891731
767.870845	2434.877308
768.196665	2366.821731
768.522438	2480.247692
768.848165	2530.659231
769.173846	2472.685962
769.499479	2442.439038
769.825066	2422.274423
770.150607	2460.083077
770.476101	2565.947308
770.801548	2530.659231
771.126949	2475.206538
771.452303	2475.206538
771.777611	2465.124231
772.102872	2523.097500
772.428087	2555.865000
772.753256	2442.439038
773.078378	2507.974038
773.403453	2392.027500
773.728482	2581.070769
774.053465	2523.097500
774.378401	2465.124231
774.703291	2588.632500
775.028135	2490.330000
775.352932	2530.659231
775.677683	2480.247692
776.002388	2472.685962
776.327046	2513.015192
776.651658	2525.618077
776.976224	2495.371154
777.300743	2475.206538
777.625216	2450.000769
777.949643	2465.124231
778.274024	2563.426731
778.598359	2548.303269
778.922647	2533.179808
779.246889	2470.165385
779.571086	2497.891731
779.895236	2480.247692
780.219339	2472.685962
780.543397	2429.836154
780.867409	2475.206538
781.191374	2462.603654
781.515294	2490.330000
781.839167	2500.412308
782.162995	2424.795000
782.486776	2543.262115
782.810511	2500.412308
783.134201	2444.959615
783.457844	2515.535769
783.781441	2422.274423
784.104993	2510.494615
784.428498	2490.330000
784.751958	2502.932885
785.075372	2447.480192
785.398739	2419.753846
785.722061	2419.753846
786.045337	2530.659231
786.368568	2465.124231
786.691752	2487.809423
787.014891	2485.288846
787.337983	2576.029615
787.661030	2429.836154
787.984031	2472.685962
788.306987	2477.727115
788.629897	2477.727115
788.952760	2472.685962
789.275579	2510.494615
789.598351	2535.700385
789.921078	2437.397885
790.243759	2578.550192
790.566395	2470.165385
790.888984	2465.124231
791.211529	2442.439038
791.534027	2502.932885
791.856480	2568.467885
792.178888	2439.918462
792.501249	2507.974038
792.823566	2455.041923
793.145836	2470.165385
793.468062	2583.591346
793.790241	2470.165385
794.112375	2573.509038
794.434464	2518.056346
794.756507	2550.823846
795.078505	2480.247692
795.400457	2505.453462
795.722364	2480.247692
796.044226	2487.809423
796.366042	2520.576923
796.687812	2384.465769
797.009538	2523.097500
797.331218	2560.906154
797.652852	2502.932885
797.974442	2455.041923
798.295986	2533.179808
798.617484	2465.124231
798.938938	2424.795000
799.260346	2475.206538
799.581709	2513.015192
799.903026	2485.288846
800.224299	2477.727115
800.545526	2513.015192
800.866708	2472.685962
801.187845	2485.288846
801.508936	2482.768269
801.829983	2457.562500
802.150984	2545.782692
802.471940	2455.041923
802.792851	2487.809423
803.113717	2450.000769
803.434538	2472.685962
803.755314	2432.356731
804.076045	2392.027500
804.396731	2518.056346
804.717372	2439.918462
805.037967	2480.247692
805.358518	2505.453462
805.679024	2570.988462
805.999485	2507.974038
806.319901	2510.494615
806.640272	2480.247692
806.960598	2538.220962
807.280879	2485.288846
807.601115	2528.138654
807.921306	2510.494615
808.241453	2444.959615
808.561554	2437.397885
808.881611	2573.509038
809.201623	2528.138654
809.521590	2460.083077
809.841513	2487.809423
810.161390	2543.262115
810.481223	2480.247692
810.801011	2462.603654
811.120755	2505.453462
811.440453	2492.850577
811.760107	2555.865000
812.079716	2505.453462
812.399281	2384.465769
812.718801	2467.644808
813.038276	2490.330000
813.357707	2523.097500
813.677093	2518.056346
813.996434	2477.727115
814.315731	2543.262115
814.634983	2429.836154
814.954191	2540.741538
815.273354	2548.303269
815.592473	2487.809423
815.911547	2515.535769
816.230577	2495.371154
816.549562	2470.165385
816.868502	2462.603654
817.187399	2452.521346
817.506250	2518.056346
817.825058	2462.603654
818.143821	2510.494615
818.462539	2424.795000
818.781213	2490.330000
819.099843	2467.644808
819.418429	2460.083077
819.736970	2555.865000
820.055466	2523.097500
820.373919	2540.741538
820.692327	2507.974038
821.010691	2520.576923
821.329011	2497.891731
821.647286	2520.576923
821.965517	2470.165385
822.283704	2543.262115
822.601847	2520.576923
822.919945	2492.850577
823.237999	2475.206538
823.556010	2560.906154
823.873976	2581.070769
824.191897	2450.000769
824.509775	2520.576923
824.827609	2477.727115
825.145398	2475.206538
825.463144	2485.288846
825.780845	2475.206538
826.098502	2480.247692
826.416116	2482.768269
826.733685	2513.015192
827.051210	2523.097500
827.368692	2477.727115
827.686129	2394.548077
828.003522	2505.453462
828.320872	2520.576923
828.638177	2570.988462
828.955439	2578.550192
829.272656	2533.179808
829.589830	2538.220962
829.906960	2505.453462
830.224046	2500.412308
830.541088	2447.480192
830.858086	2616.358846
831.175041	2462.603654
831.491952	2467.644808
831.808819	2550.823846
832.125642	2472.685962
832.442421	2533.179808
832.759157	2525.618077
833.075849	2462.603654
833.392497	2500.412308
833.709101	2409.671538
834.025662	2465.124231
834.342179	2402.109808
834.658653	2510.494615
834.975083	2480.247692
835.291469	2490.330000
835.607811	2462.603654
835.924110	2434.877308
836.240366	2495.371154
836.556578	2460.083077
836.872746	2505.453462
837.188871	2475.206538
837.504952	2507.974038
837.820990	2397.068654
838.136984	2444.959615
838.452935	2447.480192
838.768842	2482.768269
839.084706	2427.315577
839.400526	2482.768269
839.716303	2432.356731
840.032037	2497.891731
840.347727	2545.782692
840.663373	2492.850577
840.978977	2550.823846
841.294537	2465.124231
841.610054	2528.138654
841.925527	2442.439038
842.240957	2525.618077
842.556344	2555.865000
842.871687	2462.603654
843.186987	2563.426731
843.502244	2515.535769
843.817458	2447.480192
844.132629	2487.809423
844.447756	2429.836154
844.762840	2475.206538
845.077881	2538.220962
845.392879	2386.986346
845.707833	2593.673654
846.022745	2404.630385
846.337613	2543.262115
846.652438	2528.138654
846.967221	2467.644808
847.281960	2540.741538
847.596656	2538.220962
847.911309	2540.741538
848.225919	2507.974038
848.540485	2502.932885
848.855009	2434.877308
849.169490	2497.891731
849.483928	2434.877308
849.798323	2507.974038
850.112675	2550.823846
850.426984	2467.644808
850.741251	2543.262115
851.055474	2523.097500
851.369654	2432.356731
851.683792	2465.124231
851.997887	2447.480192
852.311938	2450.000769
852.625947	2460.083077
852.939914	2545.782692
853.253837	2573.509038
853.567718	2533.179808
853.881555	2465.124231
854.195350	2565.947308
854.509103	2417.233269
854.822812	2550.823846
855.136479	2480.247692
855.450103	2513.015192
855.763685	2492.850577
856.077224	2548.303269
856.390720	2530.659231
856.704173	2374.383462
857.017584	2480.247692
857.330953	2424.795000
857.644278	2492.850577
857.957561	2475.206538
858.270802	2432.356731
858.584000	2500.412308
858.897155	2432.356731
859.210268	2424.795000
859.523339	2462.603654
859.836367	2525.618077
860.149352	2565.947308
860.462295	2455.041923
860.775195	2437.397885
861.088054	2510.494615
861.400869	2553.344423
861.713642	2482.768269
862.026373	2553.344423
862.339062	2442.439038
862.651708	2475.206538
862.964312	2490.330000
863.276873	2586.111923
863.589392	2419.753846
863.901869	2550.823846
864.214303	2472.685962
864.526696	2540.741538
864.839045	2502.932885
865.151353	2510.494615
865.463619	2525.618077
865.775842	2500.412308
866.088023	2439.918462
866.400162	2525.618077
866.712258	2450.000769
867.024313	2548.303269
867.336325	2480.247692
867.648296	2565.947308
867.960224	2442.439038
868.272110	2450.000769
868.583954	2553.344423
868.895755	2414.712692
869.207515	2447.480192
869.519233	2480.247692
869.830909	2434.877308
870.142542	2450.000769
870.454134	2502.932885
870.765684	2487.809423
871.077191	2490.330000
871.388657	2497.891731
871.700081	2465.124231
872.011463	2434.877308
872.322803	2492.850577
872.634101	2505.453462
872.945357	2568.467885
873.256571	2497.891731
873.567744	2386.986346
873.878874	2460.083077
874.189963	2543.262115
874.501010	2502.932885
874.812015	2472.685962
875.122979	2437.397885
875.433900	2490.330000
875.744780	2480.247692
876.055618	2510.494615
876.366415	2485.288846
876.677169	2487.809423
876.987882	2470.165385
877.298554	2505.453462
877.609183	2495.371154
877.919771	2497.891731
878.230317	2472.685962
878.540822	2455.041923
878.851285	2462.603654
879.161707	2543.262115
879.472087	2598.714808
879.782425	2465.124231
880.092722	2533.179808
880.402977	2525.618077
880.713191	2530.659231
881.023363	2502.932885
881.333494	2533.179808
881.643583	2505.453462
881.953631	2502.932885
882.263637	2495.371154
882.573602	2495.371154
882.883526	2520.576923
883.193408	2543.262115
883.503248	2530.659231
883.813048	2538.220962
884.122806	2457.562500
884.432522	2495.371154
884.742197	2550.823846
885.051831	2520.576923
885.361424	2447.480192
885.670975	2482.768269
885.980485	2548.303269
886.289954	2505.453462
886.599382	2560.906154
886.908768	2467.644808
887.218113	2545.782692
887.527417	2462.603654
887.836680	2467.644808
888.145901	2439.918462
888.455082	2422.274423
888.764221	2528.138654
889.073319	2470.165385
889.382376	2467.644808
889.691392	2475.206538
890.000366	2500.412308
890.309300	2472.685962
890.618193	2470.165385
890.927044	2533.179808
891.235855	2533.179808
891.544625	2490.330000
891.853353	2470.165385
892.162041	2515.535769
892.470687	2444.959615
892.779293	2510.494615
893.087858	2455.041923
893.396381	2535.700385
893.704864	2487.809423
894.013306	2497.891731
894.321707	2576.029615
894.630068	2538.220962
894.938387	2472.685962
895.246665	2538.220962
895.554903	2487.809423
895.863100	2507.974038
896.171256	2563.426731
896.479371	2485.288846
896.787446	2538.220962
897.095480	2452.521346
897.403473	2432.356731
897.711425	2424.795000
898.019336	2497.891731
898.327207	2457.562500
898.635038	2555.865000
898.942827	2520.576923
899.250576	2502.932885
899.558284	2578.550192
899.865952	2548.303269
900.173579	2467.644808
900.481165	2470.165385
900.788711	2465.124231
901.096216	2497.891731
901.403681	2477.727115
901.711105	2482.768269
902.018489	2434.877308
902.325832	2437.397885
902.633135	2502.932885
902.940397	2492.850577
903.247619	2424.795000
903.554800	2467.644808
903.861941	2437.397885
904.169041	2550.823846
904.476101	2485.288846
904.783121	2502.932885
905.090100	2533.179808
905.397039	2447.480192
905.703938	2510.494615
906.010796	2513.015192
906.317614	2444.959615
906.624391	2460.083077
906.931129	2533.179808
907.237826	2450.000769
907.544483	2505.453462
907.851099	2477.727115
908.157675	2480.247692
908.464211	2460.083077
908.770707	2525.618077
909.077163	2467.644808
909.383578	2467.644808
909.689954	2439.918462
909.996289	2505.453462
910.302584	2553.344423
910.608839	2482.768269
910.915054	2513.015192
911.221229	2485.288846
911.527363	2492.850577
911.833458	2455.041923
912.139513	2545.782692
912.445527	2455.041923
912.751502	2447.480192
913.057436	2465.124231
913.363331	2538.220962
913.669186	2538.220962
913.975000	2442.439038
914.280775	2502.932885
914.586510	2502.932885
914.892205	2427.315577
915.197859	2472.685962
915.503475	2525.618077
915.809050	2450.000769
916.114585	2450.000769
916.420081	2462.603654
916.725536	2465.124231
917.030952	2573.509038
917.336328	2424.795000
917.641665	2570.988462
917.946961	2450.000769
918.252218	2568.467885
918.557435	2419.753846
918.862612	2437.397885
919.167750	2470.165385
919.472848	2525.618077
919.777906	2477.727115
920.082925	2525.618077
920.387904	2518.056346
920.692843	2510.494615
920.997743	2452.521346
921.302603	2502.932885
921.607423	2533.179808
921.912204	2467.644808
922.216946	2500.412308
922.521647	2460.083077
922.826310	2535.700385
923.130932	2540.741538
923.435516	2573.509038
923.740059	2586.111923
924.044564	2480.247692
924.349028	2432.356731
924.653454	2515.535769
924.957840	2455.041923
925.262186	2548.303269
925.566493	2450.000769
925.870761	2450.000769
926.174989	2502.932885
926.479178	2477.727115
926.783328	2502.932885
927.087438	2495.371154
927.391509	2490.330000
927.695541	2450.000769
927.999533	2472.685962
928.303486	2495.371154
928.607400	2482.768269
928.911275	2525.618077
929.215110	2515.535769
929.518906	2515.535769
929.822663	2507.974038
930.126381	2455.041923
930.430060	2447.480192
930.733699	2407.150962
931.037299	2427.315577
931.340861	2457.562500
931.644383	2533.179808
931.947866	2492.850577
932.251309	2543.262115
932.554714	2472.685962
932.858080	2583.591346
933.161407	2429.836154
933.464694	2545.782692
933.767943	2450.000769
934.071153	2490.330000
934.374323	2384.465769
934.677455	2450.000769
934.980548	2412.192115
935.283602	2495.371154
935.586617	2409.671538
935.889593	2518.056346
936.192530	2480.247692
936.495428	2475.206538
936.798287	2497.891731
937.101108	2505.453462
937.403890	2437.397885
937.706632	2535.700385
938.009336	2507.974038
938.312002	2422.274423
938.614628	2533.179808
938.917216	2502.932885
939.219765	2407.150962
939.522275	2497.891731
939.824747	2434.877308
940.127179	2490.330000
940.429573	2404.630385
940.731929	2447.480192
941.034246	2538.220962
941.336524	2457.562500
941.638763	2485.288846
941.940964	2477.727115
942.243126	2477.727115
942.545250	2573.509038
942.847335	2523.097500
943.149381	2482.768269
943.451389	2507.974038
943.753359	2462.603654
944.055290	2535.700385
944.357182	2565.947308
944.659036	2444.959615
944.960851	2513.015192
945.262628	2530.659231
945.564367	2392.027500
945.866067	2523.097500
946.167729	2472.685962
946.469352	2490.330000
946.770937	2409.671538
947.072484	2505.453462
947.373992	2465.124231
947.675462	2570.988462
947.976893	2485.288846
948.278286	2495.371154
948.579641	2457.562500
948.880958	2457.562500
949.182236	2490.330000
949.483476	2502.932885
949.784678	2482.768269
950.085841	2462.603654
950.386967	2528.138654
950.688054	2439.918462
950.989103	2485.288846
951.290114	2460.083077
951.591087	2429.836154
951.892021	2442.439038
952.192917	2560.906154
952.493776	2487.809423
952.794596	2485.288846
953.095378	2444.959615
953.396122	2444.959615
953.696828	2520.576923
953.997496	2543.262115
954.298126	2507.974038
954.598718	2467.644808
954.899272	2457.562500
955.199788	2379.424615
955.500266	2485.288846
955.800706	2452.521346
956.101108	2472.685962
956.401472	2482.768269
956.701798	2475.206538
957.002087	2513.015192
957.302337	2455.041923
957.602550	2480.247692
957.902724	2460.083077
958.202861	2397.068654
958.502960	2470.165385
958.803022	2538.220962
959.103045	2460.083077
959.403031	2570.988462
959.702979	2502.932885
960.002889	2424.795000
960.302762	2442.439038
960.602596	2450.000769
960.902393	2475.206538
961.202153	2429.836154
961.501875	2422.274423
961.801559	2389.506923
962.101205	2465.124231
962.400814	2452.521346
962.700385	2505.453462
962.999918	2439.918462
963.299414	2530.659231
963.598873	2528.138654
963.898293	2439.918462
964.197677	2402.109808
964.497022	2495.371154
964.796331	2455.041923
965.095601	2518.056346
965.394835	2510.494615
965.694030	2500.412308
965.993189	2497.891731
966.292309	2432.356731
966.591393	2452.521346
966.890439	2455.041923
967.189447	2525.618077
967.488419	2447.480192
967.787353	2565.947308
968.086249	2434.877308
968.385108	2472.685962
968.683930	2462.603654
968.982714	2487.809423
969.281462	2482.768269
969.580172	2573.509038
969.878844	2475.206538
970.177480	2505.453462
970.476078	2538.220962
970.774639	2525.618077
971.073162	2495.371154
971.371649	2553.344423
971.670098	2472.685962
971.968510	2412.192115
972.266885	2492.850577
972.565223	2457.562500
972.863524	2525.618077
973.161788	2394.548077
973.460014	2455.041923
973.758204	2419.753846
974.056356	2563.426731
974.354471	2497.891731
974.652550	2518.056346
974.950591	2533.179808
975.248595	2530.659231
975.546563	2515.535769
975.844493	2528.138654
976.142386	2548.303269
976.440243	2505.453462
976.738062	2490.330000
977.035845	2533.179808
977.333590	2487.809423
977.631299	2507.974038
977.928971	2502.932885
978.226606	2470.165385
978.524204	2550.823846
978.821765	2447.480192
979.119290	2563.426731
979.416777	2530.659231
979.714228	2429.836154
980.011642	2535.700385
980.309020	2462.603654
980.606360	2560.906154
980.903664	2555.865000
981.200931	2460.083077
981.498162	2548.303269
981.795356	2439.918462
982.092513	2545.782692
982.389633	2452.521346
982.686717	2460.083077
982.983764	2528.138654
983.280775	2591.153077
983.577749	2482.768269
983.874686	2495.371154
984.171587	2470.165385
984.468451	2447.480192
984.765279	2520.576923
985.062070	2560.906154
985.358824	2502.932885
985.655543	2545.782692
985.952224	2447.480192
986.248869	2470.165385
986.545478	2530.659231
986.842050	2414.712692
987.138586	2447.480192
987.435086	2477.727115
987.731549	2465.124231
988.027975	2460.083077
988.324366	2523.097500
988.620719	2492.850577
988.917037	2513.015192
989.213318	2518.056346
989.509563	2515.535769
989.805772	2535.700385
990.101944	2525.618077
990.398080	2525.618077
990.694180	2427.315577
990.990244	2482.768269
991.286271	2492.850577
991.582262	2568.467885
991.878217	2432.356731
992.174136	2492.850577
992.470019	2500.412308
992.765865	2515.535769
993.061676	2533.179808
993.357450	2465.124231
993.653188	2510.494615
993.948890	2490.330000
994.244556	2538.220962
994.540186	2460.083077
994.835780	2523.097500
995.131337	2530.659231
995.426859	2404.630385
995.722345	2553.344423
996.017795	2480.247692
996.313208	2439.918462
996.608586	2475.206538
996.903928	2518.056346
997.199234	2485.288846
997.494504	2550.823846
997.789738	2460.083077
998.084936	2528.138654
998.380099	2497.891731
998.675225	2397.068654
998.970316	2520.576923
999.265371	2530.659231
999.560390	2578.550192
999.855373	2583.591346
1000.150320	2452.521346
1000.445232	2545.782692
1000.740108	2424.795000
1001.034948	2487.809423
1001.329752	2495.371154
1001.624521	2530.659231
1001.919254	2492.850577
1002.213951	2497.891731
1002.508613	2578.550192
1002.803239	2452.521346
1003.097829	2439.918462
1003.392384	2490.330000
1003.686903	2492.850577
1003.981386	2513.015192
1004.275834	2480.247692
1004.570246	2444.959615
1004.864623	2560.906154
1005.158964	2540.741538
1005.453270	2470.165385
1005.747540	2520.576923
1006.041775	2608.797115
1006.335974	2505.453462
1006.630138	2606.276538
1006.924266	2515.535769
1007.218359	2520.576923
1007.512416	2523.097500
1007.806438	2427.315577
1008.100425	2513.015192
1008.394376	2442.439038
1008.688292	2525.618077
1008.982172	2470.165385
1009.276017	2568.467885
1009.569827	2500.412308
1009.863602	2500.412308
1010.157341	2507.974038
1010.451045	2586.111923
1010.744714	2497.891731
1011.038347	2419.753846
1011.331945	2515.535769
1011.625508	2487.809423
1011.919036	2482.768269
1012.212528	2497.891731
1012.505986	2429.836154
1012.799408	2482.768269
1013.092795	2442.439038
1013.386147	2495.371154
1013.679464	2442.439038
1013.972745	2490.330000
1014.265992	2505.453462
1014.559204	2555.865000
1014.852380	2447.480192
1015.145521	2475.206538
1015.438628	2434.877308
1015.731699	2422.274423
1016.024736	2482.768269
1016.317737	2417.233269
1016.610703	2437.397885
1016.903635	2462.603654
1017.196531	2560.906154
1017.489393	2500.412308
1017.782219	2538.220962
1018.075011	2407.150962
1018.367768	2495.371154
1018.660490	2515.535769
1018.953177	2515.535769
1019.245829	2515.535769
