Dividing Wavelength (nm)	Counts (n)	Blue Motor Position (mm): 0.000000	Red Motor Position (mm): 9.000000	
326.493990	2122.325769
326.888308	2122.325769
327.282561	2122.325769
327.676750	2094.599423
328.070874	2087.037692
328.464933	2074.434808
328.858929	2137.449231
329.252859	2084.517115
329.646726	2059.311346
330.040528	2117.284615
330.434265	2119.805192
330.827938	2066.873077
331.221547	2119.805192
331.615091	2177.778462
332.008571	2238.272308
332.401986	2192.901923
332.795338	2213.066538
333.188625	2263.478077
333.581847	2132.408077
333.975006	2308.848462
334.368100	2341.615962
334.761129	2306.327885
335.154095	2296.245577
335.546996	2301.286731
335.939833	2339.095385
336.332606	2384.465769
336.725315	2417.233269
337.117960	2417.233269
337.510540	2379.424615
337.903056	2439.918462
338.295508	2452.521346
338.687896	2477.727115
339.080220	2502.932885
339.472480	2404.630385
339.864676	2586.111923
340.256807	2495.371154
340.648875	2538.220962
341.040879	2399.589231
341.432818	2482.768269
341.824694	2462.603654
342.216506	2427.315577
342.608253	2462.603654
342.999937	2490.330000
343.391557	2465.124231
343.783113	2470.165385
344.174605	2457.562500
344.566033	2500.412308
344.957397	2414.712692
345.348697	2422.274423
345.739934	2389.506923
346.131106	2523.097500
346.522215	2409.671538
346.913260	2402.109808
347.304241	2460.083077
347.695159	2384.465769
348.086012	2450.000769
348.476802	2434.877308
348.867528	2439.918462
349.258191	2465.124231
349.648789	2563.426731
350.039324	2439.918462
350.429796	2472.685962
350.820203	2399.589231
351.210548	2427.315577
351.600828	2525.618077
351.991045	2404.630385
352.381198	2475.206538
352.771288	2399.589231
353.161314	2402.109808
353.551276	2392.027500
353.941175	2432.356731
354.331010	2427.315577
354.720782	2470.165385
355.110490	2434.877308
355.500135	2465.124231
355.889717	2404.630385
356.279235	2452.521346
356.668689	2414.712692
357.058080	2402.109808
357.447408	2442.439038
357.836672	2422.274423
358.225873	2439.918462
358.615010	2417.233269
359.004084	2429.836154
359.393095	2444.959615
359.782043	2490.330000
360.170927	2480.247692
360.559748	2452.521346
360.948505	2475.206538
361.337199	2472.685962
361.725830	2379.424615
362.114398	2419.753846
362.502903	2444.959615
362.891344	2523.097500
363.279722	2434.877308
363.668037	2530.659231
364.056289	2424.795000
364.444478	2462.603654
364.832603	2429.836154
365.220665	2417.233269
365.608665	2450.000769
365.996601	2427.315577
366.384474	2429.836154
366.772284	2404.630385
367.160031	2452.521346
367.547715	2424.795000
367.935336	2402.109808
368.322893	2490.330000
368.710388	2397.068654
369.097820	2419.753846
369.485189	2462.603654
369.872495	2465.124231
370.259738	2384.465769
370.646918	2533.179808
371.034035	2429.836154
371.421090	2424.795000
371.808081	2402.109808
372.195010	2462.603654
372.581875	2450.000769
372.968678	2480.247692
373.355418	2447.480192
373.742096	2424.795000
374.128710	2475.206538
374.515262	2399.589231
374.901751	2500.412308
375.288177	2432.356731
375.674540	2482.768269
376.060841	2432.356731
376.447079	2601.235385
376.833254	2525.618077
377.219367	2404.630385
377.605417	2444.959615
377.991404	2515.535769
378.377329	2414.712692
378.763191	2492.850577
379.148991	2437.397885
379.534727	2462.603654
379.920402	2507.974038
380.306013	2518.056346
380.691563	2444.959615
381.077049	2472.685962
381.462474	2444.959615
381.847835	2432.356731
382.233134	2462.603654
382.618371	2513.015192
383.003545	2470.165385
383.388657	2371.862885
383.773706	2520.576923
384.158693	2394.548077
384.543618	2374.383462
384.928480	2555.865000
385.313280	2439.918462
385.698017	2429.836154
386.082692	2523.097500
386.467305	2467.644808
386.851856	2518.056346
387.236344	2490.330000
387.620770	2505.453462
388.005133	2439.918462
388.389435	2583.591346
388.773674	2447.480192
389.157851	2429.836154
389.541965	2412.192115
389.926018	2485.288846
390.310008	2450.000769
390.693936	2457.562500
391.077802	2439.918462
391.461606	2434.877308
391.845348	2507.974038
392.229027	2424.795000
392.612645	2472.685962
392.996200	2470.165385
393.379694	2381.945192
393.763125	2452.521346
394.146494	2482.768269
394.529801	2510.494615
394.913047	2419.753846
395.296230	2419.753846
395.679351	2414.712692
396.062410	2505.453462
396.445408	2490.330000
396.828343	2465.124231
397.211217	2444.959615
397.594028	2528.138654
397.976778	2487.809423
398.359466	2384.465769
398.742092	2507.974038
399.124656	2452.521346
399.507158	2472.685962
399.889598	2442.439038
400.271977	2447.480192
400.654294	2492.850577
401.036549	2450.000769
401.418742	2500.412308
401.800874	2450.000769
402.182944	2487.809423
402.564952	2444.959615
402.946898	2424.795000
403.328783	2505.453462
403.710606	2384.465769
404.092367	2462.603654
404.474067	2462.603654
404.855705	2467.644808
405.237282	2558.385577
405.618797	2407.150962
406.000250	2530.659231
406.381642	2515.535769
406.762972	2497.891731
407.144240	2497.891731
407.525447	2472.685962
407.906593	2480.247692
408.287677	2502.932885
408.668700	2422.274423
409.049661	2447.480192
409.430560	2444.959615
409.811399	2439.918462
410.192176	2485.288846
410.572891	2550.823846
410.953545	2492.850577
411.334138	2432.356731
411.714669	2485.288846
412.095139	2386.986346
412.475547	2470.165385
412.855894	2480.247692
413.236180	2515.535769
413.616405	2442.439038
413.996568	2502.932885
414.376670	2470.165385
414.756711	2475.206538
415.136691	2457.562500
415.516609	2520.576923
415.896466	2470.165385
416.276262	2530.659231
416.655997	2462.603654
417.035670	2477.727115
417.415283	2470.165385
417.794834	2460.083077
418.174324	2465.124231
418.553753	2455.041923
418.933121	2462.603654
419.312428	2515.535769
419.691674	2470.165385
420.070859	2472.685962
420.449983	2492.850577
420.829045	2535.700385
421.208047	2442.439038
421.586988	2465.124231
421.965867	2505.453462
422.344686	2475.206538
422.723444	2472.685962
423.102141	2490.330000
423.480777	2462.603654
423.859352	2467.644808
424.237866	2442.439038
424.616319	2530.659231
424.994712	2485.288846
425.373044	2611.317692
425.751314	2447.480192
426.129524	2545.782692
426.507673	2505.453462
426.885762	2543.262115
427.263789	2565.947308
427.641756	2558.385577
428.019662	2513.015192
428.397508	2427.315577
428.775292	2480.247692
429.153016	2502.932885
429.530679	2457.562500
429.908282	2480.247692
430.285824	2487.809423
430.663305	2510.494615
431.040726	2530.659231
431.418086	2502.932885
431.795385	2389.506923
432.172624	2412.192115
432.549802	2495.371154
432.926920	2535.700385
433.303977	2424.795000
433.680974	2414.712692
434.057910	2530.659231
434.434786	2497.891731
434.811601	2492.850577
435.188355	2523.097500
435.565050	2477.727115
435.941683	2475.206538
436.318257	2497.891731
436.694770	2565.947308
437.071222	2429.836154
437.447614	2487.809423
437.823946	2467.644808
438.200218	2437.397885
438.576429	2573.509038
438.952580	2520.576923
439.328670	2548.303269
439.704700	2472.685962
440.080670	2497.891731
440.456580	2485.288846
440.832429	2550.823846
441.208218	2472.685962
441.583947	2621.400000
441.959616	2417.233269
442.335224	2523.097500
442.710773	2495.371154
443.086261	2490.330000
443.461689	2455.041923
443.837057	2487.809423
444.212365	2409.671538
444.587612	2523.097500
444.962800	2505.453462
445.337927	2502.932885
445.712995	2558.385577
446.088002	2455.041923
446.462949	2490.330000
446.837837	2432.356731
447.212664	2540.741538
447.587431	2518.056346
447.962139	2578.550192
448.336786	2480.247692
448.711374	2535.700385
449.085901	2545.782692
449.460369	2553.344423
449.834776	2462.603654
450.209124	2500.412308
450.583412	2427.315577
450.957640	2513.015192
451.331808	2460.083077
451.705917	2490.330000
452.079965	2455.041923
452.453954	2487.809423
452.827883	2470.165385
453.201752	2515.535769
453.575562	2495.371154
453.949311	2523.097500
454.323001	2477.727115
454.696632	2434.877308
455.070202	2492.850577
455.443713	2452.521346
455.817164	2540.741538
456.190556	2432.356731
456.563888	2548.303269
456.937160	2444.959615
457.310373	2495.371154
457.683526	2565.947308
458.056619	2550.823846
458.429653	2472.685962
458.802628	2502.932885
459.175542	2558.385577
459.548398	2548.303269
459.921194	2621.400000
460.293930	2530.659231
460.666607	2581.070769
461.039224	2578.550192
461.411782	2528.138654
461.784280	2455.041923
462.156719	2545.782692
462.529099	2505.453462
462.901419	2457.562500
463.273680	2437.397885
463.645882	2492.850577
464.018024	2452.521346
464.390106	2487.809423
464.762130	2502.932885
465.134094	2502.932885
465.505999	2439.918462
465.877845	2495.371154
466.249631	2573.509038
466.621358	2450.000769
466.993026	2530.659231
467.364634	2409.671538
467.736184	2452.521346
468.107674	2414.712692
468.479105	2490.330000
468.850477	2490.330000
469.221790	2450.000769
469.593043	2550.823846
469.964238	2543.262115
470.335373	2475.206538
470.706449	2455.041923
471.077467	2455.041923
471.448425	2495.371154
471.819324	2520.576923
472.190164	2472.685962
472.560945	2477.727115
472.931667	2548.303269
473.302330	2457.562500
473.672934	2510.494615
474.043479	2510.494615
474.413965	2437.397885
474.784393	2467.644808
475.154761	2472.685962
475.525070	2485.288846
475.895321	2515.535769
476.265513	2533.179808
476.635645	2407.150962
477.005719	2414.712692
477.375734	2533.179808
477.745691	2467.644808
478.115588	2535.700385
478.485427	2472.685962
478.855207	2472.685962
479.224928	2500.412308
479.594591	2427.315577
479.964194	2533.179808
480.333739	2470.165385
480.703226	2535.700385
481.072653	2581.070769
481.442022	2502.932885
481.811333	2490.330000
482.180584	2510.494615
482.549777	2487.809423
482.918912	2409.671538
483.287988	2535.700385
483.657005	2515.535769
484.025964	2414.712692
484.394864	2447.480192
484.763706	2525.618077
485.132489	2437.397885
485.501213	2497.891731
485.869879	2437.397885
486.238487	2427.315577
486.607036	2548.303269
486.975527	2432.356731
487.343959	2462.603654
487.712333	2472.685962
488.080648	2447.480192
488.448905	2507.974038
488.817104	2465.124231
489.185244	2455.041923
489.553326	2525.618077
489.921350	2492.850577
490.289315	2437.397885
490.657222	2593.673654
491.025070	2457.562500
491.392861	2523.097500
491.760593	2455.041923
492.128267	2523.097500
492.495883	2505.453462
492.863440	2568.467885
493.230939	2565.947308
493.598380	2538.220962
493.965763	2485.288846
494.333088	2497.891731
494.700354	2457.562500
495.067563	2462.603654
495.434713	2533.179808
495.801805	2432.356731
496.168839	2442.439038
496.535815	2432.356731
496.902733	2510.494615
497.269593	2525.618077
497.636395	2616.358846
498.003139	2419.753846
498.369825	2394.548077
498.736453	2560.906154
499.103023	2513.015192
499.469535	2513.015192
499.835989	2480.247692
500.202385	2492.850577
500.568723	2550.823846
500.935003	2545.782692
501.301226	2550.823846
501.667390	2525.618077
502.033497	2495.371154
502.399546	2535.700385
502.765537	2467.644808
503.131470	2439.918462
503.497345	2392.027500
503.863163	2482.768269
504.228923	2427.315577
504.594625	2507.974038
504.960269	2465.124231
505.325856	2409.671538
505.691385	2460.083077
506.056856	2487.809423
506.422270	2457.562500
506.787625	2432.356731
507.152924	2596.194231
507.518164	2450.000769
507.883347	2518.056346
508.248472	2437.397885
508.613540	2495.371154
508.978550	2472.685962
509.343503	2485.288846
509.708398	2492.850577
510.073236	2518.056346
510.438016	2422.274423
510.802738	2495.371154
511.167403	2452.521346
511.532010	2540.741538
511.896561	2492.850577
512.261053	2450.000769
512.625488	2412.192115
512.989866	2450.000769
513.354186	2389.506923
513.718449	2550.823846
514.082655	2505.453462
514.446803	2490.330000
514.810894	2535.700385
515.174927	2535.700385
515.538904	2500.412308
515.902822	2553.344423
516.266684	2505.453462
516.630488	2573.509038
516.994235	2513.015192
517.357925	2424.795000
517.721558	2460.083077
518.085133	2472.685962
518.448651	2510.494615
518.812112	2540.741538
519.175516	2432.356731
519.538863	2545.782692
519.902152	2530.659231
520.265385	2515.535769
520.628560	2424.795000
520.991678	2515.535769
521.354739	2467.644808
521.717743	2515.535769
522.080690	2513.015192
522.443580	2497.891731
522.806413	2523.097500
523.169189	2518.056346
523.531908	2528.138654
523.894569	2480.247692
524.257174	2518.056346
524.619722	2555.865000
524.982213	2417.233269
525.344647	2507.974038
525.707025	2414.712692
526.069345	2417.233269
526.431608	2482.768269
526.793815	2528.138654
527.155964	2467.644808
527.518057	2492.850577
527.880093	2598.714808
528.242072	2490.330000
528.603995	2558.385577
528.965860	2553.344423
529.327669	2525.618077
529.689421	2528.138654
530.051117	2601.235385
530.412755	2528.138654
530.774337	2550.823846
531.135862	2492.850577
531.497331	2457.562500
531.858743	2545.782692
532.220098	2457.562500
532.581396	2505.453462
532.942638	2409.671538
533.303824	2507.974038
533.664953	2487.809423
534.026025	2447.480192
534.387040	2502.932885
534.747999	2545.782692
535.108902	2507.974038
535.469748	2457.562500
535.830537	2487.809423
536.191270	2439.918462
536.551947	2462.603654
536.912567	2452.521346
537.273131	2573.509038
537.633638	2467.644808
537.994089	2555.865000
538.354483	2535.700385
538.714821	2480.247692
539.075103	2505.453462
539.435328	2538.220962
539.795497	2543.262115
540.155609	2482.768269
540.515665	2505.453462
540.875665	2502.932885
541.235609	2518.056346
541.595496	2515.535769
541.955328	2550.823846
542.315102	2462.603654
542.674821	2535.700385
543.034483	2528.138654
543.394090	2452.521346
543.753640	2525.618077
544.113134	2470.165385
544.472571	2533.179808
544.831953	2553.344423
545.191278	2555.865000
545.550548	2482.768269
545.909761	2530.659231
546.268918	2450.000769
546.628019	2540.741538
546.987064	2487.809423
547.346053	2555.865000
547.704986	2565.947308
548.063863	2520.576923
548.422684	2555.865000
548.781449	2538.220962
549.140158	2523.097500
549.498811	2457.562500
549.857408	2535.700385
550.215949	2543.262115
550.574434	2568.467885
550.932864	2480.247692
551.291237	2487.809423
551.649555	2558.385577
552.007817	2510.494615
552.366022	2598.714808
552.724173	2530.659231
553.082267	2492.850577
553.440305	2487.809423
553.798288	2545.782692
554.156215	2523.097500
554.514086	2525.618077
554.871902	2520.576923
555.229661	2462.603654
555.587365	2543.262115
555.945014	2530.659231
556.302606	2477.727115
556.660143	2485.288846
557.017625	2495.371154
557.375050	2565.947308
557.732421	2505.453462
558.089735	2538.220962
558.446994	2548.303269
558.804197	2492.850577
559.161345	2482.768269
559.518437	2578.550192
559.875474	2568.467885
560.232455	2457.562500
560.589381	2520.576923
560.946251	2465.124231
561.303065	2386.986346
561.659825	2523.097500
562.016528	2507.974038
562.373177	2545.782692
562.729770	2573.509038
563.086307	2528.138654
563.442789	2540.741538
563.799216	2518.056346
564.155587	2492.850577
564.511904	2510.494615
564.868164	2442.439038
565.224370	2485.288846
565.580520	2497.891731
565.936615	2455.041923
566.292654	2495.371154
566.648638	2470.165385
567.004567	2462.603654
567.360441	2528.138654
567.716260	2442.439038
568.072023	2482.768269
568.427732	2510.494615
568.783385	2465.124231
569.138982	2558.385577
569.494525	2515.535769
569.850013	2525.618077
570.205445	2485.288846
570.560823	2528.138654
570.916145	2447.480192
571.271412	2482.768269
571.626625	2452.521346
571.981782	2502.932885
572.336884	2477.727115
572.691931	2573.509038
573.046923	2480.247692
573.401860	2490.330000
573.756743	2490.330000
574.111570	2447.480192
574.466342	2389.506923
574.821059	2591.153077
575.175722	2515.535769
575.530330	2495.371154
575.884882	2518.056346
576.239380	2409.671538
576.593823	2450.000769
576.948211	2492.850577
577.302544	2513.015192
577.656823	2528.138654
578.011047	2475.206538
578.365216	2465.124231
578.719330	2455.041923
579.073389	2480.247692
579.427394	2523.097500
579.781344	2492.850577
580.135239	2553.344423
580.489080	2437.397885
580.842866	2475.206538
581.196597	2450.000769
581.550273	2565.947308
581.903895	2470.165385
582.257463	2417.233269
582.610975	2558.385577
582.964434	2565.947308
583.317837	2402.109808
583.671186	2530.659231
584.024481	2543.262115
584.377721	2482.768269
584.730906	2533.179808
585.084037	2475.206538
585.437113	2450.000769
585.790135	2520.576923
586.143103	2540.741538
586.496016	2525.618077
586.848874	2523.097500
587.201679	2510.494615
587.554428	2490.330000
587.907124	2505.453462
588.259765	2462.603654
588.612352	2460.083077
588.964884	2525.618077
589.317362	2444.959615
589.669786	2502.932885
590.022155	2560.906154
590.374470	2444.959615
590.726731	2492.850577
591.078937	2442.439038
591.431090	2480.247692
591.783188	2429.836154
592.135232	2437.397885
592.487222	2444.959615
592.839157	2419.753846
593.191038	2545.782692
593.542866	2434.877308
593.894639	2513.015192
594.246358	2452.521346
594.598022	2525.618077
594.949633	2588.632500
595.301190	2492.850577
595.652692	2581.070769
596.004141	2535.700385
596.355535	2477.727115
596.706876	2507.974038
597.058162	2490.330000
597.409395	2485.288846
597.760573	2523.097500
598.111698	2578.550192
598.462768	2477.727115
598.813785	2515.535769
599.164748	2583.591346
599.515657	2545.782692
599.866511	2422.274423
600.217312	2462.603654
600.568060	2528.138654
600.918753	2485.288846
601.269392	2528.138654
601.619978	2525.618077
601.970510	2510.494615
602.320988	2467.644808
602.671412	2502.932885
603.021783	2558.385577
603.372100	2563.426731
603.722363	2565.947308
604.072572	2553.344423
604.422728	2460.083077
604.772830	2563.426731
605.122878	2525.618077
605.472872	2583.591346
605.822813	2570.988462
606.172701	2515.535769
606.522534	2500.412308
606.872314	2462.603654
607.222041	2485.288846
607.571714	2450.000769
607.921333	2487.809423
608.270899	2434.877308
608.620411	2490.330000
608.969870	2563.426731
609.319276	2465.124231
609.668627	2543.262115
610.017926	2497.891731
610.367171	2530.659231
610.716362	2500.412308
611.065500	2482.768269
611.414585	2530.659231
611.763616	2452.521346
612.112594	2465.124231
612.461518	2500.412308
612.810389	2470.165385
613.159207	2535.700385
613.507971	2424.795000
613.856682	2518.056346
614.205340	2475.206538
614.553945	2455.041923
614.902496	2497.891731
615.250994	2447.480192
615.599439	2472.685962
615.947830	2487.809423
616.296169	2548.303269
616.644454	2472.685962
616.992686	2497.891731
617.340864	2485.288846
617.688990	2523.097500
618.037063	2482.768269
618.385082	2475.206538
618.733048	2482.768269
619.080961	2568.467885
619.428821	2485.288846
619.776628	2581.070769
620.124382	2477.727115
620.472083	2515.535769
620.819731	2437.397885
621.167326	2523.097500
621.514868	2581.070769
621.862357	2457.562500
622.209793	2467.644808
622.557176	2507.974038
622.904506	2434.877308
623.251783	2490.330000
623.599007	2437.397885
623.946179	2538.220962
624.293297	2457.562500
624.640363	2558.385577
624.987376	2535.700385
625.334336	2538.220962
625.681243	2442.439038
626.028097	2507.974038
626.374899	2467.644808
626.721647	2452.521346
627.068343	2467.644808
627.414987	2434.877308
627.761577	2497.891731
628.108115	2518.056346
628.454600	2480.247692
628.801032	2553.344423
629.147412	2523.097500
629.493739	2457.562500
629.840014	2513.015192
630.186236	2399.589231
630.532405	2394.548077
630.878521	2429.836154
631.224585	2497.891731
631.570597	2565.947308
631.916556	2530.659231
632.262462	2497.891731
632.608316	2535.700385
632.954117	2477.727115
633.299866	2523.097500
633.645562	2505.453462
633.991206	2487.809423
634.336797	2497.891731
634.682336	2528.138654
635.027823	2495.371154
635.373257	2513.015192
635.718639	2497.891731
636.063968	2613.838269
636.409245	2553.344423
636.754470	2513.015192
637.099642	2500.412308
637.444762	2507.974038
637.789829	2485.288846
638.134845	2525.618077
638.479808	2505.453462
638.824719	2510.494615
639.169577	2528.138654
639.514383	2518.056346
639.859137	2507.974038
640.203839	2548.303269
640.548489	2490.330000
640.893086	2513.015192
641.237632	2457.562500
641.582125	2487.809423
641.926566	2573.509038
642.270955	2404.630385
642.615292	2465.124231
642.959576	2492.850577
643.303809	2497.891731
643.647990	2530.659231
643.992118	2417.233269
644.336195	2523.097500
644.680219	2424.795000
645.024192	2533.179808
645.368112	2500.412308
645.711981	2563.426731
646.055797	2465.124231
646.399562	2513.015192
646.743274	2374.383462
647.086935	2475.206538
647.430544	2419.753846
647.774101	2487.809423
648.117606	2480.247692
648.461059	2502.932885
648.804460	2487.809423
649.147810	2540.741538
649.491108	2548.303269
649.834354	2495.371154
650.177548	2565.947308
650.520690	2477.727115
650.863781	2576.029615
651.206820	2523.097500
651.549807	2502.932885
651.892742	2523.097500
652.235626	2533.179808
652.578458	2513.015192
652.921238	2505.453462
653.263967	2490.330000
653.606644	2439.918462
653.949269	2475.206538
654.291843	2520.576923
654.634365	2477.727115
654.976836	2576.029615
655.319255	2444.959615
655.661622	2482.768269
656.003938	2475.206538
656.346203	2457.562500
656.688416	2528.138654
657.030577	2523.097500
657.372687	2545.782692
657.714746	2482.768269
658.056753	2558.385577
658.398708	2467.644808
658.740612	2480.247692
659.082465	2452.521346
659.424266	2510.494615
659.766016	2417.233269
660.107715	2497.891731
660.449362	2470.165385
660.790958	2515.535769
661.132503	2485.288846
661.473996	2477.727115
661.815438	2477.727115
662.156829	2510.494615
662.498168	2507.974038
662.839456	2553.344423
663.180693	2442.439038
663.521879	2497.891731
663.863013	2444.959615
664.204097	2432.356731
664.545129	2510.494615
664.886110	2505.453462
665.227040	2482.768269
665.567918	2452.521346
665.908746	2414.712692
666.249522	2485.288846
666.590248	2472.685962
666.930922	2530.659231
667.271545	2460.083077
667.612118	2422.274423
667.952639	2548.303269
668.293109	2444.959615
668.633528	2455.041923
668.973896	2450.000769
669.314213	2505.453462
669.654480	2513.015192
669.994695	2507.974038
670.334859	2502.932885
670.674973	2515.535769
671.015035	2477.727115
671.355047	2510.494615
671.695008	2487.809423
672.034918	2450.000769
672.374777	2497.891731
672.714585	2528.138654
673.054342	2485.288846
673.394049	2457.562500
673.733705	2399.589231
674.073310	2497.891731
674.412864	2533.179808
674.752368	2482.768269
675.091820	2457.562500
675.431223	2530.659231
675.770574	2472.685962
676.109875	2560.906154
676.449125	2460.083077
676.788324	2457.562500
677.127473	2510.494615
677.466571	2510.494615
677.805619	2530.659231
678.144616	2581.070769
678.483562	2467.644808
678.822458	2555.865000
679.161303	2455.041923
679.500098	2490.330000
679.838842	2460.083077
680.177535	2528.138654
680.516179	2452.521346
680.854771	2477.727115
681.193314	2490.330000
681.531805	2424.795000
681.870247	2523.097500
682.208638	2455.041923
682.546978	2538.220962
682.885268	2444.959615
683.223508	2528.138654
683.561697	2490.330000
683.899836	2518.056346
684.237925	2533.179808
684.575963	2467.644808
684.913951	2507.974038
685.251889	2560.906154
685.589776	2558.385577
685.927614	2510.494615
686.265401	2452.521346
686.603137	2553.344423
686.940824	2450.000769
687.278460	2533.179808
687.616046	2414.712692
687.953582	2515.535769
688.291068	2530.659231
688.628504	2500.412308
688.965889	2540.741538
689.303224	2472.685962
689.640510	2523.097500
689.977745	2475.206538
690.314930	2480.247692
690.652065	2545.782692
690.989150	2570.988462
691.326185	2505.453462
691.663170	2502.932885
692.000105	2470.165385
692.336990	2507.974038
692.673825	2545.782692
693.010610	2487.809423
693.347345	2399.589231
693.684030	2535.700385
694.020665	2402.109808
694.357251	2467.644808
694.693786	2548.303269
695.030272	2540.741538
695.366707	2492.850577
695.703093	2576.029615
696.039429	2452.521346
696.375716	2523.097500
696.711952	2465.124231
697.048139	2485.288846
697.384276	2482.768269
697.720363	2465.124231
698.056400	2570.988462
698.392388	2523.097500
698.728326	2513.015192
699.064214	2560.906154
699.400053	2457.562500
699.735842	2485.288846
700.071581	2460.083077
700.407270	2480.247692
700.742910	2520.576923
701.078501	2437.397885
701.414042	2533.179808
701.749533	2460.083077
702.084974	2525.618077
702.420366	2555.865000
702.755709	2583.591346
703.091002	2495.371154
703.426246	2475.206538
703.761440	2528.138654
704.096584	2487.809423
704.431679	2510.494615
704.766725	2568.467885
705.101721	2477.727115
705.436668	2492.850577
705.771565	2608.797115
706.106413	2560.906154
706.441212	2487.809423
706.775961	2462.603654
707.110661	2570.988462
707.445311	2497.891731
707.779913	2540.741538
708.114465	2482.768269
708.448967	2500.412308
708.783421	2485.288846
709.117825	2528.138654
709.452180	2434.877308
709.786485	2530.659231
710.120742	2505.453462
710.454949	2507.974038
710.789107	2548.303269
711.123216	2543.262115
711.457275	2505.453462
711.791286	2452.521346
712.125247	2487.809423
712.459159	2477.727115
712.793023	2555.865000
713.126837	2548.303269
713.460602	2510.494615
713.794318	2472.685962
714.127985	2502.932885
714.461602	2538.220962
714.795171	2497.891731
715.128691	2404.630385
715.462162	2404.630385
715.795584	2500.412308
716.128957	2563.426731
716.462281	2563.426731
716.795556	2472.685962
717.128782	2533.179808
717.461960	2565.947308
717.795088	2535.700385
718.128167	2450.000769
718.461198	2560.906154
718.794180	2485.288846
719.127113	2432.356731
719.459997	2472.685962
719.792833	2515.535769
720.125619	2480.247692
720.458357	2528.138654
720.791046	2530.659231
721.123686	2510.494615
721.456278	2502.932885
721.788821	2419.753846
722.121315	2513.015192
722.453761	2510.494615
722.786158	2515.535769
723.118506	2439.918462
723.450805	2520.576923
723.783056	2480.247692
724.115259	2515.535769
724.447412	2497.891731
724.779518	2500.412308
725.111574	2560.906154
725.443582	2455.041923
725.775542	2472.685962
726.107453	2477.727115
726.439315	2525.618077
726.771129	2444.959615
727.102895	2497.891731
727.434612	2455.041923
727.766281	2452.521346
728.097901	2513.015192
728.429473	2497.891731
728.760996	2472.685962
729.092471	2457.562500
729.423897	2515.535769
729.755276	2535.700385
730.086606	2513.015192
730.417887	2444.959615
730.749120	2477.727115
731.080305	2533.179808
731.411442	2462.603654
731.742530	2500.412308
732.073570	2457.562500
732.404562	2482.768269
732.735506	2475.206538
733.066401	2515.535769
733.397249	2520.576923
733.728048	2538.220962
734.058798	2450.000769
734.389501	2467.644808
734.720156	2518.056346
735.050762	2480.247692
735.381320	2392.027500
735.711831	2485.288846
736.042293	2558.385577
736.372707	2533.179808
736.703073	2525.618077
737.033391	2560.906154
737.363661	2553.344423
737.693883	2457.562500
738.024056	2485.288846
738.354182	2528.138654
738.684260	2560.906154
739.014290	2490.330000
739.344272	2492.850577
739.674207	2528.138654
740.004093	2482.768269
740.333931	2525.618077
740.663722	2596.194231
740.993464	2565.947308
741.323159	2492.850577
741.652806	2439.918462
741.982405	2507.974038
742.311956	2457.562500
742.641460	2462.603654
742.970915	2465.124231
743.300323	2540.741538
743.629683	2487.809423
743.958996	2598.714808
744.288260	2490.330000
744.617477	2548.303269
744.946647	2515.535769
745.275768	2502.932885
745.604842	2452.521346
745.933869	2490.330000
746.262847	2502.932885
746.591778	2513.015192
746.920662	2591.153077
747.249498	2555.865000
747.578286	2520.576923
747.907027	2414.712692
748.235720	2480.247692
748.564365	2480.247692
748.892963	2513.015192
749.221514	2525.618077
749.550017	2513.015192
749.878473	2475.206538
750.206881	2545.782692
750.535242	2480.247692
750.863555	2553.344423
751.191821	2374.383462
751.520039	2487.809423
751.848210	2487.809423
752.176334	2485.288846
752.504411	2495.371154
752.832440	2502.932885
753.160421	2523.097500
753.488356	2507.974038
753.816243	2538.220962
754.144082	2467.644808
754.471875	2439.918462
754.799620	2515.535769
755.127318	2482.768269
755.454969	2513.015192
755.782572	2457.562500
756.110129	2500.412308
756.437638	2523.097500
756.765100	2455.041923
757.092515	2560.906154
757.419882	2558.385577
757.747203	2505.453462
758.074477	2480.247692
758.401703	2497.891731
758.728882	2510.494615
759.056014	2502.932885
759.383099	2487.809423
759.710138	2555.865000
760.037129	2462.603654
760.364073	2470.165385
760.690970	2555.865000
761.017820	2553.344423
761.344623	2523.097500
761.671379	2500.412308
761.998088	2414.712692
762.324751	2523.097500
762.651366	2475.206538
762.977935	2525.618077
763.304456	2384.465769
763.630931	2518.056346
763.957359	2424.795000
764.283740	2487.809423
764.610074	2553.344423
764.936362	2487.809423
765.262602	2538.220962
765.588796	2528.138654
765.914943	2502.932885
766.241044	2525.618077
766.567097	2407.150962
766.893104	2492.850577
767.219064	2457.562500
767.544978	2581.070769
767.870845	2528.138654
768.196665	2437.397885
768.522438	2475.206538
768.848165	2543.262115
769.173846	2510.494615
769.499479	2447.480192
769.825066	2482.768269
770.150607	2457.562500
770.476101	2450.000769
770.801548	2515.535769
771.126949	2407.150962
771.452303	2475.206538
771.777611	2452.521346
772.102872	2515.535769
772.428087	2437.397885
772.753256	2492.850577
773.078378	2553.344423
773.403453	2394.548077
773.728482	2548.303269
774.053465	2518.056346
774.378401	2505.453462
774.703291	2450.000769
775.028135	2502.932885
775.352932	2467.644808
775.677683	2442.439038
776.002388	2432.356731
776.327046	2540.741538
776.651658	2505.453462
776.976224	2568.467885
777.300743	2480.247692
777.625216	2520.576923
777.949643	2480.247692
778.274024	2518.056346
778.598359	2543.262115
778.922647	2450.000769
779.246889	2465.124231
779.571086	2555.865000
779.895236	2447.480192
780.219339	2460.083077
780.543397	2555.865000
780.867409	2523.097500
781.191374	2392.027500
781.515294	2558.385577
781.839167	2480.247692
782.162995	2442.439038
782.486776	2434.877308
782.810511	2465.124231
783.134201	2477.727115
783.457844	2540.741538
783.781441	2460.083077
784.104993	2402.109808
784.428498	2497.891731
784.751958	2502.932885
785.075372	2510.494615
785.398739	2480.247692
785.722061	2455.041923
786.045337	2477.727115
786.368568	2475.206538
786.691752	2510.494615
787.014891	2450.000769
787.337983	2472.685962
787.661030	2568.467885
787.984031	2422.274423
788.306987	2545.782692
788.629897	2515.535769
788.952760	2495.371154
789.275579	2507.974038
789.598351	2515.535769
789.921078	2402.109808
790.243759	2523.097500
790.566395	2452.521346
790.888984	2462.603654
791.211529	2563.426731
791.534027	2439.918462
791.856480	2334.054231
792.178888	2444.959615
792.501249	2591.153077
792.823566	2550.823846
793.145836	2540.741538
793.468062	2513.015192
793.790241	2442.439038
794.112375	2409.671538
794.434464	2520.576923
794.756507	2490.330000
795.078505	2565.947308
795.400457	2490.330000
795.722364	2475.206538
796.044226	2550.823846
796.366042	2465.124231
796.687812	2407.150962
797.009538	2470.165385
797.331218	2482.768269
797.652852	2490.330000
797.974442	2487.809423
798.295986	2538.220962
798.617484	2455.041923
798.938938	2480.247692
799.260346	2510.494615
799.581709	2487.809423
799.903026	2462.603654
800.224299	2392.027500
800.545526	2515.535769
800.866708	2465.124231
801.187845	2487.809423
801.508936	2555.865000
801.829983	2555.865000
802.150984	2543.262115
802.471940	2447.480192
802.792851	2502.932885
803.113717	2563.426731
803.434538	2513.015192
803.755314	2455.041923
804.076045	2447.480192
804.396731	2480.247692
804.717372	2500.412308
805.037967	2581.070769
805.358518	2462.603654
805.679024	2492.850577
805.999485	2500.412308
806.319901	2520.576923
806.640272	2525.618077
806.960598	2414.712692
807.280879	2394.548077
807.601115	2525.618077
807.921306	2450.000769
808.241453	2432.356731
808.561554	2528.138654
808.881611	2588.632500
809.201623	2603.755962
809.521590	2555.865000
809.841513	2530.659231
810.161390	2568.467885
810.481223	2563.426731
810.801011	2460.083077
811.120755	2523.097500
811.440453	2565.947308
811.760107	2593.673654
812.079716	2490.330000
812.399281	2475.206538
812.718801	2465.124231
813.038276	2497.891731
813.357707	2404.630385
813.677093	2510.494615
813.996434	2442.439038
814.315731	2482.768269
814.634983	2568.467885
814.954191	2492.850577
815.273354	2530.659231
815.592473	2465.124231
815.911547	2419.753846
816.230577	2548.303269
816.549562	2465.124231
816.868502	2470.165385
817.187399	2502.932885
817.506250	2500.412308
817.825058	2366.821731
818.143821	2593.673654
818.462539	2450.000769
818.781213	2545.782692
819.099843	2465.124231
819.418429	2588.632500
819.736970	2460.083077
820.055466	2510.494615
820.373919	2497.891731
820.692327	2523.097500
821.010691	2523.097500
821.329011	2510.494615
821.647286	2581.070769
821.965517	2507.974038
822.283704	2545.782692
822.601847	2465.124231
822.919945	2535.700385
823.237999	2470.165385
823.556010	2437.397885
823.873976	2417.233269
824.191897	2523.097500
824.509775	2392.027500
824.827609	2470.165385
825.145398	2487.809423
825.463144	2477.727115
825.780845	2455.041923
826.098502	2429.836154
826.416116	2399.589231
826.733685	2412.192115
827.051210	2432.356731
827.368692	2548.303269
827.686129	2505.453462
828.003522	2535.700385
828.320872	2500.412308
828.638177	2465.124231
828.955439	2513.015192
829.272656	2573.509038
829.589830	2442.439038
829.906960	2404.630385
830.224046	2492.850577
830.541088	2535.700385
830.858086	2505.453462
831.175041	2555.865000
831.491952	2442.439038
831.808819	2500.412308
832.125642	2523.097500
832.442421	2513.015192
832.759157	2523.097500
833.075849	2510.494615
833.392497	2500.412308
833.709101	2450.000769
834.025662	2485.288846
834.342179	2480.247692
834.658653	2520.576923
834.975083	2460.083077
835.291469	2540.741538
835.607811	2457.562500
835.924110	2480.247692
836.240366	2535.700385
836.556578	2520.576923
836.872746	2490.330000
837.188871	2528.138654
837.504952	2520.576923
837.820990	2437.397885
838.136984	2460.083077
838.452935	2470.165385
838.768842	2492.850577
839.084706	2480.247692
839.400526	2588.632500
839.716303	2414.712692
840.032037	2505.453462
840.347727	2495.371154
840.663373	2515.535769
840.978977	2533.179808
841.294537	2437.397885
841.610054	2568.467885
841.925527	2452.521346
842.240957	2518.056346
842.556344	2429.836154
842.871687	2457.562500
843.186987	2573.509038
843.502244	2540.741538
843.817458	2417.233269
844.132629	2545.782692
844.447756	2467.644808
844.762840	2439.918462
845.077881	2429.836154
845.392879	2447.480192
845.707833	2462.603654
846.022745	2477.727115
846.337613	2530.659231
846.652438	2540.741538
846.967221	2543.262115
847.281960	2545.782692
847.596656	2487.809423
847.911309	2510.494615
848.225919	2555.865000
848.540485	2525.618077
848.855009	2467.644808
849.169490	2437.397885
849.483928	2530.659231
849.798323	2462.603654
850.112675	2502.932885
850.426984	2528.138654
850.741251	2477.727115
851.055474	2470.165385
851.369654	2500.412308
851.683792	2450.000769
851.997887	2492.850577
852.311938	2497.891731
852.625947	2485.288846
852.939914	2399.589231
853.253837	2510.494615
853.567718	2475.206538
853.881555	2523.097500
854.195350	2513.015192
854.509103	2439.918462
854.822812	2455.041923
855.136479	2417.233269
855.450103	2545.782692
855.763685	2480.247692
856.077224	2455.041923
856.390720	2623.920577
856.704173	2442.439038
857.017584	2583.591346
857.330953	2510.494615
857.644278	2533.179808
857.957561	2545.782692
858.270802	2429.836154
858.584000	2520.576923
858.897155	2485.288846
859.210268	2581.070769
859.523339	2553.344423
859.836367	2555.865000
860.149352	2530.659231
860.462295	2467.644808
860.775195	2475.206538
861.088054	2485.288846
861.400869	2573.509038
861.713642	2490.330000
862.026373	2543.262115
862.339062	2502.932885
862.651708	2482.768269
862.964312	2475.206538
863.276873	2419.753846
863.589392	2505.453462
863.901869	2560.906154
864.214303	2576.029615
864.526696	2497.891731
864.839045	2470.165385
865.151353	2538.220962
865.463619	2576.029615
865.775842	2497.891731
866.088023	2427.315577
866.400162	2475.206538
866.712258	2538.220962
867.024313	2497.891731
867.336325	2502.932885
867.648296	2437.397885
867.960224	2513.015192
868.272110	2422.274423
868.583954	2513.015192
868.895755	2510.494615
869.207515	2497.891731
869.519233	2505.453462
869.830909	2480.247692
870.142542	2475.206538
870.454134	2540.741538
870.765684	2462.603654
871.077191	2533.179808
871.388657	2515.535769
871.700081	2487.809423
872.011463	2505.453462
872.322803	2475.206538
872.634101	2560.906154
872.945357	2447.480192
873.256571	2528.138654
873.567744	2528.138654
873.878874	2558.385577
874.189963	2540.741538
874.501010	2548.303269
874.812015	2573.509038
875.122979	2397.068654
875.433900	2472.685962
875.744780	2515.535769
876.055618	2492.850577
876.366415	2520.576923
876.677169	2366.821731
876.987882	2485.288846
877.298554	2482.768269
877.609183	2444.959615
877.919771	2540.741538
878.230317	2543.262115
878.540822	2513.015192
878.851285	2450.000769
879.161707	2467.644808
879.472087	2550.823846
879.782425	2525.618077
880.092722	2505.453462
880.402977	2450.000769
880.713191	2528.138654
881.023363	2530.659231
881.333494	2457.562500
881.643583	2462.603654
881.953631	2490.330000
882.263637	2442.439038
882.573602	2510.494615
882.883526	2492.850577
883.193408	2455.041923
883.503248	2475.206538
883.813048	2490.330000
884.122806	2515.535769
884.432522	2424.795000
884.742197	2533.179808
885.051831	2507.974038
885.361424	2520.576923
885.670975	2487.809423
885.980485	2553.344423
886.289954	2545.782692
886.599382	2472.685962
886.908768	2475.206538
887.218113	2487.809423
887.527417	2475.206538
887.836680	2502.932885
888.145901	2480.247692
888.455082	2492.850577
888.764221	2397.068654
889.073319	2523.097500
889.382376	2515.535769
889.691392	2545.782692
890.000366	2570.988462
890.309300	2462.603654
890.618193	2545.782692
890.927044	2457.562500
891.235855	2437.397885
891.544625	2525.618077
891.853353	2455.041923
892.162041	2452.521346
892.470687	2452.521346
892.779293	2553.344423
893.087858	2563.426731
893.396381	2513.015192
893.704864	2470.165385
894.013306	2434.877308
894.321707	2409.671538
894.630068	2460.083077
894.938387	2530.659231
895.246665	2460.083077
895.554903	2462.603654
895.863100	2515.535769
896.171256	2520.576923
896.479371	2535.700385
896.787446	2565.947308
897.095480	2510.494615
897.403473	2578.550192
897.711425	2490.330000
898.019336	2482.768269
898.327207	2477.727115
898.635038	2475.206538
898.942827	2452.521346
899.250576	2470.165385
899.558284	2510.494615
899.865952	2497.891731
900.173579	2477.727115
900.481165	2394.548077
900.788711	2470.165385
901.096216	2485.288846
901.403681	2447.480192
901.711105	2502.932885
902.018489	2477.727115
902.325832	2475.206538
902.633135	2513.015192
902.940397	2497.891731
903.247619	2520.576923
903.554800	2558.385577
903.861941	2417.233269
904.169041	2404.630385
904.476101	2553.344423
904.783121	2515.535769
905.090100	2467.644808
905.397039	2513.015192
905.703938	2467.644808
906.010796	2520.576923
906.317614	2492.850577
906.624391	2482.768269
906.931129	2500.412308
907.237826	2482.768269
907.544483	2389.506923
907.851099	2485.288846
908.157675	2455.041923
908.464211	2475.206538
908.770707	2465.124231
909.077163	2495.371154
909.383578	2507.974038
909.689954	2477.727115
909.996289	2533.179808
910.302584	2432.356731
910.608839	2477.727115
910.915054	2502.932885
911.221229	2523.097500
911.527363	2555.865000
911.833458	2394.548077
912.139513	2568.467885
912.445527	2444.959615
912.751502	2409.671538
913.057436	2477.727115
913.363331	2432.356731
913.669186	2477.727115
913.975000	2477.727115
914.280775	2586.111923
914.586510	2502.932885
914.892205	2581.070769
915.197859	2442.439038
915.503475	2507.974038
915.809050	2578.550192
916.114585	2586.111923
916.420081	2505.453462
916.725536	2480.247692
917.030952	2502.932885
917.336328	2538.220962
917.641665	2447.480192
917.946961	2487.809423
918.252218	2505.453462
918.557435	2510.494615
918.862612	2472.685962
919.167750	2467.644808
919.472848	2523.097500
919.777906	2477.727115
920.082925	2480.247692
920.387904	2460.083077
920.692843	2467.644808
920.997743	2480.247692
921.302603	2442.439038
921.607423	2490.330000
921.912204	2480.247692
922.216946	2593.673654
922.521647	2429.836154
922.826310	2480.247692
923.130932	2465.124231
923.435516	2439.918462
923.740059	2470.165385
924.044564	2495.371154
924.349028	2500.412308
924.653454	2492.850577
924.957840	2495.371154
925.262186	2480.247692
925.566493	2472.685962
925.870761	2455.041923
926.174989	2596.194231
926.479178	2472.685962
926.783328	2530.659231
927.087438	2465.124231
927.391509	2558.385577
927.695541	2518.056346
927.999533	2525.618077
928.303486	2570.988462
928.607400	2467.644808
928.911275	2447.480192
929.215110	2437.397885
929.518906	2376.904038
929.822663	2480.247692
930.126381	2407.150962
930.430060	2407.150962
930.733699	2497.891731
931.037299	2538.220962
931.340861	2475.206538
931.644383	2578.550192
931.947866	2538.220962
932.251309	2447.480192
932.554714	2467.644808
932.858080	2563.426731
933.161407	2427.315577
933.464694	2573.509038
933.767943	2487.809423
934.071153	2523.097500
934.374323	2460.083077
934.677455	2507.974038
934.980548	2450.000769
935.283602	2528.138654
935.586617	2495.371154
935.889593	2510.494615
936.192530	2477.727115
936.495428	2490.330000
936.798287	2538.220962
937.101108	2497.891731
937.403890	2439.918462
937.706632	2518.056346
938.009336	2444.959615
938.312002	2578.550192
938.614628	2598.714808
938.917216	2465.124231
939.219765	2548.303269
939.522275	2472.685962
939.824747	2507.974038
940.127179	2523.097500
940.429573	2502.932885
940.731929	2482.768269
941.034246	2465.124231
941.336524	2568.467885
941.638763	2404.630385
941.940964	2419.753846
942.243126	2495.371154
942.545250	2457.562500
942.847335	2558.385577
943.149381	2452.521346
943.451389	2500.412308
943.753359	2548.303269
944.055290	2507.974038
944.357182	2487.809423
944.659036	2465.124231
944.960851	2490.330000
945.262628	2477.727115
945.564367	2558.385577
945.866067	2538.220962
946.167729	2472.685962
946.469352	2434.877308
946.770937	2502.932885
947.072484	2467.644808
947.373992	2482.768269
947.675462	2520.576923
947.976893	2492.850577
948.278286	2460.083077
948.579641	2462.603654
948.880958	2475.206538
949.182236	2525.618077
949.483476	2490.330000
949.784678	2429.836154
950.085841	2470.165385
950.386967	2477.727115
950.688054	2442.439038
950.989103	2510.494615
951.290114	2434.877308
951.591087	2500.412308
951.892021	2558.385577
952.192917	2444.959615
952.493776	2520.576923
952.794596	2432.356731
953.095378	2424.795000
953.396122	2472.685962
953.696828	2523.097500
953.997496	2369.342308
954.298126	2495.371154
954.598718	2502.932885
954.899272	2515.535769
955.199788	2565.947308
955.500266	2500.412308
955.800706	2553.344423
956.101108	2545.782692
956.401472	2573.509038
956.701798	2472.685962
957.002087	2510.494615
957.302337	2465.124231
957.602550	2538.220962
957.902724	2434.877308
958.202861	2525.618077
958.502960	2490.330000
958.803022	2528.138654
959.103045	2467.644808
959.403031	2381.945192
959.702979	2497.891731
960.002889	2465.124231
960.302762	2487.809423
960.602596	2462.603654
960.902393	2480.247692
961.202153	2588.632500
961.501875	2502.932885
961.801559	2518.056346
962.101205	2505.453462
962.400814	2470.165385
962.700385	2447.480192
962.999918	2525.618077
963.299414	2528.138654
963.598873	2513.015192
963.898293	2399.589231
964.197677	2442.439038
964.497022	2462.603654
964.796331	2437.397885
965.095601	2560.906154
965.394835	2545.782692
965.694030	2495.371154
965.993189	2616.358846
966.292309	2427.315577
966.591393	2485.288846
966.890439	2502.932885
967.189447	2432.356731
967.488419	2462.603654
967.787353	2457.562500
968.086249	2477.727115
968.385108	2490.330000
968.683930	2485.288846
968.982714	2485.288846
969.281462	2487.809423
969.580172	2386.986346
969.878844	2439.918462
970.177480	2523.097500
970.476078	2543.262115
970.774639	2351.698269
971.073162	2477.727115
971.371649	2460.083077
971.670098	2535.700385
971.968510	2550.823846
972.266885	2586.111923
972.565223	2543.262115
972.863524	2495.371154
973.161788	2477.727115
973.460014	2611.317692
973.758204	2472.685962
974.056356	2399.589231
974.354471	2533.179808
974.652550	2502.932885
974.950591	2444.959615
975.248595	2495.371154
975.546563	2465.124231
975.844493	2500.412308
976.142386	2465.124231
976.440243	2492.850577
976.738062	2482.768269
977.035845	2412.192115
977.333590	2505.453462
977.631299	2442.439038
977.928971	2455.041923
978.226606	2520.576923
978.524204	2480.247692
978.821765	2513.015192
979.119290	2409.671538
979.416777	2452.521346
979.714228	2565.947308
980.011642	2495.371154
980.309020	2490.330000
980.606360	2450.000769
980.903664	2424.795000
981.200931	2487.809423
981.498162	2523.097500
981.795356	2520.576923
982.092513	2470.165385
982.389633	2553.344423
982.686717	2548.303269
982.983764	2480.247692
983.280775	2434.877308
983.577749	2450.000769
983.874686	2450.000769
984.171587	2578.550192
984.468451	2540.741538
984.765279	2492.850577
985.062070	2515.535769
985.358824	2439.918462
985.655543	2497.891731
985.952224	2455.041923
986.248869	2389.506923
986.545478	2412.192115
986.842050	2525.618077
987.138586	2533.179808
987.435086	2497.891731
987.731549	2520.576923
988.027975	2455.041923
988.324366	2502.932885
988.620719	2520.576923
988.917037	2548.303269
989.213318	2460.083077
989.509563	2417.233269
989.805772	2470.165385
990.101944	2510.494615
990.398080	2568.467885
990.694180	2475.206538
990.990244	2548.303269
991.286271	2434.877308
991.582262	2515.535769
991.878217	2467.644808
992.174136	2472.685962
992.470019	2437.397885
992.765865	2497.891731
993.061676	2513.015192
993.357450	2518.056346
993.653188	2535.700385
993.948890	2593.673654
994.244556	2412.192115
994.540186	2510.494615
994.835780	2492.850577
995.131337	2457.562500
995.426859	2475.206538
995.722345	2515.535769
996.017795	2490.330000
996.313208	2460.083077
996.608586	2528.138654
996.903928	2497.891731
997.199234	2462.603654
997.494504	2439.918462
997.789738	2515.535769
998.084936	2447.480192
998.380099	2497.891731
998.675225	2550.823846
998.970316	2495.371154
999.265371	2447.480192
999.560390	2477.727115
999.855373	2558.385577
1000.150320	2495.371154
1000.445232	2447.480192
1000.740108	2472.685962
1001.034948	2452.521346
1001.329752	2477.727115
1001.624521	2492.850577
1001.919254	2462.603654
1002.213951	2510.494615
1002.508613	2540.741538
1002.803239	2472.685962
1003.097829	2505.453462
1003.392384	2510.494615
1003.686903	2545.782692
1003.981386	2530.659231
1004.275834	2495.371154
1004.570246	2482.768269
1004.864623	2480.247692
1005.158964	2462.603654
1005.453270	2444.959615
1005.747540	2497.891731
1006.041775	2439.918462
1006.335974	2434.877308
1006.630138	2505.453462
1006.924266	2447.480192
1007.218359	2502.932885
1007.512416	2480.247692
1007.806438	2518.056346
1008.100425	2467.644808
1008.394376	2568.467885
1008.688292	2429.836154
1008.982172	2394.548077
1009.276017	2518.056346
1009.569827	2452.521346
1009.863602	2518.056346
1010.157341	2429.836154
1010.451045	2412.192115
1010.744714	2462.603654
1011.038347	2520.576923
1011.331945	2477.727115
1011.625508	2520.576923
1011.919036	2560.906154
1012.212528	2540.741538
1012.505986	2414.712692
1012.799408	2467.644808
1013.092795	2485.288846
1013.386147	2530.659231
1013.679464	2419.753846
1013.972745	2563.426731
1014.265992	2578.550192
1014.559204	2422.274423
1014.852380	2560.906154
1015.145521	2550.823846
1015.438628	2485.288846
1015.731699	2497.891731
1016.024736	2444.959615
1016.317737	2535.700385
1016.610703	2460.083077
1016.903635	2518.056346
1017.196531	2482.768269
1017.489393	2407.150962
1017.782219	2492.850577
1018.075011	2616.358846
1018.367768	2497.891731
1018.660490	2570.988462
1018.953177	2570.988462
1019.245829	2570.988462
