Dividing Wavelength (nm)	Counts (n)	Blue Motor Position (mm): 0.000000	Red Motor Position (mm): 9.300000	
326.493990	2087.037692
326.888308	2087.037692
327.282561	2087.037692
327.676750	2064.352500
328.070874	2046.708462
328.464933	2152.572692
328.858929	2001.338077
329.252859	2059.311346
329.646726	2155.093269
330.040528	2112.243462
330.434265	2155.093269
330.827938	2180.299038
331.221547	2071.914231
331.615091	2139.969808
332.008571	2190.381346
332.401986	2190.381346
332.795338	2202.984231
333.188625	2250.875192
333.581847	2243.313462
333.975006	2243.313462
334.368100	2278.601538
334.761129	2291.204423
335.154095	2323.971923
335.546996	2331.533654
335.939833	2371.862885
336.332606	2339.095385
336.725315	2354.218846
337.117960	2457.562500
337.510540	2374.383462
337.903056	2424.795000
338.295508	2424.795000
338.687896	2507.974038
339.080220	2371.862885
339.472480	2472.685962
339.864676	2497.891731
340.256807	2482.768269
340.648875	2427.315577
341.040879	2500.412308
341.432818	2399.589231
341.824694	2437.397885
342.216506	2490.330000
342.608253	2457.562500
342.999937	2465.124231
343.391557	2379.424615
343.783113	2407.150962
344.174605	2455.041923
344.566033	2487.809423
344.957397	2553.344423
345.348697	2450.000769
345.739934	2462.603654
346.131106	2402.109808
346.522215	2386.986346
346.913260	2475.206538
347.304241	2475.206538
347.695159	2490.330000
348.086012	2490.330000
348.476802	2447.480192
348.867528	2457.562500
349.258191	2482.768269
349.648789	2439.918462
350.039324	2535.700385
350.429796	2407.150962
350.820203	2467.644808
351.210548	2470.165385
351.600828	2485.288846
351.991045	2447.480192
352.381198	2427.315577
352.771288	2437.397885
353.161314	2379.424615
353.551276	2381.945192
353.941175	2462.603654
354.331010	2412.192115
354.720782	2437.397885
355.110490	2460.083077
355.500135	2470.165385
355.889717	2409.671538
356.279235	2460.083077
356.668689	2371.862885
357.058080	2404.630385
357.447408	2530.659231
357.836672	2344.136538
358.225873	2460.083077
358.615010	2404.630385
359.004084	2381.945192
359.393095	2359.260000
359.782043	2513.015192
360.170927	2434.877308
360.559748	2507.974038
360.948505	2409.671538
361.337199	2465.124231
361.725830	2359.260000
362.114398	2482.768269
362.502903	2462.603654
362.891344	2475.206538
363.279722	2422.274423
363.668037	2384.465769
364.056289	2444.959615
364.444478	2439.918462
364.832603	2437.397885
365.220665	2465.124231
365.608665	2361.780577
365.996601	2397.068654
366.384474	2419.753846
366.772284	2502.932885
367.160031	2422.274423
367.547715	2419.753846
367.935336	2457.562500
368.322893	2450.000769
368.710388	2399.589231
369.097820	2480.247692
369.485189	2424.795000
369.872495	2477.727115
370.259738	2460.083077
370.646918	2414.712692
371.034035	2409.671538
371.421090	2462.603654
371.808081	2386.986346
372.195010	2490.330000
372.581875	2447.480192
372.968678	2434.877308
373.355418	2444.959615
373.742096	2437.397885
374.128710	2485.288846
374.515262	2437.397885
374.901751	2492.850577
375.288177	2356.739423
375.674540	2472.685962
376.060841	2457.562500
376.447079	2472.685962
376.833254	2404.630385
377.219367	2447.480192
377.605417	2450.000769
377.991404	2482.768269
378.377329	2429.836154
378.763191	2397.068654
379.148991	2467.644808
379.534727	2439.918462
379.920402	2384.465769
380.306013	2465.124231
380.691563	2407.150962
381.077049	2392.027500
381.462474	2414.712692
381.847835	2472.685962
382.233134	2518.056346
382.618371	2457.562500
383.003545	2465.124231
383.388657	2472.685962
383.773706	2495.371154
384.158693	2502.932885
384.543618	2533.179808
384.928480	2452.521346
385.313280	2450.000769
385.698017	2417.233269
386.082692	2535.700385
386.467305	2550.823846
386.851856	2510.494615
387.236344	2450.000769
387.620770	2452.521346
388.005133	2366.821731
388.389435	2455.041923
388.773674	2525.618077
389.157851	2550.823846
389.541965	2540.741538
389.926018	2507.974038
390.310008	2502.932885
390.693936	2432.356731
391.077802	2485.288846
391.461606	2480.247692
391.845348	2392.027500
392.229027	2495.371154
392.612645	2500.412308
392.996200	2518.056346
393.379694	2490.330000
393.763125	2455.041923
394.146494	2472.685962
394.529801	2500.412308
394.913047	2467.644808
395.296230	2480.247692
395.679351	2452.521346
396.062410	2565.947308
396.445408	2480.247692
396.828343	2442.439038
397.211217	2490.330000
397.594028	2470.165385
397.976778	2523.097500
398.359466	2455.041923
398.742092	2475.206538
399.124656	2465.124231
399.507158	2485.288846
399.889598	2455.041923
400.271977	2407.150962
400.654294	2407.150962
401.036549	2477.727115
401.418742	2513.015192
401.800874	2513.015192
402.182944	2381.945192
402.564952	2452.521346
402.946898	2507.974038
403.328783	2444.959615
403.710606	2515.535769
404.092367	2465.124231
404.474067	2525.618077
404.855705	2487.809423
405.237282	2477.727115
405.618797	2462.603654
406.000250	2427.315577
406.381642	2518.056346
406.762972	2513.015192
407.144240	2422.274423
407.525447	2480.247692
407.906593	2427.315577
408.287677	2497.891731
408.668700	2565.947308
409.049661	2485.288846
409.430560	2495.371154
409.811399	2422.274423
410.192176	2583.591346
410.572891	2553.344423
410.953545	2397.068654
411.334138	2422.274423
411.714669	2520.576923
412.095139	2409.671538
412.475547	2465.124231
412.855894	2538.220962
413.236180	2394.548077
413.616405	2434.877308
413.996568	2429.836154
414.376670	2538.220962
414.756711	2507.974038
415.136691	2538.220962
415.516609	2543.262115
415.896466	2490.330000
416.276262	2482.768269
416.655997	2472.685962
417.035670	2523.097500
417.415283	2576.029615
417.794834	2455.041923
418.174324	2500.412308
418.553753	2490.330000
418.933121	2490.330000
419.312428	2482.768269
419.691674	2497.891731
420.070859	2434.877308
420.449983	2439.918462
420.829045	2419.753846
421.208047	2480.247692
421.586988	2502.932885
421.965867	2558.385577
422.344686	2490.330000
422.723444	2455.041923
423.102141	2465.124231
423.480777	2490.330000
423.859352	2462.603654
424.237866	2399.589231
424.616319	2462.603654
424.994712	2417.233269
425.373044	2465.124231
425.751314	2470.165385
426.129524	2540.741538
426.507673	2525.618077
426.885762	2502.932885
427.263789	2462.603654
427.641756	2495.371154
428.019662	2480.247692
428.397508	2402.109808
428.775292	2525.618077
429.153016	2439.918462
429.530679	2513.015192
429.908282	2525.618077
430.285824	2429.836154
430.663305	2538.220962
431.040726	2460.083077
431.418086	2424.795000
431.795385	2407.150962
432.172624	2550.823846
432.549802	2593.673654
432.926920	2525.618077
433.303977	2472.685962
433.680974	2402.109808
434.057910	2565.947308
434.434786	2450.000769
434.811601	2467.644808
435.188355	2444.959615
435.565050	2495.371154
435.941683	2548.303269
436.318257	2515.535769
436.694770	2507.974038
437.071222	2447.480192
437.447614	2447.480192
437.823946	2437.397885
438.200218	2548.303269
438.576429	2437.397885
438.952580	2472.685962
439.328670	2392.027500
439.704700	2472.685962
440.080670	2407.150962
440.456580	2457.562500
440.832429	2510.494615
441.208218	2505.453462
441.583947	2384.465769
441.959616	2417.233269
442.335224	2538.220962
442.710773	2515.535769
443.086261	2482.768269
443.461689	2578.550192
443.837057	2513.015192
444.212365	2497.891731
444.587612	2447.480192
444.962800	2515.535769
445.337927	2578.550192
445.712995	2495.371154
446.088002	2427.315577
446.462949	2518.056346
446.837837	2538.220962
447.212664	2432.356731
447.587431	2563.426731
447.962139	2513.015192
448.336786	2492.850577
448.711374	2452.521346
449.085901	2414.712692
449.460369	2434.877308
449.834776	2555.865000
450.209124	2470.165385
450.583412	2475.206538
450.957640	2447.480192
451.331808	2523.097500
451.705917	2447.480192
452.079965	2480.247692
452.453954	2472.685962
452.827883	2548.303269
453.201752	2530.659231
453.575562	2477.727115
453.949311	2555.865000
454.323001	2485.288846
454.696632	2477.727115
455.070202	2444.959615
455.443713	2452.521346
455.817164	2422.274423
456.190556	2482.768269
456.563888	2487.809423
456.937160	2538.220962
457.310373	2480.247692
457.683526	2490.330000
458.056619	2570.988462
458.429653	2513.015192
458.802628	2528.138654
459.175542	2424.795000
459.548398	2576.029615
459.921194	2444.959615
460.293930	2480.247692
460.666607	2487.809423
461.039224	2497.891731
461.411782	2407.150962
461.784280	2402.109808
462.156719	2404.630385
462.529099	2492.850577
462.901419	2427.315577
463.273680	2497.891731
463.645882	2429.836154
464.018024	2523.097500
464.390106	2369.342308
464.762130	2482.768269
465.134094	2543.262115
465.505999	2444.959615
465.877845	2500.412308
466.249631	2460.083077
466.621358	2586.111923
466.993026	2500.412308
467.364634	2482.768269
467.736184	2490.330000
468.107674	2424.795000
468.479105	2553.344423
468.850477	2485.288846
469.221790	2485.288846
469.593043	2439.918462
469.964238	2543.262115
470.335373	2455.041923
470.706449	2523.097500
471.077467	2573.509038
471.448425	2475.206538
471.819324	2505.453462
472.190164	2513.015192
472.560945	2480.247692
472.931667	2495.371154
473.302330	2467.644808
473.672934	2513.015192
474.043479	2495.371154
474.413965	2515.535769
474.784393	2417.233269
475.154761	2518.056346
475.525070	2394.548077
475.895321	2482.768269
476.265513	2533.179808
476.635645	2467.644808
477.005719	2533.179808
477.375734	2518.056346
477.745691	2455.041923
478.115588	2490.330000
478.485427	2447.480192
478.855207	2485.288846
479.224928	2437.397885
479.594591	2538.220962
479.964194	2460.083077
480.333739	2548.303269
480.703226	2482.768269
481.072653	2507.974038
481.442022	2472.685962
481.811333	2606.276538
482.180584	2568.467885
482.549777	2505.453462
482.918912	2502.932885
483.287988	2465.124231
483.657005	2447.480192
484.025964	2513.015192
484.394864	2442.439038
484.763706	2465.124231
485.132489	2457.562500
485.501213	2422.274423
485.869879	2505.453462
486.238487	2424.795000
486.607036	2528.138654
486.975527	2497.891731
487.343959	2439.918462
487.712333	2407.150962
488.080648	2492.850577
488.448905	2467.644808
488.817104	2502.932885
489.185244	2510.494615
489.553326	2452.521346
489.921350	2540.741538
490.289315	2497.891731
490.657222	2520.576923
491.025070	2540.741538
491.392861	2555.865000
491.760593	2485.288846
492.128267	2457.562500
492.495883	2550.823846
492.863440	2465.124231
493.230939	2533.179808
493.598380	2568.467885
493.965763	2477.727115
494.333088	2525.618077
494.700354	2452.521346
495.067563	2485.288846
495.434713	2452.521346
495.801805	2437.397885
496.168839	2472.685962
496.535815	2540.741538
496.902733	2482.768269
497.269593	2525.618077
497.636395	2392.027500
498.003139	2535.700385
498.369825	2460.083077
498.736453	2495.371154
499.103023	2457.562500
499.469535	2495.371154
499.835989	2432.356731
500.202385	2419.753846
500.568723	2644.085192
500.935003	2518.056346
501.301226	2533.179808
501.667390	2510.494615
502.033497	2495.371154
502.399546	2560.906154
502.765537	2452.521346
503.131470	2535.700385
503.497345	2419.753846
503.863163	2482.768269
504.228923	2520.576923
504.594625	2525.618077
504.960269	2523.097500
505.325856	2419.753846
505.691385	2485.288846
506.056856	2570.988462
506.422270	2442.439038
506.787625	2510.494615
507.152924	2565.947308
507.518164	2523.097500
507.883347	2480.247692
508.248472	2530.659231
508.613540	2510.494615
508.978550	2482.768269
509.343503	2455.041923
509.708398	2485.288846
510.073236	2515.535769
510.438016	2475.206538
510.802738	2535.700385
511.167403	2457.562500
511.532010	2548.303269
511.896561	2417.233269
512.261053	2482.768269
512.625488	2492.850577
512.989866	2518.056346
513.354186	2528.138654
513.718449	2477.727115
514.082655	2485.288846
514.446803	2475.206538
514.810894	2472.685962
515.174927	2472.685962
515.538904	2548.303269
515.902822	2528.138654
516.266684	2472.685962
516.630488	2545.782692
516.994235	2465.124231
517.357925	2533.179808
517.721558	2492.850577
518.085133	2530.659231
518.448651	2487.809423
518.812112	2538.220962
519.175516	2535.700385
519.538863	2515.535769
519.902152	2455.041923
520.265385	2543.262115
520.628560	2482.768269
520.991678	2548.303269
521.354739	2412.192115
521.717743	2462.603654
522.080690	2455.041923
522.443580	2495.371154
522.806413	2502.932885
523.169189	2429.836154
523.531908	2475.206538
523.894569	2533.179808
524.257174	2548.303269
524.619722	2545.782692
524.982213	2505.453462
525.344647	2467.644808
525.707025	2500.412308
526.069345	2563.426731
526.431608	2472.685962
526.793815	2533.179808
527.155964	2482.768269
527.518057	2495.371154
527.880093	2465.124231
528.242072	2570.988462
528.603995	2470.165385
528.965860	2515.535769
529.327669	2538.220962
529.689421	2578.550192
530.051117	2465.124231
530.412755	2550.823846
530.774337	2507.974038
531.135862	2442.439038
531.497331	2417.233269
531.858743	2497.891731
532.220098	2470.165385
532.581396	2497.891731
532.942638	2480.247692
533.303824	2467.644808
533.664953	2513.015192
534.026025	2550.823846
534.387040	2462.603654
534.747999	2475.206538
535.108902	2447.480192
535.469748	2429.836154
535.830537	2429.836154
536.191270	2495.371154
536.551947	2492.850577
536.912567	2497.891731
537.273131	2490.330000
537.633638	2560.906154
537.994089	2477.727115
538.354483	2581.070769
538.714821	2467.644808
539.075103	2409.671538
539.435328	2540.741538
539.795497	2507.974038
540.155609	2555.865000
540.515665	2427.315577
540.875665	2480.247692
541.235609	2500.412308
541.595496	2573.509038
541.955328	2427.315577
542.315102	2513.015192
542.674821	2460.083077
543.034483	2530.659231
543.394090	2465.124231
543.753640	2523.097500
544.113134	2455.041923
544.472571	2555.865000
544.831953	2500.412308
545.191278	2502.932885
545.550548	2515.535769
545.909761	2497.891731
546.268918	2477.727115
546.628019	2480.247692
546.987064	2480.247692
547.346053	2477.727115
547.704986	2568.467885
548.063863	2553.344423
548.422684	2560.906154
548.781449	2450.000769
549.140158	2533.179808
549.498811	2543.262115
549.857408	2520.576923
550.215949	2495.371154
550.574434	2434.877308
550.932864	2429.836154
551.291237	2470.165385
551.649555	2465.124231
552.007817	2613.838269
552.366022	2497.891731
552.724173	2525.618077
553.082267	2470.165385
553.440305	2437.397885
553.798288	2480.247692
554.156215	2452.521346
554.514086	2523.097500
554.871902	2429.836154
555.229661	2487.809423
555.587365	2510.494615
555.945014	2495.371154
556.302606	2500.412308
556.660143	2560.906154
557.017625	2558.385577
557.375050	2475.206538
557.732421	2538.220962
558.089735	2460.083077
558.446994	2460.083077
558.804197	2477.727115
559.161345	2502.932885
559.518437	2407.150962
559.875474	2515.535769
560.232455	2480.247692
560.589381	2518.056346
560.946251	2515.535769
561.303065	2538.220962
561.659825	2482.768269
562.016528	2515.535769
562.373177	2432.356731
562.729770	2518.056346
563.086307	2492.850577
563.442789	2485.288846
563.799216	2472.685962
564.155587	2450.000769
564.511904	2507.974038
564.868164	2485.288846
565.224370	2492.850577
565.580520	2530.659231
565.936615	2490.330000
566.292654	2492.850577
566.648638	2507.974038
567.004567	2495.371154
567.360441	2510.494615
567.716260	2455.041923
568.072023	2505.453462
568.427732	2608.797115
568.783385	2528.138654
569.138982	2510.494615
569.494525	2553.344423
569.850013	2507.974038
570.205445	2492.850577
570.560823	2482.768269
570.916145	2530.659231
571.271412	2520.576923
571.626625	2513.015192
571.981782	2505.453462
572.336884	2475.206538
572.691931	2500.412308
573.046923	2485.288846
573.401860	2560.906154
573.756743	2482.768269
574.111570	2538.220962
574.466342	2550.823846
574.821059	2533.179808
575.175722	2555.865000
575.530330	2495.371154
575.884882	2568.467885
576.239380	2540.741538
576.593823	2515.535769
576.948211	2432.356731
577.302544	2543.262115
577.656823	2497.891731
578.011047	2555.865000
578.365216	2558.385577
578.719330	2500.412308
579.073389	2505.453462
579.427394	2437.397885
579.781344	2502.932885
580.135239	2523.097500
580.489080	2525.618077
580.842866	2437.397885
581.196597	2563.426731
581.550273	2414.712692
581.903895	2586.111923
582.257463	2528.138654
582.610975	2467.644808
582.964434	2495.371154
583.317837	2462.603654
583.671186	2513.015192
584.024481	2603.755962
584.377721	2467.644808
584.730906	2513.015192
585.084037	2525.618077
585.437113	2586.111923
585.790135	2429.836154
586.143103	2523.097500
586.496016	2480.247692
586.848874	2477.727115
587.201679	2558.385577
587.554428	2586.111923
587.907124	2490.330000
588.259765	2485.288846
588.612352	2452.521346
588.964884	2507.974038
589.317362	2487.809423
589.669786	2515.535769
590.022155	2472.685962
590.374470	2565.947308
590.726731	2487.809423
591.078937	2533.179808
591.431090	2492.850577
591.783188	2480.247692
592.135232	2472.685962
592.487222	2487.809423
592.839157	2460.083077
593.191038	2444.959615
593.542866	2586.111923
593.894639	2480.247692
594.246358	2482.768269
594.598022	2570.988462
594.949633	2543.262115
595.301190	2482.768269
595.652692	2560.906154
596.004141	2485.288846
596.355535	2510.494615
596.706876	2510.494615
597.058162	2565.947308
597.409395	2560.906154
597.760573	2502.932885
598.111698	2535.700385
598.462768	2505.453462
598.813785	2548.303269
599.164748	2550.823846
599.515657	2510.494615
599.866511	2497.891731
600.217312	2432.356731
600.568060	2558.385577
600.918753	2500.412308
601.269392	2515.535769
601.619978	2447.480192
601.970510	2439.918462
602.320988	2593.673654
602.671412	2475.206538
603.021783	2497.891731
603.372100	2518.056346
603.722363	2540.741538
604.072572	2515.535769
604.422728	2447.480192
604.772830	2548.303269
605.122878	2437.397885
605.472872	2545.782692
605.822813	2386.986346
606.172701	2482.768269
606.522534	2452.521346
606.872314	2482.768269
607.222041	2583.591346
607.571714	2548.303269
607.921333	2475.206538
608.270899	2450.000769
608.620411	2460.083077
608.969870	2439.918462
609.319276	2518.056346
609.668627	2558.385577
610.017926	2429.836154
610.367171	2535.700385
610.716362	2470.165385
611.065500	2543.262115
611.414585	2482.768269
611.763616	2485.288846
612.112594	2538.220962
612.461518	2530.659231
612.810389	2485.288846
613.159207	2525.618077
613.507971	2538.220962
613.856682	2533.179808
614.205340	2510.494615
614.553945	2502.932885
614.902496	2538.220962
615.250994	2563.426731
615.599439	2500.412308
615.947830	2565.947308
616.296169	2460.083077
616.644454	2533.179808
616.992686	2490.330000
617.340864	2520.576923
617.688990	2528.138654
618.037063	2616.358846
618.385082	2490.330000
618.733048	2555.865000
619.080961	2520.576923
619.428821	2502.932885
619.776628	2513.015192
620.124382	2475.206538
620.472083	2457.562500
620.819731	2505.453462
621.167326	2500.412308
621.514868	2460.083077
621.862357	2513.015192
622.209793	2452.521346
622.557176	2533.179808
622.904506	2455.041923
623.251783	2485.288846
623.599007	2535.700385
623.946179	2485.288846
624.293297	2505.453462
624.640363	2472.685962
624.987376	2487.809423
625.334336	2563.426731
625.681243	2432.356731
626.028097	2497.891731
626.374899	2485.288846
626.721647	2472.685962
627.068343	2495.371154
627.414987	2419.753846
627.761577	2432.356731
628.108115	2432.356731
628.454600	2540.741538
628.801032	2502.932885
629.147412	2520.576923
629.493739	2490.330000
629.840014	2455.041923
630.186236	2495.371154
630.532405	2581.070769
630.878521	2470.165385
631.224585	2510.494615
631.570597	2457.562500
631.916556	2578.550192
632.262462	2429.836154
632.608316	2444.959615
632.954117	2510.494615
633.299866	2497.891731
633.645562	2497.891731
633.991206	2540.741538
634.336797	2477.727115
634.682336	2545.782692
635.027823	2523.097500
635.373257	2487.809423
635.718639	2581.070769
636.063968	2578.550192
636.409245	2518.056346
636.754470	2485.288846
637.099642	2487.809423
637.444762	2510.494615
637.789829	2513.015192
638.134845	2477.727115
638.479808	2462.603654
638.824719	2482.768269
639.169577	2500.412308
639.514383	2460.083077
639.859137	2487.809423
640.203839	2555.865000
640.548489	2510.494615
640.893086	2480.247692
641.237632	2545.782692
641.582125	2548.303269
641.926566	2477.727115
642.270955	2424.795000
642.615292	2485.288846
642.959576	2538.220962
643.303809	2583.591346
643.647990	2543.262115
643.992118	2568.467885
644.336195	2533.179808
644.680219	2558.385577
645.024192	2520.576923
645.368112	2510.494615
645.711981	2427.315577
646.055797	2485.288846
646.399562	2487.809423
646.743274	2540.741538
647.086935	2444.959615
647.430544	2513.015192
647.774101	2462.603654
648.117606	2548.303269
648.461059	2460.083077
648.804460	2497.891731
649.147810	2460.083077
649.491108	2520.576923
649.834354	2507.974038
650.177548	2485.288846
650.520690	2528.138654
650.863781	2480.247692
651.206820	2581.070769
651.549807	2487.809423
651.892742	2518.056346
652.235626	2482.768269
652.578458	2389.506923
652.921238	2485.288846
653.263967	2487.809423
653.606644	2543.262115
653.949269	2480.247692
654.291843	2520.576923
654.634365	2447.480192
654.976836	2472.685962
655.319255	2505.453462
655.661622	2596.194231
656.003938	2485.288846
656.346203	2573.509038
656.688416	2530.659231
657.030577	2568.467885
657.372687	2518.056346
657.714746	2543.262115
658.056753	2429.836154
658.398708	2540.741538
658.740612	2482.768269
659.082465	2497.891731
659.424266	2460.083077
659.766016	2505.453462
660.107715	2480.247692
660.449362	2565.947308
660.790958	2543.262115
661.132503	2444.959615
661.473996	2543.262115
661.815438	2530.659231
662.156829	2613.838269
662.498168	2495.371154
662.839456	2492.850577
663.180693	2525.618077
663.521879	2450.000769
663.863013	2550.823846
664.204097	2492.850577
664.545129	2495.371154
664.886110	2533.179808
665.227040	2576.029615
665.567918	2550.823846
665.908746	2500.412308
666.249522	2477.727115
666.590248	2450.000769
666.930922	2588.632500
667.271545	2510.494615
667.612118	2470.165385
667.952639	2442.439038
668.293109	2500.412308
668.633528	2452.521346
668.973896	2490.330000
669.314213	2545.782692
669.654480	2439.918462
669.994695	2450.000769
670.334859	2515.535769
670.674973	2500.412308
671.015035	2533.179808
671.355047	2555.865000
671.695008	2520.576923
672.034918	2523.097500
672.374777	2434.877308
672.714585	2480.247692
673.054342	2492.850577
673.394049	2525.618077
673.733705	2465.124231
674.073310	2497.891731
674.412864	2470.165385
674.752368	2460.083077
675.091820	2558.385577
675.431223	2492.850577
675.770574	2558.385577
676.109875	2505.453462
676.449125	2525.618077
676.788324	2533.179808
677.127473	2465.124231
677.466571	2477.727115
677.805619	2447.480192
678.144616	2487.809423
678.483562	2485.288846
678.822458	2548.303269
679.161303	2538.220962
679.500098	2507.974038
679.838842	2528.138654
680.177535	2457.562500
680.516179	2487.809423
680.854771	2437.397885
681.193314	2502.932885
681.531805	2442.439038
681.870247	2472.685962
682.208638	2432.356731
682.546978	2558.385577
682.885268	2455.041923
683.223508	2500.412308
683.561697	2495.371154
683.899836	2480.247692
684.237925	2432.356731
684.575963	2518.056346
684.913951	2495.371154
685.251889	2492.850577
685.589776	2475.206538
685.927614	2545.782692
686.265401	2497.891731
686.603137	2487.809423
686.940824	2525.618077
687.278460	2487.809423
687.616046	2477.727115
687.953582	2487.809423
688.291068	2417.233269
688.628504	2593.673654
688.965889	2513.015192
689.303224	2513.015192
689.640510	2507.974038
689.977745	2603.755962
690.314930	2530.659231
690.652065	2545.782692
690.989150	2424.795000
691.326185	2563.426731
691.663170	2525.618077
692.000105	2455.041923
692.336990	2553.344423
692.673825	2548.303269
693.010610	2525.618077
693.347345	2487.809423
693.684030	2543.262115
694.020665	2485.288846
694.357251	2447.480192
694.693786	2518.056346
695.030272	2507.974038
695.366707	2515.535769
695.703093	2507.974038
696.039429	2442.439038
696.375716	2533.179808
696.711952	2523.097500
697.048139	2513.015192
697.384276	2467.644808
697.720363	2565.947308
698.056400	2495.371154
698.392388	2520.576923
698.728326	2545.782692
699.064214	2538.220962
699.400053	2467.644808
699.735842	2447.480192
700.071581	2485.288846
700.407270	2588.632500
700.742910	2492.850577
701.078501	2513.015192
701.414042	2568.467885
701.749533	2518.056346
702.084974	2502.932885
702.420366	2475.206538
702.755709	2455.041923
703.091002	2528.138654
703.426246	2513.015192
703.761440	2460.083077
704.096584	2502.932885
704.431679	2386.986346
704.766725	2563.426731
705.101721	2490.330000
705.436668	2520.576923
705.771565	2510.494615
706.106413	2507.974038
706.441212	2465.124231
706.775961	2490.330000
707.110661	2515.535769
707.445311	2475.206538
707.779913	2538.220962
708.114465	2533.179808
708.448967	2439.918462
708.783421	2558.385577
709.117825	2482.768269
709.452180	2518.056346
709.786485	2555.865000
710.120742	2505.453462
710.454949	2563.426731
710.789107	2510.494615
711.123216	2492.850577
711.457275	2533.179808
711.791286	2492.850577
712.125247	2414.712692
712.459159	2525.618077
712.793023	2570.988462
713.126837	2555.865000
713.460602	2460.083077
713.794318	2472.685962
714.127985	2477.727115
714.461602	2545.782692
714.795171	2507.974038
715.128691	2480.247692
715.462162	2500.412308
715.795584	2563.426731
716.128957	2427.315577
716.462281	2497.891731
716.795556	2560.906154
717.128782	2505.453462
717.461960	2490.330000
717.795088	2452.521346
718.128167	2482.768269
718.461198	2540.741538
718.794180	2477.727115
719.127113	2525.618077
719.459997	2490.330000
719.792833	2480.247692
720.125619	2475.206538
720.458357	2528.138654
720.791046	2543.262115
721.123686	2495.371154
721.456278	2586.111923
721.788821	2492.850577
722.121315	2523.097500
722.453761	2490.330000
722.786158	2543.262115
723.118506	2603.755962
723.450805	2510.494615
723.783056	2490.330000
724.115259	2535.700385
724.447412	2505.453462
724.779518	2581.070769
725.111574	2525.618077
725.443582	2520.576923
725.775542	2447.480192
726.107453	2543.262115
726.439315	2490.330000
726.771129	2467.644808
727.102895	2439.918462
727.434612	2427.315577
727.766281	2450.000769
728.097901	2515.535769
728.429473	2548.303269
728.760996	2475.206538
729.092471	2518.056346
729.423897	2470.165385
729.755276	2502.932885
730.086606	2447.480192
730.417887	2507.974038
730.749120	2507.974038
731.080305	2576.029615
731.411442	2530.659231
731.742530	2523.097500
732.073570	2467.644808
732.404562	2558.385577
732.735506	2513.015192
733.066401	2540.741538
733.397249	2439.918462
733.728048	2477.727115
734.058798	2417.233269
734.389501	2444.959615
734.720156	2480.247692
735.050762	2470.165385
735.381320	2482.768269
735.711831	2487.809423
736.042293	2553.344423
736.372707	2555.865000
736.703073	2530.659231
737.033391	2530.659231
737.363661	2538.220962
737.693883	2530.659231
738.024056	2523.097500
738.354182	2465.124231
738.684260	2490.330000
739.014290	2573.509038
739.344272	2465.124231
739.674207	2510.494615
740.004093	2528.138654
740.333931	2480.247692
740.663722	2550.823846
740.993464	2563.426731
741.323159	2450.000769
741.652806	2543.262115
741.982405	2560.906154
742.311956	2490.330000
742.641460	2439.918462
742.970915	2540.741538
743.300323	2475.206538
743.629683	2480.247692
743.958996	2500.412308
744.288260	2515.535769
744.617477	2475.206538
744.946647	2507.974038
745.275768	2535.700385
745.604842	2495.371154
745.933869	2548.303269
746.262847	2497.891731
746.591778	2528.138654
746.920662	2447.480192
747.249498	2563.426731
747.578286	2492.850577
747.907027	2427.315577
748.235720	2452.521346
748.564365	2528.138654
748.892963	2545.782692
749.221514	2515.535769
749.550017	2407.150962
749.878473	2525.618077
750.206881	2447.480192
750.535242	2462.603654
750.863555	2467.644808
751.191821	2528.138654
751.520039	2518.056346
751.848210	2492.850577
752.176334	2439.918462
752.504411	2477.727115
752.832440	2497.891731
753.160421	2578.550192
753.488356	2485.288846
753.816243	2485.288846
754.144082	2487.809423
754.471875	2513.015192
754.799620	2513.015192
755.127318	2427.315577
755.454969	2417.233269
755.782572	2553.344423
756.110129	2515.535769
756.437638	2480.247692
756.765100	2497.891731
757.092515	2608.797115
757.419882	2495.371154
757.747203	2513.015192
758.074477	2515.535769
758.401703	2528.138654
758.728882	2492.850577
759.056014	2422.274423
759.383099	2460.083077
759.710138	2407.150962
760.037129	2513.015192
760.364073	2530.659231
760.690970	2455.041923
761.017820	2535.700385
761.344623	2578.550192
761.671379	2490.330000
761.998088	2550.823846
762.324751	2507.974038
762.651366	2573.509038
762.977935	2598.714808
763.304456	2505.453462
763.630931	2550.823846
763.957359	2563.426731
764.283740	2475.206538
764.610074	2513.015192
764.936362	2432.356731
765.262602	2424.795000
765.588796	2545.782692
765.914943	2457.562500
766.241044	2520.576923
766.567097	2379.424615
766.893104	2452.521346
767.219064	2518.056346
767.544978	2376.904038
767.870845	2535.700385
768.196665	2490.330000
768.522438	2530.659231
768.848165	2462.603654
769.173846	2502.932885
769.499479	2618.879423
769.825066	2525.618077
770.150607	2520.576923
770.476101	2555.865000
770.801548	2444.959615
771.126949	2533.179808
771.452303	2518.056346
771.777611	2414.712692
772.102872	2507.974038
772.428087	2457.562500
772.753256	2439.918462
773.078378	2402.109808
773.403453	2452.521346
773.728482	2533.179808
774.053465	2462.603654
774.378401	2480.247692
774.703291	2470.165385
775.028135	2439.918462
775.352932	2460.083077
775.677683	2460.083077
776.002388	2540.741538
776.327046	2404.630385
776.651658	2470.165385
776.976224	2439.918462
777.300743	2444.959615
777.625216	2535.700385
777.949643	2487.809423
778.274024	2555.865000
778.598359	2485.288846
778.922647	2467.644808
779.246889	2492.850577
779.571086	2558.385577
779.895236	2482.768269
780.219339	2543.262115
780.543397	2553.344423
780.867409	2535.700385
781.191374	2528.138654
781.515294	2485.288846
781.839167	2485.288846
782.162995	2475.206538
782.486776	2497.891731
782.810511	2457.562500
783.134201	2548.303269
783.457844	2502.932885
783.781441	2477.727115
784.104993	2497.891731
784.428498	2518.056346
784.751958	2462.603654
785.075372	2460.083077
785.398739	2487.809423
785.722061	2507.974038
786.045337	2507.974038
786.368568	2480.247692
786.691752	2505.453462
787.014891	2543.262115
787.337983	2497.891731
787.661030	2553.344423
787.984031	2520.576923
788.306987	2482.768269
788.629897	2550.823846
788.952760	2477.727115
789.275579	2606.276538
789.598351	2444.959615
789.921078	2485.288846
790.243759	2505.453462
790.566395	2392.027500
790.888984	2487.809423
791.211529	2447.480192
791.534027	2442.439038
791.856480	2492.850577
792.178888	2490.330000
792.501249	2487.809423
792.823566	2543.262115
793.145836	2460.083077
793.468062	2510.494615
793.790241	2535.700385
794.112375	2492.850577
794.434464	2540.741538
794.756507	2490.330000
795.078505	2444.959615
795.400457	2452.521346
795.722364	2555.865000
796.044226	2470.165385
796.366042	2510.494615
796.687812	2462.603654
797.009538	2434.877308
797.331218	2548.303269
797.652852	2560.906154
797.974442	2565.947308
798.295986	2384.465769
798.617484	2568.467885
798.938938	2482.768269
799.260346	2540.741538
799.581709	2513.015192
799.903026	2507.974038
800.224299	2457.562500
800.545526	2570.988462
800.866708	2450.000769
801.187845	2576.029615
801.508936	2437.397885
801.829983	2593.673654
802.150984	2470.165385
802.471940	2495.371154
802.792851	2563.426731
803.113717	2462.603654
803.434538	2485.288846
803.755314	2399.589231
804.076045	2513.015192
804.396731	2591.153077
804.717372	2465.124231
805.037967	2518.056346
805.358518	2434.877308
805.679024	2550.823846
805.999485	2490.330000
806.319901	2543.262115
806.640272	2472.685962
806.960598	2553.344423
807.280879	2460.083077
807.601115	2505.453462
807.921306	2429.836154
808.241453	2555.865000
808.561554	2520.576923
808.881611	2525.618077
809.201623	2462.603654
809.521590	2505.453462
809.841513	2518.056346
810.161390	2515.535769
810.481223	2407.150962
810.801011	2555.865000
811.120755	2457.562500
811.440453	2513.015192
811.760107	2573.509038
812.079716	2432.356731
812.399281	2371.862885
812.718801	2513.015192
813.038276	2510.494615
813.357707	2470.165385
813.677093	2475.206538
813.996434	2535.700385
814.315731	2434.877308
814.634983	2510.494615
814.954191	2465.124231
815.273354	2462.603654
815.592473	2432.356731
815.911547	2502.932885
816.230577	2460.083077
816.549562	2523.097500
816.868502	2565.947308
817.187399	2470.165385
817.506250	2515.535769
817.825058	2505.453462
818.143821	2555.865000
818.462539	2543.262115
818.781213	2510.494615
819.099843	2432.356731
819.418429	2558.385577
819.736970	2507.974038
820.055466	2606.276538
820.373919	2495.371154
820.692327	2460.083077
821.010691	2502.932885
821.329011	2462.603654
821.647286	2492.850577
821.965517	2447.480192
822.283704	2540.741538
822.601847	2444.959615
822.919945	2480.247692
823.237999	2545.782692
823.556010	2427.315577
823.873976	2490.330000
824.191897	2477.727115
824.509775	2530.659231
824.827609	2487.809423
825.145398	2543.262115
825.463144	2560.906154
825.780845	2482.768269
826.098502	2470.165385
826.416116	2523.097500
826.733685	2510.494615
827.051210	2540.741538
827.368692	2485.288846
827.686129	2510.494615
828.003522	2450.000769
828.320872	2530.659231
828.638177	2525.618077
828.955439	2502.932885
829.272656	2465.124231
829.589830	2530.659231
829.906960	2460.083077
830.224046	2502.932885
830.541088	2495.371154
830.858086	2467.644808
831.175041	2505.453462
831.491952	2470.165385
831.808819	2439.918462
832.125642	2452.521346
832.442421	2497.891731
832.759157	2513.015192
833.075849	2525.618077
833.392497	2545.782692
833.709101	2475.206538
834.025662	2386.986346
834.342179	2540.741538
834.658653	2487.809423
834.975083	2467.644808
835.291469	2482.768269
835.607811	2482.768269
835.924110	2465.124231
836.240366	2543.262115
836.556578	2452.521346
836.872746	2555.865000
837.188871	2450.000769
837.504952	2482.768269
837.820990	2500.412308
838.136984	2480.247692
838.452935	2452.521346
838.768842	2530.659231
839.084706	2419.753846
839.400526	2460.083077
839.716303	2444.959615
840.032037	2490.330000
840.347727	2505.453462
840.663373	2500.412308
840.978977	2465.124231
841.294537	2523.097500
841.610054	2455.041923
841.925527	2487.809423
842.240957	2555.865000
842.556344	2513.015192
842.871687	2535.700385
843.186987	2407.150962
843.502244	2477.727115
843.817458	2447.480192
844.132629	2545.782692
844.447756	2467.644808
844.762840	2502.932885
845.077881	2507.974038
845.392879	2538.220962
845.707833	2477.727115
846.022745	2467.644808
846.337613	2535.700385
846.652438	2543.262115
846.967221	2457.562500
847.281960	2452.521346
847.596656	2482.768269
847.911309	2502.932885
848.225919	2480.247692
848.540485	2502.932885
848.855009	2525.618077
849.169490	2490.330000
849.483928	2560.906154
849.798323	2465.124231
850.112675	2495.371154
850.426984	2513.015192
850.741251	2394.548077
851.055474	2515.535769
851.369654	2578.550192
851.683792	2472.685962
851.997887	2424.795000
852.311938	2538.220962
852.625947	2583.591346
852.939914	2507.974038
853.253837	2444.959615
853.567718	2502.932885
853.881555	2518.056346
854.195350	2389.506923
854.509103	2528.138654
854.822812	2523.097500
855.136479	2505.453462
855.450103	2548.303269
855.763685	2550.823846
856.077224	2407.150962
856.390720	2475.206538
856.704173	2538.220962
857.017584	2462.603654
857.330953	2455.041923
857.644278	2417.233269
857.957561	2558.385577
858.270802	2523.097500
858.584000	2500.412308
858.897155	2437.397885
859.210268	2467.644808
859.523339	2487.809423
859.836367	2505.453462
860.149352	2434.877308
860.462295	2558.385577
860.775195	2427.315577
861.088054	2492.850577
861.400869	2432.356731
861.713642	2482.768269
862.026373	2482.768269
862.339062	2518.056346
862.651708	2525.618077
862.964312	2485.288846
863.276873	2495.371154
863.589392	2510.494615
863.901869	2593.673654
864.214303	2477.727115
864.526696	2497.891731
864.839045	2432.356731
865.151353	2560.906154
865.463619	2530.659231
865.775842	2447.480192
866.088023	2563.426731
866.400162	2530.659231
866.712258	2485.288846
867.024313	2455.041923
867.336325	2497.891731
867.648296	2565.947308
867.960224	2490.330000
868.272110	2523.097500
868.583954	2492.850577
868.895755	2397.068654
869.207515	2563.426731
869.519233	2510.494615
869.830909	2480.247692
870.142542	2465.124231
870.454134	2472.685962
870.765684	2450.000769
871.077191	2495.371154
871.388657	2429.836154
871.700081	2487.809423
872.011463	2480.247692
872.322803	2460.083077
872.634101	2492.850577
872.945357	2404.630385
873.256571	2417.233269
873.567744	2475.206538
873.878874	2490.330000
874.189963	2500.412308
874.501010	2487.809423
874.812015	2472.685962
875.122979	2523.097500
875.433900	2530.659231
875.744780	2429.836154
876.055618	2528.138654
876.366415	2505.453462
876.677169	2480.247692
876.987882	2510.494615
877.298554	2515.535769
877.609183	2477.727115
877.919771	2467.644808
878.230317	2535.700385
878.540822	2470.165385
878.851285	2513.015192
879.161707	2518.056346
879.472087	2432.356731
879.782425	2462.603654
880.092722	2540.741538
880.402977	2510.494615
880.713191	2432.356731
881.023363	2419.753846
881.333494	2545.782692
881.643583	2535.700385
881.953631	2455.041923
882.263637	2560.906154
882.573602	2444.959615
882.883526	2422.274423
883.193408	2472.685962
883.503248	2477.727115
883.813048	2560.906154
884.122806	2528.138654
884.432522	2540.741538
884.742197	2611.317692
885.051831	2487.809423
885.361424	2581.070769
885.670975	2492.850577
885.980485	2434.877308
886.289954	2525.618077
886.599382	2386.986346
886.908768	2490.330000
887.218113	2475.206538
887.527417	2507.974038
887.836680	2447.480192
888.145901	2472.685962
888.455082	2480.247692
888.764221	2462.603654
889.073319	2482.768269
889.382376	2427.315577
889.691392	2480.247692
890.000366	2455.041923
890.309300	2505.453462
890.618193	2444.959615
890.927044	2482.768269
891.235855	2429.836154
891.544625	2497.891731
891.853353	2538.220962
892.162041	2618.879423
892.470687	2535.700385
892.779293	2444.959615
893.087858	2502.932885
893.396381	2462.603654
893.704864	2523.097500
894.013306	2528.138654
894.321707	2487.809423
894.630068	2550.823846
894.938387	2510.494615
895.246665	2490.330000
895.554903	2502.932885
895.863100	2437.397885
896.171256	2530.659231
896.479371	2525.618077
896.787446	2550.823846
897.095480	2434.877308
897.403473	2432.356731
897.711425	2490.330000
898.019336	2472.685962
898.327207	2404.630385
898.635038	2502.932885
898.942827	2520.576923
899.250576	2525.618077
899.558284	2465.124231
899.865952	2523.097500
900.173579	2450.000769
900.481165	2419.753846
900.788711	2502.932885
901.096216	2523.097500
901.403681	2414.712692
901.711105	2550.823846
902.018489	2510.494615
902.325832	2475.206538
902.633135	2450.000769
902.940397	2528.138654
903.247619	2470.165385
903.554800	2450.000769
903.861941	2432.356731
904.169041	2510.494615
904.476101	2447.480192
904.783121	2530.659231
905.090100	2581.070769
905.397039	2505.453462
905.703938	2515.535769
906.010796	2477.727115
906.317614	2490.330000
906.624391	2475.206538
906.931129	2472.685962
907.237826	2533.179808
907.544483	2518.056346
907.851099	2434.877308
908.157675	2502.932885
908.464211	2465.124231
908.770707	2485.288846
909.077163	2487.809423
909.383578	2477.727115
909.689954	2419.753846
909.996289	2462.603654
910.302584	2447.480192
910.608839	2523.097500
910.915054	2518.056346
911.221229	2460.083077
911.527363	2455.041923
911.833458	2518.056346
912.139513	2475.206538
912.445527	2482.768269
912.751502	2439.918462
913.057436	2452.521346
913.363331	2538.220962
913.669186	2502.932885
913.975000	2565.947308
914.280775	2444.959615
914.586510	2570.988462
914.892205	2497.891731
915.197859	2475.206538
915.503475	2568.467885
915.809050	2553.344423
916.114585	2565.947308
916.420081	2502.932885
916.725536	2502.932885
917.030952	2518.056346
917.336328	2424.795000
917.641665	2502.932885
917.946961	2429.836154
918.252218	2490.330000
918.557435	2467.644808
918.862612	2472.685962
919.167750	2510.494615
919.472848	2530.659231
919.777906	2439.918462
920.082925	2553.344423
920.387904	2455.041923
920.692843	2550.823846
920.997743	2444.959615
921.302603	2485.288846
921.607423	2485.288846
921.912204	2447.480192
922.216946	2480.247692
922.521647	2492.850577
922.826310	2538.220962
923.130932	2523.097500
923.435516	2507.974038
923.740059	2555.865000
924.044564	2490.330000
924.349028	2437.397885
924.653454	2581.070769
924.957840	2442.439038
925.262186	2502.932885
925.566493	2525.618077
925.870761	2558.385577
926.174989	2540.741538
926.479178	2505.453462
926.783328	2535.700385
927.087438	2442.439038
927.391509	2538.220962
927.695541	2570.988462
927.999533	2518.056346
928.303486	2513.015192
928.607400	2485.288846
928.911275	2502.932885
929.215110	2460.083077
929.518906	2477.727115
929.822663	2485.288846
930.126381	2523.097500
930.430060	2424.795000
930.733699	2515.535769
931.037299	2497.891731
931.340861	2442.439038
931.644383	2485.288846
931.947866	2442.439038
932.251309	2472.685962
932.554714	2492.850577
932.858080	2505.453462
933.161407	2487.809423
933.464694	2475.206538
933.767943	2495.371154
934.071153	2424.795000
934.374323	2492.850577
934.677455	2482.768269
934.980548	2583.591346
935.283602	2482.768269
935.586617	2472.685962
935.889593	2424.795000
936.192530	2495.371154
936.495428	2560.906154
936.798287	2505.453462
937.101108	2455.041923
937.403890	2457.562500
937.706632	2543.262115
938.009336	2460.083077
938.312002	2588.632500
938.614628	2513.015192
938.917216	2477.727115
939.219765	2439.918462
939.522275	2520.576923
939.824747	2442.439038
940.127179	2490.330000
940.429573	2507.974038
940.731929	2525.618077
941.034246	2520.576923
941.336524	2409.671538
941.638763	2480.247692
941.940964	2437.397885
942.243126	2518.056346
942.545250	2450.000769
942.847335	2500.412308
943.149381	2505.453462
943.451389	2548.303269
943.753359	2558.385577
944.055290	2500.412308
944.357182	2540.741538
944.659036	2482.768269
944.960851	2487.809423
945.262628	2437.397885
945.564367	2450.000769
945.866067	2429.836154
946.167729	2394.548077
946.469352	2482.768269
946.770937	2437.397885
947.072484	2450.000769
947.373992	2510.494615
947.675462	2548.303269
947.976893	2480.247692
948.278286	2452.521346
948.579641	2520.576923
948.880958	2500.412308
949.182236	2548.303269
949.483476	2419.753846
949.784678	2565.947308
950.085841	2540.741538
950.386967	2570.988462
950.688054	2442.439038
950.989103	2480.247692
951.290114	2482.768269
951.591087	2540.741538
951.892021	2540.741538
952.192917	2475.206538
952.493776	2439.918462
952.794596	2475.206538
953.095378	2455.041923
953.396122	2419.753846
953.696828	2563.426731
953.997496	2475.206538
954.298126	2487.809423
954.598718	2497.891731
954.899272	2555.865000
955.199788	2470.165385
955.500266	2477.727115
955.800706	2472.685962
956.101108	2518.056346
956.401472	2603.755962
956.701798	2429.836154
957.002087	2528.138654
957.302337	2490.330000
957.602550	2447.480192
957.902724	2555.865000
958.202861	2495.371154
958.502960	2477.727115
958.803022	2500.412308
959.103045	2578.550192
959.403031	2442.439038
959.702979	2427.315577
960.002889	2507.974038
960.302762	2480.247692
960.602596	2548.303269
960.902393	2399.589231
961.202153	2422.274423
961.501875	2497.891731
961.801559	2470.165385
962.101205	2497.891731
962.400814	2399.589231
962.700385	2500.412308
962.999918	2482.768269
963.299414	2424.795000
963.598873	2447.480192
963.898293	2535.700385
964.197677	2591.153077
964.497022	2505.453462
964.796331	2442.439038
965.095601	2497.891731
965.394835	2482.768269
965.694030	2414.712692
965.993189	2492.850577
966.292309	2460.083077
966.591393	2497.891731
966.890439	2414.712692
967.189447	2397.068654
967.488419	2611.317692
967.787353	2535.700385
968.086249	2457.562500
968.385108	2407.150962
968.683930	2523.097500
968.982714	2490.330000
969.281462	2487.809423
969.580172	2422.274423
969.878844	2472.685962
970.177480	2500.412308
970.476078	2429.836154
970.774639	2513.015192
971.073162	2394.548077
971.371649	2490.330000
971.670098	2429.836154
971.968510	2460.083077
972.266885	2510.494615
972.565223	2523.097500
972.863524	2485.288846
973.161788	2384.465769
973.460014	2399.589231
973.758204	2560.906154
974.056356	2520.576923
974.354471	2588.632500
974.652550	2457.562500
974.950591	2429.836154
975.248595	2500.412308
975.546563	2500.412308
975.844493	2538.220962
976.142386	2487.809423
976.440243	2545.782692
976.738062	2550.823846
977.035845	2414.712692
977.333590	2437.397885
977.631299	2513.015192
977.928971	2497.891731
978.226606	2495.371154
978.524204	2371.862885
978.821765	2407.150962
979.119290	2455.041923
979.416777	2392.027500
979.714228	2513.015192
980.011642	2455.041923
980.309020	2452.521346
980.606360	2452.521346
980.903664	2470.165385
981.200931	2540.741538
981.498162	2507.974038
981.795356	2439.918462
982.092513	2510.494615
982.389633	2490.330000
982.686717	2490.330000
982.983764	2523.097500
983.280775	2470.165385
983.577749	2555.865000
983.874686	2525.618077
984.171587	2535.700385
984.468451	2495.371154
984.765279	2455.041923
985.062070	2417.233269
985.358824	2518.056346
985.655543	2507.974038
985.952224	2538.220962
986.248869	2583.591346
986.545478	2457.562500
986.842050	2518.056346
987.138586	2487.809423
987.435086	2543.262115
987.731549	2505.453462
988.027975	2462.603654
988.324366	2538.220962
988.620719	2477.727115
988.917037	2530.659231
989.213318	2487.809423
989.509563	2555.865000
989.805772	2518.056346
990.101944	2492.850577
990.398080	2560.906154
990.694180	2502.932885
990.990244	2518.056346
991.286271	2487.809423
991.582262	2434.877308
991.878217	2465.124231
992.174136	2485.288846
992.470019	2548.303269
992.765865	2502.932885
993.061676	2507.974038
993.357450	2507.974038
993.653188	2472.685962
993.948890	2462.603654
994.244556	2455.041923
994.540186	2533.179808
994.835780	2583.591346
995.131337	2465.124231
995.426859	2555.865000
995.722345	2447.480192
996.017795	2535.700385
996.313208	2480.247692
996.608586	2492.850577
996.903928	2472.685962
997.199234	2442.439038
997.494504	2472.685962
997.789738	2530.659231
998.084936	2510.494615
998.380099	2455.041923
998.675225	2495.371154
998.970316	2444.959615
999.265371	2500.412308
999.560390	2485.288846
999.855373	2397.068654
1000.150320	2518.056346
1000.445232	2553.344423
1000.740108	2455.041923
1001.034948	2467.644808
1001.329752	2507.974038
1001.624521	2538.220962
1001.919254	2429.836154
1002.213951	2553.344423
1002.508613	2437.397885
1002.803239	2412.192115
1003.097829	2472.685962
1003.392384	2470.165385
1003.686903	2535.700385
1003.981386	2467.644808
1004.275834	2475.206538
1004.570246	2485.288846
1004.864623	2480.247692
1005.158964	2442.439038
1005.453270	2502.932885
1005.747540	2452.521346
1006.041775	2538.220962
1006.335974	2404.630385
1006.630138	2460.083077
1006.924266	2429.836154
1007.218359	2505.453462
1007.512416	2477.727115
1007.806438	2432.356731
1008.100425	2495.371154
1008.394376	2470.165385
1008.688292	2513.015192
1008.982172	2457.562500
1009.276017	2475.206538
1009.569827	2487.809423
1009.863602	2439.918462
1010.157341	2560.906154
1010.451045	2573.509038
1010.744714	2553.344423
1011.038347	2538.220962
1011.331945	2480.247692
1011.625508	2500.412308
1011.919036	2480.247692
1012.212528	2535.700385
1012.505986	2533.179808
1012.799408	2581.070769
1013.092795	2555.865000
1013.386147	2500.412308
1013.679464	2507.974038
1013.972745	2450.000769
1014.265992	2515.535769
1014.559204	2386.986346
1014.852380	2540.741538
1015.145521	2528.138654
1015.438628	2475.206538
1015.731699	2452.521346
1016.024736	2533.179808
1016.317737	2369.342308
1016.610703	2422.274423
1016.903635	2432.356731
1017.196531	2515.535769
1017.489393	2419.753846
1017.782219	2505.453462
1018.075011	2555.865000
1018.367768	2409.671538
1018.660490	2513.015192
1018.953177	2513.015192
1019.245829	2513.015192
