Dividing Wavelength (nm)	Counts (n)	Blue Motor Position (mm): 0.000000	Red Motor Position (mm): 4.300000	
326.493990	2021.502692
326.888308	2021.502692
327.282561	2021.502692
327.676750	2076.955385
328.070874	2046.708462
328.464933	2074.434808
328.858929	2013.940962
329.252859	2054.270192
329.646726	1955.967692
330.040528	2127.366923
330.434265	2119.805192
330.827938	2119.805192
331.221547	2145.010962
331.615091	2122.325769
332.008571	2182.819615
332.401986	2187.860769
332.795338	2318.930769
333.188625	2331.533654
333.581847	2215.587115
333.975006	2276.080962
334.368100	2323.971923
334.761129	2208.025385
335.154095	2303.807308
335.546996	2301.286731
335.939833	2351.698269
336.332606	2482.768269
336.725315	2379.424615
337.117960	2316.410192
337.510540	2439.918462
337.903056	2318.930769
338.295508	2419.753846
338.687896	2379.424615
339.080220	2351.698269
339.472480	2424.795000
339.864676	2490.330000
340.256807	2339.095385
340.648875	2490.330000
341.040879	2429.836154
341.432818	2523.097500
341.824694	2470.165385
342.216506	2460.083077
342.608253	2409.671538
342.999937	2591.153077
343.391557	2480.247692
343.783113	2515.535769
344.174605	2500.412308
344.566033	2475.206538
344.957397	2450.000769
345.348697	2475.206538
345.739934	2432.356731
346.131106	2475.206538
346.522215	2457.562500
346.913260	2500.412308
347.304241	2427.315577
347.695159	2505.453462
348.086012	2442.439038
348.476802	2407.150962
348.867528	2455.041923
349.258191	2462.603654
349.648789	2477.727115
350.039324	2404.630385
350.429796	2457.562500
350.820203	2397.068654
351.210548	2404.630385
351.600828	2518.056346
351.991045	2518.056346
352.381198	2422.274423
352.771288	2487.809423
353.161314	2392.027500
353.551276	2492.850577
353.941175	2412.192115
354.331010	2419.753846
354.720782	2422.274423
355.110490	2444.959615
355.500135	2384.465769
355.889717	2434.877308
356.279235	2434.877308
356.668689	2485.288846
357.058080	2487.809423
357.447408	2437.397885
357.836672	2447.480192
358.225873	2457.562500
358.615010	2397.068654
359.004084	2502.932885
359.393095	2437.397885
359.782043	2497.891731
360.170927	2437.397885
360.559748	2487.809423
360.948505	2450.000769
361.337199	2397.068654
361.725830	2422.274423
362.114398	2407.150962
362.502903	2482.768269
362.891344	2455.041923
363.279722	2447.480192
363.668037	2450.000769
364.056289	2482.768269
364.444478	2500.412308
364.832603	2437.397885
365.220665	2467.644808
365.608665	2465.124231
365.996601	2424.795000
366.384474	2444.959615
366.772284	2518.056346
367.160031	2437.397885
367.547715	2392.027500
367.935336	2528.138654
368.322893	2407.150962
368.710388	2523.097500
369.097820	2447.480192
369.485189	2510.494615
369.872495	2437.397885
370.259738	2442.439038
370.646918	2439.918462
371.034035	2513.015192
371.421090	2419.753846
371.808081	2397.068654
372.195010	2475.206538
372.581875	2510.494615
372.968678	2500.412308
373.355418	2450.000769
373.742096	2381.945192
374.128710	2492.850577
374.515262	2434.877308
374.901751	2495.371154
375.288177	2444.959615
375.674540	2475.206538
376.060841	2470.165385
376.447079	2507.974038
376.833254	2447.480192
377.219367	2507.974038
377.605417	2437.397885
377.991404	2419.753846
378.377329	2523.097500
378.763191	2482.768269
379.148991	2336.574808
379.534727	2442.439038
379.920402	2444.959615
380.306013	2530.659231
380.691563	2450.000769
381.077049	2457.562500
381.462474	2450.000769
381.847835	2533.179808
382.233134	2434.877308
382.618371	2475.206538
383.003545	2462.603654
383.388657	2480.247692
383.773706	2470.165385
384.158693	2528.138654
384.543618	2442.439038
384.928480	2434.877308
385.313280	2455.041923
385.698017	2490.330000
386.082692	2477.727115
386.467305	2419.753846
386.851856	2371.862885
387.236344	2422.274423
387.620770	2429.836154
388.005133	2507.974038
388.389435	2460.083077
388.773674	2530.659231
389.157851	2525.618077
389.541965	2535.700385
389.926018	2437.397885
390.310008	2465.124231
390.693936	2424.795000
391.077802	2502.932885
391.461606	2427.315577
391.845348	2533.179808
392.229027	2533.179808
392.612645	2422.274423
392.996200	2545.782692
393.379694	2472.685962
393.763125	2455.041923
394.146494	2515.535769
394.529801	2424.795000
394.913047	2472.685962
395.296230	2565.947308
395.679351	2432.356731
396.062410	2457.562500
396.445408	2492.850577
396.828343	2465.124231
397.211217	2548.303269
397.594028	2485.288846
397.976778	2513.015192
398.359466	2500.412308
398.742092	2487.809423
399.124656	2528.138654
399.507158	2432.356731
399.889598	2535.700385
400.271977	2480.247692
400.654294	2407.150962
401.036549	2523.097500
401.418742	2460.083077
401.800874	2518.056346
402.182944	2540.741538
402.564952	2487.809423
402.946898	2480.247692
403.328783	2470.165385
403.710606	2497.891731
404.092367	2419.753846
404.474067	2472.685962
404.855705	2450.000769
405.237282	2510.494615
405.618797	2477.727115
406.000250	2510.494615
406.381642	2520.576923
406.762972	2470.165385
407.144240	2404.630385
407.525447	2523.097500
407.906593	2495.371154
408.287677	2465.124231
408.668700	2450.000769
409.049661	2432.356731
409.430560	2490.330000
409.811399	2407.150962
410.192176	2366.821731
410.572891	2465.124231
410.953545	2450.000769
411.334138	2470.165385
411.714669	2437.397885
412.095139	2447.480192
412.475547	2437.397885
412.855894	2394.548077
413.236180	2530.659231
413.616405	2447.480192
413.996568	2442.439038
414.376670	2497.891731
414.756711	2477.727115
415.136691	2409.671538
415.516609	2543.262115
415.896466	2434.877308
416.276262	2553.344423
416.655997	2447.480192
417.035670	2535.700385
417.415283	2500.412308
417.794834	2472.685962
418.174324	2439.918462
418.553753	2513.015192
418.933121	2452.521346
419.312428	2429.836154
419.691674	2510.494615
420.070859	2515.535769
420.449983	2429.836154
420.829045	2520.576923
421.208047	2475.206538
421.586988	2429.836154
421.965867	2528.138654
422.344686	2530.659231
422.723444	2470.165385
423.102141	2457.562500
423.480777	2485.288846
423.859352	2412.192115
424.237866	2525.618077
424.616319	2485.288846
424.994712	2573.509038
425.373044	2487.809423
425.751314	2455.041923
426.129524	2462.603654
426.507673	2523.097500
426.885762	2475.206538
427.263789	2437.397885
427.641756	2477.727115
428.019662	2475.206538
428.397508	2480.247692
428.775292	2447.480192
429.153016	2538.220962
429.530679	2447.480192
429.908282	2487.809423
430.285824	2439.918462
430.663305	2432.356731
431.040726	2477.727115
431.418086	2397.068654
431.795385	2553.344423
432.172624	2455.041923
432.549802	2495.371154
432.926920	2457.562500
433.303977	2518.056346
433.680974	2444.959615
434.057910	2507.974038
434.434786	2497.891731
434.811601	2492.850577
435.188355	2477.727115
435.565050	2412.192115
435.941683	2543.262115
436.318257	2467.644808
436.694770	2389.506923
437.071222	2437.397885
437.447614	2465.124231
437.823946	2550.823846
438.200218	2477.727115
438.576429	2470.165385
438.952580	2392.027500
439.328670	2356.739423
439.704700	2490.330000
440.080670	2437.397885
440.456580	2555.865000
440.832429	2485.288846
441.208218	2432.356731
441.583947	2414.712692
441.959616	2618.879423
442.335224	2548.303269
442.710773	2518.056346
443.086261	2480.247692
443.461689	2447.480192
443.837057	2543.262115
444.212365	2467.644808
444.587612	2427.315577
444.962800	2475.206538
445.337927	2492.850577
445.712995	2515.535769
446.088002	2467.644808
446.462949	2457.562500
446.837837	2553.344423
447.212664	2505.453462
447.587431	2578.550192
447.962139	2417.233269
448.336786	2452.521346
448.711374	2485.288846
449.085901	2442.439038
449.460369	2432.356731
449.834776	2507.974038
450.209124	2455.041923
450.583412	2462.603654
450.957640	2525.618077
451.331808	2510.494615
451.705917	2528.138654
452.079965	2523.097500
452.453954	2450.000769
452.827883	2507.974038
453.201752	2500.412308
453.575562	2533.179808
453.949311	2444.959615
454.323001	2434.877308
454.696632	2593.673654
455.070202	2470.165385
455.443713	2515.535769
455.817164	2467.644808
456.190556	2523.097500
456.563888	2530.659231
456.937160	2475.206538
457.310373	2523.097500
457.683526	2507.974038
458.056619	2465.124231
458.429653	2520.576923
458.802628	2437.397885
459.175542	2434.877308
459.548398	2472.685962
459.921194	2482.768269
460.293930	2560.906154
460.666607	2497.891731
461.039224	2447.480192
461.411782	2475.206538
461.784280	2505.453462
462.156719	2455.041923
462.529099	2492.850577
462.901419	2457.562500
463.273680	2432.356731
463.645882	2487.809423
464.018024	2432.356731
464.390106	2505.453462
464.762130	2412.192115
465.134094	2465.124231
465.505999	2538.220962
465.877845	2480.247692
466.249631	2507.974038
466.621358	2495.371154
466.993026	2497.891731
467.364634	2518.056346
467.736184	2475.206538
468.107674	2543.262115
468.479105	2523.097500
468.850477	2553.344423
469.221790	2533.179808
469.593043	2533.179808
469.964238	2434.877308
470.335373	2495.371154
470.706449	2560.906154
471.077467	2475.206538
471.448425	2439.918462
471.819324	2553.344423
472.190164	2482.768269
472.560945	2530.659231
472.931667	2432.356731
473.302330	2520.576923
473.672934	2475.206538
474.043479	2414.712692
474.413965	2404.630385
474.784393	2555.865000
475.154761	2389.506923
475.525070	2457.562500
475.895321	2487.809423
476.265513	2442.439038
476.635645	2482.768269
477.005719	2429.836154
477.375734	2467.644808
477.745691	2477.727115
478.115588	2450.000769
478.485427	2520.576923
478.855207	2485.288846
479.224928	2437.397885
479.594591	2482.768269
479.964194	2424.795000
480.333739	2570.988462
480.703226	2407.150962
481.072653	2528.138654
481.442022	2444.959615
481.811333	2462.603654
482.180584	2450.000769
482.549777	2553.344423
482.918912	2467.644808
483.287988	2462.603654
483.657005	2596.194231
484.025964	2414.712692
484.394864	2434.877308
484.763706	2482.768269
485.132489	2520.576923
485.501213	2392.027500
485.869879	2513.015192
486.238487	2477.727115
486.607036	2550.823846
486.975527	2444.959615
487.343959	2530.659231
487.712333	2495.371154
488.080648	2447.480192
488.448905	2490.330000
488.817104	2432.356731
489.185244	2606.276538
489.553326	2492.850577
489.921350	2492.850577
490.289315	2490.330000
490.657222	2500.412308
491.025070	2543.262115
491.392861	2555.865000
491.760593	2510.494615
492.128267	2505.453462
492.495883	2510.494615
492.863440	2510.494615
493.230939	2492.850577
493.598380	2540.741538
493.965763	2477.727115
494.333088	2480.247692
494.700354	2576.029615
495.067563	2460.083077
495.434713	2460.083077
495.801805	2492.850577
496.168839	2444.959615
496.535815	2427.315577
496.902733	2470.165385
497.269593	2505.453462
497.636395	2485.288846
498.003139	2528.138654
498.369825	2502.932885
498.736453	2475.206538
499.103023	2497.891731
499.469535	2583.591346
499.835989	2518.056346
500.202385	2439.918462
500.568723	2583.591346
500.935003	2518.056346
501.301226	2560.906154
501.667390	2497.891731
502.033497	2480.247692
502.399546	2475.206538
502.765537	2523.097500
503.131470	2581.070769
503.497345	2447.480192
503.863163	2510.494615
504.228923	2482.768269
504.594625	2530.659231
504.960269	2485.288846
505.325856	2568.467885
505.691385	2515.535769
506.056856	2500.412308
506.422270	2530.659231
506.787625	2477.727115
507.152924	2528.138654
507.518164	2548.303269
507.883347	2455.041923
508.248472	2510.494615
508.613540	2538.220962
508.978550	2487.809423
509.343503	2477.727115
509.708398	2402.109808
510.073236	2490.330000
510.438016	2482.768269
510.802738	2502.932885
511.167403	2528.138654
511.532010	2505.453462
511.896561	2444.959615
512.261053	2545.782692
512.625488	2581.070769
512.989866	2472.685962
513.354186	2513.015192
513.718449	2432.356731
514.082655	2502.932885
514.446803	2480.247692
514.810894	2485.288846
515.174927	2439.918462
515.538904	2510.494615
515.902822	2434.877308
516.266684	2500.412308
516.630488	2518.056346
516.994235	2495.371154
517.357925	2540.741538
517.721558	2523.097500
518.085133	2540.741538
518.448651	2482.768269
518.812112	2437.397885
519.175516	2550.823846
519.538863	2409.671538
519.902152	2470.165385
520.265385	2444.959615
520.628560	2482.768269
520.991678	2470.165385
521.354739	2560.906154
521.717743	2495.371154
522.080690	2518.056346
522.443580	2444.959615
522.806413	2520.576923
523.169189	2465.124231
523.531908	2457.562500
523.894569	2507.974038
524.257174	2538.220962
524.619722	2540.741538
524.982213	2457.562500
525.344647	2528.138654
525.707025	2543.262115
526.069345	2513.015192
526.431608	2485.288846
526.793815	2533.179808
527.155964	2497.891731
527.518057	2565.947308
527.880093	2480.247692
528.242072	2523.097500
528.603995	2576.029615
528.965860	2427.315577
529.327669	2502.932885
529.689421	2550.823846
530.051117	2500.412308
530.412755	2573.509038
530.774337	2462.603654
531.135862	2434.877308
531.497331	2586.111923
531.858743	2399.589231
532.220098	2515.535769
532.581396	2480.247692
532.942638	2457.562500
533.303824	2538.220962
533.664953	2455.041923
534.026025	2432.356731
534.387040	2434.877308
534.747999	2447.480192
535.108902	2573.509038
535.469748	2487.809423
535.830537	2465.124231
536.191270	2482.768269
536.551947	2568.467885
536.912567	2460.083077
537.273131	2487.809423
537.633638	2492.850577
537.994089	2480.247692
538.354483	2558.385577
538.714821	2485.288846
539.075103	2573.509038
539.435328	2500.412308
539.795497	2576.029615
540.155609	2427.315577
540.515665	2543.262115
540.875665	2550.823846
541.235609	2545.782692
541.595496	2553.344423
541.955328	2533.179808
542.315102	2515.535769
542.674821	2465.124231
543.034483	2407.150962
543.394090	2515.535769
543.753640	2495.371154
544.113134	2457.562500
544.472571	2497.891731
544.831953	2462.603654
545.191278	2472.685962
545.550548	2553.344423
545.909761	2528.138654
546.268918	2497.891731
546.628019	2439.918462
546.987064	2555.865000
547.346053	2480.247692
547.704986	2528.138654
548.063863	2492.850577
548.422684	2434.877308
548.781449	2412.192115
549.140158	2515.535769
549.498811	2467.644808
549.857408	2535.700385
550.215949	2558.385577
550.574434	2429.836154
550.932864	2502.932885
551.291237	2437.397885
551.649555	2477.727115
552.007817	2487.809423
552.366022	2465.124231
552.724173	2520.576923
553.082267	2543.262115
553.440305	2593.673654
553.798288	2482.768269
554.156215	2543.262115
554.514086	2465.124231
554.871902	2525.618077
555.229661	2480.247692
555.587365	2500.412308
555.945014	2480.247692
556.302606	2543.262115
556.660143	2452.521346
557.017625	2460.083077
557.375050	2606.276538
557.732421	2450.000769
558.089735	2555.865000
558.446994	2490.330000
558.804197	2530.659231
559.161345	2497.891731
559.518437	2480.247692
559.875474	2432.356731
560.232455	2495.371154
560.589381	2470.165385
560.946251	2452.521346
561.303065	2480.247692
561.659825	2545.782692
562.016528	2467.644808
562.373177	2470.165385
562.729770	2510.494615
563.086307	2535.700385
563.442789	2603.755962
563.799216	2573.509038
564.155587	2616.358846
564.511904	2465.124231
564.868164	2477.727115
565.224370	2429.836154
565.580520	2535.700385
565.936615	2442.439038
566.292654	2492.850577
566.648638	2467.644808
567.004567	2475.206538
567.360441	2568.467885
567.716260	2505.453462
568.072023	2465.124231
568.427732	2548.303269
568.783385	2477.727115
569.138982	2553.344423
569.494525	2533.179808
569.850013	2452.521346
570.205445	2497.891731
570.560823	2533.179808
570.916145	2576.029615
571.271412	2465.124231
571.626625	2465.124231
571.981782	2558.385577
572.336884	2460.083077
572.691931	2502.932885
573.046923	2553.344423
573.401860	2538.220962
573.756743	2422.274423
574.111570	2525.618077
574.466342	2444.959615
574.821059	2510.494615
575.175722	2452.521346
575.530330	2505.453462
575.884882	2467.644808
576.239380	2467.644808
576.593823	2434.877308
576.948211	2470.165385
577.302544	2523.097500
577.656823	2472.685962
578.011047	2533.179808
578.365216	2538.220962
578.719330	2500.412308
579.073389	2444.959615
579.427394	2570.988462
579.781344	2414.712692
580.135239	2553.344423
580.489080	2460.083077
580.842866	2543.262115
581.196597	2490.330000
581.550273	2507.974038
581.903895	2510.494615
582.257463	2545.782692
582.610975	2505.453462
582.964434	2470.165385
583.317837	2649.126346
583.671186	2530.659231
584.024481	2533.179808
584.377721	2487.809423
584.730906	2480.247692
585.084037	2422.274423
585.437113	2520.576923
585.790135	2525.618077
586.143103	2513.015192
586.496016	2505.453462
586.848874	2480.247692
587.201679	2470.165385
587.554428	2472.685962
587.907124	2490.330000
588.259765	2437.397885
588.612352	2520.576923
588.964884	2515.535769
589.317362	2480.247692
589.669786	2535.700385
590.022155	2452.521346
590.374470	2505.453462
590.726731	2548.303269
591.078937	2455.041923
591.431090	2432.356731
591.783188	2525.618077
592.135232	2538.220962
592.487222	2507.974038
592.839157	2507.974038
593.191038	2530.659231
593.542866	2533.179808
593.894639	2528.138654
594.246358	2523.097500
594.598022	2462.603654
594.949633	2525.618077
595.301190	2480.247692
595.652692	2507.974038
596.004141	2439.918462
596.355535	2485.288846
596.706876	2482.768269
597.058162	2510.494615
597.409395	2502.932885
597.760573	2500.412308
598.111698	2442.439038
598.462768	2525.618077
598.813785	2500.412308
599.164748	2500.412308
599.515657	2424.795000
599.866511	2465.124231
600.217312	2513.015192
600.568060	2535.700385
600.918753	2419.753846
601.269392	2513.015192
601.619978	2548.303269
601.970510	2495.371154
602.320988	2386.986346
602.671412	2505.453462
603.021783	2485.288846
603.372100	2553.344423
603.722363	2553.344423
604.072572	2533.179808
604.422728	2452.521346
604.772830	2528.138654
605.122878	2470.165385
605.472872	2545.782692
605.822813	2515.535769
606.172701	2500.412308
606.522534	2477.727115
606.872314	2515.535769
607.222041	2467.644808
607.571714	2462.603654
607.921333	2505.453462
608.270899	2397.068654
608.620411	2502.932885
608.969870	2447.480192
609.319276	2505.453462
609.668627	2492.850577
610.017926	2553.344423
610.367171	2505.453462
610.716362	2568.467885
611.065500	2573.509038
611.414585	2530.659231
611.763616	2520.576923
612.112594	2487.809423
612.461518	2523.097500
612.810389	2444.959615
613.159207	2581.070769
613.507971	2505.453462
613.856682	2477.727115
614.205340	2404.630385
614.553945	2548.303269
614.902496	2581.070769
615.250994	2523.097500
615.599439	2528.138654
615.947830	2487.809423
616.296169	2507.974038
616.644454	2525.618077
616.992686	2525.618077
617.340864	2487.809423
617.688990	2563.426731
618.037063	2427.315577
618.385082	2553.344423
618.733048	2487.809423
619.080961	2462.603654
619.428821	2530.659231
619.776628	2462.603654
620.124382	2485.288846
620.472083	2472.685962
620.819731	2540.741538
621.167326	2560.906154
621.514868	2485.288846
621.862357	2573.509038
622.209793	2444.959615
622.557176	2601.235385
622.904506	2429.836154
623.251783	2548.303269
623.599007	2581.070769
623.946179	2462.603654
624.293297	2495.371154
624.640363	2495.371154
624.987376	2467.644808
625.334336	2429.836154
625.681243	2565.947308
626.028097	2573.509038
626.374899	2442.439038
626.721647	2543.262115
627.068343	2505.453462
627.414987	2523.097500
627.761577	2520.576923
628.108115	2465.124231
628.454600	2525.618077
628.801032	2593.673654
629.147412	2570.988462
629.493739	2465.124231
629.840014	2533.179808
630.186236	2432.356731
630.532405	2495.371154
630.878521	2565.947308
631.224585	2518.056346
631.570597	2495.371154
631.916556	2555.865000
632.262462	2583.591346
632.608316	2533.179808
632.954117	2553.344423
633.299866	2558.385577
633.645562	2452.521346
633.991206	2485.288846
634.336797	2470.165385
634.682336	2510.494615
635.027823	2467.644808
635.373257	2525.618077
635.718639	2588.632500
636.063968	2500.412308
636.409245	2475.206538
636.754470	2543.262115
637.099642	2507.974038
637.444762	2558.385577
637.789829	2535.700385
638.134845	2487.809423
638.479808	2510.494615
638.824719	2533.179808
639.169577	2467.644808
639.514383	2457.562500
639.859137	2553.344423
640.203839	2429.836154
640.548489	2490.330000
640.893086	2472.685962
641.237632	2598.714808
641.582125	2540.741538
641.926566	2470.165385
642.270955	2485.288846
642.615292	2495.371154
642.959576	2452.521346
643.303809	2490.330000
643.647990	2450.000769
643.992118	2457.562500
644.336195	2442.439038
644.680219	2560.906154
645.024192	2455.041923
645.368112	2560.906154
645.711981	2507.974038
646.055797	2550.823846
646.399562	2480.247692
646.743274	2578.550192
647.086935	2409.671538
647.430544	2487.809423
647.774101	2450.000769
648.117606	2540.741538
648.461059	2447.480192
648.804460	2530.659231
649.147810	2538.220962
649.491108	2565.947308
649.834354	2525.618077
650.177548	2583.591346
650.520690	2606.276538
650.863781	2422.274423
651.206820	2462.603654
651.549807	2543.262115
651.892742	2485.288846
652.235626	2467.644808
652.578458	2495.371154
652.921238	2576.029615
653.263967	2470.165385
653.606644	2492.850577
653.949269	2518.056346
654.291843	2487.809423
654.634365	2497.891731
654.976836	2450.000769
655.319255	2480.247692
655.661622	2497.891731
656.003938	2538.220962
656.346203	2548.303269
656.688416	2409.671538
657.030577	2545.782692
657.372687	2502.932885
657.714746	2553.344423
658.056753	2528.138654
658.398708	2480.247692
658.740612	2477.727115
659.082465	2500.412308
659.424266	2450.000769
659.766016	2502.932885
660.107715	2480.247692
660.449362	2497.891731
660.790958	2460.083077
661.132503	2450.000769
661.473996	2565.947308
661.815438	2490.330000
662.156829	2472.685962
662.498168	2480.247692
662.839456	2490.330000
663.180693	2447.480192
663.521879	2470.165385
663.863013	2439.918462
664.204097	2500.412308
664.545129	2404.630385
664.886110	2472.685962
665.227040	2475.206538
665.567918	2515.535769
665.908746	2505.453462
666.249522	2523.097500
666.590248	2530.659231
666.930922	2588.632500
667.271545	2452.521346
667.612118	2497.891731
667.952639	2429.836154
668.293109	2485.288846
668.633528	2437.397885
668.973896	2515.535769
669.314213	2427.315577
669.654480	2465.124231
669.994695	2442.439038
670.334859	2558.385577
670.674973	2492.850577
671.015035	2518.056346
671.355047	2487.809423
671.695008	2500.412308
672.034918	2432.356731
672.374777	2485.288846
672.714585	2492.850577
673.054342	2487.809423
673.394049	2520.576923
673.733705	2530.659231
674.073310	2482.768269
674.412864	2565.947308
674.752368	2417.233269
675.091820	2460.083077
675.431223	2470.165385
675.770574	2470.165385
676.109875	2528.138654
676.449125	2462.603654
676.788324	2525.618077
677.127473	2475.206538
677.466571	2560.906154
677.805619	2497.891731
678.144616	2460.083077
678.483562	2492.850577
678.822458	2528.138654
679.161303	2515.535769
679.500098	2392.027500
679.838842	2444.959615
680.177535	2485.288846
680.516179	2381.945192
680.854771	2472.685962
681.193314	2485.288846
681.531805	2502.932885
681.870247	2492.850577
682.208638	2490.330000
682.546978	2444.959615
682.885268	2543.262115
683.223508	2510.494615
683.561697	2389.506923
683.899836	2485.288846
684.237925	2492.850577
684.575963	2555.865000
684.913951	2616.358846
685.251889	2555.865000
685.589776	2533.179808
685.927614	2475.206538
686.265401	2639.044038
686.603137	2502.932885
686.940824	2507.974038
687.278460	2465.124231
687.616046	2487.809423
687.953582	2507.974038
688.291068	2550.823846
688.628504	2457.562500
688.965889	2528.138654
689.303224	2538.220962
689.640510	2513.015192
689.977745	2611.317692
690.314930	2477.727115
690.652065	2528.138654
690.989150	2533.179808
691.326185	2470.165385
691.663170	2535.700385
692.000105	2492.850577
692.336990	2538.220962
692.673825	2419.753846
693.010610	2530.659231
693.347345	2417.233269
693.684030	2555.865000
694.020665	2548.303269
694.357251	2555.865000
694.693786	2545.782692
695.030272	2513.015192
695.366707	2558.385577
695.703093	2553.344423
696.039429	2457.562500
696.375716	2548.303269
696.711952	2550.823846
697.048139	2523.097500
697.384276	2550.823846
697.720363	2497.891731
698.056400	2533.179808
698.392388	2465.124231
698.728326	2500.412308
699.064214	2485.288846
699.400053	2497.891731
699.735842	2439.918462
700.071581	2502.932885
700.407270	2555.865000
700.742910	2457.562500
701.078501	2623.920577
701.414042	2560.906154
701.749533	2565.947308
702.084974	2548.303269
702.420366	2492.850577
702.755709	2475.206538
703.091002	2540.741538
703.426246	2523.097500
703.761440	2497.891731
704.096584	2455.041923
704.431679	2482.768269
704.766725	2480.247692
705.101721	2470.165385
705.436668	2528.138654
705.771565	2523.097500
706.106413	2510.494615
706.441212	2429.836154
706.775961	2505.453462
707.110661	2507.974038
707.445311	2520.576923
707.779913	2475.206538
708.114465	2500.412308
708.448967	2578.550192
708.783421	2472.685962
709.117825	2455.041923
709.452180	2513.015192
709.786485	2475.206538
710.120742	2437.397885
710.454949	2500.412308
710.789107	2507.974038
711.123216	2485.288846
711.457275	2543.262115
711.791286	2507.974038
712.125247	2480.247692
712.459159	2523.097500
712.793023	2543.262115
713.126837	2525.618077
713.460602	2457.562500
713.794318	2460.083077
714.127985	2510.494615
714.461602	2460.083077
714.795171	2487.809423
715.128691	2457.562500
715.462162	2540.741538
715.795584	2490.330000
716.128957	2480.247692
716.462281	2412.192115
716.795556	2533.179808
717.128782	2520.576923
717.461960	2515.535769
717.795088	2525.618077
718.128167	2444.959615
718.461198	2505.453462
718.794180	2565.947308
719.127113	2507.974038
719.459997	2523.097500
719.792833	2528.138654
720.125619	2523.097500
720.458357	2502.932885
720.791046	2432.356731
721.123686	2475.206538
721.456278	2432.356731
721.788821	2540.741538
722.121315	2530.659231
722.453761	2419.753846
722.786158	2487.809423
723.118506	2480.247692
723.450805	2470.165385
723.783056	2455.041923
724.115259	2565.947308
724.447412	2487.809423
724.779518	2530.659231
725.111574	2379.424615
725.443582	2482.768269
725.775542	2487.809423
726.107453	2558.385577
726.439315	2414.712692
726.771129	2570.988462
727.102895	2495.371154
727.434612	2422.274423
727.766281	2437.397885
728.097901	2553.344423
728.429473	2470.165385
728.760996	2457.562500
729.092471	2525.618077
729.423897	2593.673654
729.755276	2465.124231
730.086606	2540.741538
730.417887	2507.974038
730.749120	2528.138654
731.080305	2475.206538
731.411442	2583.591346
731.742530	2470.165385
732.073570	2482.768269
732.404562	2452.521346
732.735506	2452.521346
733.066401	2490.330000
733.397249	2490.330000
733.728048	2450.000769
734.058798	2510.494615
734.389501	2505.453462
734.720156	2530.659231
735.050762	2429.836154
735.381320	2540.741538
735.711831	2475.206538
736.042293	2518.056346
736.372707	2470.165385
736.703073	2545.782692
737.033391	2414.712692
737.363661	2482.768269
737.693883	2543.262115
738.024056	2485.288846
738.354182	2442.439038
738.684260	2412.192115
739.014290	2470.165385
739.344272	2581.070769
739.674207	2457.562500
740.004093	2465.124231
740.333931	2424.795000
740.663722	2475.206538
740.993464	2444.959615
741.323159	2558.385577
741.652806	2523.097500
741.982405	2447.480192
742.311956	2457.562500
742.641460	2492.850577
742.970915	2502.932885
743.300323	2460.083077
743.629683	2608.797115
743.958996	2497.891731
744.288260	2444.959615
744.617477	2465.124231
744.946647	2540.741538
745.275768	2497.891731
745.604842	2588.632500
745.933869	2538.220962
746.262847	2523.097500
746.591778	2465.124231
746.920662	2412.192115
747.249498	2543.262115
747.578286	2452.521346
747.907027	2515.535769
748.235720	2397.068654
748.564365	2525.618077
748.892963	2419.753846
749.221514	2485.288846
749.550017	2538.220962
749.878473	2528.138654
750.206881	2482.768269
750.535242	2490.330000
750.863555	2523.097500
751.191821	2523.097500
751.520039	2502.932885
751.848210	2525.618077
752.176334	2460.083077
752.504411	2555.865000
752.832440	2505.453462
753.160421	2450.000769
753.488356	2492.850577
753.816243	2465.124231
754.144082	2432.356731
754.471875	2427.315577
754.799620	2429.836154
755.127318	2460.083077
755.454969	2422.274423
755.782572	2510.494615
756.110129	2482.768269
756.437638	2565.947308
756.765100	2444.959615
757.092515	2520.576923
757.419882	2470.165385
757.747203	2510.494615
758.074477	2502.932885
758.401703	2467.644808
758.728882	2455.041923
759.056014	2450.000769
759.383099	2525.618077
759.710138	2470.165385
760.037129	2457.562500
760.364073	2507.974038
760.690970	2450.000769
761.017820	2477.727115
761.344623	2444.959615
761.671379	2492.850577
761.998088	2492.850577
762.324751	2515.535769
762.651366	2442.439038
762.977935	2437.397885
763.304456	2475.206538
763.630931	2429.836154
763.957359	2452.521346
764.283740	2465.124231
764.610074	2492.850577
764.936362	2543.262115
765.262602	2485.288846
765.588796	2530.659231
765.914943	2583.591346
766.241044	2535.700385
766.567097	2616.358846
766.893104	2482.768269
767.219064	2490.330000
767.544978	2444.959615
767.870845	2447.480192
768.196665	2518.056346
768.522438	2535.700385
768.848165	2475.206538
769.173846	2462.603654
769.499479	2507.974038
769.825066	2477.727115
770.150607	2422.274423
770.476101	2477.727115
770.801548	2444.959615
771.126949	2432.356731
771.452303	2507.974038
771.777611	2455.041923
772.102872	2447.480192
772.428087	2528.138654
772.753256	2495.371154
773.078378	2437.397885
773.403453	2528.138654
773.728482	2593.673654
774.053465	2568.467885
774.378401	2523.097500
774.703291	2507.974038
775.028135	2533.179808
775.352932	2460.083077
775.677683	2518.056346
776.002388	2485.288846
776.327046	2452.521346
776.651658	2485.288846
776.976224	2485.288846
777.300743	2507.974038
777.625216	2538.220962
777.949643	2535.700385
778.274024	2487.809423
778.598359	2528.138654
778.922647	2457.562500
779.246889	2502.932885
779.571086	2487.809423
779.895236	2538.220962
780.219339	2477.727115
780.543397	2487.809423
780.867409	2581.070769
781.191374	2457.562500
781.515294	2472.685962
781.839167	2442.439038
782.162995	2563.426731
782.486776	2515.535769
782.810511	2467.644808
783.134201	2490.330000
783.457844	2515.535769
783.781441	2455.041923
784.104993	2548.303269
784.428498	2472.685962
784.751958	2455.041923
785.075372	2507.974038
785.398739	2447.480192
785.722061	2407.150962
786.045337	2434.877308
786.368568	2452.521346
786.691752	2568.467885
787.014891	2447.480192
787.337983	2593.673654
787.661030	2528.138654
787.984031	2510.494615
788.306987	2487.809423
788.629897	2412.192115
788.952760	2576.029615
789.275579	2442.439038
789.598351	2490.330000
789.921078	2462.603654
790.243759	2555.865000
790.566395	2497.891731
790.888984	2565.947308
791.211529	2480.247692
791.534027	2500.412308
791.856480	2366.821731
792.178888	2568.467885
792.501249	2563.426731
792.823566	2495.371154
793.145836	2444.959615
793.468062	2513.015192
793.790241	2457.562500
794.112375	2525.618077
794.434464	2548.303269
794.756507	2467.644808
795.078505	2530.659231
795.400457	2553.344423
795.722364	2523.097500
796.044226	2553.344423
796.366042	2442.439038
796.687812	2495.371154
797.009538	2470.165385
797.331218	2450.000769
797.652852	2480.247692
797.974442	2500.412308
798.295986	2513.015192
798.617484	2470.165385
798.938938	2525.618077
799.260346	2429.836154
799.581709	2535.700385
799.903026	2525.618077
800.224299	2525.618077
800.545526	2507.974038
800.866708	2495.371154
801.187845	2477.727115
801.508936	2502.932885
801.829983	2548.303269
802.150984	2502.932885
802.471940	2492.850577
802.792851	2452.521346
803.113717	2576.029615
803.434538	2437.397885
803.755314	2510.494615
804.076045	2515.535769
804.396731	2515.535769
804.717372	2513.015192
805.037967	2477.727115
805.358518	2545.782692
805.679024	2518.056346
805.999485	2462.603654
806.319901	2465.124231
806.640272	2492.850577
806.960598	2427.315577
807.280879	2553.344423
807.601115	2505.453462
807.921306	2457.562500
808.241453	2414.712692
808.561554	2523.097500
808.881611	2555.865000
809.201623	2462.603654
809.521590	2497.891731
809.841513	2492.850577
810.161390	2450.000769
810.481223	2502.932885
810.801011	2495.371154
811.120755	2558.385577
811.440453	2475.206538
811.760107	2475.206538
812.079716	2505.453462
812.399281	2447.480192
812.718801	2583.591346
813.038276	2412.192115
813.357707	2507.974038
813.677093	2442.439038
813.996434	2452.521346
814.315731	2550.823846
814.634983	2480.247692
814.954191	2457.562500
815.273354	2490.330000
815.592473	2439.918462
815.911547	2455.041923
816.230577	2540.741538
816.549562	2462.603654
816.868502	2510.494615
817.187399	2465.124231
817.506250	2442.439038
817.825058	2409.671538
818.143821	2450.000769
818.462539	2520.576923
818.781213	2528.138654
819.099843	2495.371154
819.418429	2515.535769
819.736970	2460.083077
820.055466	2419.753846
820.373919	2457.562500
820.692327	2518.056346
821.010691	2518.056346
821.329011	2460.083077
821.647286	2485.288846
821.965517	2513.015192
822.283704	2507.974038
822.601847	2548.303269
822.919945	2485.288846
823.237999	2528.138654
823.556010	2535.700385
823.873976	2472.685962
824.191897	2513.015192
824.509775	2528.138654
824.827609	2437.397885
825.145398	2482.768269
825.463144	2505.453462
825.780845	2530.659231
826.098502	2442.439038
826.416116	2462.603654
826.733685	2490.330000
827.051210	2533.179808
827.368692	2424.795000
827.686129	2480.247692
828.003522	2490.330000
828.320872	2530.659231
828.638177	2495.371154
828.955439	2442.439038
829.272656	2470.165385
829.589830	2505.453462
829.906960	2460.083077
830.224046	2528.138654
830.541088	2424.795000
830.858086	2399.589231
831.175041	2381.945192
831.491952	2475.206538
831.808819	2392.027500
832.125642	2437.397885
832.442421	2555.865000
832.759157	2460.083077
833.075849	2457.562500
833.392497	2510.494615
833.709101	2497.891731
834.025662	2497.891731
834.342179	2490.330000
834.658653	2477.727115
834.975083	2515.535769
835.291469	2533.179808
835.607811	2533.179808
835.924110	2465.124231
836.240366	2568.467885
836.556578	2528.138654
836.872746	2444.959615
837.188871	2540.741538
837.504952	2417.233269
837.820990	2548.303269
838.136984	2553.344423
838.452935	2417.233269
838.768842	2555.865000
839.084706	2442.439038
839.400526	2558.385577
839.716303	2465.124231
840.032037	2447.480192
840.347727	2553.344423
840.663373	2510.494615
840.978977	2487.809423
841.294537	2497.891731
841.610054	2507.974038
841.925527	2515.535769
842.240957	2515.535769
842.556344	2513.015192
842.871687	2467.644808
843.186987	2523.097500
843.502244	2502.932885
843.817458	2487.809423
844.132629	2530.659231
844.447756	2538.220962
844.762840	2444.959615
845.077881	2545.782692
845.392879	2598.714808
845.707833	2424.795000
846.022745	2507.974038
846.337613	2538.220962
846.652438	2538.220962
846.967221	2452.521346
847.281960	2412.192115
847.596656	2472.685962
847.911309	2457.562500
848.225919	2513.015192
848.540485	2470.165385
848.855009	2485.288846
849.169490	2495.371154
849.483928	2533.179808
849.798323	2465.124231
850.112675	2490.330000
850.426984	2467.644808
850.741251	2386.986346
851.055474	2455.041923
851.369654	2502.932885
851.683792	2495.371154
851.997887	2523.097500
852.311938	2457.562500
852.625947	2467.644808
852.939914	2495.371154
853.253837	2437.397885
853.567718	2606.276538
853.881555	2472.685962
854.195350	2442.439038
854.509103	2502.932885
854.822812	2492.850577
855.136479	2528.138654
855.450103	2455.041923
855.763685	2404.630385
856.077224	2460.083077
856.390720	2535.700385
856.704173	2467.644808
857.017584	2513.015192
857.330953	2523.097500
857.644278	2586.111923
857.957561	2462.603654
858.270802	2371.862885
858.584000	2475.206538
858.897155	2520.576923
859.210268	2533.179808
859.523339	2444.959615
859.836367	2439.918462
860.149352	2558.385577
860.462295	2475.206538
860.775195	2510.494615
861.088054	2432.356731
861.400869	2520.576923
861.713642	2417.233269
862.026373	2543.262115
862.339062	2409.671538
862.651708	2429.836154
862.964312	2560.906154
863.276873	2477.727115
863.589392	2434.877308
863.901869	2505.453462
864.214303	2581.070769
864.526696	2444.959615
864.839045	2497.891731
865.151353	2558.385577
865.463619	2477.727115
865.775842	2576.029615
866.088023	2407.150962
866.400162	2407.150962
866.712258	2457.562500
867.024313	2472.685962
867.336325	2457.562500
867.648296	2538.220962
867.960224	2452.521346
868.272110	2543.262115
868.583954	2570.988462
868.895755	2497.891731
869.207515	2528.138654
869.519233	2429.836154
869.830909	2455.041923
870.142542	2581.070769
870.454134	2492.850577
870.765684	2553.344423
871.077191	2369.342308
871.388657	2497.891731
871.700081	2505.453462
872.011463	2419.753846
872.322803	2485.288846
872.634101	2495.371154
872.945357	2497.891731
873.256571	2467.644808
873.567744	2525.618077
873.878874	2502.932885
874.189963	2487.809423
874.501010	2507.974038
874.812015	2568.467885
875.122979	2533.179808
875.433900	2429.836154
875.744780	2422.274423
876.055618	2543.262115
876.366415	2507.974038
876.677169	2515.535769
876.987882	2419.753846
877.298554	2586.111923
877.609183	2480.247692
877.919771	2457.562500
878.230317	2502.932885
878.540822	2490.330000
878.851285	2538.220962
879.161707	2444.959615
879.472087	2538.220962
879.782425	2450.000769
880.092722	2495.371154
880.402977	2487.809423
880.713191	2482.768269
881.023363	2507.974038
881.333494	2505.453462
881.643583	2492.850577
881.953631	2432.356731
882.263637	2500.412308
882.573602	2513.015192
882.883526	2467.644808
883.193408	2500.412308
883.503248	2419.753846
883.813048	2586.111923
884.122806	2465.124231
884.432522	2533.179808
884.742197	2399.589231
885.051831	2450.000769
885.361424	2528.138654
885.670975	2417.233269
885.980485	2520.576923
886.289954	2470.165385
886.599382	2500.412308
886.908768	2528.138654
887.218113	2487.809423
887.527417	2485.288846
887.836680	2485.288846
888.145901	2505.453462
888.455082	2497.891731
888.764221	2553.344423
889.073319	2381.945192
889.382376	2457.562500
889.691392	2412.192115
890.000366	2386.986346
890.309300	2505.453462
890.618193	2485.288846
890.927044	2492.850577
891.235855	2576.029615
891.544625	2462.603654
891.853353	2553.344423
892.162041	2462.603654
892.470687	2439.918462
892.779293	2538.220962
893.087858	2570.988462
893.396381	2429.836154
893.704864	2439.918462
894.013306	2460.083077
894.321707	2462.603654
894.630068	2555.865000
894.938387	2455.041923
895.246665	2505.453462
895.554903	2480.247692
895.863100	2480.247692
896.171256	2447.480192
896.479371	2477.727115
896.787446	2442.439038
897.095480	2495.371154
897.403473	2581.070769
897.711425	2422.274423
898.019336	2528.138654
898.327207	2429.836154
898.635038	2507.974038
898.942827	2500.412308
899.250576	2525.618077
899.558284	2513.015192
899.865952	2525.618077
900.173579	2467.644808
900.481165	2500.412308
900.788711	2437.397885
901.096216	2495.371154
901.403681	2472.685962
901.711105	2462.603654
902.018489	2480.247692
902.325832	2492.850577
902.633135	2482.768269
902.940397	2485.288846
903.247619	2450.000769
903.554800	2515.535769
903.861941	2444.959615
904.169041	2470.165385
904.476101	2407.150962
904.783121	2505.453462
905.090100	2447.480192
905.397039	2502.932885
905.703938	2621.400000
906.010796	2432.356731
906.317614	2472.685962
906.624391	2432.356731
906.931129	2565.947308
907.237826	2465.124231
907.544483	2455.041923
907.851099	2505.453462
908.157675	2394.548077
908.464211	2482.768269
908.770707	2502.932885
909.077163	2518.056346
909.383578	2457.562500
909.689954	2492.850577
909.996289	2576.029615
910.302584	2480.247692
910.608839	2507.974038
910.915054	2528.138654
911.221229	2394.548077
911.527363	2608.797115
911.833458	2631.482308
912.139513	2523.097500
912.445527	2523.097500
912.751502	2482.768269
913.057436	2467.644808
913.363331	2495.371154
913.669186	2490.330000
913.975000	2570.988462
914.280775	2460.083077
914.586510	2518.056346
914.892205	2477.727115
915.197859	2530.659231
915.503475	2470.165385
915.809050	2475.206538
916.114585	2553.344423
916.420081	2538.220962
916.725536	2495.371154
917.030952	2500.412308
917.336328	2442.439038
917.641665	2434.877308
917.946961	2553.344423
918.252218	2487.809423
918.557435	2490.330000
918.862612	2480.247692
919.167750	2523.097500
919.472848	2485.288846
919.777906	2553.344423
920.082925	2470.165385
920.387904	2586.111923
920.692843	2429.836154
920.997743	2402.109808
921.302603	2540.741538
921.607423	2530.659231
921.912204	2477.727115
922.216946	2460.083077
922.521647	2455.041923
922.826310	2525.618077
923.130932	2439.918462
923.435516	2457.562500
923.740059	2485.288846
924.044564	2442.439038
924.349028	2507.974038
924.653454	2485.288846
924.957840	2462.603654
925.262186	2603.755962
925.566493	2535.700385
925.870761	2452.521346
926.174989	2502.932885
926.479178	2555.865000
926.783328	2505.453462
927.087438	2538.220962
927.391509	2596.194231
927.695541	2475.206538
927.999533	2472.685962
928.303486	2457.562500
928.607400	2442.439038
928.911275	2477.727115
929.215110	2543.262115
929.518906	2475.206538
929.822663	2518.056346
930.126381	2505.453462
930.430060	2467.644808
930.733699	2475.206538
931.037299	2497.891731
931.340861	2538.220962
931.644383	2548.303269
931.947866	2452.521346
932.251309	2487.809423
932.554714	2528.138654
932.858080	2518.056346
933.161407	2518.056346
933.464694	2550.823846
933.767943	2402.109808
934.071153	2518.056346
934.374323	2427.315577
934.677455	2412.192115
934.980548	2424.795000
935.283602	2480.247692
935.586617	2563.426731
935.889593	2492.850577
936.192530	2409.671538
936.495428	2487.809423
936.798287	2520.576923
937.101108	2465.124231
937.403890	2475.206538
937.706632	2505.453462
938.009336	2477.727115
938.312002	2535.700385
938.614628	2523.097500
938.917216	2477.727115
939.219765	2497.891731
939.522275	2523.097500
939.824747	2497.891731
940.127179	2500.412308
940.429573	2392.027500
940.731929	2507.974038
941.034246	2419.753846
941.336524	2427.315577
941.638763	2465.124231
941.940964	2419.753846
942.243126	2386.986346
942.545250	2591.153077
942.847335	2386.986346
943.149381	2533.179808
943.451389	2565.947308
943.753359	2472.685962
944.055290	2455.041923
944.357182	2432.356731
944.659036	2444.959615
944.960851	2497.891731
945.262628	2510.494615
945.564367	2477.727115
945.866067	2475.206538
946.167729	2477.727115
946.469352	2528.138654
946.770937	2450.000769
947.072484	2386.986346
947.373992	2467.644808
947.675462	2477.727115
947.976893	2462.603654
948.278286	2455.041923
948.579641	2507.974038
948.880958	2427.315577
949.182236	2492.850577
949.483476	2500.412308
949.784678	2563.426731
950.085841	2452.521346
950.386967	2492.850577
950.688054	2500.412308
950.989103	2470.165385
951.290114	2480.247692
951.591087	2515.535769
951.892021	2485.288846
952.192917	2515.535769
952.493776	2495.371154
952.794596	2460.083077
953.095378	2568.467885
953.396122	2442.439038
953.696828	2497.891731
953.997496	2477.727115
954.298126	2409.671538
954.598718	2523.097500
954.899272	2545.782692
955.199788	2477.727115
955.500266	2502.932885
955.800706	2480.247692
956.101108	2540.741538
956.401472	2593.673654
956.701798	2447.480192
957.002087	2555.865000
957.302337	2475.206538
957.602550	2545.782692
957.902724	2535.700385
958.202861	2472.685962
958.502960	2513.015192
958.803022	2371.862885
959.103045	2477.727115
959.403031	2523.097500
959.702979	2485.288846
960.002889	2550.823846
960.302762	2540.741538
960.602596	2528.138654
960.902393	2404.630385
961.202153	2482.768269
961.501875	2455.041923
961.801559	2490.330000
962.101205	2548.303269
962.400814	2482.768269
962.700385	2540.741538
962.999918	2467.644808
963.299414	2520.576923
963.598873	2502.932885
963.898293	2490.330000
964.197677	2404.630385
964.497022	2588.632500
964.796331	2470.165385
965.095601	2460.083077
965.394835	2500.412308
965.694030	2502.932885
965.993189	2558.385577
966.292309	2450.000769
966.591393	2510.494615
966.890439	2434.877308
967.189447	2555.865000
967.488419	2442.439038
967.787353	2485.288846
968.086249	2455.041923
968.385108	2412.192115
968.683930	2523.097500
968.982714	2450.000769
969.281462	2558.385577
969.580172	2437.397885
969.878844	2364.301154
970.177480	2455.041923
970.476078	2450.000769
970.774639	2452.521346
971.073162	2442.439038
971.371649	2457.562500
971.670098	2462.603654
971.968510	2480.247692
972.266885	2495.371154
972.565223	2560.906154
972.863524	2507.974038
973.161788	2495.371154
973.460014	2475.206538
973.758204	2523.097500
974.056356	2505.453462
974.354471	2457.562500
974.652550	2507.974038
974.950591	2507.974038
975.248595	2570.988462
975.546563	2563.426731
975.844493	2492.850577
976.142386	2593.673654
976.440243	2472.685962
976.738062	2424.795000
977.035845	2369.342308
977.333590	2419.753846
977.631299	2500.412308
977.928971	2480.247692
978.226606	2497.891731
978.524204	2535.700385
978.821765	2495.371154
979.119290	2495.371154
979.416777	2500.412308
979.714228	2437.397885
980.011642	2432.356731
980.309020	2502.932885
980.606360	2437.397885
980.903664	2404.630385
981.200931	2523.097500
981.498162	2424.795000
981.795356	2480.247692
982.092513	2533.179808
982.389633	2462.603654
982.686717	2515.535769
982.983764	2437.397885
983.280775	2570.988462
983.577749	2555.865000
983.874686	2495.371154
984.171587	2492.850577
984.468451	2477.727115
984.765279	2439.918462
985.062070	2482.768269
985.358824	2523.097500
985.655543	2465.124231
985.952224	2623.920577
986.248869	2455.041923
986.545478	2490.330000
986.842050	2505.453462
987.138586	2417.233269
987.435086	2500.412308
987.731549	2447.480192
988.027975	2455.041923
988.324366	2523.097500
988.620719	2477.727115
988.917037	2560.906154
989.213318	2492.850577
989.509563	2553.344423
989.805772	2475.206538
990.101944	2477.727115
990.398080	2404.630385
990.694180	2485.288846
990.990244	2475.206538
991.286271	2482.768269
991.582262	2407.150962
991.878217	2482.768269
992.174136	2462.603654
992.470019	2467.644808
992.765865	2500.412308
993.061676	2583.591346
993.357450	2530.659231
993.653188	2485.288846
993.948890	2518.056346
994.244556	2475.206538
994.540186	2465.124231
994.835780	2505.453462
995.131337	2538.220962
995.426859	2563.426731
995.722345	2386.986346
996.017795	2533.179808
996.313208	2381.945192
996.608586	2543.262115
996.903928	2439.918462
997.199234	2528.138654
997.494504	2465.124231
997.789738	2520.576923
998.084936	2455.041923
998.380099	2500.412308
998.675225	2477.727115
998.970316	2497.891731
999.265371	2515.535769
999.560390	2477.727115
999.855373	2510.494615
1000.150320	2513.015192
1000.445232	2482.768269
1000.740108	2502.932885
1001.034948	2477.727115
1001.329752	2505.453462
1001.624521	2525.618077
1001.919254	2540.741538
1002.213951	2485.288846
1002.508613	2523.097500
1002.803239	2467.644808
1003.097829	2482.768269
1003.392384	2525.618077
1003.686903	2583.591346
1003.981386	2490.330000
1004.275834	2437.397885
1004.570246	2505.453462
1004.864623	2492.850577
1005.158964	2540.741538
1005.453270	2545.782692
1005.747540	2452.521346
1006.041775	2487.809423
1006.335974	2480.247692
1006.630138	2429.836154
1006.924266	2422.274423
1007.218359	2434.877308
1007.512416	2492.850577
1007.806438	2439.918462
1008.100425	2500.412308
1008.394376	2520.576923
1008.688292	2487.809423
1008.982172	2460.083077
1009.276017	2500.412308
1009.569827	2480.247692
1009.863602	2530.659231
1010.157341	2462.603654
1010.451045	2505.453462
1010.744714	2424.795000
1011.038347	2490.330000
1011.331945	2404.630385
1011.625508	2470.165385
1011.919036	2538.220962
1012.212528	2427.315577
1012.505986	2450.000769
1012.799408	2432.356731
1013.092795	2475.206538
1013.386147	2472.685962
1013.679464	2442.439038
1013.972745	2465.124231
1014.265992	2424.795000
1014.559204	2553.344423
1014.852380	2465.124231
1015.145521	2500.412308
1015.438628	2507.974038
1015.731699	2507.974038
1016.024736	2439.918462
1016.317737	2487.809423
1016.610703	2515.535769
1016.903635	2543.262115
1017.196531	2462.603654
1017.489393	2485.288846
1017.782219	2497.891731
1018.075011	2442.439038
1018.367768	2510.494615
1018.660490	2525.618077
1018.953177	2525.618077
1019.245829	2525.618077
