Dividing Wavelength (nm)	Counts (n)	Blue Motor Position (mm): 0.000000	Red Motor Position (mm): 6.600000	
326.493990	2059.311346
326.888308	2059.311346
327.282561	2059.311346
327.676750	2127.366923
328.070874	2051.749615
328.464933	2087.037692
328.858929	2092.078846
329.252859	2102.161154
329.646726	2076.955385
330.040528	2059.311346
330.434265	2102.161154
330.827938	2124.846346
331.221547	2114.764038
331.615091	2172.737308
332.008571	2162.655000
332.401986	2215.587115
332.795338	2190.381346
333.188625	2240.792885
333.581847	2301.286731
333.975006	2306.327885
334.368100	2291.204423
334.761129	2359.260000
335.154095	2323.971923
335.546996	2424.795000
335.939833	2366.821731
336.332606	2384.465769
336.725315	2349.177692
337.117960	2366.821731
337.510540	2361.780577
337.903056	2346.657115
338.295508	2427.315577
338.687896	2329.013077
339.080220	2467.644808
339.472480	2399.589231
339.864676	2472.685962
340.256807	2437.397885
340.648875	2505.453462
341.040879	2467.644808
341.432818	2490.330000
341.824694	2490.330000
342.216506	2513.015192
342.608253	2472.685962
342.999937	2467.644808
343.391557	2485.288846
343.783113	2394.548077
344.174605	2470.165385
344.566033	2470.165385
344.957397	2497.891731
345.348697	2422.274423
345.739934	2518.056346
346.131106	2419.753846
346.522215	2560.906154
346.913260	2437.397885
347.304241	2535.700385
347.695159	2447.480192
348.086012	2399.589231
348.476802	2475.206538
348.867528	2528.138654
349.258191	2472.685962
349.648789	2432.356731
350.039324	2339.095385
350.429796	2472.685962
350.820203	2462.603654
351.210548	2515.535769
351.600828	2450.000769
351.991045	2490.330000
352.381198	2399.589231
352.771288	2369.342308
353.161314	2422.274423
353.551276	2444.959615
353.941175	2394.548077
354.331010	2389.506923
354.720782	2429.836154
355.110490	2334.054231
355.500135	2447.480192
355.889717	2452.521346
356.279235	2429.836154
356.668689	2399.589231
357.058080	2447.480192
357.447408	2427.315577
357.836672	2434.877308
358.225873	2429.836154
358.615010	2399.589231
359.004084	2467.644808
359.393095	2457.562500
359.782043	2492.850577
360.170927	2455.041923
360.559748	2475.206538
360.948505	2442.439038
361.337199	2497.891731
361.725830	2364.301154
362.114398	2502.932885
362.502903	2402.109808
362.891344	2444.959615
363.279722	2402.109808
363.668037	2457.562500
364.056289	2460.083077
364.444478	2404.630385
364.832603	2492.850577
365.220665	2490.330000
365.608665	2472.685962
365.996601	2429.836154
366.384474	2442.439038
366.772284	2500.412308
367.160031	2450.000769
367.547715	2384.465769
367.935336	2480.247692
368.322893	2444.959615
368.710388	2525.618077
369.097820	2465.124231
369.485189	2487.809423
369.872495	2475.206538
370.259738	2386.986346
370.646918	2467.644808
371.034035	2472.685962
371.421090	2487.809423
371.808081	2447.480192
372.195010	2492.850577
372.581875	2402.109808
372.968678	2359.260000
373.355418	2442.439038
373.742096	2386.986346
374.128710	2450.000769
374.515262	2495.371154
374.901751	2424.795000
375.288177	2505.453462
375.674540	2437.397885
376.060841	2510.494615
376.447079	2447.480192
376.833254	2502.932885
377.219367	2376.904038
377.605417	2402.109808
377.991404	2465.124231
378.377329	2457.562500
378.763191	2384.465769
379.148991	2407.150962
379.534727	2560.906154
379.920402	2386.986346
380.306013	2507.974038
380.691563	2477.727115
381.077049	2502.932885
381.462474	2550.823846
381.847835	2518.056346
382.233134	2442.439038
382.618371	2497.891731
383.003545	2490.330000
383.388657	2434.877308
383.773706	2392.027500
384.158693	2455.041923
384.543618	2371.862885
384.928480	2455.041923
385.313280	2472.685962
385.698017	2520.576923
386.082692	2492.850577
386.467305	2460.083077
386.851856	2407.150962
387.236344	2470.165385
387.620770	2485.288846
388.005133	2500.412308
388.389435	2495.371154
388.773674	2487.809423
389.157851	2439.918462
389.541965	2502.932885
389.926018	2450.000769
390.310008	2477.727115
390.693936	2427.315577
391.077802	2429.836154
391.461606	2510.494615
391.845348	2530.659231
392.229027	2432.356731
392.612645	2452.521346
392.996200	2409.671538
393.379694	2399.589231
393.763125	2460.083077
394.146494	2475.206538
394.529801	2439.918462
394.913047	2505.453462
395.296230	2419.753846
395.679351	2394.548077
396.062410	2422.274423
396.445408	2530.659231
396.828343	2462.603654
397.211217	2485.288846
397.594028	2437.397885
397.976778	2480.247692
398.359466	2450.000769
398.742092	2520.576923
399.124656	2533.179808
399.507158	2467.644808
399.889598	2409.671538
400.271977	2470.165385
400.654294	2586.111923
401.036549	2414.712692
401.418742	2407.150962
401.800874	2465.124231
402.182944	2485.288846
402.564952	2402.109808
402.946898	2548.303269
403.328783	2442.439038
403.710606	2492.850577
404.092367	2442.439038
404.474067	2490.330000
404.855705	2497.891731
405.237282	2470.165385
405.618797	2500.412308
406.000250	2470.165385
406.381642	2475.206538
406.762972	2462.603654
407.144240	2490.330000
407.525447	2465.124231
407.906593	2490.330000
408.287677	2497.891731
408.668700	2414.712692
409.049661	2424.795000
409.430560	2472.685962
409.811399	2450.000769
410.192176	2467.644808
410.572891	2487.809423
410.953545	2472.685962
411.334138	2475.206538
411.714669	2490.330000
412.095139	2538.220962
412.475547	2482.768269
412.855894	2465.124231
413.236180	2482.768269
413.616405	2434.877308
413.996568	2477.727115
414.376670	2540.741538
414.756711	2412.192115
415.136691	2485.288846
415.516609	2437.397885
415.896466	2477.727115
416.276262	2414.712692
416.655997	2450.000769
417.035670	2457.562500
417.415283	2553.344423
417.794834	2482.768269
418.174324	2462.603654
418.553753	2465.124231
418.933121	2523.097500
419.312428	2424.795000
419.691674	2505.453462
420.070859	2500.412308
420.449983	2533.179808
420.829045	2490.330000
421.208047	2422.274423
421.586988	2513.015192
421.965867	2510.494615
422.344686	2475.206538
422.723444	2465.124231
423.102141	2419.753846
423.480777	2485.288846
423.859352	2409.671538
424.237866	2452.521346
424.616319	2487.809423
424.994712	2510.494615
425.373044	2447.480192
425.751314	2510.494615
426.129524	2475.206538
426.507673	2482.768269
426.885762	2500.412308
427.263789	2397.068654
427.641756	2500.412308
428.019662	2477.727115
428.397508	2515.535769
428.775292	2520.576923
429.153016	2593.673654
429.530679	2535.700385
429.908282	2457.562500
430.285824	2558.385577
430.663305	2530.659231
431.040726	2550.823846
431.418086	2407.150962
431.795385	2487.809423
432.172624	2402.109808
432.549802	2495.371154
432.926920	2414.712692
433.303977	2477.727115
433.680974	2593.673654
434.057910	2470.165385
434.434786	2422.274423
434.811601	2502.932885
435.188355	2457.562500
435.565050	2465.124231
435.941683	2434.877308
436.318257	2500.412308
436.694770	2465.124231
437.071222	2437.397885
437.447614	2472.685962
437.823946	2467.644808
438.200218	2470.165385
438.576429	2432.356731
438.952580	2502.932885
439.328670	2429.836154
439.704700	2457.562500
440.080670	2550.823846
440.456580	2505.453462
440.832429	2485.288846
441.208218	2434.877308
441.583947	2442.439038
441.959616	2480.247692
442.335224	2482.768269
442.710773	2452.521346
443.086261	2417.233269
443.461689	2500.412308
443.837057	2490.330000
444.212365	2399.589231
444.587612	2520.576923
444.962800	2497.891731
445.337927	2444.959615
445.712995	2485.288846
446.088002	2424.795000
446.462949	2540.741538
446.837837	2518.056346
447.212664	2482.768269
447.587431	2457.562500
447.962139	2533.179808
448.336786	2455.041923
448.711374	2472.685962
449.085901	2455.041923
449.460369	2482.768269
449.834776	2460.083077
450.209124	2492.850577
450.583412	2510.494615
450.957640	2447.480192
451.331808	2450.000769
451.705917	2455.041923
452.079965	2485.288846
452.453954	2550.823846
452.827883	2538.220962
453.201752	2510.494615
453.575562	2412.192115
453.949311	2472.685962
454.323001	2535.700385
454.696632	2462.603654
455.070202	2505.453462
455.443713	2520.576923
455.817164	2439.918462
456.190556	2412.192115
456.563888	2480.247692
456.937160	2502.932885
457.310373	2480.247692
457.683526	2550.823846
458.056619	2394.548077
458.429653	2419.753846
458.802628	2465.124231
459.175542	2530.659231
459.548398	2434.877308
459.921194	2533.179808
460.293930	2434.877308
460.666607	2437.397885
461.039224	2505.453462
461.411782	2462.603654
461.784280	2414.712692
462.156719	2472.685962
462.529099	2492.850577
462.901419	2477.727115
463.273680	2439.918462
463.645882	2492.850577
464.018024	2465.124231
464.390106	2460.083077
464.762130	2497.891731
465.134094	2505.453462
465.505999	2455.041923
465.877845	2437.397885
466.249631	2490.330000
466.621358	2528.138654
466.993026	2472.685962
467.364634	2472.685962
467.736184	2371.862885
468.107674	2460.083077
468.479105	2573.509038
468.850477	2485.288846
469.221790	2510.494615
469.593043	2419.753846
469.964238	2515.535769
470.335373	2470.165385
470.706449	2497.891731
471.077467	2505.453462
471.448425	2475.206538
471.819324	2518.056346
472.190164	2495.371154
472.560945	2447.480192
472.931667	2492.850577
473.302330	2507.974038
473.672934	2583.591346
474.043479	2477.727115
474.413965	2472.685962
474.784393	2465.124231
475.154761	2523.097500
475.525070	2434.877308
475.895321	2502.932885
476.265513	2535.700385
476.635645	2457.562500
477.005719	2490.330000
477.375734	2487.809423
477.745691	2465.124231
478.115588	2487.809423
478.485427	2457.562500
478.855207	2439.918462
479.224928	2507.974038
479.594591	2422.274423
479.964194	2487.809423
480.333739	2507.974038
480.703226	2485.288846
481.072653	2543.262115
481.442022	2475.206538
481.811333	2492.850577
482.180584	2502.932885
482.549777	2432.356731
482.918912	2439.918462
483.287988	2502.932885
483.657005	2490.330000
484.025964	2510.494615
484.394864	2349.177692
484.763706	2455.041923
485.132489	2455.041923
485.501213	2586.111923
485.869879	2545.782692
486.238487	2470.165385
486.607036	2507.974038
486.975527	2472.685962
487.343959	2467.644808
487.712333	2422.274423
488.080648	2470.165385
488.448905	2467.644808
488.817104	2480.247692
489.185244	2563.426731
489.553326	2555.865000
489.921350	2429.836154
490.289315	2518.056346
490.657222	2490.330000
491.025070	2465.124231
491.392861	2467.644808
491.760593	2505.453462
492.128267	2447.480192
492.495883	2455.041923
492.863440	2432.356731
493.230939	2543.262115
493.598380	2442.439038
493.965763	2447.480192
494.333088	2442.439038
494.700354	2455.041923
495.067563	2470.165385
495.434713	2439.918462
495.801805	2462.603654
496.168839	2535.700385
496.535815	2467.644808
496.902733	2555.865000
497.269593	2565.947308
497.636395	2505.453462
498.003139	2477.727115
498.369825	2452.521346
498.736453	2462.603654
499.103023	2523.097500
499.469535	2417.233269
499.835989	2492.850577
500.202385	2465.124231
500.568723	2596.194231
500.935003	2510.494615
501.301226	2553.344423
501.667390	2470.165385
502.033497	2492.850577
502.399546	2467.644808
502.765537	2460.083077
503.131470	2470.165385
503.497345	2535.700385
503.863163	2500.412308
504.228923	2523.097500
504.594625	2470.165385
504.960269	2510.494615
505.325856	2447.480192
505.691385	2495.371154
506.056856	2424.795000
506.422270	2530.659231
506.787625	2450.000769
507.152924	2533.179808
507.518164	2523.097500
507.883347	2397.068654
508.248472	2480.247692
508.613540	2505.453462
508.978550	2576.029615
509.343503	2560.906154
509.708398	2472.685962
510.073236	2485.288846
510.438016	2502.932885
510.802738	2528.138654
511.167403	2495.371154
511.532010	2465.124231
511.896561	2467.644808
512.261053	2505.453462
512.625488	2381.945192
512.989866	2437.397885
513.354186	2422.274423
513.718449	2492.850577
514.082655	2502.932885
514.446803	2510.494615
514.810894	2492.850577
515.174927	2439.918462
515.538904	2485.288846
515.902822	2490.330000
516.266684	2455.041923
516.630488	2480.247692
516.994235	2434.877308
517.357925	2457.562500
517.721558	2490.330000
518.085133	2548.303269
518.448651	2505.453462
518.812112	2593.673654
519.175516	2507.974038
519.538863	2429.836154
519.902152	2538.220962
520.265385	2497.891731
520.628560	2520.576923
520.991678	2457.562500
521.354739	2540.741538
521.717743	2477.727115
522.080690	2462.603654
522.443580	2465.124231
522.806413	2548.303269
523.169189	2525.618077
523.531908	2472.685962
523.894569	2555.865000
524.257174	2492.850577
524.619722	2502.932885
524.982213	2442.439038
525.344647	2485.288846
525.707025	2548.303269
526.069345	2485.288846
526.431608	2535.700385
526.793815	2414.712692
527.155964	2447.480192
527.518057	2533.179808
527.880093	2513.015192
528.242072	2518.056346
528.603995	2497.891731
528.965860	2518.056346
529.327669	2470.165385
529.689421	2560.906154
530.051117	2482.768269
530.412755	2432.356731
530.774337	2407.150962
531.135862	2530.659231
531.497331	2450.000769
531.858743	2505.453462
532.220098	2450.000769
532.581396	2477.727115
532.942638	2480.247692
533.303824	2540.741538
533.664953	2492.850577
534.026025	2530.659231
534.387040	2437.397885
534.747999	2495.371154
535.108902	2465.124231
535.469748	2450.000769
535.830537	2480.247692
536.191270	2518.056346
536.551947	2523.097500
536.912567	2482.768269
537.273131	2540.741538
537.633638	2500.412308
537.994089	2563.426731
538.354483	2485.288846
538.714821	2439.918462
539.075103	2535.700385
539.435328	2434.877308
539.795497	2555.865000
540.155609	2518.056346
540.515665	2550.823846
540.875665	2553.344423
541.235609	2497.891731
541.595496	2513.015192
541.955328	2578.550192
542.315102	2510.494615
542.674821	2520.576923
543.034483	2543.262115
543.394090	2439.918462
543.753640	2613.838269
544.113134	2475.206538
544.472571	2475.206538
544.831953	2444.959615
545.191278	2520.576923
545.550548	2485.288846
545.909761	2538.220962
546.268918	2513.015192
546.628019	2568.467885
546.987064	2500.412308
547.346053	2507.974038
547.704986	2482.768269
548.063863	2475.206538
548.422684	2442.439038
548.781449	2490.330000
549.140158	2437.397885
549.498811	2525.618077
549.857408	2543.262115
550.215949	2470.165385
550.574434	2535.700385
550.932864	2492.850577
551.291237	2518.056346
551.649555	2424.795000
552.007817	2530.659231
552.366022	2513.015192
552.724173	2379.424615
553.082267	2513.015192
553.440305	2487.809423
553.798288	2525.618077
554.156215	2455.041923
554.514086	2485.288846
554.871902	2480.247692
555.229661	2553.344423
555.587365	2543.262115
555.945014	2563.426731
556.302606	2513.015192
556.660143	2535.700385
557.017625	2565.947308
557.375050	2490.330000
557.732421	2555.865000
558.089735	2450.000769
558.446994	2487.809423
558.804197	2518.056346
559.161345	2460.083077
559.518437	2538.220962
559.875474	2485.288846
560.232455	2533.179808
560.589381	2543.262115
560.946251	2545.782692
561.303065	2482.768269
561.659825	2492.850577
562.016528	2439.918462
562.373177	2485.288846
562.729770	2502.932885
563.086307	2510.494615
563.442789	2581.070769
563.799216	2475.206538
564.155587	2548.303269
564.511904	2439.918462
564.868164	2490.330000
565.224370	2475.206538
565.580520	2467.644808
565.936615	2432.356731
566.292654	2500.412308
566.648638	2475.206538
567.004567	2487.809423
567.360441	2507.974038
567.716260	2525.618077
568.072023	2576.029615
568.427732	2432.356731
568.783385	2538.220962
569.138982	2548.303269
569.494525	2518.056346
569.850013	2563.426731
570.205445	2540.741538
570.560823	2608.797115
570.916145	2608.797115
571.271412	2533.179808
571.626625	2490.330000
571.981782	2550.823846
572.336884	2558.385577
572.691931	2462.603654
573.046923	2455.041923
573.401860	2520.576923
573.756743	2434.877308
574.111570	2563.426731
574.466342	2455.041923
574.821059	2452.521346
575.175722	2560.906154
575.530330	2427.315577
575.884882	2596.194231
576.239380	2553.344423
576.593823	2606.276538
576.948211	2465.124231
577.302544	2502.932885
577.656823	2533.179808
578.011047	2419.753846
578.365216	2507.974038
578.719330	2593.673654
579.073389	2515.535769
579.427394	2500.412308
579.781344	2480.247692
580.135239	2523.097500
580.489080	2535.700385
580.842866	2482.768269
581.196597	2460.083077
581.550273	2470.165385
581.903895	2550.823846
582.257463	2523.097500
582.610975	2429.836154
582.964434	2424.795000
583.317837	2434.877308
583.671186	2470.165385
584.024481	2434.877308
584.377721	2545.782692
584.730906	2558.385577
585.084037	2457.562500
585.437113	2450.000769
585.790135	2533.179808
586.143103	2502.932885
586.496016	2538.220962
586.848874	2472.685962
587.201679	2520.576923
587.554428	2424.795000
587.907124	2450.000769
588.259765	2432.356731
588.612352	2495.371154
588.964884	2545.782692
589.317362	2553.344423
589.669786	2525.618077
590.022155	2404.630385
590.374470	2477.727115
590.726731	2513.015192
591.078937	2470.165385
591.431090	2427.315577
591.783188	2528.138654
592.135232	2497.891731
592.487222	2460.083077
592.839157	2444.959615
593.191038	2492.850577
593.542866	2472.685962
593.894639	2442.439038
594.246358	2540.741538
594.598022	2467.644808
594.949633	2414.712692
595.301190	2505.453462
595.652692	2455.041923
596.004141	2545.782692
596.355535	2467.644808
596.706876	2543.262115
597.058162	2447.480192
597.409395	2548.303269
597.760573	2528.138654
598.111698	2462.603654
598.462768	2550.823846
598.813785	2492.850577
599.164748	2538.220962
599.515657	2513.015192
599.866511	2490.330000
600.217312	2570.988462
600.568060	2444.959615
600.918753	2543.262115
601.269392	2485.288846
601.619978	2530.659231
601.970510	2505.453462
602.320988	2462.603654
602.671412	2409.671538
603.021783	2603.755962
603.372100	2465.124231
603.722363	2507.974038
604.072572	2475.206538
604.422728	2540.741538
604.772830	2525.618077
605.122878	2507.974038
605.472872	2533.179808
605.822813	2543.262115
606.172701	2429.836154
606.522534	2482.768269
606.872314	2462.603654
607.222041	2515.535769
607.571714	2505.453462
607.921333	2540.741538
608.270899	2470.165385
608.620411	2444.959615
608.969870	2472.685962
609.319276	2533.179808
609.668627	2520.576923
610.017926	2470.165385
610.367171	2518.056346
610.716362	2520.576923
611.065500	2490.330000
611.414585	2490.330000
611.763616	2399.589231
612.112594	2523.097500
612.461518	2485.288846
612.810389	2555.865000
613.159207	2485.288846
613.507971	2490.330000
613.856682	2500.412308
614.205340	2417.233269
614.553945	2457.562500
614.902496	2502.932885
615.250994	2379.424615
615.599439	2485.288846
615.947830	2452.521346
616.296169	2487.809423
616.644454	2455.041923
616.992686	2535.700385
617.340864	2452.521346
617.688990	2475.206538
618.037063	2502.932885
618.385082	2447.480192
618.733048	2457.562500
619.080961	2500.412308
619.428821	2538.220962
619.776628	2455.041923
620.124382	2502.932885
620.472083	2492.850577
620.819731	2460.083077
621.167326	2492.850577
621.514868	2613.838269
621.862357	2545.782692
622.209793	2581.070769
622.557176	2485.288846
622.904506	2550.823846
623.251783	2444.959615
623.599007	2538.220962
623.946179	2500.412308
624.293297	2477.727115
624.640363	2540.741538
624.987376	2492.850577
625.334336	2558.385577
625.681243	2500.412308
626.028097	2412.192115
626.374899	2586.111923
626.721647	2465.124231
627.068343	2497.891731
627.414987	2455.041923
627.761577	2455.041923
628.108115	2472.685962
628.454600	2523.097500
628.801032	2507.974038
629.147412	2437.397885
629.493739	2523.097500
629.840014	2444.959615
630.186236	2429.836154
630.532405	2593.673654
630.878521	2523.097500
631.224585	2576.029615
631.570597	2518.056346
631.916556	2535.700385
632.262462	2480.247692
632.608316	2555.865000
632.954117	2588.632500
633.299866	2528.138654
633.645562	2497.891731
633.991206	2424.795000
634.336797	2573.509038
634.682336	2482.768269
635.027823	2427.315577
635.373257	2578.550192
635.718639	2563.426731
636.063968	2570.988462
636.409245	2485.288846
636.754470	2553.344423
637.099642	2487.809423
637.444762	2515.535769
637.789829	2510.494615
638.134845	2507.974038
638.479808	2480.247692
638.824719	2502.932885
639.169577	2482.768269
639.514383	2520.576923
639.859137	2492.850577
640.203839	2444.959615
640.548489	2505.453462
640.893086	2570.988462
641.237632	2485.288846
641.582125	2515.535769
641.926566	2462.603654
642.270955	2533.179808
642.615292	2586.111923
642.959576	2462.603654
643.303809	2497.891731
643.647990	2510.494615
643.992118	2515.535769
644.336195	2477.727115
644.680219	2429.836154
645.024192	2467.644808
645.368112	2444.959615
645.711981	2528.138654
646.055797	2351.698269
646.399562	2565.947308
646.743274	2583.591346
647.086935	2497.891731
647.430544	2417.233269
647.774101	2490.330000
648.117606	2472.685962
648.461059	2485.288846
648.804460	2528.138654
649.147810	2447.480192
649.491108	2424.795000
649.834354	2429.836154
650.177548	2427.315577
650.520690	2467.644808
650.863781	2593.673654
651.206820	2492.850577
651.549807	2560.906154
651.892742	2487.809423
652.235626	2568.467885
652.578458	2525.618077
652.921238	2565.947308
653.263967	2450.000769
653.606644	2412.192115
653.949269	2558.385577
654.291843	2492.850577
654.634365	2472.685962
654.976836	2535.700385
655.319255	2434.877308
655.661622	2523.097500
656.003938	2545.782692
656.346203	2450.000769
656.688416	2502.932885
657.030577	2447.480192
657.372687	2570.988462
657.714746	2507.974038
658.056753	2465.124231
658.398708	2505.453462
658.740612	2422.274423
659.082465	2470.165385
659.424266	2442.439038
659.766016	2502.932885
660.107715	2583.591346
660.449362	2505.453462
660.790958	2570.988462
661.132503	2480.247692
661.473996	2455.041923
661.815438	2434.877308
662.156829	2487.809423
662.498168	2495.371154
662.839456	2419.753846
663.180693	2497.891731
663.521879	2507.974038
663.863013	2472.685962
664.204097	2407.150962
664.545129	2414.712692
664.886110	2477.727115
665.227040	2543.262115
665.567918	2586.111923
665.908746	2492.850577
666.249522	2563.426731
666.590248	2452.521346
666.930922	2480.247692
667.271545	2578.550192
667.612118	2384.465769
667.952639	2540.741538
668.293109	2485.288846
668.633528	2545.782692
668.973896	2477.727115
669.314213	2573.509038
669.654480	2500.412308
669.994695	2447.480192
670.334859	2513.015192
670.674973	2538.220962
671.015035	2495.371154
671.355047	2465.124231
671.695008	2518.056346
672.034918	2525.618077
672.374777	2513.015192
672.714585	2502.932885
673.054342	2507.974038
673.394049	2513.015192
673.733705	2457.562500
674.073310	2570.988462
674.412864	2495.371154
674.752368	2442.439038
675.091820	2470.165385
675.431223	2548.303269
675.770574	2455.041923
676.109875	2467.644808
676.449125	2490.330000
676.788324	2510.494615
677.127473	2462.603654
677.466571	2518.056346
677.805619	2538.220962
678.144616	2510.494615
678.483562	2525.618077
678.822458	2480.247692
679.161303	2538.220962
679.500098	2467.644808
679.838842	2490.330000
680.177535	2553.344423
680.516179	2515.535769
680.854771	2518.056346
681.193314	2523.097500
681.531805	2490.330000
681.870247	2490.330000
682.208638	2422.274423
682.546978	2437.397885
682.885268	2545.782692
683.223508	2470.165385
683.561697	2490.330000
683.899836	2520.576923
684.237925	2513.015192
684.575963	2513.015192
684.913951	2460.083077
685.251889	2439.918462
685.589776	2545.782692
685.927614	2434.877308
686.265401	2560.906154
686.603137	2460.083077
686.940824	2596.194231
687.278460	2538.220962
687.616046	2563.426731
687.953582	2535.700385
688.291068	2591.153077
688.628504	2588.632500
688.965889	2452.521346
689.303224	2480.247692
689.640510	2437.397885
689.977745	2439.918462
690.314930	2482.768269
690.652065	2555.865000
690.989150	2520.576923
691.326185	2452.521346
691.663170	2505.453462
692.000105	2434.877308
692.336990	2538.220962
692.673825	2434.877308
693.010610	2470.165385
693.347345	2513.015192
693.684030	2467.644808
694.020665	2563.426731
694.357251	2457.562500
694.693786	2530.659231
695.030272	2515.535769
695.366707	2427.315577
695.703093	2570.988462
696.039429	2462.603654
696.375716	2500.412308
696.711952	2477.727115
697.048139	2497.891731
697.384276	2596.194231
697.720363	2505.453462
698.056400	2485.288846
698.392388	2538.220962
698.728326	2427.315577
699.064214	2497.891731
699.400053	2482.768269
699.735842	2563.426731
700.071581	2518.056346
700.407270	2563.426731
700.742910	2543.262115
701.078501	2505.453462
701.414042	2515.535769
701.749533	2462.603654
702.084974	2520.576923
702.420366	2520.576923
702.755709	2467.644808
703.091002	2528.138654
703.426246	2520.576923
703.761440	2470.165385
704.096584	2460.083077
704.431679	2513.015192
704.766725	2442.439038
705.101721	2515.535769
705.436668	2505.453462
705.771565	2545.782692
706.106413	2475.206538
706.441212	2495.371154
706.775961	2412.192115
707.110661	2543.262115
707.445311	2487.809423
707.779913	2558.385577
708.114465	2467.644808
708.448967	2535.700385
708.783421	2520.576923
709.117825	2558.385577
709.452180	2472.685962
709.786485	2492.850577
710.120742	2462.603654
710.454949	2500.412308
710.789107	2518.056346
711.123216	2510.494615
711.457275	2510.494615
711.791286	2424.795000
712.125247	2555.865000
712.459159	2412.192115
712.793023	2520.576923
713.126837	2490.330000
713.460602	2538.220962
713.794318	2477.727115
714.127985	2510.494615
714.461602	2520.576923
714.795171	2505.453462
715.128691	2462.603654
715.462162	2543.262115
715.795584	2414.712692
716.128957	2500.412308
716.462281	2457.562500
716.795556	2429.836154
717.128782	2475.206538
717.461960	2492.850577
717.795088	2434.877308
718.128167	2533.179808
718.461198	2465.124231
718.794180	2528.138654
719.127113	2465.124231
719.459997	2533.179808
719.792833	2576.029615
720.125619	2492.850577
720.458357	2492.850577
720.791046	2533.179808
721.123686	2530.659231
721.456278	2477.727115
721.788821	2540.741538
722.121315	2555.865000
722.453761	2465.124231
722.786158	2515.535769
723.118506	2487.809423
723.450805	2555.865000
723.783056	2392.027500
724.115259	2422.274423
724.447412	2492.850577
724.779518	2452.521346
725.111574	2563.426731
725.443582	2439.918462
725.775542	2460.083077
726.107453	2555.865000
726.439315	2460.083077
726.771129	2470.165385
727.102895	2465.124231
727.434612	2550.823846
727.766281	2497.891731
728.097901	2490.330000
728.429473	2475.206538
728.760996	2452.521346
729.092471	2525.618077
729.423897	2462.603654
729.755276	2475.206538
730.086606	2472.685962
730.417887	2596.194231
730.749120	2397.068654
731.080305	2510.494615
731.411442	2472.685962
731.742530	2490.330000
732.073570	2447.480192
732.404562	2568.467885
732.735506	2616.358846
733.066401	2434.877308
733.397249	2470.165385
733.728048	2497.891731
734.058798	2518.056346
734.389501	2457.562500
734.720156	2457.562500
735.050762	2490.330000
735.381320	2472.685962
735.711831	2502.932885
736.042293	2553.344423
736.372707	2432.356731
736.703073	2540.741538
737.033391	2510.494615
737.363661	2439.918462
737.693883	2409.671538
738.024056	2495.371154
738.354182	2535.700385
738.684260	2429.836154
739.014290	2560.906154
739.344272	2480.247692
739.674207	2502.932885
740.004093	2553.344423
740.333931	2505.453462
740.663722	2490.330000
740.993464	2545.782692
741.323159	2465.124231
741.652806	2470.165385
741.982405	2578.550192
742.311956	2480.247692
742.641460	2523.097500
742.970915	2402.109808
743.300323	2515.535769
743.629683	2528.138654
743.958996	2465.124231
744.288260	2414.712692
744.617477	2475.206538
744.946647	2558.385577
745.275768	2432.356731
745.604842	2553.344423
745.933869	2507.974038
746.262847	2523.097500
746.591778	2472.685962
746.920662	2535.700385
747.249498	2455.041923
747.578286	2513.015192
747.907027	2465.124231
748.235720	2530.659231
748.564365	2528.138654
748.892963	2568.467885
749.221514	2485.288846
749.550017	2523.097500
749.878473	2495.371154
750.206881	2573.509038
750.535242	2502.932885
750.863555	2563.426731
751.191821	2500.412308
751.520039	2447.480192
751.848210	2444.959615
752.176334	2485.288846
752.504411	2429.836154
752.832440	2480.247692
753.160421	2467.644808
753.488356	2467.644808
753.816243	2528.138654
754.144082	2525.618077
754.471875	2470.165385
754.799620	2487.809423
755.127318	2507.974038
755.454969	2482.768269
755.782572	2482.768269
756.110129	2545.782692
756.437638	2492.850577
756.765100	2513.015192
757.092515	2525.618077
757.419882	2520.576923
757.747203	2477.727115
758.074477	2450.000769
758.401703	2434.877308
758.728882	2492.850577
759.056014	2399.589231
759.383099	2492.850577
759.710138	2429.836154
760.037129	2553.344423
760.364073	2515.535769
760.690970	2500.412308
761.017820	2490.330000
761.344623	2434.877308
761.671379	2480.247692
761.998088	2618.879423
762.324751	2465.124231
762.651366	2535.700385
762.977935	2472.685962
763.304456	2495.371154
763.630931	2487.809423
763.957359	2528.138654
764.283740	2598.714808
764.610074	2485.288846
764.936362	2472.685962
765.262602	2442.439038
765.588796	2523.097500
765.914943	2442.439038
766.241044	2528.138654
766.567097	2460.083077
766.893104	2495.371154
767.219064	2434.877308
767.544978	2429.836154
767.870845	2548.303269
768.196665	2525.618077
768.522438	2477.727115
768.848165	2407.150962
769.173846	2470.165385
769.499479	2457.562500
769.825066	2553.344423
770.150607	2422.274423
770.476101	2568.467885
770.801548	2505.453462
771.126949	2492.850577
771.452303	2434.877308
771.777611	2495.371154
772.102872	2462.603654
772.428087	2533.179808
772.753256	2470.165385
773.078378	2487.809423
773.403453	2462.603654
773.728482	2576.029615
774.053465	2540.741538
774.378401	2424.795000
774.703291	2548.303269
775.028135	2485.288846
775.352932	2518.056346
775.677683	2510.494615
776.002388	2477.727115
776.327046	2603.755962
776.651658	2447.480192
776.976224	2553.344423
777.300743	2444.959615
777.625216	2407.150962
777.949643	2500.412308
778.274024	2538.220962
778.598359	2596.194231
778.922647	2528.138654
779.246889	2437.397885
779.571086	2540.741538
779.895236	2492.850577
780.219339	2543.262115
780.543397	2487.809423
780.867409	2533.179808
781.191374	2500.412308
781.515294	2500.412308
781.839167	2495.371154
782.162995	2432.356731
782.486776	2475.206538
782.810511	2581.070769
783.134201	2434.877308
783.457844	2462.603654
783.781441	2530.659231
784.104993	2442.439038
784.428498	2530.659231
784.751958	2528.138654
785.075372	2455.041923
785.398739	2444.959615
785.722061	2414.712692
786.045337	2470.165385
786.368568	2417.233269
786.691752	2492.850577
787.014891	2462.603654
787.337983	2502.932885
787.661030	2550.823846
787.984031	2407.150962
788.306987	2515.535769
788.629897	2480.247692
788.952760	2470.165385
789.275579	2495.371154
789.598351	2492.850577
789.921078	2502.932885
790.243759	2480.247692
790.566395	2439.918462
790.888984	2477.727115
791.211529	2540.741538
791.534027	2555.865000
791.856480	2429.836154
792.178888	2560.906154
792.501249	2523.097500
792.823566	2485.288846
793.145836	2553.344423
793.468062	2455.041923
793.790241	2419.753846
794.112375	2495.371154
794.434464	2492.850577
794.756507	2495.371154
795.078505	2523.097500
795.400457	2500.412308
795.722364	2518.056346
796.044226	2581.070769
796.366042	2497.891731
796.687812	2485.288846
797.009538	2404.630385
797.331218	2482.768269
797.652852	2535.700385
797.974442	2462.603654
798.295986	2528.138654
798.617484	2563.426731
798.938938	2490.330000
799.260346	2457.562500
799.581709	2500.412308
799.903026	2472.685962
800.224299	2535.700385
800.545526	2450.000769
800.866708	2452.521346
801.187845	2510.494615
801.508936	2480.247692
801.829983	2492.850577
802.150984	2510.494615
802.471940	2515.535769
802.792851	2515.535769
803.113717	2465.124231
803.434538	2570.988462
803.755314	2444.959615
804.076045	2472.685962
804.396731	2492.850577
804.717372	2598.714808
805.037967	2570.988462
805.358518	2462.603654
805.679024	2510.494615
805.999485	2485.288846
806.319901	2588.632500
806.640272	2586.111923
806.960598	2485.288846
807.280879	2495.371154
807.601115	2437.397885
807.921306	2437.397885
808.241453	2472.685962
808.561554	2538.220962
808.881611	2477.727115
809.201623	2487.809423
809.521590	2513.015192
809.841513	2490.330000
810.161390	2432.356731
810.481223	2462.603654
810.801011	2477.727115
811.120755	2570.988462
811.440453	2545.782692
811.760107	2495.371154
812.079716	2545.782692
812.399281	2497.891731
812.718801	2460.083077
813.038276	2523.097500
813.357707	2432.356731
813.677093	2523.097500
813.996434	2487.809423
814.315731	2505.453462
814.634983	2444.959615
814.954191	2475.206538
815.273354	2480.247692
815.592473	2417.233269
815.911547	2427.315577
816.230577	2513.015192
816.549562	2482.768269
816.868502	2520.576923
817.187399	2513.015192
817.506250	2528.138654
817.825058	2450.000769
818.143821	2515.535769
818.462539	2460.083077
818.781213	2444.959615
819.099843	2513.015192
819.418429	2495.371154
819.736970	2543.262115
820.055466	2409.671538
820.373919	2482.768269
820.692327	2545.782692
821.010691	2422.274423
821.329011	2470.165385
821.647286	2450.000769
821.965517	2565.947308
822.283704	2462.603654
822.601847	2515.535769
822.919945	2485.288846
823.237999	2495.371154
823.556010	2513.015192
823.873976	2530.659231
824.191897	2518.056346
824.509775	2502.932885
824.827609	2437.397885
825.145398	2500.412308
825.463144	2490.330000
825.780845	2462.603654
826.098502	2480.247692
826.416116	2563.426731
826.733685	2500.412308
827.051210	2475.206538
827.368692	2439.918462
827.686129	2439.918462
828.003522	2515.535769
828.320872	2414.712692
828.638177	2543.262115
828.955439	2460.083077
829.272656	2555.865000
829.589830	2422.274423
829.906960	2407.150962
830.224046	2510.494615
830.541088	2560.906154
830.858086	2472.685962
831.175041	2545.782692
831.491952	2507.974038
831.808819	2550.823846
832.125642	2399.589231
832.442421	2515.535769
832.759157	2452.521346
833.075849	2538.220962
833.392497	2444.959615
833.709101	2525.618077
834.025662	2472.685962
834.342179	2465.124231
834.658653	2528.138654
834.975083	2477.727115
835.291469	2603.755962
835.607811	2565.947308
835.924110	2533.179808
836.240366	2507.974038
836.556578	2497.891731
836.872746	2560.906154
837.188871	2402.109808
837.504952	2485.288846
837.820990	2452.521346
838.136984	2472.685962
838.452935	2460.083077
838.768842	2495.371154
839.084706	2462.603654
839.400526	2505.453462
839.716303	2525.618077
840.032037	2530.659231
840.347727	2437.397885
840.663373	2490.330000
840.978977	2513.015192
841.294537	2477.727115
841.610054	2535.700385
841.925527	2563.426731
842.240957	2490.330000
842.556344	2515.535769
842.871687	2462.603654
843.186987	2422.274423
843.502244	2495.371154
843.817458	2576.029615
844.132629	2502.932885
844.447756	2434.877308
844.762840	2545.782692
845.077881	2518.056346
845.392879	2492.850577
845.707833	2520.576923
846.022745	2558.385577
846.337613	2523.097500
846.652438	2447.480192
846.967221	2475.206538
847.281960	2515.535769
847.596656	2543.262115
847.911309	2535.700385
848.225919	2376.904038
848.540485	2492.850577
848.855009	2437.397885
849.169490	2530.659231
849.483928	2447.480192
849.798323	2457.562500
850.112675	2485.288846
850.426984	2518.056346
850.741251	2490.330000
851.055474	2538.220962
851.369654	2366.821731
851.683792	2528.138654
851.997887	2392.027500
852.311938	2490.330000
852.625947	2583.591346
852.939914	2437.397885
853.253837	2477.727115
853.567718	2550.823846
853.881555	2505.453462
854.195350	2409.671538
854.509103	2472.685962
854.822812	2538.220962
855.136479	2394.548077
855.450103	2528.138654
855.763685	2455.041923
856.077224	2560.906154
856.390720	2523.097500
856.704173	2437.397885
857.017584	2523.097500
857.330953	2447.480192
857.644278	2460.083077
857.957561	2515.535769
858.270802	2447.480192
858.584000	2530.659231
858.897155	2402.109808
859.210268	2530.659231
859.523339	2523.097500
859.836367	2533.179808
860.149352	2460.083077
860.462295	2374.383462
860.775195	2465.124231
861.088054	2450.000769
861.400869	2414.712692
861.713642	2465.124231
862.026373	2442.439038
862.339062	2543.262115
862.651708	2465.124231
862.964312	2472.685962
863.276873	2513.015192
863.589392	2455.041923
863.901869	2515.535769
864.214303	2482.768269
864.526696	2490.330000
864.839045	2389.506923
865.151353	2497.891731
865.463619	2497.891731
865.775842	2439.918462
866.088023	2500.412308
866.400162	2465.124231
866.712258	2477.727115
867.024313	2507.974038
867.336325	2510.494615
867.648296	2500.412308
867.960224	2548.303269
868.272110	2477.727115
868.583954	2528.138654
868.895755	2525.618077
869.207515	2540.741538
869.519233	2447.480192
869.830909	2477.727115
870.142542	2447.480192
870.454134	2447.480192
870.765684	2530.659231
871.077191	2437.397885
871.388657	2513.015192
871.700081	2523.097500
872.011463	2422.274423
872.322803	2540.741538
872.634101	2548.303269
872.945357	2460.083077
873.256571	2505.453462
873.567744	2500.412308
873.878874	2490.330000
874.189963	2482.768269
874.501010	2490.330000
874.812015	2457.562500
875.122979	2450.000769
875.433900	2490.330000
875.744780	2485.288846
876.055618	2500.412308
876.366415	2487.809423
876.677169	2455.041923
876.987882	2460.083077
877.298554	2447.480192
877.609183	2429.836154
877.919771	2487.809423
878.230317	2422.274423
878.540822	2616.358846
878.851285	2472.685962
879.161707	2505.453462
879.472087	2553.344423
879.782425	2545.782692
880.092722	2462.603654
880.402977	2470.165385
880.713191	2467.644808
881.023363	2490.330000
881.333494	2407.150962
881.643583	2470.165385
881.953631	2475.206538
882.263637	2528.138654
882.573602	2565.947308
882.883526	2487.809423
883.193408	2510.494615
883.503248	2518.056346
883.813048	2437.397885
884.122806	2487.809423
884.432522	2482.768269
884.742197	2480.247692
885.051831	2361.780577
885.361424	2482.768269
885.670975	2533.179808
885.980485	2450.000769
886.289954	2490.330000
886.599382	2439.918462
886.908768	2500.412308
887.218113	2485.288846
887.527417	2535.700385
887.836680	2465.124231
888.145901	2419.753846
888.455082	2530.659231
888.764221	2452.521346
889.073319	2447.480192
889.382376	2523.097500
889.691392	2535.700385
890.000366	2439.918462
890.309300	2424.795000
890.618193	2538.220962
890.927044	2490.330000
891.235855	2523.097500
891.544625	2480.247692
891.853353	2502.932885
892.162041	2548.303269
892.470687	2434.877308
892.779293	2495.371154
893.087858	2535.700385
893.396381	2414.712692
893.704864	2497.891731
894.013306	2462.603654
894.321707	2402.109808
894.630068	2482.768269
894.938387	2462.603654
895.246665	2513.015192
895.554903	2500.412308
895.863100	2480.247692
896.171256	2424.795000
896.479371	2611.317692
896.787446	2500.412308
897.095480	2520.576923
897.403473	2495.371154
897.711425	2518.056346
898.019336	2510.494615
898.327207	2439.918462
898.635038	2525.618077
898.942827	2462.603654
899.250576	2462.603654
899.558284	2460.083077
899.865952	2505.453462
900.173579	2507.974038
900.481165	2545.782692
900.788711	2450.000769
901.096216	2500.412308
901.403681	2452.521346
901.711105	2487.809423
902.018489	2538.220962
902.325832	2485.288846
902.633135	2545.782692
902.940397	2460.083077
903.247619	2376.904038
903.554800	2528.138654
903.861941	2502.932885
904.169041	2452.521346
904.476101	2480.247692
904.783121	2507.974038
905.090100	2553.344423
905.397039	2495.371154
905.703938	2495.371154
906.010796	2465.124231
906.317614	2412.192115
906.624391	2490.330000
906.931129	2482.768269
907.237826	2583.591346
907.544483	2553.344423
907.851099	2490.330000
908.157675	2490.330000
908.464211	2490.330000
908.770707	2439.918462
909.077163	2450.000769
909.383578	2505.453462
909.689954	2460.083077
909.996289	2424.795000
910.302584	2444.959615
910.608839	2495.371154
910.915054	2502.932885
911.221229	2520.576923
911.527363	2482.768269
911.833458	2487.809423
912.139513	2482.768269
912.445527	2505.453462
912.751502	2470.165385
913.057436	2490.330000
913.363331	2462.603654
913.669186	2520.576923
913.975000	2568.467885
914.280775	2535.700385
914.586510	2505.453462
914.892205	2475.206538
915.197859	2515.535769
915.503475	2528.138654
915.809050	2417.233269
916.114585	2533.179808
916.420081	2548.303269
916.725536	2492.850577
917.030952	2518.056346
917.336328	2513.015192
917.641665	2460.083077
917.946961	2462.603654
918.252218	2429.836154
918.557435	2513.015192
918.862612	2434.877308
919.167750	2510.494615
919.472848	2470.165385
919.777906	2475.206538
920.082925	2591.153077
920.387904	2467.644808
920.692843	2510.494615
920.997743	2460.083077
921.302603	2482.768269
921.607423	2606.276538
921.912204	2477.727115
922.216946	2495.371154
922.521647	2586.111923
922.826310	2460.083077
923.130932	2528.138654
923.435516	2563.426731
923.740059	2513.015192
924.044564	2492.850577
924.349028	2485.288846
924.653454	2502.932885
924.957840	2495.371154
925.262186	2434.877308
925.566493	2530.659231
925.870761	2487.809423
926.174989	2525.618077
926.479178	2497.891731
926.783328	2497.891731
927.087438	2429.836154
927.391509	2442.439038
927.695541	2397.068654
927.999533	2412.192115
928.303486	2472.685962
928.607400	2490.330000
928.911275	2530.659231
929.215110	2386.986346
929.518906	2470.165385
929.822663	2465.124231
930.126381	2409.671538
930.430060	2394.548077
930.733699	2482.768269
931.037299	2570.988462
931.340861	2457.562500
931.644383	2439.918462
931.947866	2477.727115
932.251309	2465.124231
932.554714	2485.288846
932.858080	2467.644808
933.161407	2510.494615
933.464694	2447.480192
933.767943	2523.097500
934.071153	2472.685962
934.374323	2467.644808
934.677455	2485.288846
934.980548	2457.562500
935.283602	2450.000769
935.586617	2424.795000
935.889593	2452.521346
936.192530	2528.138654
936.495428	2452.521346
936.798287	2510.494615
937.101108	2482.768269
937.403890	2540.741538
937.706632	2497.891731
938.009336	2495.371154
938.312002	2586.111923
938.614628	2520.576923
938.917216	2525.618077
939.219765	2573.509038
939.522275	2518.056346
939.824747	2523.097500
940.127179	2485.288846
940.429573	2563.426731
940.731929	2434.877308
941.034246	2487.809423
941.336524	2480.247692
941.638763	2442.439038
941.940964	2520.576923
942.243126	2528.138654
942.545250	2452.521346
942.847335	2490.330000
943.149381	2540.741538
943.451389	2495.371154
943.753359	2502.932885
944.055290	2485.288846
944.357182	2570.988462
944.659036	2550.823846
944.960851	2472.685962
945.262628	2520.576923
945.564367	2487.809423
945.866067	2480.247692
946.167729	2581.070769
946.469352	2429.836154
946.770937	2450.000769
947.072484	2492.850577
947.373992	2450.000769
947.675462	2525.618077
947.976893	2434.877308
948.278286	2540.741538
948.579641	2439.918462
948.880958	2450.000769
949.182236	2467.644808
949.483476	2437.397885
949.784678	2429.836154
950.085841	2409.671538
950.386967	2505.453462
950.688054	2482.768269
950.989103	2513.015192
951.290114	2455.041923
951.591087	2460.083077
951.892021	2457.562500
952.192917	2500.412308
952.493776	2555.865000
952.794596	2528.138654
953.095378	2500.412308
953.396122	2538.220962
953.696828	2535.700385
953.997496	2407.150962
954.298126	2482.768269
954.598718	2510.494615
954.899272	2447.480192
955.199788	2452.521346
955.500266	2573.509038
955.800706	2359.260000
956.101108	2510.494615
956.401472	2538.220962
956.701798	2520.576923
957.002087	2495.371154
957.302337	2495.371154
957.602550	2545.782692
957.902724	2457.562500
958.202861	2535.700385
958.502960	2472.685962
958.803022	2583.591346
959.103045	2563.426731
959.403031	2497.891731
959.702979	2497.891731
960.002889	2465.124231
960.302762	2475.206538
960.602596	2480.247692
960.902393	2543.262115
961.202153	2452.521346
961.501875	2518.056346
961.801559	2538.220962
962.101205	2565.947308
962.400814	2560.906154
962.700385	2475.206538
962.999918	2502.932885
963.299414	2457.562500
963.598873	2482.768269
963.898293	2555.865000
964.197677	2432.356731
964.497022	2505.453462
964.796331	2608.797115
965.095601	2540.741538
965.394835	2533.179808
965.694030	2480.247692
965.993189	2462.603654
966.292309	2523.097500
966.591393	2480.247692
966.890439	2495.371154
967.189447	2480.247692
967.488419	2530.659231
967.787353	2490.330000
968.086249	2520.576923
968.385108	2482.768269
968.683930	2490.330000
968.982714	2460.083077
969.281462	2565.947308
969.580172	2540.741538
969.878844	2550.823846
970.177480	2439.918462
970.476078	2520.576923
970.774639	2462.603654
971.073162	2460.083077
971.371649	2465.124231
971.670098	2424.795000
971.968510	2450.000769
972.266885	2480.247692
972.565223	2475.206538
972.863524	2477.727115
973.161788	2487.809423
973.460014	2460.083077
973.758204	2545.782692
974.056356	2487.809423
974.354471	2502.932885
974.652550	2518.056346
974.950591	2525.618077
975.248595	2518.056346
975.546563	2538.220962
975.844493	2460.083077
976.142386	2457.562500
976.440243	2467.644808
976.738062	2472.685962
977.035845	2518.056346
977.333590	2515.535769
977.631299	2447.480192
977.928971	2502.932885
978.226606	2439.918462
978.524204	2447.480192
978.821765	2543.262115
979.119290	2477.727115
979.416777	2540.741538
979.714228	2490.330000
980.011642	2412.192115
980.309020	2404.630385
980.606360	2568.467885
980.903664	2606.276538
981.200931	2505.453462
981.498162	2495.371154
981.795356	2462.603654
982.092513	2618.879423
982.389633	2482.768269
982.686717	2447.480192
982.983764	2528.138654
983.280775	2525.618077
983.577749	2437.397885
983.874686	2455.041923
984.171587	2442.439038
984.468451	2523.097500
984.765279	2452.521346
985.062070	2538.220962
985.358824	2538.220962
985.655543	2490.330000
985.952224	2419.753846
986.248869	2495.371154
986.545478	2412.192115
986.842050	2523.097500
987.138586	2500.412308
987.435086	2490.330000
987.731549	2477.727115
988.027975	2555.865000
988.324366	2409.671538
988.620719	2495.371154
988.917037	2450.000769
989.213318	2563.426731
989.509563	2477.727115
989.805772	2470.165385
990.101944	2447.480192
990.398080	2515.535769
990.694180	2460.083077
990.990244	2442.439038
991.286271	2450.000769
991.582262	2502.932885
991.878217	2482.768269
992.174136	2586.111923
992.470019	2470.165385
992.765865	2515.535769
993.061676	2555.865000
993.357450	2475.206538
993.653188	2573.509038
993.948890	2465.124231
994.244556	2502.932885
994.540186	2492.850577
994.835780	2497.891731
995.131337	2475.206538
995.426859	2513.015192
995.722345	2414.712692
996.017795	2465.124231
996.313208	2437.397885
996.608586	2533.179808
996.903928	2485.288846
997.199234	2487.809423
997.494504	2492.850577
997.789738	2492.850577
998.084936	2475.206538
998.380099	2578.550192
998.675225	2583.591346
998.970316	2414.712692
999.265371	2450.000769
999.560390	2487.809423
999.855373	2553.344423
1000.150320	2520.576923
1000.445232	2497.891731
1000.740108	2439.918462
1001.034948	2417.233269
1001.329752	2586.111923
1001.624521	2470.165385
1001.919254	2497.891731
1002.213951	2565.947308
1002.508613	2518.056346
1002.803239	2492.850577
1003.097829	2470.165385
1003.392384	2538.220962
1003.686903	2487.809423
1003.981386	2487.809423
1004.275834	2490.330000
1004.570246	2495.371154
1004.864623	2492.850577
1005.158964	2548.303269
1005.453270	2457.562500
1005.747540	2460.083077
1006.041775	2543.262115
1006.335974	2490.330000
1006.630138	2467.644808
1006.924266	2397.068654
1007.218359	2434.877308
1007.512416	2470.165385
1007.806438	2455.041923
1008.100425	2528.138654
1008.394376	2477.727115
1008.688292	2397.068654
1008.982172	2510.494615
1009.276017	2381.945192
1009.569827	2472.685962
1009.863602	2497.891731
1010.157341	2452.521346
1010.451045	2490.330000
1010.744714	2480.247692
1011.038347	2404.630385
1011.331945	2432.356731
1011.625508	2480.247692
1011.919036	2475.206538
1012.212528	2555.865000
1012.505986	2412.192115
1012.799408	2560.906154
1013.092795	2520.576923
1013.386147	2502.932885
1013.679464	2472.685962
1013.972745	2530.659231
1014.265992	2525.618077
1014.559204	2434.877308
1014.852380	2460.083077
1015.145521	2495.371154
1015.438628	2500.412308
1015.731699	2482.768269
1016.024736	2593.673654
1016.317737	2490.330000
1016.610703	2598.714808
1016.903635	2586.111923
1017.196531	2439.918462
1017.489393	2460.083077
1017.782219	2475.206538
1018.075011	2538.220962
1018.367768	2487.809423
1018.660490	2550.823846
1018.953177	2550.823846
1019.245829	2550.823846
