Dividing Wavelength (nm)	Counts (n)	Blue Motor Position (mm): 0.000000	Red Motor Position (mm): 5.100000	
326.493990	2076.955385
326.888308	2076.955385
327.282561	2076.955385
327.676750	2092.078846
328.070874	2134.928654
328.464933	2081.996538
328.858929	2076.955385
329.252859	2081.996538
329.646726	2139.969808
330.040528	2094.599423
330.434265	2119.805192
330.827938	2157.613846
331.221547	2160.134423
331.615091	2157.613846
332.008571	2255.916346
332.401986	2233.231154
332.795338	2218.107692
333.188625	2258.436923
333.581847	2278.601538
333.975006	2260.957500
334.368100	2336.574808
334.761129	2323.971923
335.154095	2369.342308
335.546996	2323.971923
335.939833	2359.260000
336.332606	2412.192115
336.725315	2432.356731
337.117960	2419.753846
337.510540	2422.274423
337.903056	2414.712692
338.295508	2409.671538
338.687896	2429.836154
339.080220	2460.083077
339.472480	2475.206538
339.864676	2452.521346
340.256807	2404.630385
340.648875	2359.260000
341.040879	2510.494615
341.432818	2427.315577
341.824694	2389.506923
342.216506	2452.521346
342.608253	2364.301154
342.999937	2510.494615
343.391557	2513.015192
343.783113	2424.795000
344.174605	2495.371154
344.566033	2482.768269
344.957397	2535.700385
345.348697	2490.330000
345.739934	2528.138654
346.131106	2407.150962
346.522215	2419.753846
346.913260	2467.644808
347.304241	2485.288846
347.695159	2502.932885
348.086012	2452.521346
348.476802	2434.877308
348.867528	2513.015192
349.258191	2482.768269
349.648789	2455.041923
350.039324	2465.124231
350.429796	2407.150962
350.820203	2475.206538
351.210548	2505.453462
351.600828	2447.480192
351.991045	2518.056346
352.381198	2477.727115
352.771288	2452.521346
353.161314	2447.480192
353.551276	2447.480192
353.941175	2422.274423
354.331010	2472.685962
354.720782	2495.371154
355.110490	2447.480192
355.500135	2346.657115
355.889717	2404.630385
356.279235	2495.371154
356.668689	2432.356731
357.058080	2376.904038
357.447408	2467.644808
357.836672	2457.562500
358.225873	2437.397885
358.615010	2460.083077
359.004084	2432.356731
359.393095	2427.315577
359.782043	2467.644808
360.170927	2507.974038
360.559748	2444.959615
360.948505	2495.371154
361.337199	2432.356731
361.725830	2497.891731
362.114398	2477.727115
362.502903	2417.233269
362.891344	2381.945192
363.279722	2434.877308
363.668037	2563.426731
364.056289	2502.932885
364.444478	2507.974038
364.832603	2384.465769
365.220665	2492.850577
365.608665	2434.877308
365.996601	2394.548077
366.384474	2492.850577
366.772284	2457.562500
367.160031	2570.988462
367.547715	2452.521346
367.935336	2457.562500
368.322893	2439.918462
368.710388	2472.685962
369.097820	2404.630385
369.485189	2465.124231
369.872495	2432.356731
370.259738	2475.206538
370.646918	2475.206538
371.034035	2452.521346
371.421090	2432.356731
371.808081	2444.959615
372.195010	2513.015192
372.581875	2457.562500
372.968678	2485.288846
373.355418	2490.330000
373.742096	2376.904038
374.128710	2384.465769
374.515262	2467.644808
374.901751	2437.397885
375.288177	2434.877308
375.674540	2452.521346
376.060841	2487.809423
376.447079	2457.562500
376.833254	2487.809423
377.219367	2407.150962
377.605417	2434.877308
377.991404	2513.015192
378.377329	2477.727115
378.763191	2386.986346
379.148991	2487.809423
379.534727	2467.644808
379.920402	2550.823846
380.306013	2427.315577
380.691563	2467.644808
381.077049	2442.439038
381.462474	2558.385577
381.847835	2475.206538
382.233134	2457.562500
382.618371	2487.809423
383.003545	2460.083077
383.388657	2467.644808
383.773706	2538.220962
384.158693	2472.685962
384.543618	2427.315577
384.928480	2475.206538
385.313280	2492.850577
385.698017	2457.562500
386.082692	2444.959615
386.467305	2523.097500
386.851856	2457.562500
387.236344	2505.453462
387.620770	2523.097500
388.005133	2376.904038
388.389435	2409.671538
388.773674	2467.644808
389.157851	2558.385577
389.541965	2414.712692
389.926018	2558.385577
390.310008	2424.795000
390.693936	2472.685962
391.077802	2397.068654
391.461606	2422.274423
391.845348	2487.809423
392.229027	2386.986346
392.612645	2535.700385
392.996200	2467.644808
393.379694	2495.371154
393.763125	2437.397885
394.146494	2477.727115
394.529801	2457.562500
394.913047	2457.562500
395.296230	2437.397885
395.679351	2467.644808
396.062410	2457.562500
396.445408	2518.056346
396.828343	2482.768269
397.211217	2513.015192
397.594028	2427.315577
397.976778	2492.850577
398.359466	2477.727115
398.742092	2525.618077
399.124656	2490.330000
399.507158	2497.891731
399.889598	2500.412308
400.271977	2502.932885
400.654294	2528.138654
401.036549	2500.412308
401.418742	2608.797115
401.800874	2515.535769
402.182944	2535.700385
402.564952	2427.315577
402.946898	2495.371154
403.328783	2507.974038
403.710606	2447.480192
404.092367	2407.150962
404.474067	2518.056346
404.855705	2487.809423
405.237282	2533.179808
405.618797	2513.015192
406.000250	2457.562500
406.381642	2447.480192
406.762972	2462.603654
407.144240	2414.712692
407.525447	2485.288846
407.906593	2437.397885
408.287677	2452.521346
408.668700	2444.959615
409.049661	2437.397885
409.430560	2487.809423
409.811399	2492.850577
410.192176	2495.371154
410.572891	2513.015192
410.953545	2437.397885
411.334138	2518.056346
411.714669	2495.371154
412.095139	2538.220962
412.475547	2576.029615
412.855894	2477.727115
413.236180	2528.138654
413.616405	2462.603654
413.996568	2523.097500
414.376670	2507.974038
414.756711	2402.109808
415.136691	2487.809423
415.516609	2475.206538
415.896466	2465.124231
416.276262	2502.932885
416.655997	2500.412308
417.035670	2417.233269
417.415283	2467.644808
417.794834	2402.109808
418.174324	2500.412308
418.553753	2444.959615
418.933121	2502.932885
419.312428	2422.274423
419.691674	2495.371154
420.070859	2429.836154
420.449983	2447.480192
420.829045	2465.124231
421.208047	2545.782692
421.586988	2548.303269
421.965867	2500.412308
422.344686	2402.109808
422.723444	2437.397885
423.102141	2447.480192
423.480777	2452.521346
423.859352	2485.288846
424.237866	2490.330000
424.616319	2472.685962
424.994712	2502.932885
425.373044	2465.124231
425.751314	2492.850577
426.129524	2515.535769
426.507673	2490.330000
426.885762	2485.288846
427.263789	2528.138654
427.641756	2515.535769
428.019662	2437.397885
428.397508	2515.535769
428.775292	2513.015192
429.153016	2467.644808
429.530679	2462.603654
429.908282	2477.727115
430.285824	2593.673654
430.663305	2520.576923
431.040726	2528.138654
431.418086	2450.000769
431.795385	2507.974038
432.172624	2515.535769
432.549802	2450.000769
432.926920	2417.233269
433.303977	2439.918462
433.680974	2452.521346
434.057910	2467.644808
434.434786	2450.000769
434.811601	2492.850577
435.188355	2490.330000
435.565050	2555.865000
435.941683	2442.439038
436.318257	2384.465769
436.694770	2505.453462
437.071222	2429.836154
437.447614	2437.397885
437.823946	2470.165385
438.200218	2442.439038
438.576429	2472.685962
438.952580	2434.877308
439.328670	2467.644808
439.704700	2485.288846
440.080670	2500.412308
440.456580	2485.288846
440.832429	2477.727115
441.208218	2397.068654
441.583947	2513.015192
441.959616	2505.453462
442.335224	2568.467885
442.710773	2427.315577
443.086261	2487.809423
443.461689	2480.247692
443.837057	2603.755962
444.212365	2497.891731
444.587612	2502.932885
444.962800	2467.644808
445.337927	2505.453462
445.712995	2505.453462
446.088002	2422.274423
446.462949	2414.712692
446.837837	2513.015192
447.212664	2553.344423
447.587431	2523.097500
447.962139	2500.412308
448.336786	2482.768269
448.711374	2505.453462
449.085901	2455.041923
449.460369	2500.412308
449.834776	2439.918462
450.209124	2434.877308
450.583412	2427.315577
450.957640	2462.603654
451.331808	2535.700385
451.705917	2379.424615
452.079965	2533.179808
452.453954	2437.397885
452.827883	2495.371154
453.201752	2472.685962
453.575562	2485.288846
453.949311	2540.741538
454.323001	2492.850577
454.696632	2528.138654
455.070202	2520.576923
455.443713	2528.138654
455.817164	2470.165385
456.190556	2495.371154
456.563888	2457.562500
456.937160	2450.000769
457.310373	2533.179808
457.683526	2434.877308
458.056619	2543.262115
458.429653	2467.644808
458.802628	2520.576923
459.175542	2515.535769
459.548398	2518.056346
459.921194	2490.330000
460.293930	2386.986346
460.666607	2495.371154
461.039224	2533.179808
461.411782	2507.974038
461.784280	2455.041923
462.156719	2482.768269
462.529099	2437.397885
462.901419	2465.124231
463.273680	2407.150962
463.645882	2482.768269
464.018024	2570.988462
464.390106	2513.015192
464.762130	2507.974038
465.134094	2407.150962
465.505999	2480.247692
465.877845	2444.959615
466.249631	2475.206538
466.621358	2462.603654
466.993026	2452.521346
467.364634	2439.918462
467.736184	2487.809423
468.107674	2568.467885
468.479105	2545.782692
468.850477	2444.959615
469.221790	2384.465769
469.593043	2457.562500
469.964238	2497.891731
470.335373	2477.727115
470.706449	2447.480192
471.077467	2538.220962
471.448425	2523.097500
471.819324	2472.685962
472.190164	2462.603654
472.560945	2513.015192
472.931667	2553.344423
473.302330	2601.235385
473.672934	2545.782692
474.043479	2535.700385
474.413965	2455.041923
474.784393	2465.124231
475.154761	2450.000769
475.525070	2452.521346
475.895321	2442.439038
476.265513	2543.262115
476.635645	2502.932885
477.005719	2525.618077
477.375734	2505.453462
477.745691	2495.371154
478.115588	2485.288846
478.485427	2485.288846
478.855207	2447.480192
479.224928	2487.809423
479.594591	2533.179808
479.964194	2543.262115
480.333739	2492.850577
480.703226	2518.056346
481.072653	2518.056346
481.442022	2455.041923
481.811333	2530.659231
482.180584	2470.165385
482.549777	2563.426731
482.918912	2427.315577
483.287988	2482.768269
483.657005	2399.589231
484.025964	2540.741538
484.394864	2505.453462
484.763706	2487.809423
485.132489	2470.165385
485.501213	2470.165385
485.869879	2490.330000
486.238487	2447.480192
486.607036	2397.068654
486.975527	2545.782692
487.343959	2485.288846
487.712333	2490.330000
488.080648	2482.768269
488.448905	2543.262115
488.817104	2563.426731
489.185244	2432.356731
489.553326	2450.000769
489.921350	2470.165385
490.289315	2510.494615
490.657222	2389.506923
491.025070	2480.247692
491.392861	2394.548077
491.760593	2414.712692
492.128267	2520.576923
492.495883	2500.412308
492.863440	2480.247692
493.230939	2538.220962
493.598380	2513.015192
493.965763	2460.083077
494.333088	2550.823846
494.700354	2470.165385
495.067563	2513.015192
495.434713	2455.041923
495.801805	2510.494615
496.168839	2550.823846
496.535815	2520.576923
496.902733	2505.453462
497.269593	2528.138654
497.636395	2475.206538
498.003139	2475.206538
498.369825	2545.782692
498.736453	2447.480192
499.103023	2548.303269
499.469535	2482.768269
499.835989	2513.015192
500.202385	2457.562500
500.568723	2573.509038
500.935003	2533.179808
501.301226	2560.906154
501.667390	2576.029615
502.033497	2497.891731
502.399546	2540.741538
502.765537	2434.877308
503.131470	2495.371154
503.497345	2462.603654
503.863163	2558.385577
504.228923	2455.041923
504.594625	2442.439038
504.960269	2422.274423
505.325856	2520.576923
505.691385	2513.015192
506.056856	2437.397885
506.422270	2515.535769
506.787625	2444.959615
507.152924	2555.865000
507.518164	2560.906154
507.883347	2482.768269
508.248472	2518.056346
508.613540	2437.397885
508.978550	2497.891731
509.343503	2460.083077
509.708398	2480.247692
510.073236	2482.768269
510.438016	2538.220962
510.802738	2538.220962
511.167403	2444.959615
511.532010	2565.947308
511.896561	2455.041923
512.261053	2568.467885
512.625488	2497.891731
512.989866	2502.932885
513.354186	2442.439038
513.718449	2477.727115
514.082655	2442.439038
514.446803	2502.932885
514.810894	2500.412308
515.174927	2495.371154
515.538904	2523.097500
515.902822	2419.753846
516.266684	2475.206538
516.630488	2460.083077
516.994235	2482.768269
517.357925	2581.070769
517.721558	2540.741538
518.085133	2482.768269
518.448651	2419.753846
518.812112	2500.412308
519.175516	2540.741538
519.538863	2505.453462
519.902152	2495.371154
520.265385	2515.535769
520.628560	2485.288846
520.991678	2510.494615
521.354739	2492.850577
521.717743	2497.891731
522.080690	2487.809423
522.443580	2548.303269
522.806413	2450.000769
523.169189	2591.153077
523.531908	2457.562500
523.894569	2538.220962
524.257174	2538.220962
524.619722	2505.453462
524.982213	2525.618077
525.344647	2432.356731
525.707025	2568.467885
526.069345	2538.220962
526.431608	2447.480192
526.793815	2507.974038
527.155964	2505.453462
527.518057	2482.768269
527.880093	2523.097500
528.242072	2533.179808
528.603995	2518.056346
528.965860	2502.932885
529.327669	2530.659231
529.689421	2525.618077
530.051117	2510.494615
530.412755	2502.932885
530.774337	2419.753846
531.135862	2439.918462
531.497331	2568.467885
531.858743	2510.494615
532.220098	2470.165385
532.581396	2495.371154
532.942638	2505.453462
533.303824	2482.768269
533.664953	2525.618077
534.026025	2555.865000
534.387040	2492.850577
534.747999	2457.562500
535.108902	2465.124231
535.469748	2492.850577
535.830537	2533.179808
536.191270	2460.083077
536.551947	2442.439038
536.912567	2457.562500
537.273131	2515.535769
537.633638	2545.782692
537.994089	2495.371154
538.354483	2515.535769
538.714821	2402.109808
539.075103	2447.480192
539.435328	2533.179808
539.795497	2487.809423
540.155609	2558.385577
540.515665	2485.288846
540.875665	2533.179808
541.235609	2515.535769
541.595496	2467.644808
541.955328	2507.974038
542.315102	2427.315577
542.674821	2485.288846
543.034483	2477.727115
543.394090	2518.056346
543.753640	2533.179808
544.113134	2442.439038
544.472571	2548.303269
544.831953	2553.344423
545.191278	2573.509038
545.550548	2480.247692
545.909761	2475.206538
546.268918	2528.138654
546.628019	2500.412308
546.987064	2505.453462
547.346053	2520.576923
547.704986	2513.015192
548.063863	2518.056346
548.422684	2460.083077
548.781449	2513.015192
549.140158	2465.124231
549.498811	2555.865000
549.857408	2523.097500
550.215949	2515.535769
550.574434	2545.782692
550.932864	2558.385577
551.291237	2457.562500
551.649555	2510.494615
552.007817	2502.932885
552.366022	2477.727115
552.724173	2507.974038
553.082267	2427.315577
553.440305	2550.823846
553.798288	2439.918462
554.156215	2543.262115
554.514086	2538.220962
554.871902	2497.891731
555.229661	2510.494615
555.587365	2555.865000
555.945014	2545.782692
556.302606	2477.727115
556.660143	2538.220962
557.017625	2525.618077
557.375050	2472.685962
557.732421	2518.056346
558.089735	2447.480192
558.446994	2528.138654
558.804197	2392.027500
559.161345	2444.959615
559.518437	2462.603654
559.875474	2513.015192
560.232455	2447.480192
560.589381	2470.165385
560.946251	2472.685962
561.303065	2460.083077
561.659825	2500.412308
562.016528	2472.685962
562.373177	2409.671538
562.729770	2530.659231
563.086307	2515.535769
563.442789	2505.453462
563.799216	2555.865000
564.155587	2439.918462
564.511904	2495.371154
564.868164	2568.467885
565.224370	2533.179808
565.580520	2528.138654
565.936615	2535.700385
566.292654	2523.097500
566.648638	2462.603654
567.004567	2525.618077
567.360441	2482.768269
567.716260	2528.138654
568.072023	2495.371154
568.427732	2485.288846
568.783385	2397.068654
569.138982	2419.753846
569.494525	2518.056346
569.850013	2538.220962
570.205445	2558.385577
570.560823	2457.562500
570.916145	2520.576923
571.271412	2462.603654
571.626625	2543.262115
571.981782	2392.027500
572.336884	2507.974038
572.691931	2565.947308
573.046923	2475.206538
573.401860	2475.206538
573.756743	2495.371154
574.111570	2507.974038
574.466342	2412.192115
574.821059	2507.974038
575.175722	2477.727115
575.530330	2472.685962
575.884882	2427.315577
576.239380	2409.671538
576.593823	2538.220962
576.948211	2442.439038
577.302544	2505.453462
577.656823	2548.303269
578.011047	2490.330000
578.365216	2578.550192
578.719330	2490.330000
579.073389	2553.344423
579.427394	2482.768269
579.781344	2465.124231
580.135239	2452.521346
580.489080	2460.083077
580.842866	2470.165385
581.196597	2495.371154
581.550273	2467.644808
581.903895	2515.535769
582.257463	2510.494615
582.610975	2545.782692
582.964434	2528.138654
583.317837	2447.480192
583.671186	2507.974038
584.024481	2450.000769
584.377721	2634.002885
584.730906	2573.509038
585.084037	2543.262115
585.437113	2437.397885
585.790135	2515.535769
586.143103	2485.288846
586.496016	2510.494615
586.848874	2475.206538
587.201679	2553.344423
587.554428	2492.850577
587.907124	2507.974038
588.259765	2444.959615
588.612352	2482.768269
588.964884	2540.741538
589.317362	2470.165385
589.669786	2502.932885
590.022155	2482.768269
590.374470	2576.029615
590.726731	2465.124231
591.078937	2460.083077
591.431090	2515.535769
591.783188	2530.659231
592.135232	2472.685962
592.487222	2442.439038
592.839157	2565.947308
593.191038	2422.274423
593.542866	2490.330000
593.894639	2510.494615
594.246358	2480.247692
594.598022	2588.632500
594.949633	2490.330000
595.301190	2495.371154
595.652692	2586.111923
596.004141	2500.412308
596.355535	2578.550192
596.706876	2560.906154
597.058162	2381.945192
597.409395	2507.974038
597.760573	2475.206538
598.111698	2492.850577
598.462768	2460.083077
598.813785	2495.371154
599.164748	2518.056346
599.515657	2563.426731
599.866511	2444.959615
600.217312	2510.494615
600.568060	2472.685962
600.918753	2507.974038
601.269392	2545.782692
601.619978	2553.344423
601.970510	2545.782692
602.320988	2540.741538
602.671412	2528.138654
603.021783	2462.603654
603.372100	2495.371154
603.722363	2487.809423
604.072572	2495.371154
604.422728	2442.439038
604.772830	2525.618077
605.122878	2548.303269
605.472872	2543.262115
605.822813	2467.644808
606.172701	2470.165385
606.522534	2397.068654
606.872314	2422.274423
607.222041	2465.124231
607.571714	2417.233269
607.921333	2480.247692
608.270899	2507.974038
608.620411	2545.782692
608.969870	2502.932885
609.319276	2467.644808
609.668627	2434.877308
610.017926	2583.591346
610.367171	2563.426731
610.716362	2480.247692
611.065500	2412.192115
611.414585	2447.480192
611.763616	2550.823846
612.112594	2470.165385
612.461518	2505.453462
612.810389	2485.288846
613.159207	2598.714808
613.507971	2565.947308
613.856682	2520.576923
614.205340	2482.768269
614.553945	2482.768269
614.902496	2533.179808
615.250994	2457.562500
615.599439	2444.959615
615.947830	2596.194231
616.296169	2515.535769
616.644454	2475.206538
616.992686	2487.809423
617.340864	2518.056346
617.688990	2507.974038
618.037063	2472.685962
618.385082	2432.356731
618.733048	2477.727115
619.080961	2533.179808
619.428821	2528.138654
619.776628	2505.453462
620.124382	2444.959615
620.472083	2452.521346
620.819731	2570.988462
621.167326	2507.974038
621.514868	2492.850577
621.862357	2502.932885
622.209793	2540.741538
622.557176	2475.206538
622.904506	2603.755962
623.251783	2490.330000
623.599007	2530.659231
623.946179	2555.865000
624.293297	2457.562500
624.640363	2495.371154
624.987376	2475.206538
625.334336	2455.041923
625.681243	2492.850577
626.028097	2442.439038
626.374899	2518.056346
626.721647	2487.809423
627.068343	2533.179808
627.414987	2555.865000
627.761577	2510.494615
628.108115	2452.521346
628.454600	2513.015192
628.801032	2424.795000
629.147412	2477.727115
629.493739	2424.795000
629.840014	2490.330000
630.186236	2520.576923
630.532405	2447.480192
630.878521	2528.138654
631.224585	2381.945192
631.570597	2540.741538
631.916556	2540.741538
632.262462	2553.344423
632.608316	2558.385577
632.954117	2475.206538
633.299866	2540.741538
633.645562	2399.589231
633.991206	2586.111923
634.336797	2513.015192
634.682336	2518.056346
635.027823	2515.535769
635.373257	2591.153077
635.718639	2528.138654
636.063968	2490.330000
636.409245	2513.015192
636.754470	2482.768269
637.099642	2520.576923
637.444762	2523.097500
637.789829	2460.083077
638.134845	2455.041923
638.479808	2480.247692
638.824719	2475.206538
639.169577	2480.247692
639.514383	2429.836154
639.859137	2477.727115
640.203839	2500.412308
640.548489	2472.685962
640.893086	2455.041923
641.237632	2530.659231
641.582125	2528.138654
641.926566	2535.700385
642.270955	2429.836154
642.615292	2437.397885
642.959576	2555.865000
643.303809	2528.138654
643.647990	2462.603654
643.992118	2505.453462
644.336195	2462.603654
644.680219	2487.809423
645.024192	2558.385577
645.368112	2465.124231
645.711981	2472.685962
646.055797	2535.700385
646.399562	2502.932885
646.743274	2462.603654
647.086935	2437.397885
647.430544	2505.453462
647.774101	2608.797115
648.117606	2455.041923
648.461059	2515.535769
648.804460	2538.220962
649.147810	2523.097500
649.491108	2598.714808
649.834354	2477.727115
650.177548	2437.397885
650.520690	2417.233269
650.863781	2460.083077
651.206820	2482.768269
651.549807	2518.056346
651.892742	2553.344423
652.235626	2422.274423
652.578458	2545.782692
652.921238	2490.330000
653.263967	2533.179808
653.606644	2485.288846
653.949269	2500.412308
654.291843	2548.303269
654.634365	2535.700385
654.976836	2490.330000
655.319255	2533.179808
655.661622	2465.124231
656.003938	2528.138654
656.346203	2447.480192
656.688416	2510.494615
657.030577	2535.700385
657.372687	2467.644808
657.714746	2482.768269
658.056753	2538.220962
658.398708	2560.906154
658.740612	2462.603654
659.082465	2507.974038
659.424266	2444.959615
659.766016	2518.056346
660.107715	2465.124231
660.449362	2505.453462
660.790958	2528.138654
661.132503	2417.233269
661.473996	2427.315577
661.815438	2482.768269
662.156829	2528.138654
662.498168	2457.562500
662.839456	2492.850577
663.180693	2518.056346
663.521879	2460.083077
663.863013	2513.015192
664.204097	2513.015192
664.545129	2535.700385
664.886110	2538.220962
665.227040	2424.795000
665.567918	2475.206538
665.908746	2540.741538
666.249522	2518.056346
666.590248	2528.138654
666.930922	2502.932885
667.271545	2492.850577
667.612118	2515.535769
667.952639	2497.891731
668.293109	2427.315577
668.633528	2465.124231
668.973896	2565.947308
669.314213	2462.603654
669.654480	2497.891731
669.994695	2568.467885
670.334859	2477.727115
670.674973	2497.891731
671.015035	2520.576923
671.355047	2487.809423
671.695008	2573.509038
672.034918	2482.768269
672.374777	2523.097500
672.714585	2520.576923
673.054342	2477.727115
673.394049	2510.494615
673.733705	2565.947308
674.073310	2475.206538
674.412864	2515.535769
674.752368	2563.426731
675.091820	2444.959615
675.431223	2533.179808
675.770574	2563.426731
676.109875	2447.480192
676.449125	2465.124231
676.788324	2482.768269
677.127473	2535.700385
677.466571	2535.700385
677.805619	2573.509038
678.144616	2518.056346
678.483562	2530.659231
678.822458	2477.727115
679.161303	2502.932885
679.500098	2535.700385
679.838842	2462.603654
680.177535	2535.700385
680.516179	2482.768269
680.854771	2535.700385
681.193314	2502.932885
681.531805	2515.535769
681.870247	2492.850577
682.208638	2480.247692
682.546978	2528.138654
682.885268	2520.576923
683.223508	2447.480192
683.561697	2545.782692
683.899836	2490.330000
684.237925	2518.056346
684.575963	2455.041923
684.913951	2558.385577
685.251889	2568.467885
685.589776	2565.947308
685.927614	2502.932885
686.265401	2573.509038
686.603137	2492.850577
686.940824	2573.509038
687.278460	2603.755962
687.616046	2470.165385
687.953582	2570.988462
688.291068	2500.412308
688.628504	2480.247692
688.965889	2540.741538
689.303224	2500.412308
689.640510	2495.371154
689.977745	2515.535769
690.314930	2505.453462
690.652065	2500.412308
690.989150	2515.535769
691.326185	2477.727115
691.663170	2457.562500
692.000105	2598.714808
692.336990	2480.247692
692.673825	2538.220962
693.010610	2518.056346
693.347345	2543.262115
693.684030	2553.344423
694.020665	2570.988462
694.357251	2497.891731
694.693786	2417.233269
695.030272	2555.865000
695.366707	2465.124231
695.703093	2424.795000
696.039429	2457.562500
696.375716	2528.138654
696.711952	2568.467885
697.048139	2573.509038
697.384276	2523.097500
697.720363	2543.262115
698.056400	2432.356731
698.392388	2518.056346
698.728326	2475.206538
699.064214	2550.823846
699.400053	2475.206538
699.735842	2500.412308
700.071581	2528.138654
700.407270	2447.480192
700.742910	2505.453462
701.078501	2523.097500
701.414042	2540.741538
701.749533	2472.685962
702.084974	2482.768269
702.420366	2523.097500
702.755709	2535.700385
703.091002	2485.288846
703.426246	2444.959615
703.761440	2495.371154
704.096584	2505.453462
704.431679	2432.356731
704.766725	2502.932885
705.101721	2472.685962
705.436668	2538.220962
705.771565	2482.768269
706.106413	2550.823846
706.441212	2495.371154
706.775961	2596.194231
707.110661	2462.603654
707.445311	2530.659231
707.779913	2495.371154
708.114465	2472.685962
708.448967	2523.097500
708.783421	2480.247692
709.117825	2540.741538
709.452180	2437.397885
709.786485	2455.041923
710.120742	2490.330000
710.454949	2480.247692
710.789107	2520.576923
711.123216	2558.385577
711.457275	2457.562500
711.791286	2439.918462
712.125247	2470.165385
712.459159	2480.247692
712.793023	2553.344423
713.126837	2538.220962
713.460602	2535.700385
713.794318	2444.959615
714.127985	2490.330000
714.461602	2444.959615
714.795171	2492.850577
715.128691	2497.891731
715.462162	2507.974038
715.795584	2565.947308
716.128957	2472.685962
716.462281	2525.618077
716.795556	2543.262115
717.128782	2442.439038
717.461960	2528.138654
717.795088	2510.494615
718.128167	2502.932885
718.461198	2470.165385
718.794180	2490.330000
719.127113	2528.138654
719.459997	2450.000769
719.792833	2480.247692
720.125619	2535.700385
720.458357	2439.918462
720.791046	2482.768269
721.123686	2470.165385
721.456278	2500.412308
721.788821	2437.397885
722.121315	2510.494615
722.453761	2429.836154
722.786158	2515.535769
723.118506	2520.576923
723.450805	2432.356731
723.783056	2485.288846
724.115259	2550.823846
724.447412	2528.138654
724.779518	2404.630385
725.111574	2475.206538
725.443582	2427.315577
725.775542	2450.000769
726.107453	2528.138654
726.439315	2523.097500
726.771129	2457.562500
727.102895	2528.138654
727.434612	2515.535769
727.766281	2507.974038
728.097901	2535.700385
728.429473	2472.685962
728.760996	2437.397885
729.092471	2482.768269
729.423897	2447.480192
729.755276	2548.303269
730.086606	2404.630385
730.417887	2457.562500
730.749120	2455.041923
731.080305	2507.974038
731.411442	2497.891731
731.742530	2482.768269
732.073570	2548.303269
732.404562	2523.097500
732.735506	2477.727115
733.066401	2553.344423
733.397249	2424.795000
733.728048	2462.603654
734.058798	2480.247692
734.389501	2548.303269
734.720156	2500.412308
735.050762	2477.727115
735.381320	2545.782692
735.711831	2510.494615
736.042293	2447.480192
736.372707	2480.247692
736.703073	2412.192115
737.033391	2457.562500
737.363661	2470.165385
737.693883	2487.809423
738.024056	2465.124231
738.354182	2475.206538
738.684260	2437.397885
739.014290	2510.494615
739.344272	2568.467885
739.674207	2402.109808
740.004093	2553.344423
740.333931	2442.439038
740.663722	2450.000769
740.993464	2523.097500
741.323159	2455.041923
741.652806	2525.618077
741.982405	2444.959615
742.311956	2439.918462
742.641460	2495.371154
742.970915	2457.562500
743.300323	2507.974038
743.629683	2543.262115
743.958996	2505.453462
744.288260	2538.220962
744.617477	2558.385577
744.946647	2482.768269
745.275768	2505.453462
745.604842	2482.768269
745.933869	2538.220962
746.262847	2563.426731
746.591778	2525.618077
746.920662	2553.344423
747.249498	2495.371154
747.578286	2482.768269
747.907027	2455.041923
748.235720	2608.797115
748.564365	2450.000769
748.892963	2513.015192
749.221514	2510.494615
749.550017	2492.850577
749.878473	2477.727115
750.206881	2576.029615
750.535242	2520.576923
750.863555	2460.083077
751.191821	2455.041923
751.520039	2467.644808
751.848210	2543.262115
752.176334	2510.494615
752.504411	2475.206538
752.832440	2513.015192
753.160421	2543.262115
753.488356	2500.412308
753.816243	2480.247692
754.144082	2553.344423
754.471875	2560.906154
754.799620	2470.165385
755.127318	2500.412308
755.454969	2525.618077
755.782572	2475.206538
756.110129	2581.070769
756.437638	2540.741538
756.765100	2444.959615
757.092515	2472.685962
757.419882	2432.356731
757.747203	2535.700385
758.074477	2429.836154
758.401703	2477.727115
758.728882	2409.671538
759.056014	2596.194231
759.383099	2432.356731
759.710138	2475.206538
760.037129	2487.809423
760.364073	2505.453462
760.690970	2452.521346
761.017820	2485.288846
761.344623	2477.727115
761.671379	2467.644808
761.998088	2507.974038
762.324751	2465.124231
762.651366	2492.850577
762.977935	2533.179808
763.304456	2507.974038
763.630931	2462.603654
763.957359	2457.562500
764.283740	2525.618077
764.610074	2394.548077
764.936362	2487.809423
765.262602	2444.959615
765.588796	2472.685962
765.914943	2502.932885
766.241044	2472.685962
766.567097	2543.262115
766.893104	2513.015192
767.219064	2495.371154
767.544978	2429.836154
767.870845	2530.659231
768.196665	2485.288846
768.522438	2495.371154
768.848165	2553.344423
769.173846	2555.865000
769.499479	2434.877308
769.825066	2482.768269
770.150607	2432.356731
770.476101	2485.288846
770.801548	2487.809423
771.126949	2492.850577
771.452303	2394.548077
771.777611	2480.247692
772.102872	2427.315577
772.428087	2477.727115
772.753256	2480.247692
773.078378	2573.509038
773.403453	2460.083077
773.728482	2518.056346
774.053465	2487.809423
774.378401	2500.412308
774.703291	2565.947308
775.028135	2505.453462
775.352932	2528.138654
775.677683	2472.685962
776.002388	2485.288846
776.327046	2548.303269
776.651658	2528.138654
776.976224	2487.809423
777.300743	2510.494615
777.625216	2497.891731
777.949643	2452.521346
778.274024	2477.727115
778.598359	2528.138654
778.922647	2520.576923
779.246889	2472.685962
779.571086	2495.371154
779.895236	2457.562500
780.219339	2462.603654
780.543397	2520.576923
780.867409	2450.000769
781.191374	2482.768269
781.515294	2548.303269
781.839167	2505.453462
782.162995	2475.206538
782.486776	2560.906154
782.810511	2550.823846
783.134201	2487.809423
783.457844	2497.891731
783.781441	2462.603654
784.104993	2485.288846
784.428498	2540.741538
784.751958	2477.727115
785.075372	2482.768269
785.398739	2581.070769
785.722061	2528.138654
786.045337	2495.371154
786.368568	2553.344423
786.691752	2495.371154
787.014891	2500.412308
787.337983	2427.315577
787.661030	2442.439038
787.984031	2490.330000
788.306987	2497.891731
788.629897	2439.918462
788.952760	2381.945192
789.275579	2480.247692
789.598351	2500.412308
789.921078	2523.097500
790.243759	2475.206538
790.566395	2560.906154
790.888984	2465.124231
791.211529	2434.877308
791.534027	2500.412308
791.856480	2422.274423
792.178888	2520.576923
792.501249	2427.315577
792.823566	2407.150962
793.145836	2470.165385
793.468062	2565.947308
793.790241	2475.206538
794.112375	2553.344423
794.434464	2583.591346
794.756507	2480.247692
795.078505	2568.467885
795.400457	2507.974038
795.722364	2495.371154
796.044226	2485.288846
796.366042	2540.741538
796.687812	2467.644808
797.009538	2477.727115
797.331218	2452.521346
797.652852	2497.891731
797.974442	2480.247692
798.295986	2467.644808
798.617484	2558.385577
798.938938	2480.247692
799.260346	2472.685962
799.581709	2510.494615
799.903026	2573.509038
800.224299	2477.727115
800.545526	2485.288846
800.866708	2475.206538
801.187845	2545.782692
801.508936	2409.671538
801.829983	2533.179808
802.150984	2492.850577
802.471940	2553.344423
802.792851	2472.685962
803.113717	2495.371154
803.434538	2429.836154
803.755314	2455.041923
804.076045	2485.288846
804.396731	2515.535769
804.717372	2467.644808
805.037967	2520.576923
805.358518	2462.603654
805.679024	2497.891731
805.999485	2467.644808
806.319901	2482.768269
806.640272	2480.247692
806.960598	2424.795000
807.280879	2502.932885
807.601115	2432.356731
807.921306	2520.576923
808.241453	2485.288846
808.561554	2523.097500
808.881611	2530.659231
809.201623	2470.165385
809.521590	2545.782692
809.841513	2558.385577
810.161390	2520.576923
810.481223	2525.618077
810.801011	2470.165385
811.120755	2407.150962
811.440453	2533.179808
811.760107	2576.029615
812.079716	2543.262115
812.399281	2500.412308
812.718801	2407.150962
813.038276	2520.576923
813.357707	2477.727115
813.677093	2510.494615
813.996434	2505.453462
814.315731	2417.233269
814.634983	2475.206538
814.954191	2513.015192
815.273354	2570.988462
815.592473	2427.315577
815.911547	2528.138654
816.230577	2492.850577
816.549562	2480.247692
816.868502	2520.576923
817.187399	2437.397885
817.506250	2477.727115
817.825058	2560.906154
818.143821	2490.330000
818.462539	2510.494615
818.781213	2482.768269
819.099843	2482.768269
819.418429	2555.865000
819.736970	2475.206538
820.055466	2475.206538
820.373919	2510.494615
820.692327	2500.412308
821.010691	2492.850577
821.329011	2538.220962
821.647286	2492.850577
821.965517	2480.247692
822.283704	2540.741538
822.601847	2505.453462
822.919945	2502.932885
823.237999	2394.548077
823.556010	2460.083077
823.873976	2540.741538
824.191897	2502.932885
824.509775	2500.412308
824.827609	2558.385577
825.145398	2480.247692
825.463144	2520.576923
825.780845	2485.288846
826.098502	2424.795000
826.416116	2502.932885
826.733685	2510.494615
827.051210	2581.070769
827.368692	2492.850577
827.686129	2502.932885
828.003522	2581.070769
828.320872	2470.165385
828.638177	2485.288846
828.955439	2404.630385
829.272656	2419.753846
829.589830	2470.165385
829.906960	2485.288846
830.224046	2533.179808
830.541088	2533.179808
830.858086	2545.782692
831.175041	2409.671538
831.491952	2467.644808
831.808819	2510.494615
832.125642	2535.700385
832.442421	2528.138654
832.759157	2505.453462
833.075849	2492.850577
833.392497	2616.358846
833.709101	2472.685962
834.025662	2523.097500
834.342179	2608.797115
834.658653	2495.371154
834.975083	2477.727115
835.291469	2495.371154
835.607811	2540.741538
835.924110	2492.850577
836.240366	2467.644808
836.556578	2513.015192
836.872746	2487.809423
837.188871	2495.371154
837.504952	2394.548077
837.820990	2497.891731
838.136984	2444.959615
838.452935	2402.109808
838.768842	2442.439038
839.084706	2442.439038
839.400526	2548.303269
839.716303	2472.685962
840.032037	2480.247692
840.347727	2495.371154
840.663373	2540.741538
840.978977	2477.727115
841.294537	2545.782692
841.610054	2460.083077
841.925527	2381.945192
842.240957	2586.111923
842.556344	2482.768269
842.871687	2563.426731
843.186987	2576.029615
843.502244	2424.795000
843.817458	2482.768269
844.132629	2465.124231
844.447756	2540.741538
844.762840	2457.562500
845.077881	2518.056346
845.392879	2500.412308
845.707833	2432.356731
846.022745	2530.659231
846.337613	2502.932885
846.652438	2528.138654
846.967221	2576.029615
847.281960	2465.124231
847.596656	2535.700385
847.911309	2480.247692
848.225919	2507.974038
848.540485	2457.562500
848.855009	2492.850577
849.169490	2467.644808
849.483928	2475.206538
849.798323	2477.727115
850.112675	2477.727115
850.426984	2530.659231
850.741251	2457.562500
851.055474	2417.233269
851.369654	2523.097500
851.683792	2482.768269
851.997887	2565.947308
852.311938	2467.644808
852.625947	2533.179808
852.939914	2540.741538
853.253837	2424.795000
853.567718	2583.591346
853.881555	2462.603654
854.195350	2470.165385
854.509103	2475.206538
854.822812	2573.509038
855.136479	2515.535769
855.450103	2576.029615
855.763685	2465.124231
856.077224	2477.727115
856.390720	2616.358846
856.704173	2502.932885
857.017584	2528.138654
857.330953	2573.509038
857.644278	2487.809423
857.957561	2528.138654
858.270802	2475.206538
858.584000	2472.685962
858.897155	2505.453462
859.210268	2593.673654
859.523339	2507.974038
859.836367	2482.768269
860.149352	2555.865000
860.462295	2417.233269
860.775195	2555.865000
861.088054	2472.685962
861.400869	2510.494615
861.713642	2608.797115
862.026373	2462.603654
862.339062	2507.974038
862.651708	2520.576923
862.964312	2485.288846
863.276873	2507.974038
863.589392	2581.070769
863.901869	2477.727115
864.214303	2510.494615
864.526696	2543.262115
864.839045	2487.809423
865.151353	2510.494615
865.463619	2502.932885
865.775842	2485.288846
866.088023	2419.753846
866.400162	2482.768269
866.712258	2500.412308
867.024313	2540.741538
867.336325	2427.315577
867.648296	2560.906154
867.960224	2530.659231
868.272110	2570.988462
868.583954	2525.618077
868.895755	2518.056346
869.207515	2470.165385
869.519233	2490.330000
869.830909	2500.412308
870.142542	2497.891731
870.454134	2598.714808
870.765684	2495.371154
871.077191	2520.576923
871.388657	2465.124231
871.700081	2548.303269
872.011463	2578.550192
872.322803	2507.974038
872.634101	2535.700385
872.945357	2427.315577
873.256571	2457.562500
873.567744	2462.603654
873.878874	2518.056346
874.189963	2543.262115
874.501010	2497.891731
874.812015	2507.974038
875.122979	2550.823846
875.433900	2412.192115
875.744780	2570.988462
876.055618	2437.397885
876.366415	2513.015192
876.677169	2540.741538
876.987882	2510.494615
877.298554	2460.083077
877.609183	2482.768269
877.919771	2490.330000
878.230317	2485.288846
878.540822	2505.453462
878.851285	2500.412308
879.161707	2505.453462
879.472087	2455.041923
879.782425	2528.138654
880.092722	2487.809423
880.402977	2560.906154
880.713191	2467.644808
881.023363	2452.521346
881.333494	2523.097500
881.643583	2427.315577
881.953631	2505.453462
882.263637	2462.603654
882.573602	2510.494615
882.883526	2621.400000
883.193408	2528.138654
883.503248	2497.891731
883.813048	2429.836154
884.122806	2545.782692
884.432522	2515.535769
884.742197	2538.220962
885.051831	2513.015192
885.361424	2510.494615
885.670975	2538.220962
885.980485	2467.644808
886.289954	2407.150962
886.599382	2450.000769
886.908768	2525.618077
887.218113	2462.603654
887.527417	2437.397885
887.836680	2422.274423
888.145901	2525.618077
888.455082	2457.562500
888.764221	2560.906154
889.073319	2497.891731
889.382376	2450.000769
889.691392	2583.591346
890.000366	2452.521346
890.309300	2470.165385
890.618193	2467.644808
890.927044	2455.041923
891.235855	2586.111923
891.544625	2460.083077
891.853353	2550.823846
892.162041	2452.521346
892.470687	2538.220962
892.779293	2422.274423
893.087858	2470.165385
893.396381	2520.576923
893.704864	2515.535769
894.013306	2492.850577
894.321707	2470.165385
894.630068	2429.836154
894.938387	2530.659231
895.246665	2507.974038
895.554903	2525.618077
895.863100	2475.206538
896.171256	2450.000769
896.479371	2495.371154
896.787446	2482.768269
897.095480	2447.480192
897.403473	2523.097500
897.711425	2540.741538
898.019336	2543.262115
898.327207	2480.247692
898.635038	2563.426731
898.942827	2429.836154
899.250576	2500.412308
899.558284	2374.383462
899.865952	2535.700385
900.173579	2510.494615
900.481165	2470.165385
900.788711	2505.453462
901.096216	2507.974038
901.403681	2482.768269
901.711105	2475.206538
902.018489	2581.070769
902.325832	2563.426731
902.633135	2502.932885
902.940397	2470.165385
903.247619	2417.233269
903.554800	2480.247692
903.861941	2510.494615
904.169041	2460.083077
904.476101	2515.535769
904.783121	2523.097500
905.090100	2525.618077
905.397039	2394.548077
905.703938	2535.700385
906.010796	2507.974038
906.317614	2419.753846
906.624391	2482.768269
906.931129	2487.809423
907.237826	2523.097500
907.544483	2457.562500
907.851099	2510.494615
908.157675	2424.795000
908.464211	2558.385577
908.770707	2439.918462
909.077163	2588.632500
909.383578	2490.330000
909.689954	2497.891731
909.996289	2452.521346
910.302584	2444.959615
910.608839	2487.809423
910.915054	2530.659231
911.221229	2543.262115
911.527363	2485.288846
911.833458	2553.344423
912.139513	2407.150962
912.445527	2470.165385
912.751502	2565.947308
913.057436	2482.768269
913.363331	2480.247692
913.669186	2477.727115
913.975000	2505.453462
914.280775	2533.179808
914.586510	2490.330000
914.892205	2480.247692
915.197859	2548.303269
915.503475	2518.056346
915.809050	2434.877308
916.114585	2611.317692
916.420081	2510.494615
916.725536	2523.097500
917.030952	2603.755962
917.336328	2437.397885
917.641665	2505.453462
917.946961	2490.330000
918.252218	2465.124231
918.557435	2455.041923
918.862612	2462.603654
919.167750	2533.179808
919.472848	2510.494615
919.777906	2573.509038
920.082925	2477.727115
920.387904	2495.371154
920.692843	2500.412308
920.997743	2475.206538
921.302603	2530.659231
921.607423	2603.755962
921.912204	2523.097500
922.216946	2510.494615
922.521647	2462.603654
922.826310	2480.247692
923.130932	2429.836154
923.435516	2510.494615
923.740059	2455.041923
924.044564	2510.494615
924.349028	2409.671538
924.653454	2525.618077
924.957840	2505.453462
925.262186	2507.974038
925.566493	2565.947308
925.870761	2399.589231
926.174989	2472.685962
926.479178	2548.303269
926.783328	2502.932885
927.087438	2482.768269
927.391509	2485.288846
927.695541	2535.700385
927.999533	2482.768269
928.303486	2535.700385
928.607400	2530.659231
928.911275	2447.480192
929.215110	2397.068654
929.518906	2505.453462
929.822663	2518.056346
930.126381	2485.288846
930.430060	2523.097500
930.733699	2497.891731
931.037299	2437.397885
931.340861	2487.809423
931.644383	2462.603654
931.947866	2470.165385
932.251309	2518.056346
932.554714	2462.603654
932.858080	2472.685962
933.161407	2545.782692
933.464694	2515.535769
933.767943	2548.303269
934.071153	2475.206538
934.374323	2530.659231
934.677455	2477.727115
934.980548	2487.809423
935.283602	2513.015192
935.586617	2482.768269
935.889593	2515.535769
936.192530	2432.356731
936.495428	2437.397885
936.798287	2525.618077
937.101108	2460.083077
937.403890	2538.220962
937.706632	2434.877308
938.009336	2442.439038
938.312002	2533.179808
938.614628	2490.330000
938.917216	2497.891731
939.219765	2487.809423
939.522275	2545.782692
939.824747	2535.700385
940.127179	2560.906154
940.429573	2482.768269
940.731929	2518.056346
941.034246	2543.262115
941.336524	2487.809423
941.638763	2424.795000
941.940964	2475.206538
942.243126	2502.932885
942.545250	2535.700385
942.847335	2417.233269
943.149381	2492.850577
943.451389	2507.974038
943.753359	2465.124231
944.055290	2477.727115
944.357182	2558.385577
944.659036	2545.782692
944.960851	2543.262115
945.262628	2472.685962
945.564367	2422.274423
945.866067	2513.015192
946.167729	2502.932885
946.469352	2455.041923
946.770937	2520.576923
947.072484	2510.494615
947.373992	2576.029615
947.675462	2485.288846
947.976893	2513.015192
948.278286	2485.288846
948.579641	2500.412308
948.880958	2482.768269
949.182236	2386.986346
949.483476	2475.206538
949.784678	2487.809423
950.085841	2565.947308
950.386967	2444.959615
950.688054	2462.603654
950.989103	2487.809423
951.290114	2538.220962
951.591087	2573.509038
951.892021	2492.850577
952.192917	2450.000769
952.493776	2568.467885
952.794596	2487.809423
953.095378	2550.823846
953.396122	2555.865000
953.696828	2444.959615
953.997496	2507.974038
954.298126	2553.344423
954.598718	2475.206538
954.899272	2518.056346
955.199788	2523.097500
955.500266	2437.397885
955.800706	2475.206538
956.101108	2543.262115
956.401472	2492.850577
956.701798	2434.877308
957.002087	2457.562500
957.302337	2472.685962
957.602550	2525.618077
957.902724	2565.947308
958.202861	2497.891731
958.502960	2482.768269
958.803022	2480.247692
959.103045	2492.850577
959.403031	2452.521346
959.702979	2518.056346
960.002889	2576.029615
960.302762	2444.959615
960.602596	2581.070769
960.902393	2540.741538
961.202153	2497.891731
961.501875	2518.056346
961.801559	2447.480192
962.101205	2555.865000
962.400814	2535.700385
962.700385	2507.974038
962.999918	2533.179808
963.299414	2477.727115
963.598873	2502.932885
963.898293	2457.562500
964.197677	2487.809423
964.497022	2525.618077
964.796331	2533.179808
965.095601	2490.330000
965.394835	2462.603654
965.694030	2523.097500
965.993189	2447.480192
966.292309	2550.823846
966.591393	2450.000769
966.890439	2500.412308
967.189447	2399.589231
967.488419	2492.850577
967.787353	2525.618077
968.086249	2510.494615
968.385108	2540.741538
968.683930	2485.288846
968.982714	2495.371154
969.281462	2457.562500
969.580172	2490.330000
969.878844	2465.124231
970.177480	2573.509038
970.476078	2472.685962
970.774639	2507.974038
971.073162	2429.836154
971.371649	2472.685962
971.670098	2470.165385
971.968510	2450.000769
972.266885	2447.480192
972.565223	2450.000769
972.863524	2545.782692
973.161788	2455.041923
973.460014	2490.330000
973.758204	2538.220962
974.056356	2475.206538
974.354471	2502.932885
974.652550	2477.727115
974.950591	2525.618077
975.248595	2437.397885
975.546563	2533.179808
975.844493	2550.823846
976.142386	2502.932885
976.440243	2507.974038
976.738062	2502.932885
977.035845	2495.371154
977.333590	2465.124231
977.631299	2485.288846
977.928971	2487.809423
978.226606	2500.412308
978.524204	2457.562500
978.821765	2513.015192
979.119290	2437.397885
979.416777	2472.685962
979.714228	2444.959615
980.011642	2497.891731
980.309020	2525.618077
980.606360	2497.891731
980.903664	2475.206538
981.200931	2568.467885
981.498162	2507.974038
981.795356	2452.521346
982.092513	2432.356731
982.389633	2543.262115
982.686717	2452.521346
982.983764	2492.850577
983.280775	2475.206538
983.577749	2510.494615
983.874686	2455.041923
984.171587	2490.330000
984.468451	2444.959615
984.765279	2523.097500
985.062070	2495.371154
985.358824	2462.603654
985.655543	2560.906154
985.952224	2492.850577
986.248869	2510.494615
986.545478	2407.150962
986.842050	2470.165385
987.138586	2444.959615
987.435086	2444.959615
987.731549	2515.535769
988.027975	2397.068654
988.324366	2409.671538
988.620719	2553.344423
988.917037	2452.521346
989.213318	2528.138654
989.509563	2467.644808
989.805772	2470.165385
990.101944	2475.206538
990.398080	2540.741538
990.694180	2462.603654
990.990244	2533.179808
991.286271	2510.494615
991.582262	2452.521346
991.878217	2470.165385
992.174136	2495.371154
992.470019	2510.494615
992.765865	2565.947308
993.061676	2490.330000
993.357450	2475.206538
993.653188	2422.274423
993.948890	2485.288846
994.244556	2502.932885
994.540186	2495.371154
994.835780	2533.179808
995.131337	2530.659231
995.426859	2452.521346
995.722345	2490.330000
996.017795	2553.344423
996.313208	2485.288846
996.608586	2505.453462
996.903928	2460.083077
997.199234	2535.700385
997.494504	2510.494615
997.789738	2497.891731
998.084936	2467.644808
998.380099	2444.959615
998.675225	2573.509038
998.970316	2525.618077
999.265371	2462.603654
999.560390	2492.850577
999.855373	2593.673654
1000.150320	2450.000769
1000.445232	2492.850577
1000.740108	2429.836154
1001.034948	2470.165385
1001.329752	2460.083077
1001.624521	2555.865000
1001.919254	2510.494615
1002.213951	2505.453462
1002.508613	2505.453462
1002.803239	2500.412308
1003.097829	2543.262115
1003.392384	2455.041923
1003.686903	2518.056346
1003.981386	2543.262115
1004.275834	2520.576923
1004.570246	2475.206538
1004.864623	2543.262115
1005.158964	2462.603654
1005.453270	2555.865000
1005.747540	2429.836154
1006.041775	2497.891731
1006.335974	2550.823846
1006.630138	2455.041923
1006.924266	2467.644808
1007.218359	2525.618077
1007.512416	2457.562500
1007.806438	2515.535769
1008.100425	2462.603654
1008.394376	2528.138654
1008.688292	2462.603654
1008.982172	2477.727115
1009.276017	2518.056346
1009.569827	2480.247692
1009.863602	2528.138654
1010.157341	2550.823846
1010.451045	2487.809423
1010.744714	2452.521346
1011.038347	2515.535769
1011.331945	2427.315577
1011.625508	2475.206538
1011.919036	2507.974038
1012.212528	2535.700385
1012.505986	2442.439038
1012.799408	2492.850577
1013.092795	2513.015192
1013.386147	2558.385577
1013.679464	2492.850577
1013.972745	2414.712692
1014.265992	2495.371154
1014.559204	2500.412308
1014.852380	2397.068654
1015.145521	2570.988462
1015.438628	2452.521346
1015.731699	2528.138654
1016.024736	2344.136538
1016.317737	2477.727115
1016.610703	2470.165385
1016.903635	2560.906154
1017.196531	2502.932885
1017.489393	2492.850577
1017.782219	2467.644808
1018.075011	2379.424615
1018.367768	2485.288846
1018.660490	2555.865000
1018.953177	2555.865000
1019.245829	2555.865000
