Dividing Wavelength (nm)	Counts (n)	Blue Motor Position (mm): 0.000000	Red Motor Position (mm): 5.500000	
326.493990	2129.887500
326.888308	2129.887500
327.282561	2129.887500
327.676750	2071.914231
328.070874	2054.270192
328.464933	2102.161154
328.858929	2044.187885
329.252859	2066.873077
329.646726	2134.928654
330.040528	2124.846346
330.434265	2139.969808
330.827938	2155.093269
331.221547	2137.449231
331.615091	2119.805192
332.008571	2225.669423
332.401986	2172.737308
332.795338	2200.463654
333.188625	2182.819615
333.581847	2258.436923
333.975006	2240.792885
334.368100	2260.957500
334.761129	2283.642692
335.154095	2291.204423
335.546996	2298.766154
335.939833	2349.177692
336.332606	2349.177692
336.725315	2457.562500
337.117960	2349.177692
337.510540	2495.371154
337.903056	2369.342308
338.295508	2525.618077
338.687896	2417.233269
339.080220	2485.288846
339.472480	2376.904038
339.864676	2429.836154
340.256807	2427.315577
340.648875	2447.480192
341.040879	2452.521346
341.432818	2397.068654
341.824694	2465.124231
342.216506	2492.850577
342.608253	2507.974038
342.999937	2510.494615
343.391557	2543.262115
343.783113	2538.220962
344.174605	2455.041923
344.566033	2432.356731
344.957397	2525.618077
345.348697	2419.753846
345.739934	2447.480192
346.131106	2432.356731
346.522215	2520.576923
346.913260	2432.356731
347.304241	2505.453462
347.695159	2472.685962
348.086012	2565.947308
348.476802	2460.083077
348.867528	2485.288846
349.258191	2427.315577
349.648789	2545.782692
350.039324	2487.809423
350.429796	2505.453462
350.820203	2336.574808
351.210548	2497.891731
351.600828	2472.685962
351.991045	2437.397885
352.381198	2386.986346
352.771288	2492.850577
353.161314	2507.974038
353.551276	2444.959615
353.941175	2492.850577
354.331010	2462.603654
354.720782	2369.342308
355.110490	2457.562500
355.500135	2452.521346
355.889717	2389.506923
356.279235	2505.453462
356.668689	2419.753846
357.058080	2402.109808
357.447408	2429.836154
357.836672	2485.288846
358.225873	2482.768269
358.615010	2505.453462
359.004084	2344.136538
359.393095	2384.465769
359.782043	2457.562500
360.170927	2429.836154
360.559748	2427.315577
360.948505	2528.138654
361.337199	2407.150962
361.725830	2497.891731
362.114398	2465.124231
362.502903	2507.974038
362.891344	2412.192115
363.279722	2361.780577
363.668037	2502.932885
364.056289	2457.562500
364.444478	2437.397885
364.832603	2444.959615
365.220665	2505.453462
365.608665	2535.700385
365.996601	2392.027500
366.384474	2442.439038
366.772284	2417.233269
367.160031	2472.685962
367.547715	2457.562500
367.935336	2429.836154
368.322893	2424.795000
368.710388	2523.097500
369.097820	2465.124231
369.485189	2528.138654
369.872495	2409.671538
370.259738	2376.904038
370.646918	2455.041923
371.034035	2447.480192
371.421090	2573.509038
371.808081	2439.918462
372.195010	2452.521346
372.581875	2392.027500
372.968678	2442.439038
373.355418	2429.836154
373.742096	2495.371154
374.128710	2434.877308
374.515262	2490.330000
374.901751	2439.918462
375.288177	2465.124231
375.674540	2507.974038
376.060841	2412.192115
376.447079	2520.576923
376.833254	2490.330000
377.219367	2432.356731
377.605417	2513.015192
377.991404	2394.548077
378.377329	2505.453462
378.763191	2424.795000
379.148991	2525.618077
379.534727	2409.671538
379.920402	2523.097500
380.306013	2361.780577
380.691563	2452.521346
381.077049	2437.397885
381.462474	2515.535769
381.847835	2465.124231
382.233134	2500.412308
382.618371	2460.083077
383.003545	2497.891731
383.388657	2502.932885
383.773706	2518.056346
384.158693	2520.576923
384.543618	2495.371154
384.928480	2462.603654
385.313280	2429.836154
385.698017	2477.727115
386.082692	2394.548077
386.467305	2472.685962
386.851856	2520.576923
387.236344	2490.330000
387.620770	2437.397885
388.005133	2422.274423
388.389435	2439.918462
388.773674	2409.671538
389.157851	2475.206538
389.541965	2543.262115
389.926018	2480.247692
390.310008	2450.000769
390.693936	2429.836154
391.077802	2462.603654
391.461606	2505.453462
391.845348	2485.288846
392.229027	2490.330000
392.612645	2510.494615
392.996200	2429.836154
393.379694	2462.603654
393.763125	2386.986346
394.146494	2424.795000
394.529801	2500.412308
394.913047	2525.618077
395.296230	2480.247692
395.679351	2462.603654
396.062410	2442.439038
396.445408	2535.700385
396.828343	2437.397885
397.211217	2480.247692
397.594028	2470.165385
397.976778	2444.959615
398.359466	2528.138654
398.742092	2442.439038
399.124656	2485.288846
399.507158	2414.712692
399.889598	2492.850577
400.271977	2482.768269
400.654294	2374.383462
401.036549	2432.356731
401.418742	2482.768269
401.800874	2485.288846
402.182944	2490.330000
402.564952	2422.274423
402.946898	2535.700385
403.328783	2505.453462
403.710606	2462.603654
404.092367	2414.712692
404.474067	2520.576923
404.855705	2482.768269
405.237282	2381.945192
405.618797	2414.712692
406.000250	2472.685962
406.381642	2414.712692
406.762972	2450.000769
407.144240	2485.288846
407.525447	2447.480192
407.906593	2495.371154
408.287677	2437.397885
408.668700	2500.412308
409.049661	2417.233269
409.430560	2457.562500
409.811399	2447.480192
410.192176	2507.974038
410.572891	2515.535769
410.953545	2518.056346
411.334138	2437.397885
411.714669	2462.603654
412.095139	2477.727115
412.475547	2487.809423
412.855894	2502.932885
413.236180	2447.480192
413.616405	2500.412308
413.996568	2482.768269
414.376670	2477.727115
414.756711	2409.671538
415.136691	2462.603654
415.516609	2429.836154
415.896466	2495.371154
416.276262	2482.768269
416.655997	2434.877308
417.035670	2470.165385
417.415283	2515.535769
417.794834	2427.315577
418.174324	2419.753846
418.553753	2518.056346
418.933121	2475.206538
419.312428	2497.891731
419.691674	2518.056346
420.070859	2470.165385
420.449983	2507.974038
420.829045	2538.220962
421.208047	2457.562500
421.586988	2477.727115
421.965867	2490.330000
422.344686	2578.550192
422.723444	2528.138654
423.102141	2487.809423
423.480777	2457.562500
423.859352	2439.918462
424.237866	2392.027500
424.616319	2528.138654
424.994712	2502.932885
425.373044	2482.768269
425.751314	2470.165385
426.129524	2475.206538
426.507673	2487.809423
426.885762	2535.700385
427.263789	2465.124231
427.641756	2520.576923
428.019662	2477.727115
428.397508	2482.768269
428.775292	2548.303269
429.153016	2427.315577
429.530679	2540.741538
429.908282	2447.480192
430.285824	2480.247692
430.663305	2538.220962
431.040726	2447.480192
431.418086	2520.576923
431.795385	2427.315577
432.172624	2490.330000
432.549802	2472.685962
432.926920	2447.480192
433.303977	2485.288846
433.680974	2528.138654
434.057910	2520.576923
434.434786	2500.412308
434.811601	2492.850577
435.188355	2412.192115
435.565050	2538.220962
435.941683	2480.247692
436.318257	2485.288846
436.694770	2480.247692
437.071222	2530.659231
437.447614	2386.986346
437.823946	2404.630385
438.200218	2477.727115
438.576429	2500.412308
438.952580	2510.494615
439.328670	2477.727115
439.704700	2507.974038
440.080670	2447.480192
440.456580	2530.659231
440.832429	2565.947308
441.208218	2467.644808
441.583947	2432.356731
441.959616	2452.521346
442.335224	2530.659231
442.710773	2523.097500
443.086261	2462.603654
443.461689	2555.865000
443.837057	2500.412308
444.212365	2505.453462
444.587612	2570.988462
444.962800	2450.000769
445.337927	2467.644808
445.712995	2485.288846
446.088002	2523.097500
446.462949	2450.000769
446.837837	2490.330000
447.212664	2472.685962
447.587431	2588.632500
447.962139	2439.918462
448.336786	2601.235385
448.711374	2510.494615
449.085901	2475.206538
449.460369	2507.974038
449.834776	2555.865000
450.209124	2470.165385
450.583412	2490.330000
450.957640	2467.644808
451.331808	2518.056346
451.705917	2452.521346
452.079965	2515.535769
452.453954	2460.083077
452.827883	2573.509038
453.201752	2548.303269
453.575562	2414.712692
453.949311	2392.027500
454.323001	2465.124231
454.696632	2550.823846
455.070202	2543.262115
455.443713	2437.397885
455.817164	2500.412308
456.190556	2497.891731
456.563888	2535.700385
456.937160	2470.165385
457.310373	2513.015192
457.683526	2520.576923
458.056619	2472.685962
458.429653	2462.603654
458.802628	2520.576923
459.175542	2434.877308
459.548398	2530.659231
459.921194	2434.877308
460.293930	2525.618077
460.666607	2570.988462
461.039224	2487.809423
461.411782	2465.124231
461.784280	2462.603654
462.156719	2487.809423
462.529099	2555.865000
462.901419	2482.768269
463.273680	2487.809423
463.645882	2505.453462
464.018024	2447.480192
464.390106	2543.262115
464.762130	2505.453462
465.134094	2457.562500
465.505999	2543.262115
465.877845	2452.521346
466.249631	2505.453462
466.621358	2518.056346
466.993026	2417.233269
467.364634	2520.576923
467.736184	2495.371154
468.107674	2502.932885
468.479105	2548.303269
468.850477	2538.220962
469.221790	2444.959615
469.593043	2497.891731
469.964238	2545.782692
470.335373	2447.480192
470.706449	2507.974038
471.077467	2578.550192
471.448425	2507.974038
471.819324	2528.138654
472.190164	2492.850577
472.560945	2513.015192
472.931667	2558.385577
473.302330	2497.891731
473.672934	2487.809423
474.043479	2480.247692
474.413965	2525.618077
474.784393	2452.521346
475.154761	2573.509038
475.525070	2482.768269
475.895321	2535.700385
476.265513	2452.521346
476.635645	2550.823846
477.005719	2444.959615
477.375734	2369.342308
477.745691	2497.891731
478.115588	2465.124231
478.485427	2555.865000
478.855207	2437.397885
479.224928	2465.124231
479.594591	2497.891731
479.964194	2437.397885
480.333739	2482.768269
480.703226	2442.439038
481.072653	2507.974038
481.442022	2533.179808
481.811333	2482.768269
482.180584	2500.412308
482.549777	2475.206538
482.918912	2412.192115
483.287988	2465.124231
483.657005	2450.000769
484.025964	2470.165385
484.394864	2528.138654
484.763706	2475.206538
485.132489	2548.303269
485.501213	2495.371154
485.869879	2450.000769
486.238487	2507.974038
486.607036	2442.439038
486.975527	2518.056346
487.343959	2538.220962
487.712333	2545.782692
488.080648	2487.809423
488.448905	2460.083077
488.817104	2482.768269
489.185244	2487.809423
489.553326	2518.056346
489.921350	2457.562500
490.289315	2560.906154
490.657222	2470.165385
491.025070	2538.220962
491.392861	2452.521346
491.760593	2513.015192
492.128267	2485.288846
492.495883	2535.700385
492.863440	2482.768269
493.230939	2470.165385
493.598380	2495.371154
493.965763	2583.591346
494.333088	2518.056346
494.700354	2500.412308
495.067563	2480.247692
495.434713	2528.138654
495.801805	2530.659231
496.168839	2548.303269
496.535815	2490.330000
496.902733	2540.741538
497.269593	2457.562500
497.636395	2540.741538
498.003139	2543.262115
498.369825	2439.918462
498.736453	2480.247692
499.103023	2447.480192
499.469535	2505.453462
499.835989	2495.371154
500.202385	2465.124231
500.568723	2570.988462
500.935003	2507.974038
501.301226	2331.533654
501.667390	2497.891731
502.033497	2487.809423
502.399546	2500.412308
502.765537	2472.685962
503.131470	2515.535769
503.497345	2487.809423
503.863163	2548.303269
504.228923	2439.918462
504.594625	2560.906154
504.960269	2518.056346
505.325856	2487.809423
505.691385	2497.891731
506.056856	2515.535769
506.422270	2490.330000
506.787625	2437.397885
507.152924	2492.850577
507.518164	2593.673654
507.883347	2513.015192
508.248472	2475.206538
508.613540	2502.932885
508.978550	2444.959615
509.343503	2540.741538
509.708398	2419.753846
510.073236	2518.056346
510.438016	2465.124231
510.802738	2402.109808
511.167403	2606.276538
511.532010	2520.576923
511.896561	2462.603654
512.261053	2553.344423
512.625488	2510.494615
512.989866	2487.809423
513.354186	2490.330000
513.718449	2450.000769
514.082655	2485.288846
514.446803	2480.247692
514.810894	2538.220962
515.174927	2480.247692
515.538904	2505.453462
515.902822	2513.015192
516.266684	2581.070769
516.630488	2538.220962
516.994235	2429.836154
517.357925	2533.179808
517.721558	2586.111923
518.085133	2424.795000
518.448651	2502.932885
518.812112	2515.535769
519.175516	2485.288846
519.538863	2502.932885
519.902152	2497.891731
520.265385	2510.494615
520.628560	2487.809423
520.991678	2543.262115
521.354739	2404.630385
521.717743	2528.138654
522.080690	2404.630385
522.443580	2497.891731
522.806413	2591.153077
523.169189	2533.179808
523.531908	2452.521346
523.894569	2482.768269
524.257174	2457.562500
524.619722	2525.618077
524.982213	2465.124231
525.344647	2505.453462
525.707025	2434.877308
526.069345	2583.591346
526.431608	2467.644808
526.793815	2507.974038
527.155964	2507.974038
527.518057	2477.727115
527.880093	2444.959615
528.242072	2482.768269
528.603995	2543.262115
528.965860	2452.521346
529.327669	2492.850577
529.689421	2437.397885
530.051117	2470.165385
530.412755	2434.877308
530.774337	2470.165385
531.135862	2500.412308
531.497331	2462.603654
531.858743	2505.453462
532.220098	2543.262115
532.581396	2490.330000
532.942638	2480.247692
533.303824	2535.700385
533.664953	2477.727115
534.026025	2500.412308
534.387040	2626.441154
534.747999	2485.288846
535.108902	2573.509038
535.469748	2507.974038
535.830537	2475.206538
536.191270	2533.179808
536.551947	2523.097500
536.912567	2550.823846
537.273131	2497.891731
537.633638	2543.262115
537.994089	2384.465769
538.354483	2540.741538
538.714821	2399.589231
539.075103	2528.138654
539.435328	2510.494615
539.795497	2573.509038
540.155609	2505.453462
540.515665	2515.535769
540.875665	2533.179808
541.235609	2480.247692
541.595496	2490.330000
541.955328	2518.056346
542.315102	2548.303269
542.674821	2475.206538
543.034483	2444.959615
543.394090	2465.124231
543.753640	2457.562500
544.113134	2467.644808
544.472571	2482.768269
544.831953	2462.603654
545.191278	2543.262115
545.550548	2497.891731
545.909761	2432.356731
546.268918	2490.330000
546.628019	2485.288846
546.987064	2525.618077
547.346053	2447.480192
547.704986	2535.700385
548.063863	2555.865000
548.422684	2573.509038
548.781449	2477.727115
549.140158	2482.768269
549.498811	2502.932885
549.857408	2533.179808
550.215949	2500.412308
550.574434	2482.768269
550.932864	2535.700385
551.291237	2535.700385
551.649555	2475.206538
552.007817	2606.276538
552.366022	2550.823846
552.724173	2513.015192
553.082267	2533.179808
553.440305	2482.768269
553.798288	2578.550192
554.156215	2606.276538
554.514086	2535.700385
554.871902	2510.494615
555.229661	2500.412308
555.587365	2467.644808
555.945014	2507.974038
556.302606	2523.097500
556.660143	2495.371154
557.017625	2470.165385
557.375050	2507.974038
557.732421	2502.932885
558.089735	2465.124231
558.446994	2548.303269
558.804197	2450.000769
559.161345	2583.591346
559.518437	2530.659231
559.875474	2548.303269
560.232455	2482.768269
560.589381	2520.576923
560.946251	2460.083077
561.303065	2424.795000
561.659825	2502.932885
562.016528	2450.000769
562.373177	2500.412308
562.729770	2490.330000
563.086307	2502.932885
563.442789	2596.194231
563.799216	2450.000769
564.155587	2485.288846
564.511904	2404.630385
564.868164	2490.330000
565.224370	2502.932885
565.580520	2480.247692
565.936615	2513.015192
566.292654	2447.480192
566.648638	2465.124231
567.004567	2480.247692
567.360441	2399.589231
567.716260	2379.424615
568.072023	2538.220962
568.427732	2608.797115
568.783385	2570.988462
569.138982	2500.412308
569.494525	2535.700385
569.850013	2507.974038
570.205445	2492.850577
570.560823	2545.782692
570.916145	2475.206538
571.271412	2553.344423
571.626625	2588.632500
571.981782	2520.576923
572.336884	2548.303269
572.691931	2518.056346
573.046923	2500.412308
573.401860	2563.426731
573.756743	2525.618077
574.111570	2492.850577
574.466342	2462.603654
574.821059	2505.453462
575.175722	2490.330000
575.530330	2553.344423
575.884882	2450.000769
576.239380	2470.165385
576.593823	2538.220962
576.948211	2520.576923
577.302544	2515.535769
577.656823	2490.330000
578.011047	2495.371154
578.365216	2467.644808
578.719330	2505.453462
579.073389	2538.220962
579.427394	2495.371154
579.781344	2513.015192
580.135239	2462.603654
580.489080	2528.138654
580.842866	2467.644808
581.196597	2513.015192
581.550273	2495.371154
581.903895	2626.441154
582.257463	2477.727115
582.610975	2507.974038
582.964434	2525.618077
583.317837	2507.974038
583.671186	2553.344423
584.024481	2487.809423
584.377721	2513.015192
584.730906	2568.467885
585.084037	2513.015192
585.437113	2560.906154
585.790135	2523.097500
586.143103	2485.288846
586.496016	2543.262115
586.848874	2485.288846
587.201679	2515.535769
587.554428	2500.412308
587.907124	2381.945192
588.259765	2414.712692
588.612352	2492.850577
588.964884	2548.303269
589.317362	2515.535769
589.669786	2475.206538
590.022155	2543.262115
590.374470	2485.288846
590.726731	2497.891731
591.078937	2497.891731
591.431090	2422.274423
591.783188	2455.041923
592.135232	2573.509038
592.487222	2472.685962
592.839157	2472.685962
593.191038	2495.371154
593.542866	2573.509038
593.894639	2480.247692
594.246358	2505.453462
594.598022	2540.741538
594.949633	2417.233269
595.301190	2525.618077
595.652692	2510.494615
596.004141	2417.233269
596.355535	2535.700385
596.706876	2553.344423
597.058162	2447.480192
597.409395	2500.412308
597.760573	2563.426731
598.111698	2477.727115
598.462768	2505.453462
598.813785	2593.673654
599.164748	2460.083077
599.515657	2525.618077
599.866511	2513.015192
600.217312	2568.467885
600.568060	2480.247692
600.918753	2490.330000
601.269392	2477.727115
601.619978	2455.041923
601.970510	2497.891731
602.320988	2525.618077
602.671412	2560.906154
603.021783	2507.974038
603.372100	2528.138654
603.722363	2366.821731
604.072572	2497.891731
604.422728	2525.618077
604.772830	2457.562500
605.122878	2543.262115
605.472872	2538.220962
605.822813	2497.891731
606.172701	2533.179808
606.522534	2538.220962
606.872314	2540.741538
607.222041	2528.138654
607.571714	2497.891731
607.921333	2439.918462
608.270899	2472.685962
608.620411	2465.124231
608.969870	2538.220962
609.319276	2523.097500
609.668627	2520.576923
610.017926	2545.782692
610.367171	2533.179808
610.716362	2507.974038
611.065500	2465.124231
611.414585	2490.330000
611.763616	2477.727115
612.112594	2515.535769
612.461518	2457.562500
612.810389	2482.768269
613.159207	2565.947308
613.507971	2507.974038
613.856682	2497.891731
614.205340	2538.220962
614.553945	2520.576923
614.902496	2523.097500
615.250994	2518.056346
615.599439	2447.480192
615.947830	2462.603654
616.296169	2444.959615
616.644454	2540.741538
616.992686	2518.056346
617.340864	2432.356731
617.688990	2535.700385
618.037063	2628.961731
618.385082	2490.330000
618.733048	2386.986346
619.080961	2505.453462
619.428821	2528.138654
619.776628	2497.891731
620.124382	2530.659231
620.472083	2502.932885
620.819731	2447.480192
621.167326	2538.220962
621.514868	2482.768269
621.862357	2555.865000
622.209793	2490.330000
622.557176	2513.015192
622.904506	2477.727115
623.251783	2500.412308
623.599007	2497.891731
623.946179	2455.041923
624.293297	2550.823846
624.640363	2462.603654
624.987376	2530.659231
625.334336	2452.521346
625.681243	2437.397885
626.028097	2515.535769
626.374899	2455.041923
626.721647	2495.371154
627.068343	2510.494615
627.414987	2548.303269
627.761577	2553.344423
628.108115	2553.344423
628.454600	2487.809423
628.801032	2500.412308
629.147412	2457.562500
629.493739	2545.782692
629.840014	2419.753846
630.186236	2558.385577
630.532405	2354.218846
630.878521	2548.303269
631.224585	2472.685962
631.570597	2515.535769
631.916556	2487.809423
632.262462	2482.768269
632.608316	2442.439038
632.954117	2505.453462
633.299866	2553.344423
633.645562	2513.015192
633.991206	2530.659231
634.336797	2485.288846
634.682336	2492.850577
635.027823	2475.206538
635.373257	2560.906154
635.718639	2475.206538
636.063968	2588.632500
636.409245	2555.865000
636.754470	2553.344423
637.099642	2505.453462
637.444762	2507.974038
637.789829	2497.891731
638.134845	2457.562500
638.479808	2570.988462
638.824719	2422.274423
639.169577	2467.644808
639.514383	2497.891731
639.859137	2497.891731
640.203839	2530.659231
640.548489	2555.865000
640.893086	2447.480192
641.237632	2397.068654
641.582125	2502.932885
641.926566	2439.918462
642.270955	2538.220962
642.615292	2523.097500
642.959576	2523.097500
643.303809	2530.659231
643.647990	2525.618077
643.992118	2502.932885
644.336195	2520.576923
644.680219	2545.782692
645.024192	2424.795000
645.368112	2412.192115
645.711981	2465.124231
646.055797	2581.070769
646.399562	2432.356731
646.743274	2497.891731
647.086935	2490.330000
647.430544	2422.274423
647.774101	2500.412308
648.117606	2555.865000
648.461059	2437.397885
648.804460	2520.576923
649.147810	2490.330000
649.491108	2540.741538
649.834354	2497.891731
650.177548	2437.397885
650.520690	2485.288846
650.863781	2601.235385
651.206820	2450.000769
651.549807	2497.891731
651.892742	2497.891731
652.235626	2447.480192
652.578458	2510.494615
652.921238	2505.453462
653.263967	2487.809423
653.606644	2381.945192
653.949269	2447.480192
654.291843	2505.453462
654.634365	2538.220962
654.976836	2497.891731
655.319255	2530.659231
655.661622	2502.932885
656.003938	2422.274423
656.346203	2487.809423
656.688416	2472.685962
657.030577	2500.412308
657.372687	2439.918462
657.714746	2510.494615
658.056753	2462.603654
658.398708	2500.412308
658.740612	2470.165385
659.082465	2576.029615
659.424266	2560.906154
659.766016	2550.823846
660.107715	2510.494615
660.449362	2505.453462
660.790958	2518.056346
661.132503	2545.782692
661.473996	2525.618077
661.815438	2535.700385
662.156829	2432.356731
662.498168	2487.809423
662.839456	2502.932885
663.180693	2502.932885
663.521879	2492.850577
663.863013	2560.906154
664.204097	2477.727115
664.545129	2434.877308
664.886110	2429.836154
665.227040	2374.383462
665.567918	2505.453462
665.908746	2528.138654
666.249522	2518.056346
666.590248	2450.000769
666.930922	2467.644808
667.271545	2528.138654
667.612118	2502.932885
667.952639	2452.521346
668.293109	2460.083077
668.633528	2543.262115
668.973896	2608.797115
669.314213	2465.124231
669.654480	2500.412308
669.994695	2434.877308
670.334859	2490.330000
670.674973	2497.891731
671.015035	2502.932885
671.355047	2465.124231
671.695008	2543.262115
672.034918	2460.083077
672.374777	2518.056346
672.714585	2485.288846
673.054342	2487.809423
673.394049	2530.659231
673.733705	2475.206538
674.073310	2533.179808
674.412864	2437.397885
674.752368	2548.303269
675.091820	2424.795000
675.431223	2523.097500
675.770574	2500.412308
676.109875	2548.303269
676.449125	2492.850577
676.788324	2472.685962
677.127473	2414.712692
677.466571	2545.782692
677.805619	2472.685962
678.144616	2450.000769
678.483562	2470.165385
678.822458	2533.179808
679.161303	2452.521346
679.500098	2535.700385
679.838842	2485.288846
680.177535	2581.070769
680.516179	2450.000769
680.854771	2520.576923
681.193314	2397.068654
681.531805	2593.673654
681.870247	2470.165385
682.208638	2646.605769
682.546978	2409.671538
682.885268	2402.109808
683.223508	2560.906154
683.561697	2525.618077
683.899836	2588.632500
684.237925	2515.535769
684.575963	2485.288846
684.913951	2470.165385
685.251889	2487.809423
685.589776	2422.274423
685.927614	2502.932885
686.265401	2528.138654
686.603137	2465.124231
686.940824	2482.768269
687.278460	2419.753846
687.616046	2515.535769
687.953582	2573.509038
688.291068	2492.850577
688.628504	2480.247692
688.965889	2515.535769
689.303224	2397.068654
689.640510	2515.535769
689.977745	2495.371154
690.314930	2505.453462
690.652065	2472.685962
690.989150	2543.262115
691.326185	2502.932885
691.663170	2492.850577
692.000105	2528.138654
692.336990	2510.494615
692.673825	2565.947308
693.010610	2500.412308
693.347345	2465.124231
693.684030	2477.727115
694.020665	2460.083077
694.357251	2558.385577
694.693786	2570.988462
695.030272	2457.562500
695.366707	2467.644808
695.703093	2535.700385
696.039429	2432.356731
696.375716	2520.576923
696.711952	2502.932885
697.048139	2452.521346
697.384276	2528.138654
697.720363	2545.782692
698.056400	2470.165385
698.392388	2560.906154
698.728326	2560.906154
699.064214	2538.220962
699.400053	2482.768269
699.735842	2596.194231
700.071581	2480.247692
700.407270	2460.083077
700.742910	2462.603654
701.078501	2455.041923
701.414042	2518.056346
701.749533	2495.371154
702.084974	2490.330000
702.420366	2470.165385
702.755709	2437.397885
703.091002	2543.262115
703.426246	2432.356731
703.761440	2611.317692
704.096584	2480.247692
704.431679	2548.303269
704.766725	2591.153077
705.101721	2470.165385
705.436668	2515.535769
705.771565	2540.741538
706.106413	2543.262115
706.441212	2510.494615
706.775961	2455.041923
707.110661	2523.097500
707.445311	2540.741538
707.779913	2434.877308
708.114465	2581.070769
708.448967	2442.439038
708.783421	2439.918462
709.117825	2500.412308
709.452180	2422.274423
709.786485	2470.165385
710.120742	2565.947308
710.454949	2515.535769
710.789107	2606.276538
711.123216	2550.823846
711.457275	2495.371154
711.791286	2563.426731
712.125247	2376.904038
712.459159	2538.220962
712.793023	2525.618077
713.126837	2457.562500
713.460602	2434.877308
713.794318	2502.932885
714.127985	2442.439038
714.461602	2507.974038
714.795171	2497.891731
715.128691	2457.562500
715.462162	2515.535769
715.795584	2586.111923
716.128957	2482.768269
716.462281	2618.879423
716.795556	2518.056346
717.128782	2558.385577
717.461960	2452.521346
717.795088	2429.836154
718.128167	2513.015192
718.461198	2553.344423
718.794180	2497.891731
719.127113	2480.247692
719.459997	2540.741538
719.792833	2434.877308
720.125619	2490.330000
720.458357	2497.891731
720.791046	2545.782692
721.123686	2470.165385
721.456278	2482.768269
721.788821	2465.124231
722.121315	2502.932885
722.453761	2442.439038
722.786158	2485.288846
723.118506	2545.782692
723.450805	2472.685962
723.783056	2525.618077
724.115259	2515.535769
724.447412	2402.109808
724.779518	2442.439038
725.111574	2470.165385
725.443582	2553.344423
725.775542	2507.974038
726.107453	2520.576923
726.439315	2535.700385
726.771129	2475.206538
727.102895	2485.288846
727.434612	2447.480192
727.766281	2480.247692
728.097901	2457.562500
728.429473	2487.809423
728.760996	2472.685962
729.092471	2447.480192
729.423897	2596.194231
729.755276	2528.138654
730.086606	2518.056346
730.417887	2510.494615
730.749120	2477.727115
731.080305	2487.809423
731.411442	2588.632500
731.742530	2497.891731
732.073570	2510.494615
732.404562	2462.603654
732.735506	2477.727115
733.066401	2442.439038
733.397249	2487.809423
733.728048	2439.918462
734.058798	2515.535769
734.389501	2472.685962
734.720156	2495.371154
735.050762	2422.274423
735.381320	2485.288846
735.711831	2538.220962
736.042293	2475.206538
736.372707	2477.727115
736.703073	2475.206538
737.033391	2502.932885
737.363661	2457.562500
737.693883	2452.521346
738.024056	2507.974038
738.354182	2507.974038
738.684260	2520.576923
739.014290	2518.056346
739.344272	2500.412308
739.674207	2462.603654
740.004093	2538.220962
740.333931	2485.288846
740.663722	2523.097500
740.993464	2460.083077
741.323159	2480.247692
741.652806	2442.439038
741.982405	2533.179808
742.311956	2450.000769
742.641460	2480.247692
742.970915	2475.206538
743.300323	2540.741538
743.629683	2465.124231
743.958996	2465.124231
744.288260	2560.906154
744.617477	2477.727115
744.946647	2399.589231
745.275768	2442.439038
745.604842	2487.809423
745.933869	2475.206538
746.262847	2548.303269
746.591778	2470.165385
746.920662	2455.041923
747.249498	2487.809423
747.578286	2502.932885
747.907027	2548.303269
748.235720	2450.000769
748.564365	2523.097500
748.892963	2507.974038
749.221514	2525.618077
749.550017	2558.385577
749.878473	2535.700385
750.206881	2460.083077
750.535242	2538.220962
750.863555	2412.192115
751.191821	2578.550192
751.520039	2598.714808
751.848210	2485.288846
752.176334	2513.015192
752.504411	2515.535769
752.832440	2457.562500
753.160421	2523.097500
753.488356	2452.521346
753.816243	2530.659231
754.144082	2538.220962
754.471875	2518.056346
754.799620	2525.618077
755.127318	2495.371154
755.454969	2540.741538
755.782572	2467.644808
756.110129	2518.056346
756.437638	2573.509038
756.765100	2533.179808
757.092515	2535.700385
757.419882	2492.850577
757.747203	2497.891731
758.074477	2510.494615
758.401703	2520.576923
758.728882	2487.809423
759.056014	2470.165385
759.383099	2442.439038
759.710138	2495.371154
760.037129	2515.535769
760.364073	2528.138654
760.690970	2480.247692
761.017820	2500.412308
761.344623	2502.932885
761.671379	2533.179808
761.998088	2452.521346
762.324751	2535.700385
762.651366	2450.000769
762.977935	2434.877308
763.304456	2515.535769
763.630931	2475.206538
763.957359	2381.945192
764.283740	2455.041923
764.610074	2538.220962
764.936362	2523.097500
765.262602	2482.768269
765.588796	2475.206538
765.914943	2467.644808
766.241044	2457.562500
766.567097	2505.453462
766.893104	2535.700385
767.219064	2462.603654
767.544978	2523.097500
767.870845	2482.768269
768.196665	2553.344423
768.522438	2513.015192
768.848165	2475.206538
769.173846	2515.535769
769.499479	2490.330000
769.825066	2545.782692
770.150607	2460.083077
770.476101	2477.727115
770.801548	2513.015192
771.126949	2470.165385
771.452303	2548.303269
771.777611	2586.111923
772.102872	2578.550192
772.428087	2460.083077
772.753256	2505.453462
773.078378	2533.179808
773.403453	2462.603654
773.728482	2437.397885
774.053465	2596.194231
774.378401	2513.015192
774.703291	2500.412308
775.028135	2429.836154
775.352932	2528.138654
775.677683	2497.891731
776.002388	2540.741538
776.327046	2450.000769
776.651658	2555.865000
776.976224	2366.821731
777.300743	2482.768269
777.625216	2480.247692
777.949643	2510.494615
778.274024	2407.150962
778.598359	2467.644808
778.922647	2480.247692
779.246889	2540.741538
779.571086	2510.494615
779.895236	2548.303269
780.219339	2361.780577
780.543397	2565.947308
780.867409	2515.535769
781.191374	2500.412308
781.515294	2518.056346
781.839167	2520.576923
782.162995	2523.097500
782.486776	2442.439038
782.810511	2470.165385
783.134201	2507.974038
783.457844	2429.836154
783.781441	2505.453462
784.104993	2530.659231
784.428498	2404.630385
784.751958	2502.932885
785.075372	2480.247692
785.398739	2603.755962
785.722061	2570.988462
786.045337	2447.480192
786.368568	2460.083077
786.691752	2490.330000
787.014891	2460.083077
787.337983	2495.371154
787.661030	2482.768269
787.984031	2555.865000
788.306987	2455.041923
788.629897	2535.700385
788.952760	2523.097500
789.275579	2384.465769
789.598351	2543.262115
789.921078	2437.397885
790.243759	2523.097500
790.566395	2465.124231
790.888984	2533.179808
791.211529	2570.988462
791.534027	2482.768269
791.856480	2550.823846
792.178888	2487.809423
792.501249	2500.412308
792.823566	2374.383462
793.145836	2500.412308
793.468062	2465.124231
793.790241	2417.233269
794.112375	2611.317692
794.434464	2482.768269
794.756507	2475.206538
795.078505	2442.439038
795.400457	2548.303269
795.722364	2439.918462
796.044226	2480.247692
796.366042	2437.397885
796.687812	2480.247692
797.009538	2482.768269
797.331218	2450.000769
797.652852	2470.165385
797.974442	2533.179808
798.295986	2485.288846
798.617484	2460.083077
798.938938	2505.453462
799.260346	2439.918462
799.581709	2475.206538
799.903026	2462.603654
800.224299	2429.836154
800.545526	2492.850577
800.866708	2525.618077
801.187845	2437.397885
801.508936	2490.330000
801.829983	2485.288846
802.150984	2505.453462
802.471940	2523.097500
802.792851	2492.850577
803.113717	2525.618077
803.434538	2528.138654
803.755314	2487.809423
804.076045	2545.782692
804.396731	2419.753846
804.717372	2487.809423
805.037967	2528.138654
805.358518	2462.603654
805.679024	2437.397885
805.999485	2500.412308
806.319901	2472.685962
806.640272	2533.179808
806.960598	2470.165385
807.280879	2487.809423
807.601115	2500.412308
807.921306	2500.412308
808.241453	2530.659231
808.561554	2384.465769
808.881611	2487.809423
809.201623	2455.041923
809.521590	2535.700385
809.841513	2581.070769
810.161390	2548.303269
810.481223	2543.262115
810.801011	2492.850577
811.120755	2518.056346
811.440453	2409.671538
811.760107	2588.632500
812.079716	2424.795000
812.399281	2495.371154
812.718801	2487.809423
813.038276	2460.083077
813.357707	2477.727115
813.677093	2492.850577
813.996434	2538.220962
814.315731	2502.932885
814.634983	2475.206538
814.954191	2417.233269
815.273354	2510.494615
815.592473	2492.850577
815.911547	2510.494615
816.230577	2442.439038
816.549562	2497.891731
816.868502	2480.247692
817.187399	2545.782692
817.506250	2490.330000
817.825058	2525.618077
818.143821	2497.891731
818.462539	2505.453462
818.781213	2492.850577
819.099843	2505.453462
819.418429	2553.344423
819.736970	2538.220962
820.055466	2543.262115
820.373919	2414.712692
820.692327	2432.356731
821.010691	2500.412308
821.329011	2523.097500
821.647286	2560.906154
821.965517	2457.562500
822.283704	2444.959615
822.601847	2510.494615
822.919945	2510.494615
823.237999	2545.782692
823.556010	2502.932885
823.873976	2427.315577
824.191897	2470.165385
824.509775	2520.576923
824.827609	2432.356731
825.145398	2434.877308
825.463144	2613.838269
825.780845	2520.576923
826.098502	2465.124231
826.416116	2520.576923
826.733685	2462.603654
827.051210	2500.412308
827.368692	2460.083077
827.686129	2543.262115
828.003522	2475.206538
828.320872	2490.330000
828.638177	2465.124231
828.955439	2490.330000
829.272656	2510.494615
829.589830	2477.727115
829.906960	2490.330000
830.224046	2467.644808
830.541088	2576.029615
830.858086	2450.000769
831.175041	2502.932885
831.491952	2444.959615
831.808819	2462.603654
832.125642	2442.439038
832.442421	2495.371154
832.759157	2485.288846
833.075849	2578.550192
833.392497	2515.535769
833.709101	2475.206538
834.025662	2502.932885
834.342179	2538.220962
834.658653	2507.974038
834.975083	2533.179808
835.291469	2528.138654
835.607811	2570.988462
835.924110	2553.344423
836.240366	2518.056346
836.556578	2586.111923
836.872746	2467.644808
837.188871	2460.083077
837.504952	2455.041923
837.820990	2528.138654
838.136984	2482.768269
838.452935	2528.138654
838.768842	2424.795000
839.084706	2507.974038
839.400526	2558.385577
839.716303	2369.342308
840.032037	2553.344423
840.347727	2457.562500
840.663373	2558.385577
840.978977	2462.603654
841.294537	2455.041923
841.610054	2525.618077
841.925527	2417.233269
842.240957	2427.315577
842.556344	2490.330000
842.871687	2528.138654
843.186987	2568.467885
843.502244	2492.850577
843.817458	2513.015192
844.132629	2510.494615
844.447756	2487.809423
844.762840	2528.138654
845.077881	2495.371154
845.392879	2525.618077
845.707833	2465.124231
846.022745	2502.932885
846.337613	2487.809423
846.652438	2492.850577
846.967221	2442.439038
847.281960	2457.562500
847.596656	2369.342308
847.911309	2507.974038
848.225919	2424.795000
848.540485	2525.618077
848.855009	2523.097500
849.169490	2535.700385
849.483928	2492.850577
849.798323	2437.397885
850.112675	2518.056346
850.426984	2495.371154
850.741251	2492.850577
851.055474	2530.659231
851.369654	2502.932885
851.683792	2492.850577
851.997887	2593.673654
852.311938	2465.124231
852.625947	2525.618077
852.939914	2490.330000
853.253837	2515.535769
853.567718	2429.836154
853.881555	2518.056346
854.195350	2588.632500
854.509103	2455.041923
854.822812	2412.192115
855.136479	2495.371154
855.450103	2462.603654
855.763685	2492.850577
856.077224	2457.562500
856.390720	2510.494615
856.704173	2472.685962
857.017584	2576.029615
857.330953	2399.589231
857.644278	2543.262115
857.957561	2500.412308
858.270802	2490.330000
858.584000	2538.220962
858.897155	2565.947308
859.210268	2490.330000
859.523339	2500.412308
859.836367	2475.206538
860.149352	2548.303269
860.462295	2502.932885
860.775195	2439.918462
861.088054	2495.371154
861.400869	2442.439038
861.713642	2543.262115
862.026373	2485.288846
862.339062	2500.412308
862.651708	2487.809423
862.964312	2535.700385
863.276873	2505.453462
863.589392	2457.562500
863.901869	2424.795000
864.214303	2507.974038
864.526696	2568.467885
864.839045	2412.192115
865.151353	2518.056346
865.463619	2523.097500
865.775842	2533.179808
866.088023	2548.303269
866.400162	2460.083077
866.712258	2548.303269
867.024313	2460.083077
867.336325	2555.865000
867.648296	2492.850577
867.960224	2455.041923
868.272110	2507.974038
868.583954	2475.206538
868.895755	2487.809423
869.207515	2455.041923
869.519233	2523.097500
869.830909	2538.220962
870.142542	2523.097500
870.454134	2457.562500
870.765684	2538.220962
871.077191	2485.288846
871.388657	2518.056346
871.700081	2480.247692
872.011463	2497.891731
872.322803	2513.015192
872.634101	2528.138654
872.945357	2588.632500
873.256571	2485.288846
873.567744	2482.768269
873.878874	2470.165385
874.189963	2603.755962
874.501010	2432.356731
874.812015	2543.262115
875.122979	2535.700385
875.433900	2520.576923
875.744780	2535.700385
876.055618	2535.700385
876.366415	2530.659231
876.677169	2437.397885
876.987882	2550.823846
877.298554	2442.439038
877.609183	2457.562500
877.919771	2510.494615
878.230317	2457.562500
878.540822	2490.330000
878.851285	2535.700385
879.161707	2563.426731
879.472087	2540.741538
879.782425	2477.727115
880.092722	2520.576923
880.402977	2492.850577
880.713191	2560.906154
881.023363	2409.671538
881.333494	2487.809423
881.643583	2576.029615
881.953631	2389.506923
882.263637	2444.959615
882.573602	2550.823846
882.883526	2386.986346
883.193408	2507.974038
883.503248	2455.041923
883.813048	2583.591346
884.122806	2465.124231
884.432522	2518.056346
884.742197	2518.056346
885.051831	2502.932885
885.361424	2419.753846
885.670975	2492.850577
885.980485	2533.179808
886.289954	2497.891731
886.599382	2394.548077
886.908768	2475.206538
887.218113	2465.124231
887.527417	2520.576923
887.836680	2487.809423
888.145901	2502.932885
888.455082	2553.344423
888.764221	2487.809423
889.073319	2555.865000
889.382376	2513.015192
889.691392	2470.165385
890.000366	2525.618077
890.309300	2432.356731
890.618193	2523.097500
890.927044	2455.041923
891.235855	2515.535769
891.544625	2523.097500
891.853353	2470.165385
892.162041	2490.330000
892.470687	2472.685962
892.779293	2427.315577
893.087858	2510.494615
893.396381	2500.412308
893.704864	2490.330000
894.013306	2455.041923
894.321707	2482.768269
894.630068	2535.700385
894.938387	2480.247692
895.246665	2475.206538
895.554903	2507.974038
895.863100	2550.823846
896.171256	2477.727115
896.479371	2470.165385
896.787446	2457.562500
897.095480	2487.809423
897.403473	2525.618077
897.711425	2558.385577
898.019336	2470.165385
898.327207	2487.809423
898.635038	2543.262115
898.942827	2452.521346
899.250576	2497.891731
899.558284	2530.659231
899.865952	2578.550192
900.173579	2475.206538
900.481165	2419.753846
900.788711	2523.097500
901.096216	2424.795000
901.403681	2472.685962
901.711105	2432.356731
902.018489	2520.576923
902.325832	2545.782692
902.633135	2457.562500
902.940397	2455.041923
903.247619	2490.330000
903.554800	2510.494615
903.861941	2467.644808
904.169041	2492.850577
904.476101	2467.644808
904.783121	2460.083077
905.090100	2444.959615
905.397039	2432.356731
905.703938	2535.700385
906.010796	2507.974038
906.317614	2495.371154
906.624391	2502.932885
906.931129	2515.535769
907.237826	2558.385577
907.544483	2452.521346
907.851099	2467.644808
908.157675	2434.877308
908.464211	2417.233269
908.770707	2502.932885
909.077163	2510.494615
909.383578	2472.685962
909.689954	2523.097500
909.996289	2381.945192
910.302584	2540.741538
910.608839	2545.782692
910.915054	2475.206538
911.221229	2520.576923
911.527363	2510.494615
911.833458	2490.330000
912.139513	2533.179808
912.445527	2533.179808
912.751502	2555.865000
913.057436	2490.330000
913.363331	2570.988462
913.669186	2475.206538
913.975000	2455.041923
914.280775	2528.138654
914.586510	2455.041923
914.892205	2495.371154
915.197859	2543.262115
915.503475	2502.932885
915.809050	2412.192115
916.114585	2462.603654
916.420081	2507.974038
916.725536	2465.124231
917.030952	2505.453462
917.336328	2540.741538
917.641665	2450.000769
917.946961	2538.220962
918.252218	2432.356731
918.557435	2533.179808
918.862612	2475.206538
919.167750	2485.288846
919.472848	2523.097500
919.777906	2414.712692
920.082925	2455.041923
920.387904	2477.727115
920.692843	2442.439038
920.997743	2500.412308
921.302603	2507.974038
921.607423	2538.220962
921.912204	2462.603654
922.216946	2480.247692
922.521647	2419.753846
922.826310	2407.150962
923.130932	2492.850577
923.435516	2460.083077
923.740059	2611.317692
924.044564	2460.083077
924.349028	2452.521346
924.653454	2414.712692
924.957840	2455.041923
925.262186	2475.206538
925.566493	2525.618077
925.870761	2389.506923
926.174989	2528.138654
926.479178	2457.562500
926.783328	2477.727115
927.087438	2482.768269
927.391509	2520.576923
927.695541	2553.344423
927.999533	2548.303269
928.303486	2412.192115
928.607400	2525.618077
928.911275	2581.070769
929.215110	2490.330000
929.518906	2543.262115
929.822663	2424.795000
930.126381	2568.467885
930.430060	2520.576923
930.733699	2465.124231
931.037299	2495.371154
931.340861	2563.426731
931.644383	2513.015192
931.947866	2460.083077
932.251309	2497.891731
932.554714	2492.850577
932.858080	2565.947308
933.161407	2485.288846
933.464694	2470.165385
933.767943	2502.932885
934.071153	2470.165385
934.374323	2533.179808
934.677455	2513.015192
934.980548	2505.453462
935.283602	2560.906154
935.586617	2460.083077
935.889593	2545.782692
936.192530	2480.247692
936.495428	2422.274423
936.798287	2470.165385
937.101108	2475.206538
937.403890	2558.385577
937.706632	2596.194231
938.009336	2485.288846
938.312002	2490.330000
938.614628	2533.179808
938.917216	2513.015192
939.219765	2417.233269
939.522275	2523.097500
939.824747	2495.371154
940.127179	2495.371154
940.429573	2379.424615
940.731929	2502.932885
941.034246	2424.795000
941.336524	2538.220962
941.638763	2492.850577
941.940964	2475.206538
942.243126	2404.630385
942.545250	2548.303269
942.847335	2518.056346
943.149381	2485.288846
943.451389	2513.015192
943.753359	2442.439038
944.055290	2462.603654
944.357182	2412.192115
944.659036	2437.397885
944.960851	2540.741538
945.262628	2480.247692
945.564367	2520.576923
945.866067	2439.918462
946.167729	2568.467885
946.469352	2510.494615
946.770937	2515.535769
947.072484	2455.041923
947.373992	2500.412308
947.675462	2558.385577
947.976893	2460.083077
948.278286	2497.891731
948.579641	2467.644808
948.880958	2535.700385
949.182236	2422.274423
949.483476	2596.194231
949.784678	2457.562500
950.085841	2533.179808
950.386967	2472.685962
950.688054	2399.589231
950.989103	2477.727115
951.290114	2452.521346
951.591087	2434.877308
951.892021	2545.782692
952.192917	2480.247692
952.493776	2477.727115
952.794596	2540.741538
953.095378	2417.233269
953.396122	2462.603654
953.696828	2475.206538
953.997496	2447.480192
954.298126	2586.111923
954.598718	2492.850577
954.899272	2560.906154
955.199788	2467.644808
955.500266	2392.027500
955.800706	2442.439038
956.101108	2485.288846
956.401472	2455.041923
956.701798	2467.644808
957.002087	2581.070769
957.302337	2480.247692
957.602550	2472.685962
957.902724	2467.644808
958.202861	2513.015192
958.502960	2535.700385
958.803022	2505.453462
959.103045	2404.630385
959.403031	2442.439038
959.702979	2540.741538
960.002889	2432.356731
960.302762	2513.015192
960.602596	2518.056346
960.902393	2480.247692
961.202153	2480.247692
961.501875	2520.576923
961.801559	2545.782692
962.101205	2386.986346
962.400814	2535.700385
962.700385	2455.041923
962.999918	2530.659231
963.299414	2472.685962
963.598873	2523.097500
963.898293	2502.932885
964.197677	2533.179808
964.497022	2500.412308
964.796331	2626.441154
965.095601	2470.165385
965.394835	2374.383462
965.694030	2369.342308
965.993189	2510.494615
966.292309	2472.685962
966.591393	2570.988462
966.890439	2497.891731
967.189447	2530.659231
967.488419	2495.371154
967.787353	2485.288846
968.086249	2490.330000
968.385108	2553.344423
968.683930	2460.083077
968.982714	2482.768269
969.281462	2598.714808
969.580172	2409.671538
969.878844	2470.165385
970.177480	2470.165385
970.476078	2555.865000
970.774639	2457.562500
971.073162	2545.782692
971.371649	2450.000769
971.670098	2535.700385
971.968510	2492.850577
972.266885	2432.356731
972.565223	2558.385577
972.863524	2500.412308
973.161788	2487.809423
973.460014	2450.000769
973.758204	2485.288846
974.056356	2422.274423
974.354471	2505.453462
974.652550	2538.220962
974.950591	2530.659231
975.248595	2573.509038
975.546563	2495.371154
975.844493	2482.768269
976.142386	2548.303269
976.440243	2525.618077
976.738062	2490.330000
977.035845	2543.262115
977.333590	2409.671538
977.631299	2533.179808
977.928971	2392.027500
978.226606	2465.124231
978.524204	2419.753846
978.821765	2424.795000
979.119290	2545.782692
979.416777	2465.124231
979.714228	2513.015192
980.011642	2500.412308
980.309020	2563.426731
980.606360	2523.097500
980.903664	2452.521346
981.200931	2475.206538
981.498162	2525.618077
981.795356	2490.330000
982.092513	2535.700385
982.389633	2444.959615
982.686717	2563.426731
982.983764	2487.809423
983.280775	2565.947308
983.577749	2573.509038
983.874686	2412.192115
984.171587	2455.041923
984.468451	2427.315577
984.765279	2482.768269
985.062070	2505.453462
985.358824	2490.330000
985.655543	2467.644808
985.952224	2472.685962
986.248869	2570.988462
986.545478	2563.426731
986.842050	2490.330000
987.138586	2528.138654
987.435086	2424.795000
987.731549	2510.494615
988.027975	2429.836154
988.324366	2555.865000
988.620719	2487.809423
988.917037	2497.891731
989.213318	2485.288846
989.509563	2485.288846
989.805772	2497.891731
990.101944	2427.315577
990.398080	2533.179808
990.694180	2497.891731
990.990244	2442.439038
991.286271	2477.727115
991.582262	2427.315577
991.878217	2510.494615
992.174136	2472.685962
992.470019	2570.988462
992.765865	2467.644808
993.061676	2523.097500
993.357450	2505.453462
993.653188	2470.165385
993.948890	2480.247692
994.244556	2528.138654
994.540186	2439.918462
994.835780	2518.056346
995.131337	2500.412308
995.426859	2520.576923
995.722345	2447.480192
996.017795	2444.959615
996.313208	2437.397885
996.608586	2485.288846
996.903928	2490.330000
997.199234	2487.809423
997.494504	2502.932885
997.789738	2523.097500
998.084936	2487.809423
998.380099	2485.288846
998.675225	2432.356731
998.970316	2550.823846
999.265371	2450.000769
999.560390	2538.220962
999.855373	2482.768269
1000.150320	2570.988462
1000.445232	2505.453462
1000.740108	2434.877308
1001.034948	2427.315577
1001.329752	2419.753846
1001.624521	2480.247692
1001.919254	2457.562500
1002.213951	2548.303269
1002.508613	2482.768269
1002.803239	2500.412308
1003.097829	2444.959615
1003.392384	2452.521346
1003.686903	2578.550192
1003.981386	2550.823846
1004.275834	2475.206538
1004.570246	2477.727115
1004.864623	2450.000769
1005.158964	2497.891731
1005.453270	2581.070769
1005.747540	2472.685962
1006.041775	2523.097500
1006.335974	2515.535769
1006.630138	2548.303269
1006.924266	2444.959615
1007.218359	2530.659231
1007.512416	2450.000769
1007.806438	2492.850577
1008.100425	2462.603654
1008.394376	2538.220962
1008.688292	2490.330000
1008.982172	2505.453462
1009.276017	2480.247692
1009.569827	2485.288846
1009.863602	2538.220962
1010.157341	2480.247692
1010.451045	2563.426731
1010.744714	2450.000769
1011.038347	2528.138654
1011.331945	2518.056346
1011.625508	2455.041923
1011.919036	2480.247692
1012.212528	2495.371154
1012.505986	2432.356731
1012.799408	2422.274423
1013.092795	2583.591346
1013.386147	2480.247692
1013.679464	2533.179808
1013.972745	2631.482308
1014.265992	2450.000769
1014.559204	2616.358846
1014.852380	2460.083077
1015.145521	2475.206538
1015.438628	2480.247692
1015.731699	2500.412308
1016.024736	2482.768269
1016.317737	2555.865000
1016.610703	2477.727115
1016.903635	2550.823846
1017.196531	2470.165385
1017.489393	2429.836154
1017.782219	2492.850577
1018.075011	2432.356731
1018.367768	2460.083077
1018.660490	2586.111923
1018.953177	2586.111923
1019.245829	2586.111923
