Dividing Wavelength (nm)	Counts (n)	Blue Motor Position (mm): 0.000000	Red Motor Position (mm): 6.400000	
326.493990	2051.749615
326.888308	2051.749615
327.282561	2051.749615
327.676750	2079.475962
328.070874	2051.749615
328.464933	2084.517115
328.858929	2056.790769
329.252859	2134.928654
329.646726	2142.490385
330.040528	2134.928654
330.434265	2104.681731
330.827938	2066.873077
331.221547	2064.352500
331.615091	2190.381346
332.008571	2160.134423
332.401986	2165.175577
332.795338	2197.943077
333.188625	2291.204423
333.581847	2278.601538
333.975006	2273.560385
334.368100	2240.792885
334.761129	2288.683846
335.154095	2253.395769
335.546996	2409.671538
335.939833	2351.698269
336.332606	2369.342308
336.725315	2439.918462
337.117960	2427.315577
337.510540	2303.807308
337.903056	2384.465769
338.295508	2485.288846
338.687896	2450.000769
339.080220	2447.480192
339.472480	2482.768269
339.864676	2467.644808
340.256807	2502.932885
340.648875	2475.206538
341.040879	2548.303269
341.432818	2495.371154
341.824694	2487.809423
342.216506	2490.330000
342.608253	2402.109808
342.999937	2477.727115
343.391557	2487.809423
343.783113	2518.056346
344.174605	2515.535769
344.566033	2475.206538
344.957397	2523.097500
345.348697	2427.315577
345.739934	2462.603654
346.131106	2462.603654
346.522215	2412.192115
346.913260	2495.371154
347.304241	2502.932885
347.695159	2394.548077
348.086012	2460.083077
348.476802	2450.000769
348.867528	2523.097500
349.258191	2399.589231
349.648789	2467.644808
350.039324	2439.918462
350.429796	2424.795000
350.820203	2460.083077
351.210548	2490.330000
351.600828	2467.644808
351.991045	2439.918462
352.381198	2452.521346
352.771288	2424.795000
353.161314	2434.877308
353.551276	2482.768269
353.941175	2404.630385
354.331010	2490.330000
354.720782	2477.727115
355.110490	2412.192115
355.500135	2419.753846
355.889717	2407.150962
356.279235	2500.412308
356.668689	2452.521346
357.058080	2404.630385
357.447408	2409.671538
357.836672	2538.220962
358.225873	2429.836154
358.615010	2455.041923
359.004084	2392.027500
359.393095	2460.083077
359.782043	2437.397885
360.170927	2505.453462
360.559748	2417.233269
360.948505	2535.700385
361.337199	2465.124231
361.725830	2402.109808
362.114398	2437.397885
362.502903	2477.727115
362.891344	2371.862885
363.279722	2492.850577
363.668037	2369.342308
364.056289	2447.480192
364.444478	2467.644808
364.832603	2495.371154
365.220665	2404.630385
365.608665	2525.618077
365.996601	2447.480192
366.384474	2462.603654
366.772284	2432.356731
367.160031	2442.439038
367.547715	2492.850577
367.935336	2487.809423
368.322893	2495.371154
368.710388	2439.918462
369.097820	2470.165385
369.485189	2465.124231
369.872495	2427.315577
370.259738	2442.439038
370.646918	2586.111923
371.034035	2485.288846
371.421090	2477.727115
371.808081	2412.192115
372.195010	2480.247692
372.581875	2392.027500
372.968678	2452.521346
373.355418	2462.603654
373.742096	2525.618077
374.128710	2424.795000
374.515262	2414.712692
374.901751	2389.506923
375.288177	2500.412308
375.674540	2412.192115
376.060841	2497.891731
376.447079	2452.521346
376.833254	2419.753846
377.219367	2525.618077
377.605417	2500.412308
377.991404	2447.480192
378.377329	2500.412308
378.763191	2475.206538
379.148991	2507.974038
379.534727	2455.041923
379.920402	2502.932885
380.306013	2399.589231
380.691563	2462.603654
381.077049	2412.192115
381.462474	2437.397885
381.847835	2495.371154
382.233134	2439.918462
382.618371	2460.083077
383.003545	2429.836154
383.388657	2361.780577
383.773706	2492.850577
384.158693	2510.494615
384.543618	2500.412308
384.928480	2394.548077
385.313280	2475.206538
385.698017	2354.218846
386.082692	2434.877308
386.467305	2500.412308
386.851856	2442.439038
387.236344	2513.015192
387.620770	2477.727115
388.005133	2482.768269
388.389435	2409.671538
388.773674	2530.659231
389.157851	2470.165385
389.541965	2437.397885
389.926018	2500.412308
390.310008	2550.823846
390.693936	2515.535769
391.077802	2480.247692
391.461606	2422.274423
391.845348	2545.782692
392.229027	2515.535769
392.612645	2477.727115
392.996200	2424.795000
393.379694	2409.671538
393.763125	2412.192115
394.146494	2553.344423
394.529801	2427.315577
394.913047	2392.027500
395.296230	2450.000769
395.679351	2520.576923
396.062410	2500.412308
396.445408	2346.657115
396.828343	2525.618077
397.211217	2490.330000
397.594028	2465.124231
397.976778	2500.412308
398.359466	2447.480192
398.742092	2447.480192
399.124656	2485.288846
399.507158	2407.150962
399.889598	2515.535769
400.271977	2477.727115
400.654294	2472.685962
401.036549	2442.439038
401.418742	2417.233269
401.800874	2472.685962
402.182944	2412.192115
402.564952	2439.918462
402.946898	2500.412308
403.328783	2507.974038
403.710606	2495.371154
404.092367	2540.741538
404.474067	2475.206538
404.855705	2470.165385
405.237282	2502.932885
405.618797	2447.480192
406.000250	2424.795000
406.381642	2472.685962
406.762972	2520.576923
407.144240	2495.371154
407.525447	2442.439038
407.906593	2518.056346
408.287677	2495.371154
408.668700	2444.959615
409.049661	2603.755962
409.430560	2419.753846
409.811399	2457.562500
410.192176	2437.397885
410.572891	2487.809423
410.953545	2470.165385
411.334138	2545.782692
411.714669	2472.685962
412.095139	2513.015192
412.475547	2467.644808
412.855894	2444.959615
413.236180	2583.591346
413.616405	2455.041923
413.996568	2555.865000
414.376670	2482.768269
414.756711	2497.891731
415.136691	2520.576923
415.516609	2518.056346
415.896466	2467.644808
416.276262	2540.741538
416.655997	2467.644808
417.035670	2419.753846
417.415283	2432.356731
417.794834	2462.603654
418.174324	2444.959615
418.553753	2502.932885
418.933121	2439.918462
419.312428	2530.659231
419.691674	2565.947308
420.070859	2432.356731
420.449983	2535.700385
420.829045	2525.618077
421.208047	2510.494615
421.586988	2467.644808
421.965867	2424.795000
422.344686	2518.056346
422.723444	2397.068654
423.102141	2475.206538
423.480777	2442.439038
423.859352	2482.768269
424.237866	2558.385577
424.616319	2447.480192
424.994712	2518.056346
425.373044	2490.330000
425.751314	2475.206538
426.129524	2402.109808
426.507673	2462.603654
426.885762	2417.233269
427.263789	2475.206538
427.641756	2412.192115
428.019662	2439.918462
428.397508	2485.288846
428.775292	2432.356731
429.153016	2417.233269
429.530679	2444.959615
429.908282	2495.371154
430.285824	2477.727115
430.663305	2470.165385
431.040726	2497.891731
431.418086	2467.644808
431.795385	2492.850577
432.172624	2432.356731
432.549802	2535.700385
432.926920	2472.685962
433.303977	2502.932885
433.680974	2470.165385
434.057910	2485.288846
434.434786	2502.932885
434.811601	2485.288846
435.188355	2465.124231
435.565050	2490.330000
435.941683	2427.315577
436.318257	2450.000769
436.694770	2518.056346
437.071222	2417.233269
437.447614	2550.823846
437.823946	2427.315577
438.200218	2500.412308
438.576429	2437.397885
438.952580	2482.768269
439.328670	2515.535769
439.704700	2467.644808
440.080670	2485.288846
440.456580	2442.439038
440.832429	2565.947308
441.208218	2487.809423
441.583947	2497.891731
441.959616	2482.768269
442.335224	2530.659231
442.710773	2507.974038
443.086261	2563.426731
443.461689	2427.315577
443.837057	2495.371154
444.212365	2495.371154
444.587612	2482.768269
444.962800	2429.836154
445.337927	2457.562500
445.712995	2397.068654
446.088002	2497.891731
446.462949	2581.070769
446.837837	2470.165385
447.212664	2472.685962
447.587431	2452.521346
447.962139	2528.138654
448.336786	2490.330000
448.711374	2480.247692
449.085901	2515.535769
449.460369	2515.535769
449.834776	2492.850577
450.209124	2470.165385
450.583412	2460.083077
450.957640	2518.056346
451.331808	2507.974038
451.705917	2560.906154
452.079965	2495.371154
452.453954	2490.330000
452.827883	2422.274423
453.201752	2462.603654
453.575562	2455.041923
453.949311	2412.192115
454.323001	2530.659231
454.696632	2480.247692
455.070202	2490.330000
455.443713	2502.932885
455.817164	2444.959615
456.190556	2450.000769
456.563888	2485.288846
456.937160	2475.206538
457.310373	2444.959615
457.683526	2533.179808
458.056619	2414.712692
458.429653	2432.356731
458.802628	2563.426731
459.175542	2432.356731
459.548398	2490.330000
459.921194	2528.138654
460.293930	2485.288846
460.666607	2550.823846
461.039224	2545.782692
461.411782	2520.576923
461.784280	2502.932885
462.156719	2558.385577
462.529099	2495.371154
462.901419	2513.015192
463.273680	2495.371154
463.645882	2394.548077
464.018024	2553.344423
464.390106	2497.891731
464.762130	2520.576923
465.134094	2497.891731
465.505999	2573.509038
465.877845	2470.165385
466.249631	2518.056346
466.621358	2540.741538
466.993026	2467.644808
467.364634	2480.247692
467.736184	2455.041923
468.107674	2472.685962
468.479105	2429.836154
468.850477	2528.138654
469.221790	2394.548077
469.593043	2513.015192
469.964238	2545.782692
470.335373	2505.453462
470.706449	2553.344423
471.077467	2386.986346
471.448425	2475.206538
471.819324	2467.644808
472.190164	2467.644808
472.560945	2525.618077
472.931667	2482.768269
473.302330	2523.097500
473.672934	2492.850577
474.043479	2487.809423
474.413965	2578.550192
474.784393	2565.947308
475.154761	2510.494615
475.525070	2510.494615
475.895321	2502.932885
476.265513	2533.179808
476.635645	2487.809423
477.005719	2455.041923
477.375734	2530.659231
477.745691	2475.206538
478.115588	2424.795000
478.485427	2477.727115
478.855207	2558.385577
479.224928	2555.865000
479.594591	2477.727115
479.964194	2563.426731
480.333739	2497.891731
480.703226	2548.303269
481.072653	2523.097500
481.442022	2442.439038
481.811333	2470.165385
482.180584	2462.603654
482.549777	2502.932885
482.918912	2419.753846
483.287988	2581.070769
483.657005	2439.918462
484.025964	2450.000769
484.394864	2505.453462
484.763706	2570.988462
485.132489	2570.988462
485.501213	2444.959615
485.869879	2565.947308
486.238487	2528.138654
486.607036	2591.153077
486.975527	2465.124231
487.343959	2467.644808
487.712333	2467.644808
488.080648	2462.603654
488.448905	2475.206538
488.817104	2538.220962
489.185244	2467.644808
489.553326	2523.097500
489.921350	2480.247692
490.289315	2558.385577
490.657222	2487.809423
491.025070	2518.056346
491.392861	2555.865000
491.760593	2555.865000
492.128267	2447.480192
492.495883	2472.685962
492.863440	2467.644808
493.230939	2437.397885
493.598380	2467.644808
493.965763	2543.262115
494.333088	2490.330000
494.700354	2412.192115
495.067563	2487.809423
495.434713	2467.644808
495.801805	2530.659231
496.168839	2581.070769
496.535815	2545.782692
496.902733	2518.056346
497.269593	2452.521346
497.636395	2470.165385
498.003139	2560.906154
498.369825	2477.727115
498.736453	2502.932885
499.103023	2379.424615
499.469535	2465.124231
499.835989	2515.535769
500.202385	2477.727115
500.568723	2591.153077
500.935003	2525.618077
501.301226	2497.891731
501.667390	2513.015192
502.033497	2482.768269
502.399546	2460.083077
502.765537	2381.945192
503.131470	2482.768269
503.497345	2369.342308
503.863163	2555.865000
504.228923	2490.330000
504.594625	2495.371154
504.960269	2581.070769
505.325856	2545.782692
505.691385	2533.179808
506.056856	2460.083077
506.422270	2392.027500
506.787625	2545.782692
507.152924	2467.644808
507.518164	2535.700385
507.883347	2480.247692
508.248472	2560.906154
508.613540	2573.509038
508.978550	2437.397885
509.343503	2518.056346
509.708398	2465.124231
510.073236	2520.576923
510.438016	2570.988462
510.802738	2568.467885
511.167403	2497.891731
511.532010	2437.397885
511.896561	2540.741538
512.261053	2434.877308
512.625488	2563.426731
512.989866	2553.344423
513.354186	2523.097500
513.718449	2540.741538
514.082655	2507.974038
514.446803	2490.330000
514.810894	2500.412308
515.174927	2510.494615
515.538904	2480.247692
515.902822	2462.603654
516.266684	2540.741538
516.630488	2470.165385
516.994235	2480.247692
517.357925	2540.741538
517.721558	2540.741538
518.085133	2490.330000
518.448651	2450.000769
518.812112	2455.041923
519.175516	2470.165385
519.538863	2460.083077
519.902152	2500.412308
520.265385	2475.206538
520.628560	2513.015192
520.991678	2475.206538
521.354739	2560.906154
521.717743	2485.288846
522.080690	2523.097500
522.443580	2525.618077
522.806413	2518.056346
523.169189	2419.753846
523.531908	2477.727115
523.894569	2394.548077
524.257174	2538.220962
524.619722	2467.644808
524.982213	2495.371154
525.344647	2457.562500
525.707025	2568.467885
526.069345	2457.562500
526.431608	2518.056346
526.793815	2543.262115
527.155964	2548.303269
527.518057	2528.138654
527.880093	2472.685962
528.242072	2432.356731
528.603995	2444.959615
528.965860	2523.097500
529.327669	2482.768269
529.689421	2581.070769
530.051117	2510.494615
530.412755	2523.097500
530.774337	2505.453462
531.135862	2555.865000
531.497331	2465.124231
531.858743	2465.124231
532.220098	2429.836154
532.581396	2507.974038
532.942638	2528.138654
533.303824	2457.562500
533.664953	2427.315577
534.026025	2555.865000
534.387040	2407.150962
534.747999	2482.768269
535.108902	2548.303269
535.469748	2497.891731
535.830537	2518.056346
536.191270	2442.439038
536.551947	2475.206538
536.912567	2507.974038
537.273131	2487.809423
537.633638	2472.685962
537.994089	2525.618077
538.354483	2548.303269
538.714821	2492.850577
539.075103	2462.603654
539.435328	2480.247692
539.795497	2487.809423
540.155609	2502.932885
540.515665	2475.206538
540.875665	2525.618077
541.235609	2470.165385
541.595496	2487.809423
541.955328	2465.124231
542.315102	2427.315577
542.674821	2502.932885
543.034483	2475.206538
543.394090	2588.632500
543.753640	2462.603654
544.113134	2533.179808
544.472571	2475.206538
544.831953	2518.056346
545.191278	2392.027500
545.550548	2490.330000
545.909761	2495.371154
546.268918	2507.974038
546.628019	2477.727115
546.987064	2480.247692
547.346053	2490.330000
547.704986	2402.109808
548.063863	2477.727115
548.422684	2442.439038
548.781449	2465.124231
549.140158	2444.959615
549.498811	2455.041923
549.857408	2518.056346
550.215949	2530.659231
550.574434	2502.932885
550.932864	2477.727115
551.291237	2538.220962
551.649555	2518.056346
552.007817	2470.165385
552.366022	2565.947308
552.724173	2452.521346
553.082267	2518.056346
553.440305	2502.932885
553.798288	2485.288846
554.156215	2472.685962
554.514086	2480.247692
554.871902	2492.850577
555.229661	2500.412308
555.587365	2533.179808
555.945014	2429.836154
556.302606	2535.700385
556.660143	2540.741538
557.017625	2505.453462
557.375050	2540.741538
557.732421	2505.453462
558.089735	2432.356731
558.446994	2470.165385
558.804197	2538.220962
559.161345	2550.823846
559.518437	2543.262115
559.875474	2460.083077
560.232455	2485.288846
560.589381	2502.932885
560.946251	2490.330000
561.303065	2470.165385
561.659825	2520.576923
562.016528	2492.850577
562.373177	2545.782692
562.729770	2399.589231
563.086307	2404.630385
563.442789	2545.782692
563.799216	2515.535769
564.155587	2533.179808
564.511904	2485.288846
564.868164	2513.015192
565.224370	2422.274423
565.580520	2482.768269
565.936615	2470.165385
566.292654	2477.727115
566.648638	2465.124231
567.004567	2465.124231
567.360441	2555.865000
567.716260	2470.165385
568.072023	2402.109808
568.427732	2538.220962
568.783385	2548.303269
569.138982	2482.768269
569.494525	2424.795000
569.850013	2505.453462
570.205445	2502.932885
570.560823	2548.303269
570.916145	2490.330000
571.271412	2356.739423
571.626625	2502.932885
571.981782	2480.247692
572.336884	2467.644808
572.691931	2419.753846
573.046923	2507.974038
573.401860	2480.247692
573.756743	2515.535769
574.111570	2623.920577
574.466342	2510.494615
574.821059	2462.603654
575.175722	2495.371154
575.530330	2462.603654
575.884882	2560.906154
576.239380	2414.712692
576.593823	2460.083077
576.948211	2477.727115
577.302544	2555.865000
577.656823	2495.371154
578.011047	2568.467885
578.365216	2495.371154
578.719330	2502.932885
579.073389	2563.426731
579.427394	2452.521346
579.781344	2518.056346
580.135239	2548.303269
580.489080	2576.029615
580.842866	2470.165385
581.196597	2480.247692
581.550273	2472.685962
581.903895	2513.015192
582.257463	2447.480192
582.610975	2530.659231
582.964434	2550.823846
583.317837	2515.535769
583.671186	2505.453462
584.024481	2497.891731
584.377721	2535.700385
584.730906	2540.741538
585.084037	2518.056346
585.437113	2432.356731
585.790135	2568.467885
586.143103	2507.974038
586.496016	2439.918462
586.848874	2492.850577
587.201679	2460.083077
587.554428	2513.015192
587.907124	2472.685962
588.259765	2460.083077
588.612352	2581.070769
588.964884	2510.494615
589.317362	2530.659231
589.669786	2555.865000
590.022155	2500.412308
590.374470	2505.453462
590.726731	2555.865000
591.078937	2434.877308
591.431090	2513.015192
591.783188	2460.083077
592.135232	2507.974038
592.487222	2553.344423
592.839157	2548.303269
593.191038	2500.412308
593.542866	2480.247692
593.894639	2528.138654
594.246358	2505.453462
594.598022	2432.356731
594.949633	2550.823846
595.301190	2535.700385
595.652692	2497.891731
596.004141	2477.727115
596.355535	2586.111923
596.706876	2444.959615
597.058162	2578.550192
597.409395	2573.509038
597.760573	2477.727115
598.111698	2492.850577
598.462768	2558.385577
598.813785	2492.850577
599.164748	2490.330000
599.515657	2502.932885
599.866511	2636.523462
600.217312	2507.974038
600.568060	2520.576923
600.918753	2450.000769
601.269392	2495.371154
601.619978	2528.138654
601.970510	2442.439038
602.320988	2475.206538
602.671412	2470.165385
603.021783	2528.138654
603.372100	2573.509038
603.722363	2480.247692
604.072572	2497.891731
604.422728	2505.453462
604.772830	2497.891731
605.122878	2480.247692
605.472872	2485.288846
605.822813	2513.015192
606.172701	2533.179808
606.522534	2452.521346
606.872314	2465.124231
607.222041	2492.850577
607.571714	2480.247692
607.921333	2439.918462
608.270899	2485.288846
608.620411	2402.109808
608.969870	2495.371154
609.319276	2429.836154
609.668627	2586.111923
610.017926	2528.138654
610.367171	2540.741538
610.716362	2492.850577
611.065500	2470.165385
611.414585	2477.727115
611.763616	2507.974038
612.112594	2560.906154
612.461518	2540.741538
612.810389	2500.412308
613.159207	2467.644808
613.507971	2472.685962
613.856682	2515.535769
614.205340	2490.330000
614.553945	2520.576923
614.902496	2467.644808
615.250994	2525.618077
615.599439	2513.015192
615.947830	2429.836154
616.296169	2545.782692
616.644454	2563.426731
616.992686	2422.274423
617.340864	2439.918462
617.688990	2505.453462
618.037063	2487.809423
618.385082	2520.576923
618.733048	2570.988462
619.080961	2510.494615
619.428821	2533.179808
619.776628	2507.974038
620.124382	2450.000769
620.472083	2439.918462
620.819731	2399.589231
621.167326	2525.618077
621.514868	2422.274423
621.862357	2429.836154
622.209793	2444.959615
622.557176	2475.206538
622.904506	2563.426731
623.251783	2475.206538
623.599007	2520.576923
623.946179	2538.220962
624.293297	2548.303269
624.640363	2515.535769
624.987376	2563.426731
625.334336	2480.247692
625.681243	2472.685962
626.028097	2518.056346
626.374899	2593.673654
626.721647	2480.247692
627.068343	2525.618077
627.414987	2460.083077
627.761577	2397.068654
628.108115	2444.959615
628.454600	2450.000769
628.801032	2452.521346
629.147412	2576.029615
629.493739	2437.397885
629.840014	2487.809423
630.186236	2450.000769
630.532405	2455.041923
630.878521	2417.233269
631.224585	2502.932885
631.570597	2513.015192
631.916556	2444.959615
632.262462	2623.920577
632.608316	2533.179808
632.954117	2439.918462
633.299866	2530.659231
633.645562	2502.932885
633.991206	2485.288846
634.336797	2465.124231
634.682336	2535.700385
635.027823	2444.959615
635.373257	2510.494615
635.718639	2427.315577
636.063968	2467.644808
636.409245	2533.179808
636.754470	2497.891731
637.099642	2550.823846
637.444762	2523.097500
637.789829	2502.932885
638.134845	2455.041923
638.479808	2487.809423
638.824719	2434.877308
639.169577	2601.235385
639.514383	2505.453462
639.859137	2558.385577
640.203839	2507.974038
640.548489	2472.685962
640.893086	2495.371154
641.237632	2477.727115
641.582125	2563.426731
641.926566	2502.932885
642.270955	2530.659231
642.615292	2507.974038
642.959576	2553.344423
643.303809	2545.782692
643.647990	2424.795000
643.992118	2505.453462
644.336195	2538.220962
644.680219	2500.412308
645.024192	2487.809423
645.368112	2513.015192
645.711981	2452.521346
646.055797	2502.932885
646.399562	2500.412308
646.743274	2452.521346
647.086935	2404.630385
647.430544	2424.795000
647.774101	2510.494615
648.117606	2500.412308
648.461059	2535.700385
648.804460	2487.809423
649.147810	2538.220962
649.491108	2470.165385
649.834354	2379.424615
650.177548	2523.097500
650.520690	2507.974038
650.863781	2513.015192
651.206820	2525.618077
651.549807	2450.000769
651.892742	2424.795000
652.235626	2492.850577
652.578458	2545.782692
652.921238	2452.521346
653.263967	2455.041923
653.606644	2472.685962
653.949269	2545.782692
654.291843	2497.891731
654.634365	2399.589231
654.976836	2523.097500
655.319255	2414.712692
655.661622	2492.850577
656.003938	2497.891731
656.346203	2550.823846
656.688416	2450.000769
657.030577	2573.509038
657.372687	2429.836154
657.714746	2523.097500
658.056753	2419.753846
658.398708	2576.029615
658.740612	2500.412308
659.082465	2520.576923
659.424266	2500.412308
659.766016	2470.165385
660.107715	2543.262115
660.449362	2429.836154
660.790958	2490.330000
661.132503	2520.576923
661.473996	2470.165385
661.815438	2545.782692
662.156829	2525.618077
662.498168	2500.412308
662.839456	2465.124231
663.180693	2455.041923
663.521879	2563.426731
663.863013	2452.521346
664.204097	2485.288846
664.545129	2472.685962
664.886110	2457.562500
665.227040	2505.453462
665.567918	2424.795000
665.908746	2492.850577
666.249522	2525.618077
666.590248	2538.220962
666.930922	2543.262115
667.271545	2528.138654
667.612118	2465.124231
667.952639	2548.303269
668.293109	2518.056346
668.633528	2475.206538
668.973896	2507.974038
669.314213	2482.768269
669.654480	2513.015192
669.994695	2558.385577
670.334859	2487.809423
670.674973	2437.397885
671.015035	2596.194231
671.355047	2450.000769
671.695008	2528.138654
672.034918	2507.974038
672.374777	2442.439038
672.714585	2437.397885
673.054342	2550.823846
673.394049	2513.015192
673.733705	2427.315577
674.073310	2535.700385
674.412864	2447.480192
674.752368	2455.041923
675.091820	2505.453462
675.431223	2523.097500
675.770574	2447.480192
676.109875	2507.974038
676.449125	2497.891731
676.788324	2492.850577
677.127473	2460.083077
677.466571	2457.562500
677.805619	2533.179808
678.144616	2533.179808
678.483562	2444.959615
678.822458	2480.247692
679.161303	2447.480192
679.500098	2515.535769
679.838842	2515.535769
680.177535	2518.056346
680.516179	2560.906154
680.854771	2477.727115
681.193314	2538.220962
681.531805	2513.015192
681.870247	2603.755962
682.208638	2424.795000
682.546978	2507.974038
682.885268	2472.685962
683.223508	2485.288846
683.561697	2485.288846
683.899836	2492.850577
684.237925	2462.603654
684.575963	2560.906154
684.913951	2558.385577
685.251889	2497.891731
685.589776	2505.453462
685.927614	2434.877308
686.265401	2545.782692
686.603137	2523.097500
686.940824	2538.220962
687.278460	2513.015192
687.616046	2558.385577
687.953582	2543.262115
688.291068	2495.371154
688.628504	2477.727115
688.965889	2444.959615
689.303224	2412.192115
689.640510	2455.041923
689.977745	2513.015192
690.314930	2528.138654
690.652065	2507.974038
690.989150	2525.618077
691.326185	2487.809423
691.663170	2500.412308
692.000105	2593.673654
692.336990	2523.097500
692.673825	2543.262115
693.010610	2553.344423
693.347345	2505.453462
693.684030	2485.288846
694.020665	2480.247692
694.357251	2515.535769
694.693786	2500.412308
695.030272	2533.179808
695.366707	2482.768269
695.703093	2470.165385
696.039429	2477.727115
696.375716	2389.506923
696.711952	2389.506923
697.048139	2434.877308
697.384276	2490.330000
697.720363	2563.426731
698.056400	2465.124231
698.392388	2439.918462
698.728326	2578.550192
699.064214	2550.823846
699.400053	2460.083077
699.735842	2492.850577
700.071581	2444.959615
700.407270	2598.714808
700.742910	2439.918462
701.078501	2460.083077
701.414042	2525.618077
701.749533	2457.562500
702.084974	2502.932885
702.420366	2485.288846
702.755709	2530.659231
703.091002	2447.480192
703.426246	2472.685962
703.761440	2515.535769
704.096584	2437.397885
704.431679	2555.865000
704.766725	2407.150962
705.101721	2475.206538
705.436668	2548.303269
705.771565	2538.220962
706.106413	2573.509038
706.441212	2482.768269
706.775961	2457.562500
707.110661	2513.015192
707.445311	2573.509038
707.779913	2520.576923
708.114465	2465.124231
708.448967	2583.591346
708.783421	2455.041923
709.117825	2450.000769
709.452180	2414.712692
709.786485	2518.056346
710.120742	2419.753846
710.454949	2553.344423
710.789107	2500.412308
711.123216	2513.015192
711.457275	2528.138654
711.791286	2429.836154
712.125247	2485.288846
712.459159	2434.877308
712.793023	2555.865000
713.126837	2427.315577
713.460602	2530.659231
713.794318	2513.015192
714.127985	2487.809423
714.461602	2467.644808
714.795171	2518.056346
715.128691	2470.165385
715.462162	2500.412308
715.795584	2497.891731
716.128957	2492.850577
716.462281	2472.685962
716.795556	2560.906154
717.128782	2404.630385
717.461960	2417.233269
717.795088	2450.000769
718.128167	2500.412308
718.461198	2505.453462
718.794180	2593.673654
719.127113	2447.480192
719.459997	2520.576923
719.792833	2545.782692
720.125619	2573.509038
720.458357	2505.453462
720.791046	2492.850577
721.123686	2530.659231
721.456278	2528.138654
721.788821	2550.823846
722.121315	2472.685962
722.453761	2500.412308
722.786158	2429.836154
723.118506	2407.150962
723.450805	2565.947308
723.783056	2505.453462
724.115259	2470.165385
724.447412	2550.823846
724.779518	2523.097500
725.111574	2548.303269
725.443582	2523.097500
725.775542	2485.288846
726.107453	2465.124231
726.439315	2510.494615
726.771129	2492.850577
727.102895	2470.165385
727.434612	2482.768269
727.766281	2563.426731
728.097901	2450.000769
728.429473	2465.124231
728.760996	2444.959615
729.092471	2515.535769
729.423897	2455.041923
729.755276	2601.235385
730.086606	2477.727115
730.417887	2442.439038
730.749120	2482.768269
731.080305	2513.015192
731.411442	2530.659231
731.742530	2502.932885
732.073570	2530.659231
732.404562	2510.494615
732.735506	2555.865000
733.066401	2500.412308
733.397249	2555.865000
733.728048	2475.206538
734.058798	2470.165385
734.389501	2462.603654
734.720156	2555.865000
735.050762	2518.056346
735.381320	2518.056346
735.711831	2510.494615
736.042293	2500.412308
736.372707	2543.262115
736.703073	2518.056346
737.033391	2392.027500
737.363661	2465.124231
737.693883	2419.753846
738.024056	2444.959615
738.354182	2563.426731
738.684260	2414.712692
739.014290	2497.891731
739.344272	2455.041923
739.674207	2518.056346
740.004093	2439.918462
740.333931	2507.974038
740.663722	2543.262115
740.993464	2487.809423
741.323159	2487.809423
741.652806	2581.070769
741.982405	2507.974038
742.311956	2530.659231
742.641460	2462.603654
742.970915	2472.685962
743.300323	2550.823846
743.629683	2553.344423
743.958996	2470.165385
744.288260	2555.865000
744.617477	2429.836154
744.946647	2530.659231
745.275768	2470.165385
745.604842	2379.424615
745.933869	2502.932885
746.262847	2475.206538
746.591778	2520.576923
746.920662	2535.700385
747.249498	2530.659231
747.578286	2555.865000
747.907027	2412.192115
748.235720	2591.153077
748.564365	2467.644808
748.892963	2485.288846
749.221514	2447.480192
749.550017	2510.494615
749.878473	2495.371154
750.206881	2452.521346
750.535242	2507.974038
750.863555	2507.974038
751.191821	2555.865000
751.520039	2422.274423
751.848210	2576.029615
752.176334	2518.056346
752.504411	2452.521346
752.832440	2477.727115
753.160421	2475.206538
753.488356	2492.850577
753.816243	2477.727115
754.144082	2570.988462
754.471875	2523.097500
754.799620	2412.192115
755.127318	2520.576923
755.454969	2457.562500
755.782572	2515.535769
756.110129	2530.659231
756.437638	2510.494615
756.765100	2379.424615
757.092515	2548.303269
757.419882	2452.521346
757.747203	2399.589231
758.074477	2505.453462
758.401703	2530.659231
758.728882	2523.097500
759.056014	2485.288846
759.383099	2465.124231
759.710138	2548.303269
760.037129	2475.206538
760.364073	2555.865000
760.690970	2417.233269
761.017820	2497.891731
761.344623	2563.426731
761.671379	2477.727115
761.998088	2442.439038
762.324751	2497.891731
762.651366	2442.439038
762.977935	2389.506923
763.304456	2457.562500
763.630931	2500.412308
763.957359	2523.097500
764.283740	2530.659231
764.610074	2535.700385
764.936362	2447.480192
765.262602	2434.877308
765.588796	2434.877308
765.914943	2505.453462
766.241044	2568.467885
766.567097	2502.932885
766.893104	2392.027500
767.219064	2598.714808
767.544978	2497.891731
767.870845	2437.397885
768.196665	2444.959615
768.522438	2480.247692
768.848165	2477.727115
769.173846	2472.685962
769.499479	2523.097500
769.825066	2502.932885
770.150607	2525.618077
770.476101	2477.727115
770.801548	2515.535769
771.126949	2505.453462
771.452303	2520.576923
771.777611	2543.262115
772.102872	2442.439038
772.428087	2462.603654
772.753256	2578.550192
773.078378	2555.865000
773.403453	2515.535769
773.728482	2601.235385
774.053465	2460.083077
774.378401	2497.891731
774.703291	2533.179808
775.028135	2482.768269
775.352932	2515.535769
775.677683	2500.412308
776.002388	2497.891731
776.327046	2470.165385
776.651658	2495.371154
776.976224	2502.932885
777.300743	2500.412308
777.625216	2492.850577
777.949643	2490.330000
778.274024	2487.809423
778.598359	2450.000769
778.922647	2490.330000
779.246889	2490.330000
779.571086	2475.206538
779.895236	2533.179808
780.219339	2470.165385
780.543397	2439.918462
780.867409	2490.330000
781.191374	2442.439038
781.515294	2515.535769
781.839167	2576.029615
782.162995	2455.041923
782.486776	2515.535769
782.810511	2505.453462
783.134201	2482.768269
783.457844	2513.015192
783.781441	2523.097500
784.104993	2462.603654
784.428498	2518.056346
784.751958	2520.576923
785.075372	2465.124231
785.398739	2510.494615
785.722061	2485.288846
786.045337	2538.220962
786.368568	2530.659231
786.691752	2462.603654
787.014891	2535.700385
787.337983	2467.644808
787.661030	2533.179808
787.984031	2475.206538
788.306987	2515.535769
788.629897	2502.932885
788.952760	2553.344423
789.275579	2470.165385
789.598351	2477.727115
789.921078	2497.891731
790.243759	2490.330000
790.566395	2480.247692
790.888984	2500.412308
791.211529	2487.809423
791.534027	2513.015192
791.856480	2576.029615
792.178888	2500.412308
792.501249	2480.247692
792.823566	2502.932885
793.145836	2414.712692
793.468062	2487.809423
793.790241	2470.165385
794.112375	2465.124231
794.434464	2429.836154
794.756507	2558.385577
795.078505	2487.809423
795.400457	2414.712692
795.722364	2467.644808
796.044226	2500.412308
796.366042	2523.097500
796.687812	2553.344423
797.009538	2482.768269
797.331218	2548.303269
797.652852	2510.494615
797.974442	2581.070769
798.295986	2419.753846
798.617484	2515.535769
798.938938	2472.685962
799.260346	2540.741538
799.581709	2485.288846
799.903026	2570.988462
800.224299	2553.344423
800.545526	2399.589231
800.866708	2404.630385
801.187845	2507.974038
801.508936	2480.247692
801.829983	2530.659231
802.150984	2555.865000
802.471940	2523.097500
802.792851	2407.150962
803.113717	2389.506923
803.434538	2500.412308
803.755314	2462.603654
804.076045	2434.877308
804.396731	2452.521346
804.717372	2434.877308
805.037967	2475.206538
805.358518	2450.000769
805.679024	2472.685962
805.999485	2535.700385
806.319901	2467.644808
806.640272	2518.056346
806.960598	2555.865000
807.280879	2444.959615
807.601115	2492.850577
807.921306	2513.015192
808.241453	2513.015192
808.561554	2437.397885
808.881611	2523.097500
809.201623	2475.206538
809.521590	2515.535769
809.841513	2510.494615
810.161390	2523.097500
810.481223	2465.124231
810.801011	2492.850577
811.120755	2502.932885
811.440453	2555.865000
811.760107	2500.412308
812.079716	2528.138654
812.399281	2495.371154
812.718801	2510.494615
813.038276	2518.056346
813.357707	2480.247692
813.677093	2543.262115
813.996434	2497.891731
814.315731	2475.206538
814.634983	2482.768269
814.954191	2550.823846
815.273354	2570.988462
815.592473	2553.344423
815.911547	2467.644808
816.230577	2490.330000
816.549562	2414.712692
816.868502	2576.029615
817.187399	2480.247692
817.506250	2578.550192
817.825058	2525.618077
818.143821	2457.562500
818.462539	2518.056346
818.781213	2475.206538
819.099843	2523.097500
819.418429	2477.727115
819.736970	2538.220962
820.055466	2467.644808
820.373919	2492.850577
820.692327	2485.288846
821.010691	2568.467885
821.329011	2543.262115
821.647286	2538.220962
821.965517	2490.330000
822.283704	2442.439038
822.601847	2548.303269
822.919945	2480.247692
823.237999	2507.974038
823.556010	2540.741538
823.873976	2535.700385
824.191897	2538.220962
824.509775	2485.288846
824.827609	2538.220962
825.145398	2530.659231
825.463144	2467.644808
825.780845	2538.220962
826.098502	2452.521346
826.416116	2518.056346
826.733685	2465.124231
827.051210	2513.015192
827.368692	2462.603654
827.686129	2515.535769
828.003522	2477.727115
828.320872	2507.974038
828.638177	2535.700385
828.955439	2450.000769
829.272656	2487.809423
829.589830	2528.138654
829.906960	2528.138654
830.224046	2513.015192
830.541088	2439.918462
830.858086	2563.426731
831.175041	2538.220962
831.491952	2492.850577
831.808819	2485.288846
832.125642	2450.000769
832.442421	2555.865000
832.759157	2548.303269
833.075849	2485.288846
833.392497	2427.315577
833.709101	2525.618077
834.025662	2437.397885
834.342179	2462.603654
834.658653	2568.467885
834.975083	2523.097500
835.291469	2392.027500
835.607811	2487.809423
835.924110	2500.412308
836.240366	2477.727115
836.556578	2455.041923
836.872746	2510.494615
837.188871	2502.932885
837.504952	2470.165385
837.820990	2392.027500
838.136984	2462.603654
838.452935	2465.124231
838.768842	2490.330000
839.084706	2500.412308
839.400526	2450.000769
839.716303	2465.124231
840.032037	2472.685962
840.347727	2505.453462
840.663373	2505.453462
840.978977	2535.700385
841.294537	2563.426731
841.610054	2495.371154
841.925527	2513.015192
842.240957	2467.644808
842.556344	2518.056346
842.871687	2545.782692
843.186987	2432.356731
843.502244	2525.618077
843.817458	2477.727115
844.132629	2573.509038
844.447756	2472.685962
844.762840	2525.618077
845.077881	2487.809423
845.392879	2523.097500
845.707833	2525.618077
846.022745	2505.453462
846.337613	2442.439038
846.652438	2422.274423
846.967221	2495.371154
847.281960	2543.262115
847.596656	2518.056346
847.911309	2510.494615
848.225919	2480.247692
848.540485	2467.644808
848.855009	2530.659231
849.169490	2442.439038
849.483928	2525.618077
849.798323	2480.247692
850.112675	2502.932885
850.426984	2515.535769
850.741251	2475.206538
851.055474	2487.809423
851.369654	2530.659231
851.683792	2455.041923
851.997887	2432.356731
852.311938	2518.056346
852.625947	2467.644808
852.939914	2424.795000
853.253837	2538.220962
853.567718	2470.165385
853.881555	2518.056346
854.195350	2386.986346
854.509103	2553.344423
854.822812	2513.015192
855.136479	2455.041923
855.450103	2538.220962
855.763685	2487.809423
856.077224	2465.124231
856.390720	2444.959615
856.704173	2518.056346
857.017584	2528.138654
857.330953	2447.480192
857.644278	2502.932885
857.957561	2603.755962
858.270802	2462.603654
858.584000	2477.727115
858.897155	2432.356731
859.210268	2490.330000
859.523339	2475.206538
859.836367	2570.988462
860.149352	2528.138654
860.462295	2540.741538
860.775195	2475.206538
861.088054	2467.644808
861.400869	2515.535769
861.713642	2452.521346
862.026373	2545.782692
862.339062	2452.521346
862.651708	2523.097500
862.964312	2427.315577
863.276873	2475.206538
863.589392	2407.150962
863.901869	2495.371154
864.214303	2505.453462
864.526696	2553.344423
864.839045	2513.015192
865.151353	2482.768269
865.463619	2482.768269
865.775842	2538.220962
866.088023	2434.877308
866.400162	2565.947308
866.712258	2485.288846
867.024313	2490.330000
867.336325	2502.932885
867.648296	2583.591346
867.960224	2417.233269
868.272110	2492.850577
868.583954	2419.753846
868.895755	2505.453462
869.207515	2530.659231
869.519233	2477.727115
869.830909	2596.194231
870.142542	2510.494615
870.454134	2492.850577
870.765684	2505.453462
871.077191	2467.644808
871.388657	2553.344423
871.700081	2470.165385
872.011463	2510.494615
872.322803	2457.562500
872.634101	2472.685962
872.945357	2490.330000
873.256571	2581.070769
873.567744	2444.959615
873.878874	2543.262115
874.189963	2480.247692
874.501010	2560.906154
874.812015	2450.000769
875.122979	2407.150962
875.433900	2475.206538
875.744780	2495.371154
876.055618	2525.618077
876.366415	2399.589231
876.677169	2548.303269
876.987882	2467.644808
877.298554	2523.097500
877.609183	2386.986346
877.919771	2530.659231
878.230317	2477.727115
878.540822	2472.685962
878.851285	2450.000769
879.161707	2492.850577
879.472087	2465.124231
879.782425	2507.974038
880.092722	2439.918462
880.402977	2510.494615
880.713191	2394.548077
881.023363	2417.233269
881.333494	2523.097500
881.643583	2455.041923
881.953631	2470.165385
882.263637	2563.426731
882.573602	2492.850577
882.883526	2465.124231
883.193408	2513.015192
883.503248	2545.782692
883.813048	2485.288846
884.122806	2475.206538
884.432522	2507.974038
884.742197	2460.083077
885.051831	2462.603654
885.361424	2402.109808
885.670975	2467.644808
885.980485	2462.603654
886.289954	2560.906154
886.599382	2419.753846
886.908768	2495.371154
887.218113	2452.521346
887.527417	2434.877308
887.836680	2500.412308
888.145901	2475.206538
888.455082	2578.550192
888.764221	2530.659231
889.073319	2417.233269
889.382376	2480.247692
889.691392	2513.015192
890.000366	2397.068654
890.309300	2540.741538
890.618193	2447.480192
890.927044	2500.412308
891.235855	2414.712692
891.544625	2482.768269
891.853353	2460.083077
892.162041	2462.603654
892.470687	2540.741538
892.779293	2487.809423
893.087858	2505.453462
893.396381	2389.506923
893.704864	2480.247692
894.013306	2485.288846
894.321707	2543.262115
894.630068	2472.685962
894.938387	2510.494615
895.246665	2444.959615
895.554903	2548.303269
895.863100	2555.865000
896.171256	2540.741538
896.479371	2434.877308
896.787446	2417.233269
897.095480	2477.727115
897.403473	2402.109808
897.711425	2490.330000
898.019336	2472.685962
898.327207	2482.768269
898.635038	2457.562500
898.942827	2520.576923
899.250576	2414.712692
899.558284	2419.753846
899.865952	2490.330000
900.173579	2467.644808
900.481165	2439.918462
900.788711	2497.891731
901.096216	2475.206538
901.403681	2535.700385
901.711105	2523.097500
902.018489	2570.988462
902.325832	2573.509038
902.633135	2492.850577
902.940397	2392.027500
903.247619	2545.782692
903.554800	2455.041923
903.861941	2570.988462
904.169041	2450.000769
904.476101	2510.494615
904.783121	2492.850577
905.090100	2507.974038
905.397039	2460.083077
905.703938	2545.782692
906.010796	2500.412308
906.317614	2480.247692
906.624391	2588.632500
906.931129	2485.288846
907.237826	2467.644808
907.544483	2419.753846
907.851099	2455.041923
908.157675	2492.850577
908.464211	2543.262115
908.770707	2502.932885
909.077163	2439.918462
909.383578	2477.727115
909.689954	2475.206538
909.996289	2450.000769
910.302584	2510.494615
910.608839	2404.630385
910.915054	2492.850577
911.221229	2402.109808
911.527363	2505.453462
911.833458	2439.918462
912.139513	2518.056346
912.445527	2460.083077
912.751502	2530.659231
913.057436	2548.303269
913.363331	2525.618077
913.669186	2462.603654
913.975000	2570.988462
914.280775	2530.659231
914.586510	2457.562500
914.892205	2563.426731
915.197859	2485.288846
915.503475	2460.083077
915.809050	2515.535769
916.114585	2533.179808
916.420081	2550.823846
916.725536	2477.727115
917.030952	2470.165385
917.336328	2477.727115
917.641665	2475.206538
917.946961	2374.383462
918.252218	2477.727115
918.557435	2475.206538
918.862612	2482.768269
919.167750	2502.932885
919.472848	2477.727115
919.777906	2467.644808
920.082925	2492.850577
920.387904	2475.206538
920.692843	2419.753846
920.997743	2533.179808
921.302603	2442.439038
921.607423	2555.865000
921.912204	2462.603654
922.216946	2530.659231
922.521647	2490.330000
922.826310	2520.576923
923.130932	2598.714808
923.435516	2515.535769
923.740059	2535.700385
924.044564	2490.330000
924.349028	2535.700385
924.653454	2412.192115
924.957840	2507.974038
925.262186	2487.809423
925.566493	2550.823846
925.870761	2573.509038
926.174989	2505.453462
926.479178	2472.685962
926.783328	2447.480192
927.087438	2434.877308
927.391509	2550.823846
927.695541	2558.385577
927.999533	2490.330000
928.303486	2492.850577
928.607400	2538.220962
928.911275	2475.206538
929.215110	2523.097500
929.518906	2434.877308
929.822663	2470.165385
930.126381	2502.932885
930.430060	2553.344423
930.733699	2460.083077
931.037299	2528.138654
931.340861	2490.330000
931.644383	2530.659231
931.947866	2525.618077
932.251309	2525.618077
932.554714	2492.850577
932.858080	2525.618077
933.161407	2545.782692
933.464694	2523.097500
933.767943	2568.467885
934.071153	2455.041923
934.374323	2477.727115
934.677455	2482.768269
934.980548	2515.535769
935.283602	2427.315577
935.586617	2361.780577
935.889593	2548.303269
936.192530	2565.947308
936.495428	2543.262115
936.798287	2487.809423
937.101108	2429.836154
937.403890	2568.467885
937.706632	2442.439038
938.009336	2535.700385
938.312002	2507.974038
938.614628	2505.453462
938.917216	2502.932885
939.219765	2485.288846
939.522275	2497.891731
939.824747	2477.727115
940.127179	2518.056346
940.429573	2525.618077
940.731929	2518.056346
941.034246	2523.097500
941.336524	2573.509038
941.638763	2477.727115
941.940964	2386.986346
942.243126	2507.974038
942.545250	2434.877308
942.847335	2465.124231
943.149381	2417.233269
943.451389	2477.727115
943.753359	2452.521346
944.055290	2513.015192
944.357182	2492.850577
944.659036	2513.015192
944.960851	2457.562500
945.262628	2500.412308
945.564367	2510.494615
945.866067	2555.865000
946.167729	2485.288846
946.469352	2492.850577
946.770937	2485.288846
947.072484	2444.959615
947.373992	2497.891731
947.675462	2492.850577
947.976893	2510.494615
948.278286	2407.150962
948.579641	2583.591346
948.880958	2462.603654
949.182236	2485.288846
949.483476	2495.371154
949.784678	2538.220962
950.085841	2545.782692
950.386967	2450.000769
950.688054	2502.932885
950.989103	2452.521346
951.290114	2507.974038
951.591087	2573.509038
951.892021	2475.206538
952.192917	2555.865000
952.493776	2455.041923
952.794596	2472.685962
953.095378	2525.618077
953.396122	2427.315577
953.696828	2477.727115
953.997496	2573.509038
954.298126	2419.753846
954.598718	2482.768269
954.899272	2487.809423
955.199788	2588.632500
955.500266	2525.618077
955.800706	2525.618077
956.101108	2439.918462
956.401472	2513.015192
956.701798	2447.480192
957.002087	2452.521346
957.302337	2502.932885
957.602550	2490.330000
957.902724	2530.659231
958.202861	2397.068654
958.502960	2500.412308
958.803022	2465.124231
959.103045	2470.165385
959.403031	2460.083077
959.702979	2477.727115
960.002889	2495.371154
960.302762	2533.179808
960.602596	2460.083077
960.902393	2510.494615
961.202153	2523.097500
961.501875	2462.603654
961.801559	2500.412308
962.101205	2570.988462
962.400814	2455.041923
962.700385	2560.906154
962.999918	2429.836154
963.299414	2535.700385
963.598873	2565.947308
963.898293	2507.974038
964.197677	2500.412308
964.497022	2455.041923
964.796331	2573.509038
965.095601	2528.138654
965.394835	2513.015192
965.694030	2429.836154
965.993189	2457.562500
966.292309	2545.782692
966.591393	2462.603654
966.890439	2475.206538
967.189447	2480.247692
967.488419	2472.685962
967.787353	2437.397885
968.086249	2535.700385
968.385108	2477.727115
968.683930	2394.548077
968.982714	2480.247692
969.281462	2507.974038
969.580172	2477.727115
969.878844	2497.891731
970.177480	2513.015192
970.476078	2450.000769
970.774639	2492.850577
971.073162	2447.480192
971.371649	2523.097500
971.670098	2550.823846
971.968510	2460.083077
972.266885	2525.618077
972.565223	2518.056346
972.863524	2540.741538
973.161788	2505.453462
973.460014	2495.371154
973.758204	2432.356731
974.056356	2417.233269
974.354471	2525.618077
974.652550	2513.015192
974.950591	2432.356731
975.248595	2505.453462
975.546563	2462.603654
975.844493	2507.974038
976.142386	2565.947308
976.440243	2500.412308
976.738062	2472.685962
977.035845	2439.918462
977.333590	2452.521346
977.631299	2523.097500
977.928971	2495.371154
978.226606	2414.712692
978.524204	2510.494615
978.821765	2490.330000
979.119290	2429.836154
979.416777	2548.303269
979.714228	2477.727115
980.011642	2555.865000
980.309020	2465.124231
980.606360	2545.782692
980.903664	2447.480192
981.200931	2487.809423
981.498162	2492.850577
981.795356	2467.644808
982.092513	2558.385577
982.389633	2442.439038
982.686717	2457.562500
982.983764	2455.041923
983.280775	2472.685962
983.577749	2452.521346
983.874686	2455.041923
984.171587	2477.727115
984.468451	2462.603654
984.765279	2470.165385
985.062070	2505.453462
985.358824	2513.015192
985.655543	2492.850577
985.952224	2510.494615
986.248869	2480.247692
986.545478	2492.850577
986.842050	2525.618077
987.138586	2475.206538
987.435086	2414.712692
987.731549	2404.630385
988.027975	2480.247692
988.324366	2487.809423
988.620719	2538.220962
988.917037	2447.480192
989.213318	2487.809423
989.509563	2434.877308
989.805772	2397.068654
990.101944	2482.768269
990.398080	2507.974038
990.694180	2462.603654
990.990244	2497.891731
991.286271	2432.356731
991.582262	2525.618077
991.878217	2487.809423
992.174136	2515.535769
992.470019	2472.685962
992.765865	2495.371154
993.061676	2538.220962
993.357450	2523.097500
993.653188	2502.932885
993.948890	2510.494615
994.244556	2477.727115
994.540186	2513.015192
994.835780	2495.371154
995.131337	2495.371154
995.426859	2450.000769
995.722345	2457.562500
996.017795	2505.453462
996.313208	2417.233269
996.608586	2462.603654
996.903928	2565.947308
997.199234	2442.439038
997.494504	2482.768269
997.789738	2573.509038
998.084936	2591.153077
998.380099	2487.809423
998.675225	2540.741538
998.970316	2439.918462
999.265371	2495.371154
999.560390	2525.618077
999.855373	2386.986346
1000.150320	2500.412308
1000.445232	2439.918462
1000.740108	2462.603654
1001.034948	2497.891731
1001.329752	2472.685962
1001.624521	2485.288846
1001.919254	2444.959615
1002.213951	2485.288846
1002.508613	2548.303269
1002.803239	2520.576923
1003.097829	2432.356731
1003.392384	2407.150962
1003.686903	2513.015192
1003.981386	2467.644808
1004.275834	2460.083077
1004.570246	2565.947308
1004.864623	2482.768269
1005.158964	2515.535769
1005.453270	2417.233269
1005.747540	2525.618077
1006.041775	2533.179808
1006.335974	2450.000769
1006.630138	2452.521346
1006.924266	2492.850577
1007.218359	2432.356731
1007.512416	2480.247692
1007.806438	2565.947308
1008.100425	2460.083077
1008.394376	2505.453462
1008.688292	2439.918462
1008.982172	2465.124231
1009.276017	2523.097500
1009.569827	2480.247692
1009.863602	2507.974038
1010.157341	2444.959615
1010.451045	2523.097500
1010.744714	2520.576923
1011.038347	2480.247692
1011.331945	2462.603654
1011.625508	2533.179808
1011.919036	2535.700385
1012.212528	2409.671538
1012.505986	2520.576923
1012.799408	2500.412308
1013.092795	2490.330000
1013.386147	2507.974038
1013.679464	2515.535769
1013.972745	2475.206538
1014.265992	2490.330000
1014.559204	2465.124231
1014.852380	2462.603654
1015.145521	2523.097500
1015.438628	2492.850577
1015.731699	2510.494615
1016.024736	2427.315577
1016.317737	2465.124231
1016.610703	2530.659231
1016.903635	2455.041923
1017.196531	2480.247692
1017.489393	2442.439038
1017.782219	2366.821731
1018.075011	2475.206538
1018.367768	2553.344423
1018.660490	2394.548077
1018.953177	2394.548077
1019.245829	2394.548077
