Dividing Wavelength (nm)	Counts (n)	Blue Motor Position (mm): 0.000000	Red Motor Position (mm): 6.000000	
326.493990	2084.517115
326.888308	2084.517115
327.282561	2084.517115
327.676750	2054.270192
328.070874	2089.558269
328.464933	2054.270192
328.858929	2054.270192
329.252859	2087.037692
329.646726	2029.064423
330.040528	2112.243462
330.434265	2069.393654
330.827938	2109.722885
331.221547	2152.572692
331.615091	2182.819615
332.008571	2215.587115
332.401986	2223.148846
332.795338	2218.107692
333.188625	2265.998654
333.581847	2321.451346
333.975006	2321.451346
334.368100	2276.080962
334.761129	2298.766154
335.154095	2281.122115
335.546996	2334.054231
335.939833	2318.930769
336.332606	2457.562500
336.725315	2339.095385
337.117960	2308.848462
337.510540	2336.574808
337.903056	2354.218846
338.295508	2422.274423
338.687896	2455.041923
339.080220	2455.041923
339.472480	2507.974038
339.864676	2457.562500
340.256807	2490.330000
340.648875	2502.932885
341.040879	2487.809423
341.432818	2351.698269
341.824694	2417.233269
342.216506	2480.247692
342.608253	2455.041923
342.999937	2457.562500
343.391557	2485.288846
343.783113	2477.727115
344.174605	2414.712692
344.566033	2518.056346
344.957397	2462.603654
345.348697	2462.603654
345.739934	2457.562500
346.131106	2457.562500
346.522215	2563.426731
346.913260	2525.618077
347.304241	2455.041923
347.695159	2376.904038
348.086012	2513.015192
348.476802	2444.959615
348.867528	2442.439038
349.258191	2412.192115
349.648789	2487.809423
350.039324	2434.877308
350.429796	2442.439038
350.820203	2510.494615
351.210548	2399.589231
351.600828	2397.068654
351.991045	2513.015192
352.381198	2495.371154
352.771288	2455.041923
353.161314	2424.795000
353.551276	2502.932885
353.941175	2480.247692
354.331010	2407.150962
354.720782	2422.274423
355.110490	2467.644808
355.500135	2525.618077
355.889717	2455.041923
356.279235	2482.768269
356.668689	2450.000769
357.058080	2457.562500
357.447408	2432.356731
357.836672	2417.233269
358.225873	2495.371154
358.615010	2429.836154
359.004084	2407.150962
359.393095	2409.671538
359.782043	2452.521346
360.170927	2462.603654
360.559748	2394.548077
360.948505	2432.356731
361.337199	2384.465769
361.725830	2470.165385
362.114398	2369.342308
362.502903	2462.603654
362.891344	2434.877308
363.279722	2467.644808
363.668037	2460.083077
364.056289	2414.712692
364.444478	2460.083077
364.832603	2482.768269
365.220665	2452.521346
365.608665	2475.206538
365.996601	2447.480192
366.384474	2490.330000
366.772284	2434.877308
367.160031	2424.795000
367.547715	2528.138654
367.935336	2462.603654
368.322893	2485.288846
368.710388	2482.768269
369.097820	2472.685962
369.485189	2437.397885
369.872495	2520.576923
370.259738	2392.027500
370.646918	2455.041923
371.034035	2490.330000
371.421090	2462.603654
371.808081	2470.165385
372.195010	2465.124231
372.581875	2457.562500
372.968678	2470.165385
373.355418	2515.535769
373.742096	2439.918462
374.128710	2462.603654
374.515262	2432.356731
374.901751	2525.618077
375.288177	2467.644808
375.674540	2475.206538
376.060841	2540.741538
376.447079	2470.165385
376.833254	2467.644808
377.219367	2492.850577
377.605417	2447.480192
377.991404	2434.877308
378.377329	2384.465769
378.763191	2568.467885
379.148991	2525.618077
379.534727	2518.056346
379.920402	2447.480192
380.306013	2543.262115
380.691563	2472.685962
381.077049	2472.685962
381.462474	2417.233269
381.847835	2487.809423
382.233134	2409.671538
382.618371	2545.782692
383.003545	2439.918462
383.388657	2502.932885
383.773706	2392.027500
384.158693	2480.247692
384.543618	2422.274423
384.928480	2540.741538
385.313280	2515.535769
385.698017	2475.206538
386.082692	2480.247692
386.467305	2475.206538
386.851856	2470.165385
387.236344	2487.809423
387.620770	2467.644808
388.005133	2475.206538
388.389435	2417.233269
388.773674	2540.741538
389.157851	2492.850577
389.541965	2533.179808
389.926018	2573.509038
390.310008	2513.015192
390.693936	2404.630385
391.077802	2495.371154
391.461606	2419.753846
391.845348	2455.041923
392.229027	2500.412308
392.612645	2407.150962
392.996200	2437.397885
393.379694	2455.041923
393.763125	2472.685962
394.146494	2500.412308
394.529801	2437.397885
394.913047	2467.644808
395.296230	2472.685962
395.679351	2510.494615
396.062410	2465.124231
396.445408	2603.755962
396.828343	2487.809423
397.211217	2379.424615
397.594028	2520.576923
397.976778	2472.685962
398.359466	2485.288846
398.742092	2558.385577
399.124656	2419.753846
399.507158	2510.494615
399.889598	2444.959615
400.271977	2528.138654
400.654294	2482.768269
401.036549	2490.330000
401.418742	2444.959615
401.800874	2472.685962
402.182944	2502.932885
402.564952	2480.247692
402.946898	2465.124231
403.328783	2462.603654
403.710606	2465.124231
404.092367	2429.836154
404.474067	2455.041923
404.855705	2407.150962
405.237282	2530.659231
405.618797	2523.097500
406.000250	2515.535769
406.381642	2482.768269
406.762972	2492.850577
407.144240	2520.576923
407.525447	2455.041923
407.906593	2462.603654
408.287677	2444.959615
408.668700	2490.330000
409.049661	2505.453462
409.430560	2492.850577
409.811399	2515.535769
410.192176	2487.809423
410.572891	2495.371154
410.953545	2381.945192
411.334138	2389.506923
411.714669	2427.315577
412.095139	2502.932885
412.475547	2412.192115
412.855894	2510.494615
413.236180	2535.700385
413.616405	2497.891731
413.996568	2409.671538
414.376670	2505.453462
414.756711	2545.782692
415.136691	2477.727115
415.516609	2462.603654
415.896466	2470.165385
416.276262	2407.150962
416.655997	2381.945192
417.035670	2543.262115
417.415283	2470.165385
417.794834	2500.412308
418.174324	2513.015192
418.553753	2515.535769
418.933121	2419.753846
419.312428	2520.576923
419.691674	2470.165385
420.070859	2495.371154
420.449983	2538.220962
420.829045	2485.288846
421.208047	2460.083077
421.586988	2419.753846
421.965867	2472.685962
422.344686	2518.056346
422.723444	2588.632500
423.102141	2565.947308
423.480777	2439.918462
423.859352	2560.906154
424.237866	2472.685962
424.616319	2507.974038
424.994712	2467.644808
425.373044	2555.865000
425.751314	2500.412308
426.129524	2434.877308
426.507673	2447.480192
426.885762	2442.439038
427.263789	2538.220962
427.641756	2414.712692
428.019662	2563.426731
428.397508	2422.274423
428.775292	2480.247692
429.153016	2553.344423
429.530679	2462.603654
429.908282	2399.589231
430.285824	2460.083077
430.663305	2470.165385
431.040726	2520.576923
431.418086	2439.918462
431.795385	2419.753846
432.172624	2480.247692
432.549802	2490.330000
432.926920	2490.330000
433.303977	2460.083077
433.680974	2439.918462
434.057910	2510.494615
434.434786	2444.959615
434.811601	2505.453462
435.188355	2434.877308
435.565050	2434.877308
435.941683	2535.700385
436.318257	2477.727115
436.694770	2452.521346
437.071222	2553.344423
437.447614	2437.397885
437.823946	2568.467885
438.200218	2497.891731
438.576429	2505.453462
438.952580	2444.959615
439.328670	2477.727115
439.704700	2507.974038
440.080670	2467.644808
440.456580	2538.220962
440.832429	2427.315577
441.208218	2528.138654
441.583947	2528.138654
441.959616	2457.562500
442.335224	2507.974038
442.710773	2533.179808
443.086261	2422.274423
443.461689	2502.932885
443.837057	2538.220962
444.212365	2477.727115
444.587612	2525.618077
444.962800	2429.836154
445.337927	2490.330000
445.712995	2477.727115
446.088002	2502.932885
446.462949	2482.768269
446.837837	2535.700385
447.212664	2576.029615
447.587431	2477.727115
447.962139	2475.206538
448.336786	2455.041923
448.711374	2477.727115
449.085901	2417.233269
449.460369	2437.397885
449.834776	2467.644808
450.209124	2467.644808
450.583412	2447.480192
450.957640	2533.179808
451.331808	2513.015192
451.705917	2482.768269
452.079965	2442.439038
452.453954	2502.932885
452.827883	2460.083077
453.201752	2530.659231
453.575562	2560.906154
453.949311	2434.877308
454.323001	2515.535769
454.696632	2495.371154
455.070202	2555.865000
455.443713	2530.659231
455.817164	2523.097500
456.190556	2437.397885
456.563888	2497.891731
456.937160	2427.315577
457.310373	2475.206538
457.683526	2565.947308
458.056619	2477.727115
458.429653	2487.809423
458.802628	2467.644808
459.175542	2533.179808
459.548398	2513.015192
459.921194	2523.097500
460.293930	2427.315577
460.666607	2497.891731
461.039224	2434.877308
461.411782	2495.371154
461.784280	2525.618077
462.156719	2573.509038
462.529099	2502.932885
462.901419	2543.262115
463.273680	2497.891731
463.645882	2442.439038
464.018024	2460.083077
464.390106	2515.535769
464.762130	2460.083077
465.134094	2472.685962
465.505999	2545.782692
465.877845	2515.535769
466.249631	2558.385577
466.621358	2505.453462
466.993026	2444.959615
467.364634	2603.755962
467.736184	2513.015192
468.107674	2533.179808
468.479105	2573.509038
468.850477	2492.850577
469.221790	2510.494615
469.593043	2555.865000
469.964238	2545.782692
470.335373	2470.165385
470.706449	2399.589231
471.077467	2530.659231
471.448425	2462.603654
471.819324	2427.315577
472.190164	2485.288846
472.560945	2515.535769
472.931667	2505.453462
473.302330	2455.041923
473.672934	2518.056346
474.043479	2462.603654
474.413965	2533.179808
474.784393	2437.397885
475.154761	2518.056346
475.525070	2482.768269
475.895321	2520.576923
476.265513	2470.165385
476.635645	2518.056346
477.005719	2497.891731
477.375734	2555.865000
477.745691	2520.576923
478.115588	2450.000769
478.485427	2507.974038
478.855207	2442.439038
479.224928	2634.002885
479.594591	2515.535769
479.964194	2560.906154
480.333739	2412.192115
480.703226	2500.412308
481.072653	2505.453462
481.442022	2457.562500
481.811333	2434.877308
482.180584	2520.576923
482.549777	2429.836154
482.918912	2457.562500
483.287988	2462.603654
483.657005	2467.644808
484.025964	2480.247692
484.394864	2429.836154
484.763706	2452.521346
485.132489	2520.576923
485.501213	2502.932885
485.869879	2581.070769
486.238487	2369.342308
486.607036	2485.288846
486.975527	2384.465769
487.343959	2535.700385
487.712333	2535.700385
488.080648	2505.453462
488.448905	2568.467885
488.817104	2462.603654
489.185244	2502.932885
489.553326	2452.521346
489.921350	2412.192115
490.289315	2513.015192
490.657222	2510.494615
491.025070	2444.959615
491.392861	2465.124231
491.760593	2439.918462
492.128267	2439.918462
492.495883	2515.535769
492.863440	2502.932885
493.230939	2518.056346
493.598380	2586.111923
493.965763	2565.947308
494.333088	2568.467885
494.700354	2530.659231
495.067563	2523.097500
495.434713	2502.932885
495.801805	2407.150962
496.168839	2497.891731
496.535815	2475.206538
496.902733	2520.576923
497.269593	2480.247692
497.636395	2533.179808
498.003139	2386.986346
498.369825	2518.056346
498.736453	2434.877308
499.103023	2560.906154
499.469535	2389.506923
499.835989	2477.727115
500.202385	2462.603654
500.568723	2467.644808
500.935003	2525.618077
501.301226	2550.823846
501.667390	2487.809423
502.033497	2560.906154
502.399546	2588.632500
502.765537	2482.768269
503.131470	2611.317692
503.497345	2502.932885
503.863163	2520.576923
504.228923	2593.673654
504.594625	2540.741538
504.960269	2500.412308
505.325856	2550.823846
505.691385	2429.836154
506.056856	2510.494615
506.422270	2490.330000
506.787625	2581.070769
507.152924	2550.823846
507.518164	2520.576923
507.883347	2495.371154
508.248472	2515.535769
508.613540	2550.823846
508.978550	2465.124231
509.343503	2455.041923
509.708398	2437.397885
510.073236	2482.768269
510.438016	2520.576923
510.802738	2543.262115
511.167403	2427.315577
511.532010	2513.015192
511.896561	2555.865000
512.261053	2535.700385
512.625488	2576.029615
512.989866	2437.397885
513.354186	2505.453462
513.718449	2457.562500
514.082655	2497.891731
514.446803	2407.150962
514.810894	2538.220962
515.174927	2507.974038
515.538904	2477.727115
515.902822	2502.932885
516.266684	2492.850577
516.630488	2477.727115
516.994235	2447.480192
517.357925	2497.891731
517.721558	2520.576923
518.085133	2439.918462
518.448651	2543.262115
518.812112	2492.850577
519.175516	2422.274423
519.538863	2515.535769
519.902152	2470.165385
520.265385	2455.041923
520.628560	2560.906154
520.991678	2475.206538
521.354739	2528.138654
521.717743	2586.111923
522.080690	2528.138654
522.443580	2414.712692
522.806413	2437.397885
523.169189	2528.138654
523.531908	2477.727115
523.894569	2502.932885
524.257174	2442.439038
524.619722	2487.809423
524.982213	2452.521346
525.344647	2523.097500
525.707025	2540.741538
526.069345	2601.235385
526.431608	2523.097500
526.793815	2505.453462
527.155964	2485.288846
527.518057	2399.589231
527.880093	2485.288846
528.242072	2520.576923
528.603995	2543.262115
528.965860	2482.768269
529.327669	2515.535769
529.689421	2563.426731
530.051117	2515.535769
530.412755	2515.535769
530.774337	2475.206538
531.135862	2477.727115
531.497331	2485.288846
531.858743	2533.179808
532.220098	2402.109808
532.581396	2497.891731
532.942638	2518.056346
533.303824	2538.220962
533.664953	2480.247692
534.026025	2505.453462
534.387040	2568.467885
534.747999	2523.097500
535.108902	2482.768269
535.469748	2555.865000
535.830537	2447.480192
536.191270	2533.179808
536.551947	2545.782692
536.912567	2550.823846
537.273131	2583.591346
537.633638	2477.727115
537.994089	2500.412308
538.354483	2507.974038
538.714821	2510.494615
539.075103	2414.712692
539.435328	2477.727115
539.795497	2510.494615
540.155609	2533.179808
540.515665	2384.465769
540.875665	2432.356731
541.235609	2502.932885
541.595496	2500.412308
541.955328	2424.795000
542.315102	2507.974038
542.674821	2555.865000
543.034483	2560.906154
543.394090	2434.877308
543.753640	2523.097500
544.113134	2457.562500
544.472571	2507.974038
544.831953	2409.671538
545.191278	2507.974038
545.550548	2606.276538
545.909761	2467.644808
546.268918	2523.097500
546.628019	2439.918462
546.987064	2553.344423
547.346053	2518.056346
547.704986	2518.056346
548.063863	2460.083077
548.422684	2525.618077
548.781449	2535.700385
549.140158	2457.562500
549.498811	2432.356731
549.857408	2570.988462
550.215949	2472.685962
550.574434	2472.685962
550.932864	2392.027500
551.291237	2475.206538
551.649555	2530.659231
552.007817	2460.083077
552.366022	2525.618077
552.724173	2475.206538
553.082267	2417.233269
553.440305	2515.535769
553.798288	2419.753846
554.156215	2513.015192
554.514086	2553.344423
554.871902	2513.015192
555.229661	2502.932885
555.587365	2510.494615
555.945014	2586.111923
556.302606	2495.371154
556.660143	2475.206538
557.017625	2520.576923
557.375050	2480.247692
557.732421	2533.179808
558.089735	2492.850577
558.446994	2467.644808
558.804197	2475.206538
559.161345	2409.671538
559.518437	2515.535769
559.875474	2475.206538
560.232455	2507.974038
560.589381	2482.768269
560.946251	2530.659231
561.303065	2397.068654
561.659825	2502.932885
562.016528	2472.685962
562.373177	2520.576923
562.729770	2475.206538
563.086307	2437.397885
563.442789	2545.782692
563.799216	2500.412308
564.155587	2550.823846
564.511904	2533.179808
564.868164	2402.109808
565.224370	2482.768269
565.580520	2500.412308
565.936615	2515.535769
566.292654	2450.000769
566.648638	2490.330000
567.004567	2545.782692
567.360441	2596.194231
567.716260	2457.562500
568.072023	2480.247692
568.427732	2490.330000
568.783385	2472.685962
569.138982	2447.480192
569.494525	2507.974038
569.850013	2475.206538
570.205445	2480.247692
570.560823	2429.836154
570.916145	2543.262115
571.271412	2422.274423
571.626625	2543.262115
571.981782	2490.330000
572.336884	2490.330000
572.691931	2485.288846
573.046923	2515.535769
573.401860	2515.535769
573.756743	2490.330000
574.111570	2475.206538
574.466342	2558.385577
574.821059	2487.809423
575.175722	2452.521346
575.530330	2460.083077
575.884882	2502.932885
576.239380	2432.356731
576.593823	2472.685962
576.948211	2520.576923
577.302544	2490.330000
577.656823	2460.083077
578.011047	2510.494615
578.365216	2570.988462
578.719330	2439.918462
579.073389	2475.206538
579.427394	2465.124231
579.781344	2485.288846
580.135239	2495.371154
580.489080	2490.330000
580.842866	2462.603654
581.196597	2513.015192
581.550273	2583.591346
581.903895	2588.632500
582.257463	2515.535769
582.610975	2540.741538
582.964434	2480.247692
583.317837	2520.576923
583.671186	2492.850577
584.024481	2467.644808
584.377721	2414.712692
584.730906	2545.782692
585.084037	2525.618077
585.437113	2485.288846
585.790135	2558.385577
586.143103	2437.397885
586.496016	2487.809423
586.848874	2482.768269
587.201679	2492.850577
587.554428	2593.673654
587.907124	2518.056346
588.259765	2543.262115
588.612352	2581.070769
588.964884	2520.576923
589.317362	2555.865000
589.669786	2502.932885
590.022155	2500.412308
590.374470	2505.453462
590.726731	2570.988462
591.078937	2462.603654
591.431090	2515.535769
591.783188	2540.741538
592.135232	2482.768269
592.487222	2419.753846
592.839157	2444.959615
593.191038	2407.150962
593.542866	2505.453462
593.894639	2485.288846
594.246358	2495.371154
594.598022	2492.850577
594.949633	2482.768269
595.301190	2452.521346
595.652692	2472.685962
596.004141	2507.974038
596.355535	2525.618077
596.706876	2490.330000
597.058162	2510.494615
597.409395	2495.371154
597.760573	2467.644808
598.111698	2518.056346
598.462768	2515.535769
598.813785	2525.618077
599.164748	2497.891731
599.515657	2528.138654
599.866511	2467.644808
600.217312	2634.002885
600.568060	2432.356731
600.918753	2533.179808
601.269392	2523.097500
601.619978	2497.891731
601.970510	2434.877308
602.320988	2581.070769
602.671412	2530.659231
603.021783	2581.070769
603.372100	2518.056346
603.722363	2462.603654
604.072572	2550.823846
604.422728	2455.041923
604.772830	2570.988462
605.122878	2397.068654
605.472872	2490.330000
605.822813	2450.000769
606.172701	2467.644808
606.522534	2555.865000
606.872314	2467.644808
607.222041	2475.206538
607.571714	2515.535769
607.921333	2412.192115
608.270899	2482.768269
608.620411	2533.179808
608.969870	2457.562500
609.319276	2523.097500
609.668627	2500.412308
610.017926	2525.618077
610.367171	2611.317692
610.716362	2462.603654
611.065500	2510.494615
611.414585	2475.206538
611.763616	2568.467885
612.112594	2485.288846
612.461518	2424.795000
612.810389	2460.083077
613.159207	2543.262115
613.507971	2507.974038
613.856682	2477.727115
614.205340	2563.426731
614.553945	2470.165385
614.902496	2525.618077
615.250994	2497.891731
615.599439	2432.356731
615.947830	2490.330000
616.296169	2490.330000
616.644454	2402.109808
616.992686	2538.220962
617.340864	2586.111923
617.688990	2444.959615
618.037063	2545.782692
618.385082	2515.535769
618.733048	2543.262115
619.080961	2583.591346
619.428821	2523.097500
619.776628	2492.850577
620.124382	2538.220962
620.472083	2510.494615
620.819731	2470.165385
621.167326	2565.947308
621.514868	2470.165385
621.862357	2507.974038
622.209793	2570.988462
622.557176	2475.206538
622.904506	2502.932885
623.251783	2465.124231
623.599007	2523.097500
623.946179	2470.165385
624.293297	2507.974038
624.640363	2581.070769
624.987376	2472.685962
625.334336	2480.247692
625.681243	2545.782692
626.028097	2538.220962
626.374899	2429.836154
626.721647	2490.330000
627.068343	2439.918462
627.414987	2507.974038
627.761577	2523.097500
628.108115	2465.124231
628.454600	2475.206538
628.801032	2465.124231
629.147412	2487.809423
629.493739	2550.823846
629.840014	2412.192115
630.186236	2513.015192
630.532405	2452.521346
630.878521	2513.015192
631.224585	2581.070769
631.570597	2525.618077
631.916556	2485.288846
632.262462	2475.206538
632.608316	2515.535769
632.954117	2419.753846
633.299866	2513.015192
633.645562	2432.356731
633.991206	2528.138654
634.336797	2472.685962
634.682336	2480.247692
635.027823	2500.412308
635.373257	2505.453462
635.718639	2422.274423
636.063968	2525.618077
636.409245	2510.494615
636.754470	2475.206538
637.099642	2492.850577
637.444762	2470.165385
637.789829	2492.850577
638.134845	2475.206538
638.479808	2518.056346
638.824719	2495.371154
639.169577	2480.247692
639.514383	2520.576923
639.859137	2533.179808
640.203839	2427.315577
640.548489	2462.603654
640.893086	2439.918462
641.237632	2500.412308
641.582125	2490.330000
641.926566	2497.891731
642.270955	2434.877308
642.615292	2540.741538
642.959576	2510.494615
643.303809	2515.535769
643.647990	2583.591346
643.992118	2452.521346
644.336195	2510.494615
644.680219	2540.741538
645.024192	2487.809423
645.368112	2560.906154
645.711981	2480.247692
646.055797	2480.247692
646.399562	2480.247692
646.743274	2482.768269
647.086935	2480.247692
647.430544	2500.412308
647.774101	2550.823846
648.117606	2495.371154
648.461059	2444.959615
648.804460	2500.412308
649.147810	2475.206538
649.491108	2570.988462
649.834354	2492.850577
650.177548	2477.727115
650.520690	2550.823846
650.863781	2507.974038
651.206820	2414.712692
651.549807	2465.124231
651.892742	2513.015192
652.235626	2455.041923
652.578458	2462.603654
652.921238	2578.550192
653.263967	2518.056346
653.606644	2581.070769
653.949269	2447.480192
654.291843	2485.288846
654.634365	2437.397885
654.976836	2669.290962
655.319255	2444.959615
655.661622	2412.192115
656.003938	2543.262115
656.346203	2528.138654
656.688416	2608.797115
657.030577	2502.932885
657.372687	2515.535769
657.714746	2565.947308
658.056753	2477.727115
658.398708	2533.179808
658.740612	2495.371154
659.082465	2502.932885
659.424266	2442.439038
659.766016	2467.644808
660.107715	2439.918462
660.449362	2523.097500
660.790958	2475.206538
661.132503	2545.782692
661.473996	2427.315577
661.815438	2515.535769
662.156829	2540.741538
662.498168	2538.220962
662.839456	2558.385577
663.180693	2513.015192
663.521879	2452.521346
663.863013	2424.795000
664.204097	2513.015192
664.545129	2507.974038
664.886110	2495.371154
665.227040	2434.877308
665.567918	2492.850577
665.908746	2510.494615
666.249522	2507.974038
666.590248	2462.603654
666.930922	2558.385577
667.271545	2485.288846
667.612118	2545.782692
667.952639	2477.727115
668.293109	2414.712692
668.633528	2482.768269
668.973896	2513.015192
669.314213	2528.138654
669.654480	2482.768269
669.994695	2528.138654
670.334859	2596.194231
670.674973	2485.288846
671.015035	2533.179808
671.355047	2515.535769
671.695008	2568.467885
672.034918	2462.603654
672.374777	2497.891731
672.714585	2450.000769
673.054342	2492.850577
673.394049	2432.356731
673.733705	2525.618077
674.073310	2467.644808
674.412864	2500.412308
674.752368	2535.700385
675.091820	2379.424615
675.431223	2457.562500
675.770574	2497.891731
676.109875	2480.247692
676.449125	2533.179808
676.788324	2485.288846
677.127473	2507.974038
677.466571	2492.850577
677.805619	2495.371154
678.144616	2490.330000
678.483562	2502.932885
678.822458	2407.150962
679.161303	2495.371154
679.500098	2467.644808
679.838842	2525.618077
680.177535	2419.753846
680.516179	2507.974038
680.854771	2533.179808
681.193314	2502.932885
681.531805	2502.932885
681.870247	2525.618077
682.208638	2588.632500
682.546978	2439.918462
682.885268	2480.247692
683.223508	2424.795000
683.561697	2487.809423
683.899836	2492.850577
684.237925	2535.700385
684.575963	2450.000769
684.913951	2457.562500
685.251889	2528.138654
685.589776	2560.906154
685.927614	2477.727115
686.265401	2525.618077
686.603137	2462.603654
686.940824	2523.097500
687.278460	2515.535769
687.616046	2513.015192
687.953582	2467.644808
688.291068	2591.153077
688.628504	2576.029615
688.965889	2482.768269
689.303224	2450.000769
689.640510	2502.932885
689.977745	2455.041923
690.314930	2533.179808
690.652065	2465.124231
690.989150	2500.412308
691.326185	2576.029615
691.663170	2437.397885
692.000105	2530.659231
692.336990	2462.603654
692.673825	2505.453462
693.010610	2437.397885
693.347345	2528.138654
693.684030	2455.041923
694.020665	2525.618077
694.357251	2502.932885
694.693786	2518.056346
695.030272	2578.550192
695.366707	2452.521346
695.703093	2472.685962
696.039429	2480.247692
696.375716	2452.521346
696.711952	2497.891731
697.048139	2550.823846
697.384276	2510.494615
697.720363	2525.618077
698.056400	2500.412308
698.392388	2523.097500
698.728326	2581.070769
699.064214	2586.111923
699.400053	2467.644808
699.735842	2500.412308
700.071581	2565.947308
700.407270	2591.153077
700.742910	2452.521346
701.078501	2558.385577
701.414042	2495.371154
701.749533	2452.521346
702.084974	2525.618077
702.420366	2576.029615
702.755709	2457.562500
703.091002	2502.932885
703.426246	2510.494615
703.761440	2568.467885
704.096584	2472.685962
704.431679	2457.562500
704.766725	2465.124231
705.101721	2515.535769
705.436668	2427.315577
705.771565	2515.535769
706.106413	2452.521346
706.441212	2472.685962
706.775961	2523.097500
707.110661	2578.550192
707.445311	2437.397885
707.779913	2399.589231
708.114465	2475.206538
708.448967	2455.041923
708.783421	2432.356731
709.117825	2487.809423
709.452180	2444.959615
709.786485	2487.809423
710.120742	2482.768269
710.454949	2480.247692
710.789107	2402.109808
711.123216	2497.891731
711.457275	2578.550192
711.791286	2460.083077
712.125247	2535.700385
712.459159	2510.494615
712.793023	2447.480192
713.126837	2507.974038
713.460602	2550.823846
713.794318	2492.850577
714.127985	2490.330000
714.461602	2533.179808
714.795171	2502.932885
715.128691	2495.371154
715.462162	2505.453462
715.795584	2495.371154
716.128957	2455.041923
716.462281	2495.371154
716.795556	2477.727115
717.128782	2482.768269
717.461960	2432.356731
717.795088	2452.521346
718.128167	2492.850577
718.461198	2533.179808
718.794180	2500.412308
719.127113	2414.712692
719.459997	2455.041923
719.792833	2490.330000
720.125619	2560.906154
720.458357	2465.124231
720.791046	2528.138654
721.123686	2523.097500
721.456278	2500.412308
721.788821	2515.535769
722.121315	2538.220962
722.453761	2432.356731
722.786158	2470.165385
723.118506	2540.741538
723.450805	2518.056346
723.783056	2427.315577
724.115259	2586.111923
724.447412	2470.165385
724.779518	2490.330000
725.111574	2442.439038
725.443582	2528.138654
725.775542	2497.891731
726.107453	2465.124231
726.439315	2510.494615
726.771129	2429.836154
727.102895	2588.632500
727.434612	2442.439038
727.766281	2507.974038
728.097901	2460.083077
728.429473	2515.535769
728.760996	2482.768269
729.092471	2515.535769
729.423897	2432.356731
729.755276	2515.535769
730.086606	2482.768269
730.417887	2550.823846
730.749120	2472.685962
731.080305	2510.494615
731.411442	2472.685962
731.742530	2530.659231
732.073570	2520.576923
732.404562	2429.836154
732.735506	2560.906154
733.066401	2490.330000
733.397249	2581.070769
733.728048	2490.330000
734.058798	2510.494615
734.389501	2495.371154
734.720156	2545.782692
735.050762	2480.247692
735.381320	2520.576923
735.711831	2470.165385
736.042293	2492.850577
736.372707	2482.768269
736.703073	2450.000769
737.033391	2550.823846
737.363661	2429.836154
737.693883	2515.535769
738.024056	2490.330000
738.354182	2495.371154
738.684260	2586.111923
739.014290	2555.865000
739.344272	2528.138654
739.674207	2434.877308
740.004093	2568.467885
740.333931	2447.480192
740.663722	2507.974038
740.993464	2578.550192
741.323159	2447.480192
741.652806	2402.109808
741.982405	2482.768269
742.311956	2457.562500
742.641460	2553.344423
742.970915	2583.591346
743.300323	2525.618077
743.629683	2515.535769
743.958996	2487.809423
744.288260	2455.041923
744.617477	2505.453462
744.946647	2533.179808
745.275768	2528.138654
745.604842	2422.274423
745.933869	2507.974038
746.262847	2523.097500
746.591778	2455.041923
746.920662	2467.644808
747.249498	2555.865000
747.578286	2467.644808
747.907027	2475.206538
748.235720	2437.397885
748.564365	2437.397885
748.892963	2513.015192
749.221514	2502.932885
749.550017	2477.727115
749.878473	2578.550192
750.206881	2497.891731
750.535242	2576.029615
750.863555	2510.494615
751.191821	2603.755962
751.520039	2558.385577
751.848210	2497.891731
752.176334	2513.015192
752.504411	2525.618077
752.832440	2460.083077
753.160421	2442.439038
753.488356	2513.015192
753.816243	2439.918462
754.144082	2447.480192
754.471875	2490.330000
754.799620	2434.877308
755.127318	2424.795000
755.454969	2565.947308
755.782572	2538.220962
756.110129	2480.247692
756.437638	2502.932885
756.765100	2457.562500
757.092515	2442.439038
757.419882	2533.179808
757.747203	2515.535769
758.074477	2520.576923
758.401703	2523.097500
758.728882	2485.288846
759.056014	2570.988462
759.383099	2538.220962
759.710138	2495.371154
760.037129	2520.576923
760.364073	2487.809423
760.690970	2470.165385
761.017820	2487.809423
761.344623	2482.768269
761.671379	2515.535769
761.998088	2502.932885
762.324751	2515.535769
762.651366	2472.685962
762.977935	2455.041923
763.304456	2452.521346
763.630931	2480.247692
763.957359	2457.562500
764.283740	2495.371154
764.610074	2467.644808
764.936362	2515.535769
765.262602	2444.959615
765.588796	2518.056346
765.914943	2497.891731
766.241044	2397.068654
766.567097	2523.097500
766.893104	2538.220962
767.219064	2417.233269
767.544978	2397.068654
767.870845	2523.097500
768.196665	2480.247692
768.522438	2573.509038
768.848165	2462.603654
769.173846	2442.439038
769.499479	2570.988462
769.825066	2460.083077
770.150607	2450.000769
770.476101	2429.836154
770.801548	2555.865000
771.126949	2576.029615
771.452303	2500.412308
771.777611	2490.330000
772.102872	2414.712692
772.428087	2497.891731
772.753256	2447.480192
773.078378	2495.371154
773.403453	2505.453462
773.728482	2502.932885
774.053465	2518.056346
774.378401	2507.974038
774.703291	2392.027500
775.028135	2452.521346
775.352932	2470.165385
775.677683	2492.850577
776.002388	2447.480192
776.327046	2535.700385
776.651658	2515.535769
776.976224	2525.618077
777.300743	2616.358846
777.625216	2457.562500
777.949643	2492.850577
778.274024	2523.097500
778.598359	2528.138654
778.922647	2482.768269
779.246889	2528.138654
779.571086	2510.494615
779.895236	2460.083077
780.219339	2507.974038
780.543397	2505.453462
780.867409	2432.356731
781.191374	2465.124231
781.515294	2535.700385
781.839167	2467.644808
782.162995	2492.850577
782.486776	2500.412308
782.810511	2467.644808
783.134201	2553.344423
783.457844	2573.509038
783.781441	2510.494615
784.104993	2434.877308
784.428498	2548.303269
784.751958	2485.288846
785.075372	2510.494615
785.398739	2429.836154
785.722061	2467.644808
786.045337	2437.397885
786.368568	2482.768269
786.691752	2460.083077
787.014891	2414.712692
787.337983	2487.809423
787.661030	2482.768269
787.984031	2485.288846
788.306987	2495.371154
788.629897	2467.644808
788.952760	2523.097500
789.275579	2480.247692
789.598351	2472.685962
789.921078	2528.138654
790.243759	2507.974038
790.566395	2485.288846
790.888984	2429.836154
791.211529	2490.330000
791.534027	2412.192115
791.856480	2573.509038
792.178888	2533.179808
792.501249	2510.494615
792.823566	2455.041923
793.145836	2500.412308
793.468062	2555.865000
793.790241	2510.494615
794.112375	2434.877308
794.434464	2533.179808
794.756507	2505.453462
795.078505	2558.385577
795.400457	2495.371154
795.722364	2502.932885
796.044226	2601.235385
796.366042	2553.344423
796.687812	2442.439038
797.009538	2442.439038
797.331218	2520.576923
797.652852	2470.165385
797.974442	2429.836154
798.295986	2520.576923
798.617484	2510.494615
798.938938	2404.630385
799.260346	2495.371154
799.581709	2475.206538
799.903026	2550.823846
800.224299	2475.206538
800.545526	2513.015192
800.866708	2442.439038
801.187845	2462.603654
801.508936	2460.083077
801.829983	2472.685962
802.150984	2515.535769
802.471940	2500.412308
802.792851	2450.000769
803.113717	2470.165385
803.434538	2490.330000
803.755314	2457.562500
804.076045	2475.206538
804.396731	2485.288846
804.717372	2515.535769
805.037967	2444.959615
805.358518	2477.727115
805.679024	2437.397885
805.999485	2482.768269
806.319901	2553.344423
806.640272	2442.439038
806.960598	2543.262115
807.280879	2447.480192
807.601115	2480.247692
807.921306	2525.618077
808.241453	2460.083077
808.561554	2576.029615
808.881611	2437.397885
809.201623	2460.083077
809.521590	2467.644808
809.841513	2535.700385
810.161390	2492.850577
810.481223	2507.974038
810.801011	2550.823846
811.120755	2432.356731
811.440453	2523.097500
811.760107	2525.618077
812.079716	2467.644808
812.399281	2586.111923
812.718801	2525.618077
813.038276	2530.659231
813.357707	2543.262115
813.677093	2462.603654
813.996434	2457.562500
814.315731	2543.262115
814.634983	2455.041923
814.954191	2530.659231
815.273354	2460.083077
815.592473	2412.192115
815.911547	2495.371154
816.230577	2538.220962
816.549562	2485.288846
816.868502	2515.535769
817.187399	2535.700385
817.506250	2487.809423
817.825058	2452.521346
818.143821	2467.644808
818.462539	2462.603654
818.781213	2492.850577
819.099843	2402.109808
819.418429	2500.412308
819.736970	2507.974038
820.055466	2550.823846
820.373919	2540.741538
820.692327	2591.153077
821.010691	2460.083077
821.329011	2447.480192
821.647286	2550.823846
821.965517	2490.330000
822.283704	2545.782692
822.601847	2520.576923
822.919945	2492.850577
823.237999	2510.494615
823.556010	2510.494615
823.873976	2447.480192
824.191897	2515.535769
824.509775	2565.947308
824.827609	2480.247692
825.145398	2444.959615
825.463144	2472.685962
825.780845	2487.809423
826.098502	2513.015192
826.416116	2606.276538
826.733685	2533.179808
827.051210	2515.535769
827.368692	2548.303269
827.686129	2480.247692
828.003522	2548.303269
828.320872	2550.823846
828.638177	2518.056346
828.955439	2518.056346
829.272656	2455.041923
829.589830	2538.220962
829.906960	2444.959615
830.224046	2482.768269
830.541088	2487.809423
830.858086	2523.097500
831.175041	2502.932885
831.491952	2563.426731
831.808819	2389.506923
832.125642	2548.303269
832.442421	2621.400000
832.759157	2510.494615
833.075849	2439.918462
833.392497	2460.083077
833.709101	2523.097500
834.025662	2581.070769
834.342179	2424.795000
834.658653	2455.041923
834.975083	2475.206538
835.291469	2530.659231
835.607811	2570.988462
835.924110	2487.809423
836.240366	2523.097500
836.556578	2487.809423
836.872746	2475.206538
837.188871	2500.412308
837.504952	2457.562500
837.820990	2570.988462
838.136984	2538.220962
838.452935	2523.097500
838.768842	2495.371154
839.084706	2482.768269
839.400526	2495.371154
839.716303	2518.056346
840.032037	2470.165385
840.347727	2518.056346
840.663373	2465.124231
840.978977	2477.727115
841.294537	2492.850577
841.610054	2560.906154
841.925527	2452.521346
842.240957	2482.768269
842.556344	2452.521346
842.871687	2545.782692
843.186987	2475.206538
843.502244	2450.000769
843.817458	2505.453462
844.132629	2525.618077
844.447756	2528.138654
844.762840	2523.097500
845.077881	2480.247692
845.392879	2533.179808
845.707833	2442.439038
846.022745	2513.015192
846.337613	2419.753846
846.652438	2525.618077
846.967221	2485.288846
847.281960	2515.535769
847.596656	2495.371154
847.911309	2550.823846
848.225919	2492.850577
848.540485	2513.015192
848.855009	2523.097500
849.169490	2518.056346
849.483928	2475.206538
849.798323	2530.659231
850.112675	2500.412308
850.426984	2505.453462
850.741251	2457.562500
851.055474	2507.974038
851.369654	2419.753846
851.683792	2470.165385
851.997887	2523.097500
852.311938	2432.356731
852.625947	2507.974038
852.939914	2444.959615
853.253837	2515.535769
853.567718	2480.247692
853.881555	2439.918462
854.195350	2412.192115
854.509103	2538.220962
854.822812	2502.932885
855.136479	2470.165385
855.450103	2490.330000
855.763685	2555.865000
856.077224	2442.439038
856.390720	2540.741538
856.704173	2495.371154
857.017584	2369.342308
857.330953	2447.480192
857.644278	2520.576923
857.957561	2460.083077
858.270802	2533.179808
858.584000	2480.247692
858.897155	2492.850577
859.210268	2535.700385
859.523339	2470.165385
859.836367	2460.083077
860.149352	2570.988462
860.462295	2540.741538
860.775195	2482.768269
861.088054	2520.576923
861.400869	2470.165385
861.713642	2475.206538
862.026373	2485.288846
862.339062	2560.906154
862.651708	2429.836154
862.964312	2515.535769
863.276873	2497.891731
863.589392	2467.644808
863.901869	2485.288846
864.214303	2450.000769
864.526696	2513.015192
864.839045	2518.056346
865.151353	2513.015192
865.463619	2507.974038
865.775842	2505.453462
866.088023	2409.671538
866.400162	2477.727115
866.712258	2505.453462
867.024313	2442.439038
867.336325	2538.220962
867.648296	2515.535769
867.960224	2397.068654
868.272110	2518.056346
868.583954	2460.083077
868.895755	2563.426731
869.207515	2447.480192
869.519233	2533.179808
869.830909	2507.974038
870.142542	2439.918462
870.454134	2540.741538
870.765684	2507.974038
871.077191	2500.412308
871.388657	2523.097500
871.700081	2444.959615
872.011463	2465.124231
872.322803	2523.097500
872.634101	2565.947308
872.945357	2424.795000
873.256571	2477.727115
873.567744	2538.220962
873.878874	2465.124231
874.189963	2467.644808
874.501010	2457.562500
874.812015	2462.603654
875.122979	2447.480192
875.433900	2492.850577
875.744780	2513.015192
876.055618	2558.385577
876.366415	2515.535769
876.677169	2472.685962
876.987882	2550.823846
877.298554	2485.288846
877.609183	2578.550192
877.919771	2518.056346
878.230317	2545.782692
878.540822	2485.288846
878.851285	2533.179808
879.161707	2447.480192
879.472087	2487.809423
879.782425	2507.974038
880.092722	2452.521346
880.402977	2515.535769
880.713191	2467.644808
881.023363	2447.480192
881.333494	2457.562500
881.643583	2540.741538
881.953631	2457.562500
882.263637	2513.015192
882.573602	2538.220962
882.883526	2477.727115
883.193408	2520.576923
883.503248	2487.809423
883.813048	2520.576923
884.122806	2497.891731
884.432522	2573.509038
884.742197	2540.741538
885.051831	2528.138654
885.361424	2394.548077
885.670975	2462.603654
885.980485	2555.865000
886.289954	2434.877308
886.599382	2502.932885
886.908768	2583.591346
887.218113	2515.535769
887.527417	2518.056346
887.836680	2502.932885
888.145901	2475.206538
888.455082	2439.918462
888.764221	2437.397885
889.073319	2502.932885
889.382376	2550.823846
889.691392	2507.974038
890.000366	2596.194231
890.309300	2487.809423
890.618193	2379.424615
890.927044	2399.589231
891.235855	2513.015192
891.544625	2457.562500
891.853353	2507.974038
892.162041	2510.494615
892.470687	2444.959615
892.779293	2465.124231
893.087858	2427.315577
893.396381	2467.644808
893.704864	2439.918462
894.013306	2558.385577
894.321707	2452.521346
894.630068	2548.303269
894.938387	2568.467885
895.246665	2581.070769
895.554903	2472.685962
895.863100	2470.165385
896.171256	2497.891731
896.479371	2518.056346
896.787446	2510.494615
897.095480	2560.906154
897.403473	2520.576923
897.711425	2513.015192
898.019336	2482.768269
898.327207	2550.823846
898.635038	2439.918462
898.942827	2525.618077
899.250576	2465.124231
899.558284	2525.618077
899.865952	2490.330000
900.173579	2505.453462
900.481165	2472.685962
900.788711	2507.974038
901.096216	2563.426731
901.403681	2480.247692
901.711105	2558.385577
902.018489	2535.700385
902.325832	2422.274423
902.633135	2560.906154
902.940397	2520.576923
903.247619	2513.015192
903.554800	2437.397885
903.861941	2480.247692
904.169041	2500.412308
904.476101	2465.124231
904.783121	2485.288846
905.090100	2477.727115
905.397039	2525.618077
905.703938	2500.412308
906.010796	2533.179808
906.317614	2452.521346
906.624391	2523.097500
906.931129	2507.974038
907.237826	2540.741538
907.544483	2540.741538
907.851099	2581.070769
908.157675	2465.124231
908.464211	2507.974038
908.770707	2520.576923
909.077163	2515.535769
909.383578	2419.753846
909.689954	2523.097500
909.996289	2477.727115
910.302584	2490.330000
910.608839	2497.891731
910.915054	2465.124231
911.221229	2465.124231
911.527363	2513.015192
911.833458	2470.165385
912.139513	2477.727115
912.445527	2452.521346
912.751502	2533.179808
913.057436	2530.659231
913.363331	2475.206538
913.669186	2462.603654
913.975000	2505.453462
914.280775	2455.041923
914.586510	2450.000769
914.892205	2502.932885
915.197859	2439.918462
915.503475	2548.303269
915.809050	2497.891731
916.114585	2500.412308
916.420081	2545.782692
916.725536	2455.041923
917.030952	2467.644808
917.336328	2502.932885
917.641665	2444.959615
917.946961	2492.850577
918.252218	2513.015192
918.557435	2442.439038
918.862612	2465.124231
919.167750	2477.727115
919.472848	2394.548077
919.777906	2500.412308
920.082925	2480.247692
920.387904	2457.562500
920.692843	2502.932885
920.997743	2558.385577
921.302603	2444.959615
921.607423	2510.494615
921.912204	2462.603654
922.216946	2530.659231
922.521647	2482.768269
922.826310	2528.138654
923.130932	2495.371154
923.435516	2515.535769
923.740059	2490.330000
924.044564	2510.494615
924.349028	2447.480192
924.653454	2492.850577
924.957840	2507.974038
925.262186	2470.165385
925.566493	2510.494615
925.870761	2452.521346
926.174989	2439.918462
926.479178	2482.768269
926.783328	2460.083077
927.087438	2515.535769
927.391509	2444.959615
927.695541	2460.083077
927.999533	2515.535769
928.303486	2465.124231
928.607400	2442.439038
928.911275	2472.685962
929.215110	2465.124231
929.518906	2563.426731
929.822663	2492.850577
930.126381	2550.823846
930.430060	2520.576923
930.733699	2412.192115
931.037299	2485.288846
931.340861	2444.959615
931.644383	2490.330000
931.947866	2480.247692
932.251309	2515.535769
932.554714	2563.426731
932.858080	2507.974038
933.161407	2424.795000
933.464694	2606.276538
933.767943	2543.262115
934.071153	2480.247692
934.374323	2507.974038
934.677455	2538.220962
934.980548	2457.562500
935.283602	2444.959615
935.586617	2450.000769
935.889593	2548.303269
936.192530	2497.891731
936.495428	2497.891731
936.798287	2432.356731
937.101108	2515.535769
937.403890	2507.974038
937.706632	2392.027500
938.009336	2492.850577
938.312002	2475.206538
938.614628	2442.439038
938.917216	2507.974038
939.219765	2485.288846
939.522275	2500.412308
939.824747	2487.809423
940.127179	2439.918462
940.429573	2502.932885
940.731929	2482.768269
941.034246	2525.618077
941.336524	2513.015192
941.638763	2480.247692
941.940964	2485.288846
942.243126	2550.823846
942.545250	2507.974038
942.847335	2545.782692
943.149381	2460.083077
943.451389	2482.768269
943.753359	2535.700385
944.055290	2518.056346
944.357182	2497.891731
944.659036	2490.330000
944.960851	2434.877308
945.262628	2528.138654
945.564367	2482.768269
945.866067	2507.974038
946.167729	2444.959615
946.469352	2518.056346
946.770937	2452.521346
947.072484	2545.782692
947.373992	2472.685962
947.675462	2523.097500
947.976893	2507.974038
948.278286	2555.865000
948.579641	2457.562500
948.880958	2515.535769
949.182236	2480.247692
949.483476	2548.303269
949.784678	2447.480192
950.085841	2492.850577
950.386967	2558.385577
950.688054	2480.247692
950.989103	2402.109808
951.290114	2513.015192
951.591087	2525.618077
951.892021	2518.056346
952.192917	2495.371154
952.493776	2424.795000
952.794596	2495.371154
953.095378	2442.439038
953.396122	2502.932885
953.696828	2507.974038
953.997496	2533.179808
954.298126	2497.891731
954.598718	2545.782692
954.899272	2450.000769
955.199788	2462.603654
955.500266	2505.453462
955.800706	2502.932885
956.101108	2457.562500
956.401472	2505.453462
956.701798	2444.959615
957.002087	2487.809423
957.302337	2540.741538
957.602550	2568.467885
957.902724	2513.015192
958.202861	2543.262115
958.502960	2472.685962
958.803022	2510.494615
959.103045	2528.138654
959.403031	2455.041923
959.702979	2470.165385
960.002889	2409.671538
960.302762	2485.288846
960.602596	2578.550192
960.902393	2543.262115
961.202153	2515.535769
961.501875	2424.795000
961.801559	2442.439038
962.101205	2487.809423
962.400814	2505.453462
962.700385	2432.356731
962.999918	2487.809423
963.299414	2510.494615
963.598873	2497.891731
963.898293	2472.685962
964.197677	2495.371154
964.497022	2543.262115
964.796331	2485.288846
965.095601	2442.439038
965.394835	2465.124231
965.694030	2472.685962
965.993189	2550.823846
966.292309	2497.891731
966.591393	2480.247692
966.890439	2518.056346
967.189447	2369.342308
967.488419	2495.371154
967.787353	2558.385577
968.086249	2505.453462
968.385108	2497.891731
968.683930	2525.618077
968.982714	2507.974038
969.281462	2507.974038
969.580172	2487.809423
969.878844	2563.426731
970.177480	2462.603654
970.476078	2553.344423
970.774639	2502.932885
971.073162	2442.439038
971.371649	2530.659231
971.670098	2601.235385
971.968510	2470.165385
972.266885	2540.741538
972.565223	2485.288846
972.863524	2576.029615
973.161788	2515.535769
973.460014	2419.753846
973.758204	2540.741538
974.056356	2381.945192
974.354471	2538.220962
974.652550	2462.603654
974.950591	2485.288846
975.248595	2414.712692
975.546563	2475.206538
975.844493	2477.727115
976.142386	2505.453462
976.440243	2462.603654
976.738062	2381.945192
977.035845	2472.685962
977.333590	2487.809423
977.631299	2588.632500
977.928971	2505.453462
978.226606	2545.782692
978.524204	2465.124231
978.821765	2568.467885
979.119290	2422.274423
979.416777	2553.344423
979.714228	2533.179808
980.011642	2553.344423
980.309020	2432.356731
980.606360	2510.494615
980.903664	2510.494615
981.200931	2475.206538
981.498162	2480.247692
981.795356	2444.959615
982.092513	2540.741538
982.389633	2485.288846
982.686717	2528.138654
982.983764	2530.659231
983.280775	2482.768269
983.577749	2520.576923
983.874686	2492.850577
984.171587	2533.179808
984.468451	2460.083077
984.765279	2495.371154
985.062070	2555.865000
985.358824	2586.111923
985.655543	2409.671538
985.952224	2429.836154
986.248869	2472.685962
986.545478	2386.986346
986.842050	2477.727115
987.138586	2525.618077
987.435086	2495.371154
987.731549	2480.247692
988.027975	2447.480192
988.324366	2533.179808
988.620719	2442.439038
988.917037	2513.015192
989.213318	2505.453462
989.509563	2558.385577
989.805772	2439.918462
990.101944	2439.918462
990.398080	2545.782692
990.694180	2477.727115
990.990244	2487.809423
991.286271	2560.906154
991.582262	2439.918462
991.878217	2482.768269
992.174136	2543.262115
992.470019	2452.521346
992.765865	2520.576923
993.061676	2429.836154
993.357450	2460.083077
993.653188	2490.330000
993.948890	2434.877308
994.244556	2550.823846
994.540186	2535.700385
994.835780	2500.412308
995.131337	2565.947308
995.426859	2432.356731
995.722345	2389.506923
996.017795	2462.603654
996.313208	2495.371154
996.608586	2472.685962
996.903928	2515.535769
997.199234	2550.823846
997.494504	2480.247692
997.789738	2412.192115
998.084936	2510.494615
998.380099	2523.097500
998.675225	2565.947308
998.970316	2495.371154
999.265371	2515.535769
999.560390	2525.618077
999.855373	2455.041923
1000.150320	2487.809423
1000.445232	2513.015192
1000.740108	2477.727115
1001.034948	2502.932885
1001.329752	2432.356731
1001.624521	2462.603654
1001.919254	2520.576923
1002.213951	2487.809423
1002.508613	2429.836154
1002.803239	2500.412308
1003.097829	2475.206538
1003.392384	2560.906154
1003.686903	2462.603654
1003.981386	2485.288846
1004.275834	2500.412308
1004.570246	2538.220962
1004.864623	2434.877308
1005.158964	2490.330000
1005.453270	2442.439038
1005.747540	2591.153077
1006.041775	2487.809423
1006.335974	2507.974038
1006.630138	2485.288846
1006.924266	2490.330000
1007.218359	2505.453462
1007.512416	2513.015192
1007.806438	2427.315577
1008.100425	2422.274423
1008.394376	2495.371154
1008.688292	2492.850577
1008.982172	2505.453462
1009.276017	2497.891731
1009.569827	2485.288846
1009.863602	2487.809423
1010.157341	2485.288846
1010.451045	2538.220962
1010.744714	2497.891731
1011.038347	2452.521346
1011.331945	2507.974038
1011.625508	2568.467885
1011.919036	2573.509038
1012.212528	2412.192115
1012.505986	2470.165385
1012.799408	2593.673654
1013.092795	2563.426731
1013.386147	2480.247692
1013.679464	2495.371154
1013.972745	2510.494615
1014.265992	2490.330000
1014.559204	2450.000769
1014.852380	2480.247692
1015.145521	2442.439038
1015.438628	2480.247692
1015.731699	2485.288846
1016.024736	2510.494615
1016.317737	2485.288846
1016.610703	2475.206538
1016.903635	2465.124231
1017.196531	2457.562500
1017.489393	2480.247692
1017.782219	2376.904038
1018.075011	2487.809423
1018.367768	2427.315577
1018.660490	2492.850577
1018.953177	2492.850577
1019.245829	2492.850577
