Dividing Wavelength (nm)	Counts (n)	Blue Motor Position (mm): 0.000000	Red Motor Position (mm): 0.100000	
326.493990	2021.502692
326.888308	2021.502692
327.282561	2021.502692
327.676750	2013.940962
328.070874	2008.899808
328.464933	2139.969808
328.858929	2076.955385
329.252859	2132.408077
329.646726	2034.105577
330.040528	2071.914231
330.434265	2117.284615
330.827938	2137.449231
331.221547	2205.504808
331.615091	2134.928654
332.008571	2265.998654
332.401986	2132.408077
332.795338	2213.066538
333.188625	2296.245577
333.581847	2296.245577
333.975006	2311.369038
334.368100	2260.957500
334.761129	2311.369038
335.154095	2321.451346
335.546996	2311.369038
335.939833	2349.177692
336.332606	2424.795000
336.725315	2323.971923
337.117960	2283.642692
337.510540	2460.083077
337.903056	2369.342308
338.295508	2472.685962
338.687896	2442.439038
339.080220	2412.192115
339.472480	2399.589231
339.864676	2495.371154
340.256807	2500.412308
340.648875	2439.918462
341.040879	2505.453462
341.432818	2455.041923
341.824694	2457.562500
342.216506	2394.548077
342.608253	2570.988462
342.999937	2381.945192
343.391557	2472.685962
343.783113	2437.397885
344.174605	2386.986346
344.566033	2394.548077
344.957397	2520.576923
345.348697	2439.918462
345.739934	2482.768269
346.131106	2452.521346
346.522215	2533.179808
346.913260	2480.247692
347.304241	2384.465769
347.695159	2525.618077
348.086012	2465.124231
348.476802	2510.494615
348.867528	2465.124231
349.258191	2437.397885
349.648789	2497.891731
350.039324	2452.521346
350.429796	2389.506923
350.820203	2457.562500
351.210548	2402.109808
351.600828	2513.015192
351.991045	2419.753846
352.381198	2419.753846
352.771288	2472.685962
353.161314	2500.412308
353.551276	2379.424615
353.941175	2460.083077
354.331010	2470.165385
354.720782	2374.383462
355.110490	2444.959615
355.500135	2364.301154
355.889717	2439.918462
356.279235	2389.506923
356.668689	2412.192115
357.058080	2492.850577
357.447408	2447.480192
357.836672	2414.712692
358.225873	2460.083077
358.615010	2460.083077
359.004084	2399.589231
359.393095	2457.562500
359.782043	2467.644808
360.170927	2455.041923
360.559748	2480.247692
360.948505	2475.206538
361.337199	2386.986346
361.725830	2487.809423
362.114398	2397.068654
362.502903	2404.630385
362.891344	2518.056346
363.279722	2402.109808
363.668037	2472.685962
364.056289	2402.109808
364.444478	2361.780577
364.832603	2381.945192
365.220665	2419.753846
365.608665	2404.630385
365.996601	2389.506923
366.384474	2510.494615
366.772284	2465.124231
367.160031	2500.412308
367.547715	2472.685962
367.935336	2530.659231
368.322893	2470.165385
368.710388	2492.850577
369.097820	2450.000769
369.485189	2485.288846
369.872495	2475.206538
370.259738	2419.753846
370.646918	2394.548077
371.034035	2525.618077
371.421090	2417.233269
371.808081	2432.356731
372.195010	2419.753846
372.581875	2402.109808
372.968678	2528.138654
373.355418	2457.562500
373.742096	2535.700385
374.128710	2460.083077
374.515262	2394.548077
374.901751	2457.562500
375.288177	2417.233269
375.674540	2477.727115
376.060841	2475.206538
376.447079	2513.015192
376.833254	2487.809423
377.219367	2437.397885
377.605417	2447.480192
377.991404	2452.521346
378.377329	2540.741538
378.763191	2437.397885
379.148991	2417.233269
379.534727	2477.727115
379.920402	2480.247692
380.306013	2399.589231
380.691563	2482.768269
381.077049	2513.015192
381.462474	2492.850577
381.847835	2530.659231
382.233134	2500.412308
382.618371	2500.412308
383.003545	2455.041923
383.388657	2455.041923
383.773706	2429.836154
384.158693	2455.041923
384.543618	2323.971923
384.928480	2502.932885
385.313280	2477.727115
385.698017	2424.795000
386.082692	2472.685962
386.467305	2462.603654
386.851856	2379.424615
387.236344	2548.303269
387.620770	2432.356731
388.005133	2500.412308
388.389435	2439.918462
388.773674	2480.247692
389.157851	2412.192115
389.541965	2515.535769
389.926018	2475.206538
390.310008	2485.288846
390.693936	2444.959615
391.077802	2475.206538
391.461606	2482.768269
391.845348	2482.768269
392.229027	2447.480192
392.612645	2487.809423
392.996200	2528.138654
393.379694	2485.288846
393.763125	2444.959615
394.146494	2447.480192
394.529801	2397.068654
394.913047	2462.603654
395.296230	2432.356731
395.679351	2513.015192
396.062410	2467.644808
396.445408	2487.809423
396.828343	2560.906154
397.211217	2485.288846
397.594028	2495.371154
397.976778	2432.356731
398.359466	2492.850577
398.742092	2490.330000
399.124656	2427.315577
399.507158	2447.480192
399.889598	2540.741538
400.271977	2480.247692
400.654294	2455.041923
401.036549	2452.521346
401.418742	2492.850577
401.800874	2576.029615
402.182944	2434.877308
402.564952	2427.315577
402.946898	2485.288846
403.328783	2470.165385
403.710606	2472.685962
404.092367	2533.179808
404.474067	2472.685962
404.855705	2472.685962
405.237282	2576.029615
405.618797	2465.124231
406.000250	2465.124231
406.381642	2465.124231
406.762972	2500.412308
407.144240	2432.356731
407.525447	2523.097500
407.906593	2533.179808
408.287677	2548.303269
408.668700	2500.412308
409.049661	2485.288846
409.430560	2424.795000
409.811399	2515.535769
410.192176	2467.644808
410.572891	2439.918462
410.953545	2523.097500
411.334138	2477.727115
411.714669	2523.097500
412.095139	2422.274423
412.475547	2389.506923
412.855894	2465.124231
413.236180	2588.632500
413.616405	2500.412308
413.996568	2450.000769
414.376670	2480.247692
414.756711	2528.138654
415.136691	2563.426731
415.516609	2480.247692
415.896466	2470.165385
416.276262	2414.712692
416.655997	2492.850577
417.035670	2505.453462
417.415283	2530.659231
417.794834	2444.959615
418.174324	2462.603654
418.553753	2535.700385
418.933121	2492.850577
419.312428	2439.918462
419.691674	2467.644808
420.070859	2475.206538
420.449983	2528.138654
420.829045	2490.330000
421.208047	2490.330000
421.586988	2482.768269
421.965867	2477.727115
422.344686	2422.274423
422.723444	2510.494615
423.102141	2480.247692
423.480777	2414.712692
423.859352	2497.891731
424.237866	2439.918462
424.616319	2500.412308
424.994712	2424.795000
425.373044	2452.521346
425.751314	2432.356731
426.129524	2500.412308
426.507673	2500.412308
426.885762	2482.768269
427.263789	2460.083077
427.641756	2404.630385
428.019662	2485.288846
428.397508	2470.165385
428.775292	2510.494615
429.153016	2480.247692
429.530679	2452.521346
429.908282	2442.439038
430.285824	2470.165385
430.663305	2444.959615
431.040726	2485.288846
431.418086	2530.659231
431.795385	2450.000769
432.172624	2490.330000
432.549802	2507.974038
432.926920	2472.685962
433.303977	2475.206538
433.680974	2485.288846
434.057910	2475.206538
434.434786	2502.932885
434.811601	2495.371154
435.188355	2417.233269
435.565050	2497.891731
435.941683	2492.850577
436.318257	2419.753846
436.694770	2507.974038
437.071222	2432.356731
437.447614	2492.850577
437.823946	2455.041923
438.200218	2535.700385
438.576429	2427.315577
438.952580	2500.412308
439.328670	2490.330000
439.704700	2437.397885
440.080670	2452.521346
440.456580	2422.274423
440.832429	2520.576923
441.208218	2475.206538
441.583947	2563.426731
441.959616	2485.288846
442.335224	2500.412308
442.710773	2450.000769
443.086261	2487.809423
443.461689	2505.453462
443.837057	2412.192115
444.212365	2470.165385
444.587612	2470.165385
444.962800	2386.986346
445.337927	2386.986346
445.712995	2455.041923
446.088002	2444.959615
446.462949	2520.576923
446.837837	2543.262115
447.212664	2502.932885
447.587431	2392.027500
447.962139	2487.809423
448.336786	2485.288846
448.711374	2505.453462
449.085901	2510.494615
449.460369	2439.918462
449.834776	2467.644808
450.209124	2422.274423
450.583412	2422.274423
450.957640	2434.877308
451.331808	2525.618077
451.705917	2442.439038
452.079965	2485.288846
452.453954	2510.494615
452.827883	2523.097500
453.201752	2492.850577
453.575562	2520.576923
453.949311	2533.179808
454.323001	2485.288846
454.696632	2490.330000
455.070202	2439.918462
455.443713	2540.741538
455.817164	2485.288846
456.190556	2482.768269
456.563888	2480.247692
456.937160	2490.330000
457.310373	2480.247692
457.683526	2553.344423
458.056619	2505.453462
458.429653	2475.206538
458.802628	2465.124231
459.175542	2555.865000
459.548398	2510.494615
459.921194	2366.821731
460.293930	2528.138654
460.666607	2523.097500
461.039224	2467.644808
461.411782	2480.247692
461.784280	2497.891731
462.156719	2487.809423
462.529099	2520.576923
462.901419	2497.891731
463.273680	2475.206538
463.645882	2442.439038
464.018024	2513.015192
464.390106	2555.865000
464.762130	2538.220962
465.134094	2462.603654
465.505999	2525.618077
465.877845	2535.700385
466.249631	2472.685962
466.621358	2462.603654
466.993026	2520.576923
467.364634	2397.068654
467.736184	2523.097500
468.107674	2465.124231
468.479105	2505.453462
468.850477	2455.041923
469.221790	2487.809423
469.593043	2450.000769
469.964238	2513.015192
470.335373	2497.891731
470.706449	2487.809423
471.077467	2507.974038
471.448425	2434.877308
471.819324	2515.535769
472.190164	2492.850577
472.560945	2507.974038
472.931667	2432.356731
473.302330	2437.397885
473.672934	2417.233269
474.043479	2455.041923
474.413965	2548.303269
474.784393	2490.330000
475.154761	2472.685962
475.525070	2432.356731
475.895321	2467.644808
476.265513	2573.509038
476.635645	2505.453462
477.005719	2520.576923
477.375734	2525.618077
477.745691	2432.356731
478.115588	2470.165385
478.485427	2507.974038
478.855207	2460.083077
479.224928	2573.509038
479.594591	2475.206538
479.964194	2505.453462
480.333739	2553.344423
480.703226	2515.535769
481.072653	2500.412308
481.442022	2452.521346
481.811333	2487.809423
482.180584	2510.494615
482.549777	2477.727115
482.918912	2510.494615
483.287988	2460.083077
483.657005	2543.262115
484.025964	2520.576923
484.394864	2588.632500
484.763706	2480.247692
485.132489	2570.988462
485.501213	2550.823846
485.869879	2550.823846
486.238487	2578.550192
486.607036	2475.206538
486.975527	2495.371154
487.343959	2455.041923
487.712333	2495.371154
488.080648	2452.521346
488.448905	2528.138654
488.817104	2477.727115
489.185244	2563.426731
489.553326	2548.303269
489.921350	2444.959615
490.289315	2457.562500
490.657222	2502.932885
491.025070	2570.988462
491.392861	2507.974038
491.760593	2543.262115
492.128267	2568.467885
492.495883	2510.494615
492.863440	2475.206538
493.230939	2477.727115
493.598380	2470.165385
493.965763	2467.644808
494.333088	2530.659231
494.700354	2472.685962
495.067563	2492.850577
495.434713	2485.288846
495.801805	2457.562500
496.168839	2409.671538
496.535815	2555.865000
496.902733	2485.288846
497.269593	2518.056346
497.636395	2447.480192
498.003139	2465.124231
498.369825	2543.262115
498.736453	2482.768269
499.103023	2482.768269
499.469535	2518.056346
499.835989	2528.138654
500.202385	2389.506923
500.568723	2520.576923
500.935003	2429.836154
501.301226	2528.138654
501.667390	2518.056346
502.033497	2535.700385
502.399546	2470.165385
502.765537	2475.206538
503.131470	2432.356731
503.497345	2513.015192
503.863163	2593.673654
504.228923	2515.535769
504.594625	2467.644808
504.960269	2495.371154
505.325856	2490.330000
505.691385	2475.206538
506.056856	2497.891731
506.422270	2563.426731
506.787625	2583.591346
507.152924	2480.247692
507.518164	2492.850577
507.883347	2452.521346
508.248472	2404.630385
508.613540	2450.000769
508.978550	2480.247692
509.343503	2429.836154
509.708398	2460.083077
510.073236	2432.356731
510.438016	2500.412308
510.802738	2495.371154
511.167403	2480.247692
511.532010	2424.795000
511.896561	2500.412308
512.261053	2490.330000
512.625488	2513.015192
512.989866	2540.741538
513.354186	2482.768269
513.718449	2555.865000
514.082655	2444.959615
514.446803	2525.618077
514.810894	2510.494615
515.174927	2460.083077
515.538904	2568.467885
515.902822	2437.397885
516.266684	2513.015192
516.630488	2565.947308
516.994235	2505.453462
517.357925	2482.768269
517.721558	2548.303269
518.085133	2465.124231
518.448651	2397.068654
518.812112	2472.685962
519.175516	2515.535769
519.538863	2432.356731
519.902152	2533.179808
520.265385	2457.562500
520.628560	2490.330000
520.991678	2578.550192
521.354739	2444.959615
521.717743	2460.083077
522.080690	2502.932885
522.443580	2450.000769
522.806413	2573.509038
523.169189	2432.356731
523.531908	2515.535769
523.894569	2450.000769
524.257174	2485.288846
524.619722	2424.795000
524.982213	2505.453462
525.344647	2437.397885
525.707025	2535.700385
526.069345	2528.138654
526.431608	2402.109808
526.793815	2563.426731
527.155964	2477.727115
527.518057	2492.850577
527.880093	2447.480192
528.242072	2505.453462
528.603995	2485.288846
528.965860	2513.015192
529.327669	2404.630385
529.689421	2437.397885
530.051117	2502.932885
530.412755	2513.015192
530.774337	2576.029615
531.135862	2437.397885
531.497331	2513.015192
531.858743	2495.371154
532.220098	2601.235385
532.581396	2487.809423
532.942638	2533.179808
533.303824	2545.782692
533.664953	2568.467885
534.026025	2485.288846
534.387040	2482.768269
534.747999	2520.576923
535.108902	2528.138654
535.469748	2507.974038
535.830537	2523.097500
536.191270	2485.288846
536.551947	2470.165385
536.912567	2482.768269
537.273131	2447.480192
537.633638	2495.371154
537.994089	2437.397885
538.354483	2550.823846
538.714821	2465.124231
539.075103	2533.179808
539.435328	2467.644808
539.795497	2528.138654
540.155609	2520.576923
540.515665	2462.603654
540.875665	2500.412308
541.235609	2482.768269
541.595496	2507.974038
541.955328	2439.918462
542.315102	2490.330000
542.674821	2500.412308
543.034483	2475.206538
543.394090	2523.097500
543.753640	2525.618077
544.113134	2414.712692
544.472571	2550.823846
544.831953	2487.809423
545.191278	2495.371154
545.550548	2502.932885
545.909761	2513.015192
546.268918	2450.000769
546.628019	2558.385577
546.987064	2472.685962
547.346053	2520.576923
547.704986	2545.782692
548.063863	2545.782692
548.422684	2502.932885
548.781449	2500.412308
549.140158	2444.959615
549.498811	2533.179808
549.857408	2386.986346
550.215949	2545.782692
550.574434	2520.576923
550.932864	2502.932885
551.291237	2495.371154
551.649555	2432.356731
552.007817	2528.138654
552.366022	2515.535769
552.724173	2444.959615
553.082267	2518.056346
553.440305	2505.453462
553.798288	2482.768269
554.156215	2462.603654
554.514086	2472.685962
554.871902	2548.303269
555.229661	2528.138654
555.587365	2576.029615
555.945014	2530.659231
556.302606	2555.865000
556.660143	2573.509038
557.017625	2487.809423
557.375050	2437.397885
557.732421	2460.083077
558.089735	2528.138654
558.446994	2505.453462
558.804197	2513.015192
559.161345	2477.727115
559.518437	2596.194231
559.875474	2502.932885
560.232455	2437.397885
560.589381	2581.070769
560.946251	2528.138654
561.303065	2507.974038
561.659825	2510.494615
562.016528	2523.097500
562.373177	2570.988462
562.729770	2502.932885
563.086307	2492.850577
563.442789	2490.330000
563.799216	2550.823846
564.155587	2565.947308
564.511904	2470.165385
564.868164	2510.494615
565.224370	2495.371154
565.580520	2495.371154
565.936615	2437.397885
566.292654	2455.041923
566.648638	2545.782692
567.004567	2457.562500
567.360441	2598.714808
567.716260	2467.644808
568.072023	2477.727115
568.427732	2432.356731
568.783385	2533.179808
569.138982	2568.467885
569.494525	2578.550192
569.850013	2513.015192
570.205445	2520.576923
570.560823	2455.041923
570.916145	2528.138654
571.271412	2477.727115
571.626625	2485.288846
571.981782	2439.918462
572.336884	2518.056346
572.691931	2558.385577
573.046923	2477.727115
573.401860	2502.932885
573.756743	2550.823846
574.111570	2507.974038
574.466342	2507.974038
574.821059	2497.891731
575.175722	2485.288846
575.530330	2475.206538
575.884882	2568.467885
576.239380	2492.850577
576.593823	2553.344423
576.948211	2427.315577
577.302544	2442.439038
577.656823	2467.644808
578.011047	2530.659231
578.365216	2525.618077
578.719330	2482.768269
579.073389	2510.494615
579.427394	2467.644808
579.781344	2500.412308
580.135239	2457.562500
580.489080	2555.865000
580.842866	2460.083077
581.196597	2472.685962
581.550273	2510.494615
581.903895	2548.303269
582.257463	2442.439038
582.610975	2560.906154
582.964434	2545.782692
583.317837	2525.618077
583.671186	2497.891731
584.024481	2480.247692
584.377721	2460.083077
584.730906	2497.891731
585.084037	2507.974038
585.437113	2422.274423
585.790135	2560.906154
586.143103	2530.659231
586.496016	2573.509038
586.848874	2407.150962
587.201679	2424.795000
587.554428	2515.535769
587.907124	2520.576923
588.259765	2525.618077
588.612352	2437.397885
588.964884	2502.932885
589.317362	2502.932885
589.669786	2470.165385
590.022155	2528.138654
590.374470	2487.809423
590.726731	2485.288846
591.078937	2389.506923
591.431090	2470.165385
591.783188	2533.179808
592.135232	2422.274423
592.487222	2538.220962
592.839157	2500.412308
593.191038	2535.700385
593.542866	2490.330000
593.894639	2439.918462
594.246358	2518.056346
594.598022	2490.330000
594.949633	2472.685962
595.301190	2540.741538
595.652692	2439.918462
596.004141	2558.385577
596.355535	2444.959615
596.706876	2455.041923
597.058162	2520.576923
597.409395	2490.330000
597.760573	2543.262115
598.111698	2523.097500
598.462768	2452.521346
598.813785	2550.823846
599.164748	2550.823846
599.515657	2460.083077
599.866511	2535.700385
600.217312	2490.330000
600.568060	2525.618077
600.918753	2470.165385
601.269392	2530.659231
601.619978	2507.974038
601.970510	2434.877308
602.320988	2467.644808
602.671412	2455.041923
603.021783	2490.330000
603.372100	2457.562500
603.722363	2442.439038
604.072572	2563.426731
604.422728	2523.097500
604.772830	2570.988462
605.122878	2452.521346
605.472872	2520.576923
605.822813	2485.288846
606.172701	2545.782692
606.522534	2394.548077
606.872314	2545.782692
607.222041	2495.371154
607.571714	2502.932885
607.921333	2518.056346
608.270899	2432.356731
608.620411	2452.521346
608.969870	2497.891731
609.319276	2424.795000
609.668627	2432.356731
610.017926	2429.836154
610.367171	2475.206538
610.716362	2442.439038
611.065500	2447.480192
611.414585	2510.494615
611.763616	2434.877308
612.112594	2502.932885
612.461518	2434.877308
612.810389	2548.303269
613.159207	2495.371154
613.507971	2543.262115
613.856682	2480.247692
614.205340	2472.685962
614.553945	2356.739423
614.902496	2477.727115
615.250994	2480.247692
615.599439	2455.041923
615.947830	2510.494615
616.296169	2548.303269
616.644454	2548.303269
616.992686	2379.424615
617.340864	2507.974038
617.688990	2510.494615
618.037063	2528.138654
618.385082	2528.138654
618.733048	2560.906154
619.080961	2492.850577
619.428821	2500.412308
619.776628	2412.192115
620.124382	2502.932885
620.472083	2455.041923
620.819731	2540.741538
621.167326	2460.083077
621.514868	2409.671538
621.862357	2510.494615
622.209793	2452.521346
622.557176	2550.823846
622.904506	2475.206538
623.251783	2495.371154
623.599007	2450.000769
623.946179	2450.000769
624.293297	2404.630385
624.640363	2518.056346
624.987376	2538.220962
625.334336	2550.823846
625.681243	2601.235385
626.028097	2487.809423
626.374899	2568.467885
626.721647	2442.439038
627.068343	2560.906154
627.414987	2475.206538
627.761577	2477.727115
628.108115	2442.439038
628.454600	2455.041923
628.801032	2505.453462
629.147412	2523.097500
629.493739	2487.809423
629.840014	2606.276538
630.186236	2578.550192
630.532405	2442.439038
630.878521	2510.494615
631.224585	2457.562500
631.570597	2543.262115
631.916556	2447.480192
632.262462	2419.753846
632.608316	2490.330000
632.954117	2462.603654
633.299866	2470.165385
633.645562	2518.056346
633.991206	2490.330000
634.336797	2505.453462
634.682336	2399.589231
635.027823	2535.700385
635.373257	2462.603654
635.718639	2515.535769
636.063968	2578.550192
636.409245	2485.288846
636.754470	2518.056346
637.099642	2465.124231
637.444762	2497.891731
637.789829	2422.274423
638.134845	2502.932885
638.479808	2452.521346
638.824719	2437.397885
639.169577	2518.056346
639.514383	2540.741538
639.859137	2570.988462
640.203839	2576.029615
640.548489	2422.274423
640.893086	2497.891731
641.237632	2520.576923
641.582125	2535.700385
641.926566	2432.356731
642.270955	2520.576923
642.615292	2462.603654
642.959576	2510.494615
643.303809	2472.685962
643.647990	2505.453462
643.992118	2460.083077
644.336195	2576.029615
644.680219	2485.288846
645.024192	2444.959615
645.368112	2472.685962
645.711981	2560.906154
646.055797	2452.521346
646.399562	2502.932885
646.743274	2472.685962
647.086935	2555.865000
647.430544	2470.165385
647.774101	2586.111923
648.117606	2455.041923
648.461059	2490.330000
648.804460	2492.850577
649.147810	2520.576923
649.491108	2573.509038
649.834354	2497.891731
650.177548	2530.659231
650.520690	2525.618077
650.863781	2465.124231
651.206820	2540.741538
651.549807	2457.562500
651.892742	2540.741538
652.235626	2518.056346
652.578458	2523.097500
652.921238	2530.659231
653.263967	2482.768269
653.606644	2540.741538
653.949269	2497.891731
654.291843	2505.453462
654.634365	2480.247692
654.976836	2616.358846
655.319255	2510.494615
655.661622	2467.644808
656.003938	2507.974038
656.346203	2560.906154
656.688416	2422.274423
657.030577	2545.782692
657.372687	2553.344423
657.714746	2437.397885
658.056753	2399.589231
658.398708	2515.535769
658.740612	2427.315577
659.082465	2525.618077
659.424266	2523.097500
659.766016	2520.576923
660.107715	2543.262115
660.449362	2437.397885
660.790958	2513.015192
661.132503	2455.041923
661.473996	2581.070769
661.815438	2530.659231
662.156829	2558.385577
662.498168	2505.453462
662.839456	2553.344423
663.180693	2500.412308
663.521879	2545.782692
663.863013	2457.562500
664.204097	2492.850577
664.545129	2555.865000
664.886110	2495.371154
665.227040	2452.521346
665.567918	2482.768269
665.908746	2439.918462
666.249522	2507.974038
666.590248	2513.015192
666.930922	2530.659231
667.271545	2500.412308
667.612118	2520.576923
667.952639	2513.015192
668.293109	2515.535769
668.633528	2520.576923
668.973896	2429.836154
669.314213	2515.535769
669.654480	2444.959615
669.994695	2442.439038
670.334859	2455.041923
670.674973	2470.165385
671.015035	2558.385577
671.355047	2573.509038
671.695008	2495.371154
672.034918	2487.809423
672.374777	2424.795000
672.714585	2437.397885
673.054342	2560.906154
673.394049	2523.097500
673.733705	2502.932885
674.073310	2568.467885
674.412864	2518.056346
674.752368	2550.823846
675.091820	2485.288846
675.431223	2485.288846
675.770574	2432.356731
676.109875	2477.727115
676.449125	2525.618077
676.788324	2477.727115
677.127473	2533.179808
677.466571	2545.782692
677.805619	2518.056346
678.144616	2402.109808
678.483562	2502.932885
678.822458	2530.659231
679.161303	2533.179808
679.500098	2437.397885
679.838842	2550.823846
680.177535	2475.206538
680.516179	2409.671538
680.854771	2399.589231
681.193314	2502.932885
681.531805	2490.330000
681.870247	2452.521346
682.208638	2424.795000
682.546978	2465.124231
682.885268	2485.288846
683.223508	2495.371154
683.561697	2515.535769
683.899836	2568.467885
684.237925	2412.192115
684.575963	2543.262115
684.913951	2457.562500
685.251889	2487.809423
685.589776	2497.891731
685.927614	2520.576923
686.265401	2419.753846
686.603137	2578.550192
686.940824	2523.097500
687.278460	2538.220962
687.616046	2500.412308
687.953582	2470.165385
688.291068	2507.974038
688.628504	2581.070769
688.965889	2467.644808
689.303224	2424.795000
689.640510	2510.494615
689.977745	2644.085192
690.314930	2470.165385
690.652065	2518.056346
690.989150	2487.809423
691.326185	2525.618077
691.663170	2480.247692
692.000105	2560.906154
692.336990	2518.056346
692.673825	2523.097500
693.010610	2432.356731
693.347345	2460.083077
693.684030	2560.906154
694.020665	2457.562500
694.357251	2495.371154
694.693786	2460.083077
695.030272	2550.823846
695.366707	2455.041923
695.703093	2507.974038
696.039429	2437.397885
696.375716	2520.576923
696.711952	2374.383462
697.048139	2518.056346
697.384276	2573.509038
697.720363	2563.426731
698.056400	2520.576923
698.392388	2482.768269
698.728326	2502.932885
699.064214	2490.330000
699.400053	2490.330000
699.735842	2565.947308
700.071581	2444.959615
700.407270	2565.947308
700.742910	2570.988462
701.078501	2465.124231
701.414042	2553.344423
701.749533	2563.426731
702.084974	2487.809423
702.420366	2500.412308
702.755709	2467.644808
703.091002	2439.918462
703.426246	2460.083077
703.761440	2432.356731
704.096584	2515.535769
704.431679	2417.233269
704.766725	2424.795000
705.101721	2460.083077
705.436668	2460.083077
705.771565	2538.220962
706.106413	2497.891731
706.441212	2497.891731
706.775961	2515.535769
707.110661	2500.412308
707.445311	2513.015192
707.779913	2452.521346
708.114465	2513.015192
708.448967	2477.727115
708.783421	2510.494615
709.117825	2576.029615
709.452180	2545.782692
709.786485	2475.206538
710.120742	2492.850577
710.454949	2439.918462
710.789107	2477.727115
711.123216	2533.179808
711.457275	2533.179808
711.791286	2500.412308
712.125247	2530.659231
712.459159	2502.932885
712.793023	2480.247692
713.126837	2495.371154
713.460602	2460.083077
713.794318	2500.412308
714.127985	2515.535769
714.461602	2439.918462
714.795171	2533.179808
715.128691	2490.330000
715.462162	2555.865000
715.795584	2502.932885
716.128957	2545.782692
716.462281	2470.165385
716.795556	2465.124231
717.128782	2482.768269
717.461960	2530.659231
717.795088	2462.603654
718.128167	2586.111923
718.461198	2427.315577
718.794180	2485.288846
719.127113	2510.494615
719.459997	2555.865000
719.792833	2507.974038
720.125619	2477.727115
720.458357	2472.685962
720.791046	2495.371154
721.123686	2538.220962
721.456278	2598.714808
721.788821	2477.727115
722.121315	2545.782692
722.453761	2462.603654
722.786158	2482.768269
723.118506	2417.233269
723.450805	2513.015192
723.783056	2513.015192
724.115259	2500.412308
724.447412	2439.918462
724.779518	2548.303269
725.111574	2429.836154
725.443582	2510.494615
725.775542	2510.494615
726.107453	2510.494615
726.439315	2553.344423
726.771129	2525.618077
727.102895	2424.795000
727.434612	2510.494615
727.766281	2399.589231
728.097901	2505.453462
728.429473	2497.891731
728.760996	2492.850577
729.092471	2444.959615
729.423897	2535.700385
729.755276	2513.015192
730.086606	2543.262115
730.417887	2505.453462
730.749120	2558.385577
731.080305	2538.220962
731.411442	2439.918462
731.742530	2455.041923
732.073570	2432.356731
732.404562	2497.891731
732.735506	2467.644808
733.066401	2530.659231
733.397249	2467.644808
733.728048	2434.877308
734.058798	2432.356731
734.389501	2412.192115
734.720156	2414.712692
735.050762	2482.768269
735.381320	2528.138654
735.711831	2470.165385
736.042293	2475.206538
736.372707	2427.315577
736.703073	2515.535769
737.033391	2417.233269
737.363661	2520.576923
737.693883	2507.974038
738.024056	2482.768269
738.354182	2472.685962
738.684260	2583.591346
739.014290	2525.618077
739.344272	2502.932885
739.674207	2450.000769
740.004093	2455.041923
740.333931	2505.453462
740.663722	2427.315577
740.993464	2535.700385
741.323159	2505.453462
741.652806	2502.932885
741.982405	2487.809423
742.311956	2538.220962
742.641460	2452.521346
742.970915	2563.426731
743.300323	2500.412308
743.629683	2437.397885
743.958996	2513.015192
744.288260	2565.947308
744.617477	2460.083077
744.946647	2465.124231
745.275768	2573.509038
745.604842	2515.535769
745.933869	2472.685962
746.262847	2480.247692
746.591778	2528.138654
746.920662	2525.618077
747.249498	2518.056346
747.578286	2480.247692
747.907027	2500.412308
748.235720	2558.385577
748.564365	2467.644808
748.892963	2472.685962
749.221514	2384.465769
749.550017	2525.618077
749.878473	2487.809423
750.206881	2482.768269
750.535242	2490.330000
750.863555	2553.344423
751.191821	2538.220962
751.520039	2523.097500
751.848210	2470.165385
752.176334	2480.247692
752.504411	2460.083077
752.832440	2543.262115
753.160421	2500.412308
753.488356	2505.453462
753.816243	2465.124231
754.144082	2570.988462
754.471875	2480.247692
754.799620	2520.576923
755.127318	2523.097500
755.454969	2548.303269
755.782572	2500.412308
756.110129	2495.371154
756.437638	2485.288846
756.765100	2555.865000
757.092515	2402.109808
757.419882	2480.247692
757.747203	2442.439038
758.074477	2513.015192
758.401703	2452.521346
758.728882	2485.288846
759.056014	2535.700385
759.383099	2500.412308
759.710138	2515.535769
760.037129	2434.877308
760.364073	2467.644808
760.690970	2543.262115
761.017820	2560.906154
761.344623	2477.727115
761.671379	2482.768269
761.998088	2432.356731
762.324751	2444.959615
762.651366	2480.247692
762.977935	2548.303269
763.304456	2450.000769
763.630931	2576.029615
763.957359	2472.685962
764.283740	2439.918462
764.610074	2523.097500
764.936362	2480.247692
765.262602	2457.562500
765.588796	2475.206538
765.914943	2570.988462
766.241044	2450.000769
766.567097	2505.453462
766.893104	2497.891731
767.219064	2507.974038
767.544978	2450.000769
767.870845	2389.506923
768.196665	2543.262115
768.522438	2447.480192
768.848165	2528.138654
769.173846	2555.865000
769.499479	2535.700385
769.825066	2535.700385
770.150607	2523.097500
770.476101	2513.015192
770.801548	2442.439038
771.126949	2533.179808
771.452303	2447.480192
771.777611	2450.000769
772.102872	2565.947308
772.428087	2490.330000
772.753256	2550.823846
773.078378	2487.809423
773.403453	2500.412308
773.728482	2407.150962
774.053465	2450.000769
774.378401	2460.083077
774.703291	2523.097500
775.028135	2470.165385
775.352932	2513.015192
775.677683	2470.165385
776.002388	2520.576923
776.327046	2480.247692
776.651658	2444.959615
776.976224	2475.206538
777.300743	2540.741538
777.625216	2439.918462
777.949643	2520.576923
778.274024	2457.562500
778.598359	2543.262115
778.922647	2485.288846
779.246889	2530.659231
779.571086	2510.494615
779.895236	2467.644808
780.219339	2444.959615
780.543397	2487.809423
780.867409	2490.330000
781.191374	2500.412308
781.515294	2447.480192
781.839167	2462.603654
782.162995	2467.644808
782.486776	2535.700385
782.810511	2414.712692
783.134201	2487.809423
783.457844	2525.618077
783.781441	2502.932885
784.104993	2543.262115
784.428498	2467.644808
784.751958	2442.439038
785.075372	2553.344423
785.398739	2520.576923
785.722061	2475.206538
786.045337	2412.192115
786.368568	2540.741538
786.691752	2515.535769
787.014891	2434.877308
787.337983	2452.521346
787.661030	2530.659231
787.984031	2490.330000
788.306987	2533.179808
788.629897	2528.138654
788.952760	2434.877308
789.275579	2500.412308
789.598351	2465.124231
789.921078	2490.330000
790.243759	2457.562500
790.566395	2568.467885
790.888984	2450.000769
791.211529	2513.015192
791.534027	2444.959615
791.856480	2528.138654
792.178888	2447.480192
792.501249	2530.659231
792.823566	2439.918462
793.145836	2487.809423
793.468062	2497.891731
793.790241	2467.644808
794.112375	2460.083077
794.434464	2485.288846
794.756507	2482.768269
795.078505	2502.932885
795.400457	2487.809423
795.722364	2510.494615
796.044226	2472.685962
796.366042	2485.288846
796.687812	2525.618077
797.009538	2513.015192
797.331218	2520.576923
797.652852	2515.535769
797.974442	2397.068654
798.295986	2553.344423
798.617484	2475.206538
798.938938	2520.576923
799.260346	2462.603654
799.581709	2553.344423
799.903026	2460.083077
800.224299	2528.138654
800.545526	2520.576923
800.866708	2510.494615
801.187845	2429.836154
801.508936	2535.700385
801.829983	2492.850577
802.150984	2505.453462
802.471940	2465.124231
802.792851	2505.453462
803.113717	2548.303269
803.434538	2515.535769
803.755314	2462.603654
804.076045	2477.727115
804.396731	2482.768269
804.717372	2558.385577
805.037967	2583.591346
805.358518	2455.041923
805.679024	2528.138654
805.999485	2530.659231
806.319901	2487.809423
806.640272	2550.823846
806.960598	2447.480192
807.280879	2492.850577
807.601115	2465.124231
807.921306	2538.220962
808.241453	2530.659231
808.561554	2462.603654
808.881611	2495.371154
809.201623	2513.015192
809.521590	2558.385577
809.841513	2540.741538
810.161390	2475.206538
810.481223	2558.385577
810.801011	2470.165385
811.120755	2518.056346
811.440453	2560.906154
811.760107	2523.097500
812.079716	2462.603654
812.399281	2500.412308
812.718801	2507.974038
813.038276	2475.206538
813.357707	2495.371154
813.677093	2500.412308
813.996434	2480.247692
814.315731	2462.603654
814.634983	2462.603654
814.954191	2518.056346
815.273354	2525.618077
815.592473	2480.247692
815.911547	2444.959615
816.230577	2424.795000
816.549562	2543.262115
816.868502	2553.344423
817.187399	2601.235385
817.506250	2447.480192
817.825058	2507.974038
818.143821	2465.124231
818.462539	2560.906154
818.781213	2465.124231
819.099843	2553.344423
819.418429	2437.397885
819.736970	2462.603654
820.055466	2450.000769
820.373919	2502.932885
820.692327	2439.918462
821.010691	2502.932885
821.329011	2500.412308
821.647286	2535.700385
821.965517	2520.576923
822.283704	2500.412308
822.601847	2444.959615
822.919945	2505.453462
823.237999	2467.644808
823.556010	2444.959615
823.873976	2520.576923
824.191897	2492.850577
824.509775	2533.179808
824.827609	2533.179808
825.145398	2513.015192
825.463144	2470.165385
825.780845	2475.206538
826.098502	2460.083077
826.416116	2500.412308
826.733685	2490.330000
827.051210	2485.288846
827.368692	2432.356731
827.686129	2434.877308
828.003522	2525.618077
828.320872	2434.877308
828.638177	2442.439038
828.955439	2465.124231
829.272656	2528.138654
829.589830	2467.644808
829.906960	2573.509038
830.224046	2520.576923
830.541088	2538.220962
830.858086	2472.685962
831.175041	2492.850577
831.491952	2389.506923
831.808819	2465.124231
832.125642	2538.220962
832.442421	2475.206538
832.759157	2520.576923
833.075849	2424.795000
833.392497	2558.385577
833.709101	2492.850577
834.025662	2502.932885
834.342179	2475.206538
834.658653	2472.685962
834.975083	2507.974038
835.291469	2399.589231
835.607811	2500.412308
835.924110	2407.150962
836.240366	2475.206538
836.556578	2492.850577
836.872746	2399.589231
837.188871	2520.576923
837.504952	2528.138654
837.820990	2518.056346
838.136984	2444.959615
838.452935	2480.247692
838.768842	2570.988462
839.084706	2513.015192
839.400526	2482.768269
839.716303	2482.768269
840.032037	2465.124231
840.347727	2465.124231
840.663373	2606.276538
840.978977	2500.412308
841.294537	2606.276538
841.610054	2548.303269
841.925527	2513.015192
842.240957	2462.603654
842.556344	2455.041923
842.871687	2558.385577
843.186987	2502.932885
843.502244	2525.618077
843.817458	2540.741538
844.132629	2553.344423
844.447756	2462.603654
844.762840	2490.330000
845.077881	2472.685962
845.392879	2470.165385
845.707833	2470.165385
846.022745	2621.400000
846.337613	2475.206538
846.652438	2576.029615
846.967221	2450.000769
847.281960	2520.576923
847.596656	2550.823846
847.911309	2583.591346
848.225919	2477.727115
848.540485	2515.535769
848.855009	2444.959615
849.169490	2480.247692
849.483928	2434.877308
849.798323	2422.274423
850.112675	2457.562500
850.426984	2487.809423
850.741251	2510.494615
851.055474	2497.891731
851.369654	2540.741538
851.683792	2528.138654
851.997887	2477.727115
852.311938	2545.782692
852.625947	2497.891731
852.939914	2586.111923
853.253837	2543.262115
853.567718	2402.109808
853.881555	2477.727115
854.195350	2442.439038
854.509103	2472.685962
854.822812	2515.535769
855.136479	2510.494615
855.450103	2533.179808
855.763685	2500.412308
856.077224	2480.247692
856.390720	2467.644808
856.704173	2419.753846
857.017584	2550.823846
857.330953	2505.453462
857.644278	2465.124231
857.957561	2538.220962
858.270802	2550.823846
858.584000	2419.753846
858.897155	2538.220962
859.210268	2392.027500
859.523339	2477.727115
859.836367	2535.700385
860.149352	2500.412308
860.462295	2472.685962
860.775195	2505.453462
861.088054	2417.233269
861.400869	2447.480192
861.713642	2424.795000
862.026373	2465.124231
862.339062	2487.809423
862.651708	2462.603654
862.964312	2497.891731
863.276873	2492.850577
863.589392	2487.809423
863.901869	2548.303269
864.214303	2455.041923
864.526696	2502.932885
864.839045	2409.671538
865.151353	2523.097500
865.463619	2472.685962
865.775842	2528.138654
866.088023	2414.712692
866.400162	2429.836154
866.712258	2535.700385
867.024313	2485.288846
867.336325	2563.426731
867.648296	2497.891731
867.960224	2550.823846
868.272110	2492.850577
868.583954	2538.220962
868.895755	2565.947308
869.207515	2487.809423
869.519233	2439.918462
869.830909	2525.618077
870.142542	2472.685962
870.454134	2543.262115
870.765684	2487.809423
871.077191	2500.412308
871.388657	2492.850577
871.700081	2530.659231
872.011463	2540.741538
872.322803	2548.303269
872.634101	2470.165385
872.945357	2540.741538
873.256571	2424.795000
873.567744	2495.371154
873.878874	2477.727115
874.189963	2475.206538
874.501010	2545.782692
874.812015	2452.521346
875.122979	2548.303269
875.433900	2628.961731
875.744780	2543.262115
876.055618	2462.603654
876.366415	2520.576923
876.677169	2538.220962
876.987882	2412.192115
877.298554	2485.288846
877.609183	2535.700385
877.919771	2525.618077
878.230317	2447.480192
878.540822	2500.412308
878.851285	2507.974038
879.161707	2523.097500
879.472087	2568.467885
879.782425	2457.562500
880.092722	2465.124231
880.402977	2523.097500
880.713191	2409.671538
881.023363	2518.056346
881.333494	2507.974038
881.643583	2523.097500
881.953631	2485.288846
882.263637	2555.865000
882.573602	2457.562500
882.883526	2482.768269
883.193408	2490.330000
883.503248	2492.850577
883.813048	2568.467885
884.122806	2513.015192
884.432522	2404.630385
884.742197	2450.000769
885.051831	2535.700385
885.361424	2543.262115
885.670975	2455.041923
885.980485	2553.344423
886.289954	2490.330000
886.599382	2447.480192
886.908768	2510.494615
887.218113	2462.603654
887.527417	2409.671538
887.836680	2545.782692
888.145901	2462.603654
888.455082	2535.700385
888.764221	2424.795000
889.073319	2404.630385
889.382376	2502.932885
889.691392	2480.247692
890.000366	2502.932885
890.309300	2412.192115
890.618193	2513.015192
890.927044	2475.206538
891.235855	2480.247692
891.544625	2480.247692
891.853353	2480.247692
892.162041	2439.918462
892.470687	2492.850577
892.779293	2520.576923
893.087858	2444.959615
893.396381	2455.041923
893.704864	2495.371154
894.013306	2485.288846
894.321707	2510.494615
894.630068	2502.932885
894.938387	2528.138654
895.246665	2472.685962
895.554903	2507.974038
895.863100	2530.659231
896.171256	2450.000769
896.479371	2422.274423
896.787446	2480.247692
897.095480	2447.480192
897.403473	2475.206538
897.711425	2439.918462
898.019336	2505.453462
898.327207	2475.206538
898.635038	2513.015192
898.942827	2447.480192
899.250576	2525.618077
899.558284	2497.891731
899.865952	2502.932885
900.173579	2460.083077
900.481165	2482.768269
900.788711	2457.562500
901.096216	2482.768269
901.403681	2490.330000
901.711105	2444.959615
902.018489	2394.548077
902.325832	2492.850577
902.633135	2550.823846
902.940397	2465.124231
903.247619	2381.945192
903.554800	2487.809423
903.861941	2490.330000
904.169041	2490.330000
904.476101	2487.809423
904.783121	2434.877308
905.090100	2417.233269
905.397039	2455.041923
905.703938	2586.111923
906.010796	2457.562500
906.317614	2432.356731
906.624391	2452.521346
906.931129	2492.850577
907.237826	2502.932885
907.544483	2371.862885
907.851099	2545.782692
908.157675	2465.124231
908.464211	2545.782692
908.770707	2520.576923
909.077163	2404.630385
909.383578	2563.426731
909.689954	2477.727115
909.996289	2497.891731
910.302584	2560.906154
910.608839	2502.932885
910.915054	2485.288846
911.221229	2487.809423
911.527363	2543.262115
911.833458	2500.412308
912.139513	2414.712692
912.445527	2477.727115
912.751502	2467.644808
913.057436	2520.576923
913.363331	2439.918462
913.669186	2442.439038
913.975000	2487.809423
914.280775	2457.562500
914.586510	2460.083077
914.892205	2550.823846
915.197859	2460.083077
915.503475	2513.015192
915.809050	2528.138654
916.114585	2520.576923
916.420081	2460.083077
916.725536	2485.288846
917.030952	2444.959615
917.336328	2452.521346
917.641665	2424.795000
917.946961	2520.576923
918.252218	2467.644808
918.557435	2513.015192
918.862612	2586.111923
919.167750	2502.932885
919.472848	2439.918462
919.777906	2482.768269
920.082925	2470.165385
920.387904	2523.097500
920.692843	2520.576923
920.997743	2560.906154
921.302603	2465.124231
921.607423	2581.070769
921.912204	2369.342308
922.216946	2505.453462
922.521647	2540.741538
922.826310	2538.220962
923.130932	2505.453462
923.435516	2404.630385
923.740059	2412.192115
924.044564	2515.535769
924.349028	2548.303269
924.653454	2543.262115
924.957840	2452.521346
925.262186	2460.083077
925.566493	2543.262115
925.870761	2482.768269
926.174989	2485.288846
926.479178	2480.247692
926.783328	2555.865000
927.087438	2485.288846
927.391509	2515.535769
927.695541	2477.727115
927.999533	2450.000769
928.303486	2457.562500
928.607400	2437.397885
928.911275	2487.809423
929.215110	2507.974038
929.518906	2460.083077
929.822663	2528.138654
930.126381	2452.521346
930.430060	2462.603654
930.733699	2397.068654
931.037299	2475.206538
931.340861	2528.138654
931.644383	2450.000769
931.947866	2540.741538
932.251309	2457.562500
932.554714	2528.138654
932.858080	2523.097500
933.161407	2444.959615
933.464694	2550.823846
933.767943	2487.809423
934.071153	2613.838269
934.374323	2475.206538
934.677455	2553.344423
934.980548	2424.795000
935.283602	2507.974038
935.586617	2470.165385
935.889593	2507.974038
936.192530	2560.906154
936.495428	2497.891731
936.798287	2422.274423
937.101108	2465.124231
937.403890	2558.385577
937.706632	2500.412308
938.009336	2563.426731
938.312002	2460.083077
938.614628	2482.768269
938.917216	2417.233269
939.219765	2399.589231
939.522275	2535.700385
939.824747	2485.288846
940.127179	2520.576923
940.429573	2553.344423
940.731929	2570.988462
941.034246	2462.603654
941.336524	2513.015192
941.638763	2480.247692
941.940964	2475.206538
942.243126	2505.453462
942.545250	2485.288846
942.847335	2500.412308
943.149381	2480.247692
943.451389	2502.932885
943.753359	2452.521346
944.055290	2417.233269
944.357182	2525.618077
944.659036	2439.918462
944.960851	2490.330000
945.262628	2555.865000
945.564367	2523.097500
945.866067	2538.220962
946.167729	2500.412308
946.469352	2444.959615
946.770937	2558.385577
947.072484	2470.165385
947.373992	2513.015192
947.675462	2495.371154
947.976893	2457.562500
948.278286	2528.138654
948.579641	2490.330000
948.880958	2450.000769
949.182236	2462.603654
949.483476	2442.439038
949.784678	2492.850577
950.085841	2460.083077
950.386967	2545.782692
950.688054	2510.494615
950.989103	2560.906154
951.290114	2475.206538
951.591087	2429.836154
951.892021	2437.397885
952.192917	2515.535769
952.493776	2520.576923
952.794596	2492.850577
953.095378	2500.412308
953.396122	2467.644808
953.696828	2417.233269
953.997496	2460.083077
954.298126	2505.453462
954.598718	2480.247692
954.899272	2482.768269
955.199788	2422.274423
955.500266	2470.165385
955.800706	2432.356731
956.101108	2444.959615
956.401472	2455.041923
956.701798	2414.712692
957.002087	2450.000769
957.302337	2455.041923
957.602550	2568.467885
957.902724	2518.056346
958.202861	2518.056346
958.502960	2450.000769
958.803022	2507.974038
959.103045	2437.397885
959.403031	2472.685962
959.702979	2553.344423
960.002889	2520.576923
960.302762	2452.521346
960.602596	2477.727115
960.902393	2576.029615
961.202153	2560.906154
961.501875	2565.947308
961.801559	2480.247692
962.101205	2487.809423
962.400814	2487.809423
962.700385	2500.412308
962.999918	2543.262115
963.299414	2570.988462
963.598873	2502.932885
963.898293	2548.303269
964.197677	2444.959615
964.497022	2490.330000
964.796331	2434.877308
965.095601	2540.741538
965.394835	2548.303269
965.694030	2497.891731
965.993189	2565.947308
966.292309	2563.426731
966.591393	2591.153077
966.890439	2548.303269
967.189447	2513.015192
967.488419	2452.521346
967.787353	2555.865000
968.086249	2444.959615
968.385108	2462.603654
968.683930	2450.000769
968.982714	2545.782692
969.281462	2548.303269
969.580172	2533.179808
969.878844	2490.330000
970.177480	2505.453462
970.476078	2543.262115
970.774639	2543.262115
971.073162	2475.206538
971.371649	2485.288846
971.670098	2462.603654
971.968510	2419.753846
972.266885	2505.453462
972.565223	2472.685962
972.863524	2492.850577
973.161788	2500.412308
973.460014	2555.865000
973.758204	2518.056346
974.056356	2515.535769
974.354471	2555.865000
974.652550	2349.177692
974.950591	2467.644808
975.248595	2502.932885
975.546563	2518.056346
975.844493	2533.179808
976.142386	2475.206538
976.440243	2482.768269
976.738062	2515.535769
977.035845	2457.562500
977.333590	2495.371154
977.631299	2497.891731
977.928971	2480.247692
978.226606	2447.480192
978.524204	2482.768269
978.821765	2467.644808
979.119290	2518.056346
979.416777	2505.453462
979.714228	2442.439038
980.011642	2470.165385
980.309020	2492.850577
980.606360	2452.521346
980.903664	2467.644808
981.200931	2429.836154
981.498162	2485.288846
981.795356	2480.247692
982.092513	2439.918462
982.389633	2513.015192
982.686717	2480.247692
982.983764	2502.932885
983.280775	2540.741538
983.577749	2475.206538
983.874686	2520.576923
984.171587	2495.371154
984.468451	2500.412308
984.765279	2525.618077
985.062070	2583.591346
985.358824	2419.753846
985.655543	2457.562500
985.952224	2520.576923
986.248869	2482.768269
986.545478	2500.412308
986.842050	2520.576923
987.138586	2467.644808
987.435086	2490.330000
987.731549	2455.041923
988.027975	2490.330000
988.324366	2460.083077
988.620719	2487.809423
988.917037	2520.576923
989.213318	2487.809423
989.509563	2525.618077
989.805772	2485.288846
990.101944	2472.685962
990.398080	2475.206538
990.694180	2482.768269
990.990244	2452.521346
991.286271	2502.932885
991.582262	2500.412308
991.878217	2538.220962
992.174136	2444.959615
992.470019	2475.206538
992.765865	2485.288846
993.061676	2470.165385
993.357450	2437.397885
993.653188	2492.850577
993.948890	2477.727115
994.244556	2523.097500
994.540186	2510.494615
994.835780	2386.986346
995.131337	2485.288846
995.426859	2507.974038
995.722345	2439.918462
996.017795	2465.124231
996.313208	2513.015192
996.608586	2482.768269
996.903928	2497.891731
997.199234	2460.083077
997.494504	2457.562500
997.789738	2490.330000
998.084936	2434.877308
998.380099	2543.262115
998.675225	2450.000769
998.970316	2462.603654
999.265371	2455.041923
999.560390	2502.932885
999.855373	2505.453462
1000.150320	2500.412308
1000.445232	2460.083077
1000.740108	2482.768269
1001.034948	2505.453462
1001.329752	2538.220962
1001.624521	2550.823846
1001.919254	2520.576923
1002.213951	2520.576923
1002.508613	2518.056346
1002.803239	2452.521346
1003.097829	2505.453462
1003.392384	2465.124231
1003.686903	2485.288846
1003.981386	2482.768269
1004.275834	2530.659231
1004.570246	2543.262115
1004.864623	2543.262115
1005.158964	2477.727115
1005.453270	2450.000769
1005.747540	2520.576923
1006.041775	2535.700385
1006.335974	2480.247692
1006.630138	2523.097500
1006.924266	2465.124231
1007.218359	2480.247692
1007.512416	2442.439038
1007.806438	2460.083077
1008.100425	2495.371154
1008.394376	2452.521346
1008.688292	2550.823846
1008.982172	2510.494615
1009.276017	2535.700385
1009.569827	2381.945192
1009.863602	2515.535769
1010.157341	2550.823846
1010.451045	2450.000769
1010.744714	2442.439038
1011.038347	2581.070769
1011.331945	2507.974038
1011.625508	2439.918462
1011.919036	2505.453462
1012.212528	2505.453462
1012.505986	2525.618077
1012.799408	2487.809423
1013.092795	2434.877308
1013.386147	2548.303269
1013.679464	2477.727115
1013.972745	2528.138654
1014.265992	2482.768269
1014.559204	2553.344423
1014.852380	2457.562500
1015.145521	2447.480192
1015.438628	2492.850577
1015.731699	2530.659231
1016.024736	2414.712692
1016.317737	2472.685962
1016.610703	2533.179808
1016.903635	2505.453462
1017.196531	2581.070769
1017.489393	2447.480192
1017.782219	2470.165385
1018.075011	2495.371154
1018.367768	2513.015192
1018.660490	2424.795000
1018.953177	2424.795000
1019.245829	2424.795000
