Dividing Wavelength (nm)	Counts (n)	Blue Motor Position (mm): 0.000000	Red Motor Position (mm): 7.900000	
326.493990	2142.490385
326.888308	2142.490385
327.282561	2142.490385
327.676750	2066.873077
328.070874	2081.996538
328.464933	2074.434808
328.858929	2079.475962
329.252859	2061.831923
329.646726	2006.379231
330.040528	2054.270192
330.434265	2170.216731
330.827938	2142.490385
331.221547	2139.969808
331.615091	2172.737308
332.008571	2225.669423
332.401986	2202.984231
332.795338	2245.834038
333.188625	2223.148846
333.581847	2250.875192
333.975006	2326.492500
334.368100	2225.669423
334.761129	2291.204423
335.154095	2407.150962
335.546996	2329.013077
335.939833	2366.821731
336.332606	2281.122115
336.725315	2364.301154
337.117960	2311.369038
337.510540	2334.054231
337.903056	2386.986346
338.295508	2480.247692
338.687896	2462.603654
339.080220	2480.247692
339.472480	2442.439038
339.864676	2492.850577
340.256807	2460.083077
340.648875	2535.700385
341.040879	2480.247692
341.432818	2444.959615
341.824694	2475.206538
342.216506	2530.659231
342.608253	2427.315577
342.999937	2525.618077
343.391557	2487.809423
343.783113	2467.644808
344.174605	2570.988462
344.566033	2513.015192
344.957397	2442.439038
345.348697	2513.015192
345.739934	2392.027500
346.131106	2520.576923
346.522215	2384.465769
346.913260	2465.124231
347.304241	2480.247692
347.695159	2490.330000
348.086012	2525.618077
348.476802	2477.727115
348.867528	2528.138654
349.258191	2439.918462
349.648789	2465.124231
350.039324	2472.685962
350.429796	2397.068654
350.820203	2477.727115
351.210548	2424.795000
351.600828	2407.150962
351.991045	2450.000769
352.381198	2437.397885
352.771288	2381.945192
353.161314	2442.439038
353.551276	2452.521346
353.941175	2394.548077
354.331010	2437.397885
354.720782	2434.877308
355.110490	2379.424615
355.500135	2359.260000
355.889717	2437.397885
356.279235	2452.521346
356.668689	2467.644808
357.058080	2339.095385
357.447408	2409.671538
357.836672	2462.603654
358.225873	2475.206538
358.615010	2472.685962
359.004084	2419.753846
359.393095	2485.288846
359.782043	2429.836154
360.170927	2427.315577
360.559748	2510.494615
360.948505	2414.712692
361.337199	2452.521346
361.725830	2424.795000
362.114398	2402.109808
362.502903	2450.000769
362.891344	2402.109808
363.279722	2450.000769
363.668037	2432.356731
364.056289	2399.589231
364.444478	2434.877308
364.832603	2505.453462
365.220665	2490.330000
365.608665	2409.671538
365.996601	2505.453462
366.384474	2371.862885
366.772284	2502.932885
367.160031	2414.712692
367.547715	2394.548077
367.935336	2447.480192
368.322893	2414.712692
368.710388	2470.165385
369.097820	2543.262115
369.485189	2392.027500
369.872495	2422.274423
370.259738	2402.109808
370.646918	2470.165385
371.034035	2475.206538
371.421090	2500.412308
371.808081	2505.453462
372.195010	2424.795000
372.581875	2455.041923
372.968678	2492.850577
373.355418	2510.494615
373.742096	2386.986346
374.128710	2523.097500
374.515262	2457.562500
374.901751	2465.124231
375.288177	2434.877308
375.674540	2467.644808
376.060841	2399.589231
376.447079	2392.027500
376.833254	2507.974038
377.219367	2422.274423
377.605417	2442.439038
377.991404	2439.918462
378.377329	2545.782692
378.763191	2417.233269
379.148991	2444.959615
379.534727	2490.330000
379.920402	2455.041923
380.306013	2533.179808
380.691563	2427.315577
381.077049	2432.356731
381.462474	2480.247692
381.847835	2502.932885
382.233134	2394.548077
382.618371	2407.150962
383.003545	2450.000769
383.388657	2455.041923
383.773706	2520.576923
384.158693	2477.727115
384.543618	2452.521346
384.928480	2409.671538
385.313280	2528.138654
385.698017	2465.124231
386.082692	2487.809423
386.467305	2490.330000
386.851856	2450.000769
387.236344	2442.439038
387.620770	2452.521346
388.005133	2523.097500
388.389435	2455.041923
388.773674	2470.165385
389.157851	2510.494615
389.541965	2480.247692
389.926018	2444.959615
390.310008	2482.768269
390.693936	2480.247692
391.077802	2500.412308
391.461606	2485.288846
391.845348	2477.727115
392.229027	2470.165385
392.612645	2490.330000
392.996200	2439.918462
393.379694	2407.150962
393.763125	2447.480192
394.146494	2419.753846
394.529801	2510.494615
394.913047	2349.177692
395.296230	2402.109808
395.679351	2422.274423
396.062410	2485.288846
396.445408	2555.865000
396.828343	2480.247692
397.211217	2505.453462
397.594028	2555.865000
397.976778	2462.603654
398.359466	2452.521346
398.742092	2414.712692
399.124656	2427.315577
399.507158	2492.850577
399.889598	2510.494615
400.271977	2450.000769
400.654294	2507.974038
401.036549	2432.356731
401.418742	2460.083077
401.800874	2480.247692
402.182944	2439.918462
402.564952	2477.727115
402.946898	2490.330000
403.328783	2510.494615
403.710606	2485.288846
404.092367	2465.124231
404.474067	2442.439038
404.855705	2500.412308
405.237282	2455.041923
405.618797	2507.974038
406.000250	2528.138654
406.381642	2444.959615
406.762972	2490.330000
407.144240	2467.644808
407.525447	2492.850577
407.906593	2457.562500
408.287677	2573.509038
408.668700	2439.918462
409.049661	2412.192115
409.430560	2565.947308
409.811399	2457.562500
410.192176	2439.918462
410.572891	2586.111923
410.953545	2460.083077
411.334138	2437.397885
411.714669	2467.644808
412.095139	2414.712692
412.475547	2533.179808
412.855894	2485.288846
413.236180	2442.439038
413.616405	2497.891731
413.996568	2533.179808
414.376670	2510.494615
414.756711	2427.315577
415.136691	2419.753846
415.516609	2457.562500
415.896466	2429.836154
416.276262	2460.083077
416.655997	2392.027500
417.035670	2495.371154
417.415283	2442.439038
417.794834	2460.083077
418.174324	2470.165385
418.553753	2485.288846
418.933121	2518.056346
419.312428	2470.165385
419.691674	2429.836154
420.070859	2434.877308
420.449983	2492.850577
420.829045	2482.768269
421.208047	2535.700385
421.586988	2500.412308
421.965867	2533.179808
422.344686	2510.494615
422.723444	2434.877308
423.102141	2518.056346
423.480777	2515.535769
423.859352	2480.247692
424.237866	2470.165385
424.616319	2427.315577
424.994712	2502.932885
425.373044	2442.439038
425.751314	2495.371154
426.129524	2465.124231
426.507673	2462.603654
426.885762	2429.836154
427.263789	2490.330000
427.641756	2447.480192
428.019662	2513.015192
428.397508	2485.288846
428.775292	2434.877308
429.153016	2414.712692
429.530679	2477.727115
429.908282	2495.371154
430.285824	2518.056346
430.663305	2442.439038
431.040726	2563.426731
431.418086	2452.521346
431.795385	2392.027500
432.172624	2432.356731
432.549802	2490.330000
432.926920	2455.041923
433.303977	2414.712692
433.680974	2646.605769
434.057910	2495.371154
434.434786	2450.000769
434.811601	2447.480192
435.188355	2482.768269
435.565050	2381.945192
435.941683	2492.850577
436.318257	2535.700385
436.694770	2412.192115
437.071222	2495.371154
437.447614	2510.494615
437.823946	2465.124231
438.200218	2447.480192
438.576429	2545.782692
438.952580	2462.603654
439.328670	2460.083077
439.704700	2412.192115
440.080670	2528.138654
440.456580	2457.562500
440.832429	2475.206538
441.208218	2439.918462
441.583947	2399.589231
441.959616	2452.521346
442.335224	2497.891731
442.710773	2513.015192
443.086261	2495.371154
443.461689	2429.836154
443.837057	2485.288846
444.212365	2472.685962
444.587612	2510.494615
444.962800	2558.385577
445.337927	2470.165385
445.712995	2533.179808
446.088002	2520.576923
446.462949	2505.453462
446.837837	2442.439038
447.212664	2530.659231
447.587431	2490.330000
447.962139	2510.494615
448.336786	2502.932885
448.711374	2419.753846
449.085901	2460.083077
449.460369	2490.330000
449.834776	2480.247692
450.209124	2399.589231
450.583412	2520.576923
450.957640	2444.959615
451.331808	2470.165385
451.705917	2470.165385
452.079965	2460.083077
452.453954	2470.165385
452.827883	2497.891731
453.201752	2565.947308
453.575562	2565.947308
453.949311	2495.371154
454.323001	2530.659231
454.696632	2442.439038
455.070202	2507.974038
455.443713	2437.397885
455.817164	2442.439038
456.190556	2414.712692
456.563888	2505.453462
456.937160	2427.315577
457.310373	2538.220962
457.683526	2414.712692
458.056619	2457.562500
458.429653	2548.303269
458.802628	2477.727115
459.175542	2452.521346
459.548398	2487.809423
459.921194	2417.233269
460.293930	2502.932885
460.666607	2467.644808
461.039224	2450.000769
461.411782	2412.192115
461.784280	2492.850577
462.156719	2444.959615
462.529099	2442.439038
462.901419	2480.247692
463.273680	2555.865000
463.645882	2450.000769
464.018024	2548.303269
464.390106	2455.041923
464.762130	2555.865000
465.134094	2472.685962
465.505999	2545.782692
465.877845	2477.727115
466.249631	2507.974038
466.621358	2497.891731
466.993026	2485.288846
467.364634	2502.932885
467.736184	2558.385577
468.107674	2467.644808
468.479105	2568.467885
468.850477	2417.233269
469.221790	2490.330000
469.593043	2578.550192
469.964238	2492.850577
470.335373	2523.097500
470.706449	2507.974038
471.077467	2545.782692
471.448425	2598.714808
471.819324	2485.288846
472.190164	2530.659231
472.560945	2538.220962
472.931667	2533.179808
473.302330	2492.850577
473.672934	2487.809423
474.043479	2465.124231
474.413965	2432.356731
474.784393	2525.618077
475.154761	2555.865000
475.525070	2613.838269
475.895321	2477.727115
476.265513	2485.288846
476.635645	2553.344423
477.005719	2538.220962
477.375734	2470.165385
477.745691	2407.150962
478.115588	2472.685962
478.485427	2475.206538
478.855207	2497.891731
479.224928	2460.083077
479.594591	2533.179808
479.964194	2485.288846
480.333739	2502.932885
480.703226	2528.138654
481.072653	2540.741538
481.442022	2515.535769
481.811333	2497.891731
482.180584	2591.153077
482.549777	2548.303269
482.918912	2424.795000
483.287988	2518.056346
483.657005	2477.727115
484.025964	2455.041923
484.394864	2437.397885
484.763706	2497.891731
485.132489	2477.727115
485.501213	2523.097500
485.869879	2482.768269
486.238487	2452.521346
486.607036	2543.262115
486.975527	2568.467885
487.343959	2515.535769
487.712333	2450.000769
488.080648	2495.371154
488.448905	2525.618077
488.817104	2553.344423
489.185244	2583.591346
489.553326	2581.070769
489.921350	2518.056346
490.289315	2497.891731
490.657222	2565.947308
491.025070	2444.959615
491.392861	2570.988462
491.760593	2457.562500
492.128267	2397.068654
492.495883	2518.056346
492.863440	2487.809423
493.230939	2485.288846
493.598380	2523.097500
493.965763	2412.192115
494.333088	2482.768269
494.700354	2487.809423
495.067563	2452.521346
495.434713	2540.741538
495.801805	2424.795000
496.168839	2505.453462
496.535815	2477.727115
496.902733	2525.618077
497.269593	2470.165385
497.636395	2502.932885
498.003139	2513.015192
498.369825	2412.192115
498.736453	2462.603654
499.103023	2475.206538
499.469535	2520.576923
499.835989	2444.959615
500.202385	2515.535769
500.568723	2601.235385
500.935003	2507.974038
501.301226	2495.371154
501.667390	2452.521346
502.033497	2502.932885
502.399546	2550.823846
502.765537	2482.768269
503.131470	2518.056346
503.497345	2495.371154
503.863163	2444.959615
504.228923	2480.247692
504.594625	2530.659231
504.960269	2437.397885
505.325856	2452.521346
505.691385	2472.685962
506.056856	2439.918462
506.422270	2545.782692
506.787625	2497.891731
507.152924	2520.576923
507.518164	2515.535769
507.883347	2419.753846
508.248472	2437.397885
508.613540	2528.138654
508.978550	2465.124231
509.343503	2518.056346
509.708398	2434.877308
510.073236	2492.850577
510.438016	2523.097500
510.802738	2548.303269
511.167403	2472.685962
511.532010	2533.179808
511.896561	2530.659231
512.261053	2560.906154
512.625488	2482.768269
512.989866	2535.700385
513.354186	2525.618077
513.718449	2475.206538
514.082655	2540.741538
514.446803	2550.823846
514.810894	2462.603654
515.174927	2457.562500
515.538904	2558.385577
515.902822	2399.589231
516.266684	2470.165385
516.630488	2424.795000
516.994235	2563.426731
517.357925	2518.056346
517.721558	2404.630385
518.085133	2399.589231
518.448651	2482.768269
518.812112	2555.865000
519.175516	2437.397885
519.538863	2568.467885
519.902152	2591.153077
520.265385	2576.029615
520.628560	2497.891731
520.991678	2513.015192
521.354739	2543.262115
521.717743	2450.000769
522.080690	2543.262115
522.443580	2523.097500
522.806413	2530.659231
523.169189	2530.659231
523.531908	2530.659231
523.894569	2535.700385
524.257174	2480.247692
524.619722	2495.371154
524.982213	2495.371154
525.344647	2419.753846
525.707025	2477.727115
526.069345	2465.124231
526.431608	2533.179808
526.793815	2487.809423
527.155964	2470.165385
527.518057	2492.850577
527.880093	2492.850577
528.242072	2505.453462
528.603995	2497.891731
528.965860	2455.041923
529.327669	2500.412308
529.689421	2500.412308
530.051117	2507.974038
530.412755	2507.974038
530.774337	2477.727115
531.135862	2465.124231
531.497331	2525.618077
531.858743	2442.439038
532.220098	2437.397885
532.581396	2523.097500
532.942638	2578.550192
533.303824	2568.467885
533.664953	2505.453462
534.026025	2437.397885
534.387040	2565.947308
534.747999	2497.891731
535.108902	2502.932885
535.469748	2437.397885
535.830537	2573.509038
536.191270	2573.509038
536.551947	2543.262115
536.912567	2500.412308
537.273131	2593.673654
537.633638	2480.247692
537.994089	2475.206538
538.354483	2560.906154
538.714821	2429.836154
539.075103	2525.618077
539.435328	2515.535769
539.795497	2492.850577
540.155609	2495.371154
540.515665	2480.247692
540.875665	2442.439038
541.235609	2457.562500
541.595496	2490.330000
541.955328	2548.303269
542.315102	2495.371154
542.674821	2525.618077
543.034483	2533.179808
543.394090	2414.712692
543.753640	2513.015192
544.113134	2477.727115
544.472571	2563.426731
544.831953	2455.041923
545.191278	2538.220962
545.550548	2485.288846
545.909761	2533.179808
546.268918	2525.618077
546.628019	2457.562500
546.987064	2467.644808
547.346053	2543.262115
547.704986	2455.041923
548.063863	2457.562500
548.422684	2402.109808
548.781449	2477.727115
549.140158	2455.041923
549.498811	2558.385577
549.857408	2583.591346
550.215949	2505.453462
550.574434	2543.262115
550.932864	2482.768269
551.291237	2437.397885
551.649555	2530.659231
552.007817	2502.932885
552.366022	2490.330000
552.724173	2379.424615
553.082267	2477.727115
553.440305	2520.576923
553.798288	2450.000769
554.156215	2475.206538
554.514086	2555.865000
554.871902	2513.015192
555.229661	2510.494615
555.587365	2525.618077
555.945014	2427.315577
556.302606	2487.809423
556.660143	2485.288846
557.017625	2525.618077
557.375050	2492.850577
557.732421	2502.932885
558.089735	2548.303269
558.446994	2462.603654
558.804197	2467.644808
559.161345	2424.795000
559.518437	2525.618077
559.875474	2417.233269
560.232455	2439.918462
560.589381	2427.315577
560.946251	2472.685962
561.303065	2477.727115
561.659825	2497.891731
562.016528	2515.535769
562.373177	2412.192115
562.729770	2586.111923
563.086307	2492.850577
563.442789	2548.303269
563.799216	2533.179808
564.155587	2570.988462
564.511904	2437.397885
564.868164	2505.453462
565.224370	2412.192115
565.580520	2510.494615
565.936615	2455.041923
566.292654	2558.385577
566.648638	2462.603654
567.004567	2505.453462
567.360441	2470.165385
567.716260	2487.809423
568.072023	2533.179808
568.427732	2475.206538
568.783385	2563.426731
569.138982	2439.918462
569.494525	2447.480192
569.850013	2520.576923
570.205445	2573.509038
570.560823	2465.124231
570.916145	2470.165385
571.271412	2563.426731
571.626625	2480.247692
571.981782	2596.194231
572.336884	2497.891731
572.691931	2560.906154
573.046923	2525.618077
573.401860	2460.083077
573.756743	2427.315577
574.111570	2513.015192
574.466342	2455.041923
574.821059	2548.303269
575.175722	2581.070769
575.530330	2593.673654
575.884882	2450.000769
576.239380	2523.097500
576.593823	2553.344423
576.948211	2455.041923
577.302544	2455.041923
577.656823	2565.947308
578.011047	2576.029615
578.365216	2475.206538
578.719330	2507.974038
579.073389	2538.220962
579.427394	2422.274423
579.781344	2402.109808
580.135239	2513.015192
580.489080	2467.644808
580.842866	2487.809423
581.196597	2460.083077
581.550273	2540.741538
581.903895	2510.494615
582.257463	2543.262115
582.610975	2447.480192
582.964434	2545.782692
583.317837	2389.506923
583.671186	2581.070769
584.024481	2465.124231
584.377721	2548.303269
584.730906	2482.768269
585.084037	2510.494615
585.437113	2490.330000
585.790135	2538.220962
586.143103	2497.891731
586.496016	2485.288846
586.848874	2495.371154
587.201679	2470.165385
587.554428	2492.850577
587.907124	2533.179808
588.259765	2502.932885
588.612352	2492.850577
588.964884	2515.535769
589.317362	2510.494615
589.669786	2450.000769
590.022155	2535.700385
590.374470	2490.330000
590.726731	2482.768269
591.078937	2545.782692
591.431090	2500.412308
591.783188	2467.644808
592.135232	2520.576923
592.487222	2515.535769
592.839157	2502.932885
593.191038	2480.247692
593.542866	2452.521346
593.894639	2530.659231
594.246358	2492.850577
594.598022	2545.782692
594.949633	2470.165385
595.301190	2510.494615
595.652692	2429.836154
596.004141	2465.124231
596.355535	2568.467885
596.706876	2480.247692
597.058162	2555.865000
597.409395	2495.371154
597.760573	2538.220962
598.111698	2497.891731
598.462768	2495.371154
598.813785	2528.138654
599.164748	2457.562500
599.515657	2472.685962
599.866511	2553.344423
600.217312	2482.768269
600.568060	2472.685962
600.918753	2518.056346
601.269392	2520.576923
601.619978	2545.782692
601.970510	2465.124231
602.320988	2510.494615
602.671412	2518.056346
603.021783	2434.877308
603.372100	2472.685962
603.722363	2573.509038
604.072572	2500.412308
604.422728	2467.644808
604.772830	2467.644808
605.122878	2394.548077
605.472872	2540.741538
605.822813	2465.124231
606.172701	2548.303269
606.522534	2497.891731
606.872314	2507.974038
607.222041	2550.823846
607.571714	2422.274423
607.921333	2502.932885
608.270899	2578.550192
608.620411	2452.521346
608.969870	2545.782692
609.319276	2530.659231
609.668627	2535.700385
610.017926	2528.138654
610.367171	2505.453462
610.716362	2487.809423
611.065500	2465.124231
611.414585	2502.932885
611.763616	2492.850577
612.112594	2563.426731
612.461518	2523.097500
612.810389	2533.179808
613.159207	2530.659231
613.507971	2475.206538
613.856682	2495.371154
614.205340	2500.412308
614.553945	2586.111923
614.902496	2530.659231
615.250994	2523.097500
615.599439	2523.097500
615.947830	2621.400000
616.296169	2548.303269
616.644454	2409.671538
616.992686	2490.330000
617.340864	2500.412308
617.688990	2475.206538
618.037063	2543.262115
618.385082	2495.371154
618.733048	2465.124231
619.080961	2480.247692
619.428821	2513.015192
619.776628	2520.576923
620.124382	2487.809423
620.472083	2457.562500
620.819731	2434.877308
621.167326	2460.083077
621.514868	2480.247692
621.862357	2578.550192
622.209793	2538.220962
622.557176	2523.097500
622.904506	2505.453462
623.251783	2510.494615
623.599007	2518.056346
623.946179	2462.603654
624.293297	2485.288846
624.640363	2528.138654
624.987376	2470.165385
625.334336	2482.768269
625.681243	2485.288846
626.028097	2492.850577
626.374899	2548.303269
626.721647	2495.371154
627.068343	2490.330000
627.414987	2482.768269
627.761577	2520.576923
628.108115	2442.439038
628.454600	2533.179808
628.801032	2540.741538
629.147412	2490.330000
629.493739	2616.358846
629.840014	2389.506923
630.186236	2525.618077
630.532405	2485.288846
630.878521	2500.412308
631.224585	2381.945192
631.570597	2480.247692
631.916556	2462.603654
632.262462	2558.385577
632.608316	2525.618077
632.954117	2581.070769
633.299866	2545.782692
633.645562	2515.535769
633.991206	2502.932885
634.336797	2497.891731
634.682336	2485.288846
635.027823	2422.274423
635.373257	2543.262115
635.718639	2495.371154
636.063968	2538.220962
636.409245	2518.056346
636.754470	2576.029615
637.099642	2429.836154
637.444762	2548.303269
637.789829	2502.932885
638.134845	2487.809423
638.479808	2538.220962
638.824719	2550.823846
639.169577	2553.344423
639.514383	2414.712692
639.859137	2492.850577
640.203839	2553.344423
640.548489	2465.124231
640.893086	2565.947308
641.237632	2507.974038
641.582125	2444.959615
641.926566	2424.795000
642.270955	2518.056346
642.615292	2548.303269
642.959576	2462.603654
643.303809	2497.891731
643.647990	2482.768269
643.992118	2533.179808
644.336195	2568.467885
644.680219	2439.918462
645.024192	2538.220962
645.368112	2439.918462
645.711981	2439.918462
646.055797	2457.562500
646.399562	2525.618077
646.743274	2492.850577
647.086935	2434.877308
647.430544	2525.618077
647.774101	2507.974038
648.117606	2507.974038
648.461059	2540.741538
648.804460	2543.262115
649.147810	2528.138654
649.491108	2437.397885
649.834354	2518.056346
650.177548	2455.041923
650.520690	2470.165385
650.863781	2477.727115
651.206820	2513.015192
651.549807	2558.385577
651.892742	2528.138654
652.235626	2505.453462
652.578458	2412.192115
652.921238	2550.823846
653.263967	2497.891731
653.606644	2487.809423
653.949269	2422.274423
654.291843	2505.453462
654.634365	2485.288846
654.976836	2497.891731
655.319255	2452.521346
655.661622	2525.618077
656.003938	2472.685962
656.346203	2482.768269
656.688416	2518.056346
657.030577	2510.494615
657.372687	2573.509038
657.714746	2515.535769
658.056753	2450.000769
658.398708	2467.644808
658.740612	2510.494615
659.082465	2490.330000
659.424266	2538.220962
659.766016	2560.906154
660.107715	2472.685962
660.449362	2470.165385
660.790958	2495.371154
661.132503	2492.850577
661.473996	2475.206538
661.815438	2525.618077
662.156829	2545.782692
662.498168	2402.109808
662.839456	2510.494615
663.180693	2558.385577
663.521879	2422.274423
663.863013	2568.467885
664.204097	2515.535769
664.545129	2565.947308
664.886110	2528.138654
665.227040	2525.618077
665.567918	2467.644808
665.908746	2513.015192
666.249522	2482.768269
666.590248	2497.891731
666.930922	2437.397885
667.271545	2457.562500
667.612118	2465.124231
667.952639	2530.659231
668.293109	2553.344423
668.633528	2548.303269
668.973896	2432.356731
669.314213	2457.562500
669.654480	2480.247692
669.994695	2490.330000
670.334859	2513.015192
670.674973	2455.041923
671.015035	2497.891731
671.355047	2530.659231
671.695008	2465.124231
672.034918	2470.165385
672.374777	2528.138654
672.714585	2528.138654
673.054342	2455.041923
673.394049	2563.426731
673.733705	2490.330000
674.073310	2487.809423
674.412864	2502.932885
674.752368	2462.603654
675.091820	2485.288846
675.431223	2470.165385
675.770574	2482.768269
676.109875	2465.124231
676.449125	2434.877308
676.788324	2492.850577
677.127473	2530.659231
677.466571	2444.959615
677.805619	2583.591346
678.144616	2442.439038
678.483562	2409.671538
678.822458	2455.041923
679.161303	2528.138654
679.500098	2460.083077
679.838842	2520.576923
680.177535	2485.288846
680.516179	2583.591346
680.854771	2553.344423
681.193314	2429.836154
681.531805	2505.453462
681.870247	2427.315577
682.208638	2545.782692
682.546978	2465.124231
682.885268	2495.371154
683.223508	2487.809423
683.561697	2518.056346
683.899836	2442.439038
684.237925	2507.974038
684.575963	2442.439038
684.913951	2578.550192
685.251889	2528.138654
685.589776	2465.124231
685.927614	2513.015192
686.265401	2530.659231
686.603137	2472.685962
686.940824	2548.303269
687.278460	2482.768269
687.616046	2465.124231
687.953582	2525.618077
688.291068	2475.206538
688.628504	2492.850577
688.965889	2530.659231
689.303224	2462.603654
689.640510	2502.932885
689.977745	2467.644808
690.314930	2485.288846
690.652065	2515.535769
690.989150	2465.124231
691.326185	2470.165385
691.663170	2457.562500
692.000105	2502.932885
692.336990	2392.027500
692.673825	2518.056346
693.010610	2470.165385
693.347345	2492.850577
693.684030	2530.659231
694.020665	2480.247692
694.357251	2543.262115
694.693786	2465.124231
695.030272	2490.330000
695.366707	2555.865000
695.703093	2540.741538
696.039429	2510.494615
696.375716	2502.932885
696.711952	2520.576923
697.048139	2497.891731
697.384276	2560.906154
697.720363	2540.741538
698.056400	2500.412308
698.392388	2414.712692
698.728326	2513.015192
699.064214	2525.618077
699.400053	2540.741538
699.735842	2475.206538
700.071581	2437.397885
700.407270	2565.947308
700.742910	2528.138654
701.078501	2470.165385
701.414042	2558.385577
701.749533	2457.562500
702.084974	2573.509038
702.420366	2518.056346
702.755709	2510.494615
703.091002	2492.850577
703.426246	2507.974038
703.761440	2520.576923
704.096584	2507.974038
704.431679	2490.330000
704.766725	2535.700385
705.101721	2477.727115
705.436668	2480.247692
705.771565	2402.109808
706.106413	2404.630385
706.441212	2452.521346
706.775961	2432.356731
707.110661	2500.412308
707.445311	2465.124231
707.779913	2472.685962
708.114465	2515.535769
708.448967	2439.918462
708.783421	2525.618077
709.117825	2518.056346
709.452180	2444.959615
709.786485	2548.303269
710.120742	2500.412308
710.454949	2487.809423
710.789107	2437.397885
711.123216	2518.056346
711.457275	2553.344423
711.791286	2470.165385
712.125247	2533.179808
712.459159	2447.480192
712.793023	2507.974038
713.126837	2540.741538
713.460602	2465.124231
713.794318	2455.041923
714.127985	2417.233269
714.461602	2523.097500
714.795171	2510.494615
715.128691	2558.385577
715.462162	2533.179808
715.795584	2492.850577
716.128957	2550.823846
716.462281	2616.358846
716.795556	2553.344423
717.128782	2374.383462
717.461960	2510.494615
717.795088	2545.782692
718.128167	2538.220962
718.461198	2450.000769
718.794180	2472.685962
719.127113	2510.494615
719.459997	2523.097500
719.792833	2462.603654
720.125619	2470.165385
720.458357	2414.712692
720.791046	2485.288846
721.123686	2545.782692
721.456278	2460.083077
721.788821	2480.247692
722.121315	2492.850577
722.453761	2497.891731
722.786158	2457.562500
723.118506	2495.371154
723.450805	2460.083077
723.783056	2480.247692
724.115259	2457.562500
724.447412	2412.192115
724.779518	2472.685962
725.111574	2500.412308
725.443582	2495.371154
725.775542	2507.974038
726.107453	2500.412308
726.439315	2480.247692
726.771129	2545.782692
727.102895	2538.220962
727.434612	2447.480192
727.766281	2399.589231
728.097901	2490.330000
728.429473	2492.850577
728.760996	2402.109808
729.092471	2462.603654
729.423897	2530.659231
729.755276	2500.412308
730.086606	2550.823846
730.417887	2510.494615
730.749120	2490.330000
731.080305	2480.247692
731.411442	2505.453462
731.742530	2525.618077
732.073570	2444.959615
732.404562	2480.247692
732.735506	2490.330000
733.066401	2452.521346
733.397249	2487.809423
733.728048	2462.603654
734.058798	2465.124231
734.389501	2601.235385
734.720156	2500.412308
735.050762	2553.344423
735.381320	2460.083077
735.711831	2452.521346
736.042293	2485.288846
736.372707	2525.618077
736.703073	2465.124231
737.033391	2535.700385
737.363661	2535.700385
737.693883	2528.138654
738.024056	2538.220962
738.354182	2507.974038
738.684260	2472.685962
739.014290	2502.932885
739.344272	2573.509038
739.674207	2462.603654
740.004093	2472.685962
740.333931	2560.906154
740.663722	2500.412308
740.993464	2495.371154
741.323159	2560.906154
741.652806	2470.165385
741.982405	2555.865000
742.311956	2439.918462
742.641460	2518.056346
742.970915	2555.865000
743.300323	2520.576923
743.629683	2613.838269
743.958996	2540.741538
744.288260	2497.891731
744.617477	2538.220962
744.946647	2485.288846
745.275768	2535.700385
745.604842	2565.947308
745.933869	2442.439038
746.262847	2523.097500
746.591778	2482.768269
746.920662	2467.644808
747.249498	2588.632500
747.578286	2455.041923
747.907027	2505.453462
748.235720	2490.330000
748.564365	2518.056346
748.892963	2518.056346
749.221514	2538.220962
749.550017	2487.809423
749.878473	2409.671538
750.206881	2497.891731
750.535242	2528.138654
750.863555	2402.109808
751.191821	2533.179808
751.520039	2500.412308
751.848210	2543.262115
752.176334	2513.015192
752.504411	2475.206538
752.832440	2586.111923
753.160421	2480.247692
753.488356	2520.576923
753.816243	2550.823846
754.144082	2462.603654
754.471875	2361.780577
754.799620	2490.330000
755.127318	2515.535769
755.454969	2530.659231
755.782572	2414.712692
756.110129	2515.535769
756.437638	2460.083077
756.765100	2568.467885
757.092515	2460.083077
757.419882	2497.891731
757.747203	2447.480192
758.074477	2535.700385
758.401703	2442.439038
758.728882	2540.741538
759.056014	2386.986346
759.383099	2568.467885
759.710138	2492.850577
760.037129	2490.330000
760.364073	2424.795000
760.690970	2563.426731
761.017820	2482.768269
761.344623	2545.782692
761.671379	2495.371154
761.998088	2538.220962
762.324751	2570.988462
762.651366	2455.041923
762.977935	2452.521346
763.304456	2497.891731
763.630931	2447.480192
763.957359	2525.618077
764.283740	2502.932885
764.610074	2520.576923
764.936362	2417.233269
765.262602	2412.192115
765.588796	2513.015192
765.914943	2389.506923
766.241044	2505.453462
766.567097	2432.356731
766.893104	2515.535769
767.219064	2530.659231
767.544978	2465.124231
767.870845	2507.974038
768.196665	2495.371154
768.522438	2558.385577
768.848165	2490.330000
769.173846	2472.685962
769.499479	2502.932885
769.825066	2588.632500
770.150607	2402.109808
770.476101	2520.576923
770.801548	2515.535769
771.126949	2510.494615
771.452303	2553.344423
771.777611	2520.576923
772.102872	2404.630385
772.428087	2528.138654
772.753256	2515.535769
773.078378	2419.753846
773.403453	2490.330000
773.728482	2477.727115
774.053465	2543.262115
774.378401	2533.179808
774.703291	2480.247692
775.028135	2404.630385
775.352932	2492.850577
775.677683	2505.453462
776.002388	2470.165385
776.327046	2470.165385
776.651658	2533.179808
776.976224	2419.753846
777.300743	2497.891731
777.625216	2465.124231
777.949643	2555.865000
778.274024	2455.041923
778.598359	2455.041923
778.922647	2573.509038
779.246889	2371.862885
779.571086	2563.426731
779.895236	2402.109808
780.219339	2513.015192
780.543397	2500.412308
780.867409	2576.029615
781.191374	2434.877308
781.515294	2565.947308
781.839167	2560.906154
782.162995	2570.988462
782.486776	2518.056346
782.810511	2432.356731
783.134201	2502.932885
783.457844	2465.124231
783.781441	2500.412308
784.104993	2407.150962
784.428498	2520.576923
784.751958	2500.412308
785.075372	2452.521346
785.398739	2465.124231
785.722061	2538.220962
786.045337	2450.000769
786.368568	2480.247692
786.691752	2520.576923
787.014891	2457.562500
787.337983	2447.480192
787.661030	2455.041923
787.984031	2520.576923
788.306987	2530.659231
788.629897	2442.439038
788.952760	2492.850577
789.275579	2432.356731
789.598351	2535.700385
789.921078	2404.630385
790.243759	2465.124231
790.566395	2414.712692
790.888984	2525.618077
791.211529	2432.356731
791.534027	2442.439038
791.856480	2467.644808
792.178888	2492.850577
792.501249	2513.015192
792.823566	2500.412308
793.145836	2485.288846
793.468062	2533.179808
793.790241	2429.836154
794.112375	2480.247692
794.434464	2530.659231
794.756507	2462.603654
795.078505	2520.576923
795.400457	2500.412308
795.722364	2439.918462
796.044226	2505.453462
796.366042	2495.371154
796.687812	2389.506923
797.009538	2540.741538
797.331218	2490.330000
797.652852	2497.891731
797.974442	2518.056346
798.295986	2480.247692
798.617484	2520.576923
798.938938	2505.453462
799.260346	2437.397885
799.581709	2558.385577
799.903026	2500.412308
800.224299	2530.659231
800.545526	2437.397885
800.866708	2477.727115
801.187845	2371.862885
801.508936	2525.618077
801.829983	2475.206538
802.150984	2457.562500
802.471940	2558.385577
802.792851	2495.371154
803.113717	2492.850577
803.434538	2492.850577
803.755314	2457.562500
804.076045	2553.344423
804.396731	2533.179808
804.717372	2570.988462
805.037967	2490.330000
805.358518	2477.727115
805.679024	2470.165385
805.999485	2545.782692
806.319901	2510.494615
806.640272	2530.659231
806.960598	2553.344423
807.280879	2470.165385
807.601115	2568.467885
807.921306	2480.247692
808.241453	2485.288846
808.561554	2495.371154
808.881611	2455.041923
809.201623	2553.344423
809.521590	2434.877308
809.841513	2487.809423
810.161390	2422.274423
810.481223	2482.768269
810.801011	2485.288846
811.120755	2548.303269
811.440453	2518.056346
811.760107	2540.741538
812.079716	2455.041923
812.399281	2492.850577
812.718801	2477.727115
813.038276	2442.439038
813.357707	2409.671538
813.677093	2528.138654
813.996434	2460.083077
814.315731	2447.480192
814.634983	2460.083077
814.954191	2525.618077
815.273354	2543.262115
815.592473	2586.111923
815.911547	2442.439038
816.230577	2530.659231
816.549562	2447.480192
816.868502	2515.535769
817.187399	2548.303269
817.506250	2439.918462
817.825058	2515.535769
818.143821	2462.603654
818.462539	2603.755962
818.781213	2513.015192
819.099843	2495.371154
819.418429	2623.920577
819.736970	2581.070769
820.055466	2540.741538
820.373919	2576.029615
820.692327	2477.727115
821.010691	2505.453462
821.329011	2480.247692
821.647286	2550.823846
821.965517	2422.274423
822.283704	2513.015192
822.601847	2523.097500
822.919945	2530.659231
823.237999	2414.712692
823.556010	2495.371154
823.873976	2500.412308
824.191897	2439.918462
824.509775	2520.576923
824.827609	2497.891731
825.145398	2533.179808
825.463144	2495.371154
825.780845	2460.083077
826.098502	2570.988462
826.416116	2538.220962
826.733685	2505.453462
827.051210	2492.850577
827.368692	2510.494615
827.686129	2550.823846
828.003522	2442.439038
828.320872	2492.850577
828.638177	2429.836154
828.955439	2560.906154
829.272656	2515.535769
829.589830	2495.371154
829.906960	2495.371154
830.224046	2591.153077
830.541088	2490.330000
830.858086	2538.220962
831.175041	2553.344423
831.491952	2381.945192
831.808819	2530.659231
832.125642	2505.453462
832.442421	2533.179808
832.759157	2480.247692
833.075849	2565.947308
833.392497	2455.041923
833.709101	2492.850577
834.025662	2465.124231
834.342179	2500.412308
834.658653	2472.685962
834.975083	2477.727115
835.291469	2515.535769
835.607811	2477.727115
835.924110	2586.111923
836.240366	2500.412308
836.556578	2573.509038
836.872746	2492.850577
837.188871	2452.521346
837.504952	2533.179808
837.820990	2586.111923
838.136984	2384.465769
838.452935	2505.453462
838.768842	2540.741538
839.084706	2530.659231
839.400526	2548.303269
839.716303	2507.974038
840.032037	2497.891731
840.347727	2550.823846
840.663373	2434.877308
840.978977	2507.974038
841.294537	2573.509038
841.610054	2538.220962
841.925527	2455.041923
842.240957	2553.344423
842.556344	2392.027500
842.871687	2485.288846
843.186987	2583.591346
843.502244	2513.015192
843.817458	2540.741538
844.132629	2444.959615
844.447756	2538.220962
844.762840	2480.247692
845.077881	2550.823846
845.392879	2520.576923
845.707833	2472.685962
846.022745	2472.685962
846.337613	2485.288846
846.652438	2560.906154
846.967221	2510.494615
847.281960	2560.906154
847.596656	2555.865000
847.911309	2518.056346
848.225919	2485.288846
848.540485	2535.700385
848.855009	2465.124231
849.169490	2447.480192
849.483928	2412.192115
849.798323	2427.315577
850.112675	2427.315577
850.426984	2417.233269
850.741251	2452.521346
851.055474	2570.988462
851.369654	2472.685962
851.683792	2578.550192
851.997887	2452.521346
852.311938	2520.576923
852.625947	2495.371154
852.939914	2465.124231
853.253837	2482.768269
853.567718	2535.700385
853.881555	2455.041923
854.195350	2472.685962
854.509103	2533.179808
854.822812	2510.494615
855.136479	2553.344423
855.450103	2518.056346
855.763685	2505.453462
856.077224	2505.453462
856.390720	2510.494615
856.704173	2606.276538
857.017584	2507.974038
857.330953	2462.603654
857.644278	2412.192115
857.957561	2500.412308
858.270802	2523.097500
858.584000	2523.097500
858.897155	2444.959615
859.210268	2424.795000
859.523339	2495.371154
859.836367	2480.247692
860.149352	2485.288846
860.462295	2477.727115
860.775195	2507.974038
861.088054	2366.821731
861.400869	2550.823846
861.713642	2472.685962
862.026373	2507.974038
862.339062	2492.850577
862.651708	2502.932885
862.964312	2490.330000
863.276873	2560.906154
863.589392	2518.056346
863.901869	2545.782692
864.214303	2444.959615
864.526696	2470.165385
864.839045	2520.576923
865.151353	2437.397885
865.463619	2507.974038
865.775842	2502.932885
866.088023	2510.494615
866.400162	2520.576923
866.712258	2513.015192
867.024313	2477.727115
867.336325	2606.276538
867.648296	2480.247692
867.960224	2485.288846
868.272110	2460.083077
868.583954	2492.850577
868.895755	2477.727115
869.207515	2485.288846
869.519233	2447.480192
869.830909	2560.906154
870.142542	2424.795000
870.454134	2482.768269
870.765684	2533.179808
871.077191	2442.439038
871.388657	2490.330000
871.700081	2513.015192
872.011463	2475.206538
872.322803	2450.000769
872.634101	2424.795000
872.945357	2470.165385
873.256571	2500.412308
873.567744	2507.974038
873.878874	2470.165385
874.189963	2513.015192
874.501010	2495.371154
874.812015	2505.453462
875.122979	2623.920577
875.433900	2475.206538
875.744780	2565.947308
876.055618	2482.768269
876.366415	2462.603654
876.677169	2520.576923
876.987882	2487.809423
877.298554	2502.932885
877.609183	2505.453462
877.919771	2369.342308
878.230317	2525.618077
878.540822	2538.220962
878.851285	2520.576923
879.161707	2497.891731
879.472087	2560.906154
879.782425	2452.521346
880.092722	2477.727115
880.402977	2535.700385
880.713191	2467.644808
881.023363	2485.288846
881.333494	2535.700385
881.643583	2472.685962
881.953631	2497.891731
882.263637	2437.397885
882.573602	2507.974038
882.883526	2457.562500
883.193408	2460.083077
883.503248	2553.344423
883.813048	2452.521346
884.122806	2457.562500
884.432522	2533.179808
884.742197	2500.412308
885.051831	2560.906154
885.361424	2424.795000
885.670975	2548.303269
885.980485	2525.618077
886.289954	2450.000769
886.599382	2475.206538
886.908768	2487.809423
887.218113	2553.344423
887.527417	2482.768269
887.836680	2505.453462
888.145901	2477.727115
888.455082	2472.685962
888.764221	2384.465769
889.073319	2545.782692
889.382376	2452.521346
889.691392	2518.056346
890.000366	2450.000769
890.309300	2402.109808
890.618193	2492.850577
890.927044	2510.494615
891.235855	2447.480192
891.544625	2535.700385
891.853353	2460.083077
892.162041	2530.659231
892.470687	2490.330000
892.779293	2492.850577
893.087858	2513.015192
893.396381	2465.124231
893.704864	2414.712692
894.013306	2535.700385
894.321707	2419.753846
894.630068	2455.041923
894.938387	2533.179808
895.246665	2457.562500
895.554903	2427.315577
895.863100	2535.700385
896.171256	2548.303269
896.479371	2424.795000
896.787446	2513.015192
897.095480	2578.550192
897.403473	2502.932885
897.711425	2427.315577
898.019336	2502.932885
898.327207	2490.330000
898.635038	2528.138654
898.942827	2500.412308
899.250576	2573.509038
899.558284	2565.947308
899.865952	2455.041923
900.173579	2492.850577
900.481165	2510.494615
900.788711	2530.659231
901.096216	2502.932885
901.403681	2497.891731
901.711105	2409.671538
902.018489	2500.412308
902.325832	2434.877308
902.633135	2510.494615
902.940397	2407.150962
903.247619	2465.124231
903.554800	2470.165385
903.861941	2477.727115
904.169041	2439.918462
904.476101	2553.344423
904.783121	2482.768269
905.090100	2586.111923
905.397039	2497.891731
905.703938	2525.618077
906.010796	2414.712692
906.317614	2434.877308
906.624391	2452.521346
906.931129	2477.727115
907.237826	2462.603654
907.544483	2543.262115
907.851099	2507.974038
908.157675	2470.165385
908.464211	2568.467885
908.770707	2535.700385
909.077163	2525.618077
909.383578	2538.220962
909.689954	2490.330000
909.996289	2467.644808
910.302584	2507.974038
910.608839	2507.974038
910.915054	2472.685962
911.221229	2424.795000
911.527363	2543.262115
911.833458	2492.850577
912.139513	2462.603654
912.445527	2460.083077
912.751502	2427.315577
913.057436	2505.453462
913.363331	2480.247692
913.669186	2475.206538
913.975000	2460.083077
914.280775	2366.821731
914.586510	2528.138654
914.892205	2505.453462
915.197859	2543.262115
915.503475	2444.959615
915.809050	2482.768269
916.114585	2507.974038
916.420081	2492.850577
916.725536	2394.548077
917.030952	2477.727115
917.336328	2560.906154
917.641665	2533.179808
917.946961	2495.371154
918.252218	2472.685962
918.557435	2417.233269
918.862612	2550.823846
919.167750	2465.124231
919.472848	2472.685962
919.777906	2480.247692
920.082925	2538.220962
920.387904	2424.795000
920.692843	2492.850577
920.997743	2460.083077
921.302603	2555.865000
921.607423	2543.262115
921.912204	2583.591346
922.216946	2495.371154
922.521647	2490.330000
922.826310	2432.356731
923.130932	2419.753846
923.435516	2560.906154
923.740059	2427.315577
924.044564	2394.548077
924.349028	2530.659231
924.653454	2465.124231
924.957840	2485.288846
925.262186	2543.262115
925.566493	2563.426731
925.870761	2510.494615
926.174989	2513.015192
926.479178	2477.727115
926.783328	2465.124231
927.087438	2550.823846
927.391509	2525.618077
927.695541	2490.330000
927.999533	2477.727115
928.303486	2497.891731
928.607400	2555.865000
928.911275	2366.821731
929.215110	2495.371154
929.518906	2467.644808
929.822663	2482.768269
930.126381	2548.303269
930.430060	2502.932885
930.733699	2543.262115
931.037299	2487.809423
931.340861	2515.535769
931.644383	2487.809423
931.947866	2434.877308
932.251309	2530.659231
932.554714	2543.262115
932.858080	2487.809423
933.161407	2513.015192
933.464694	2502.932885
933.767943	2424.795000
934.071153	2434.877308
934.374323	2533.179808
934.677455	2520.576923
934.980548	2475.206538
935.283602	2492.850577
935.586617	2437.397885
935.889593	2475.206538
936.192530	2485.288846
936.495428	2502.932885
936.798287	2525.618077
937.101108	2442.439038
937.403890	2558.385577
937.706632	2588.632500
938.009336	2530.659231
938.312002	2492.850577
938.614628	2515.535769
938.917216	2553.344423
939.219765	2482.768269
939.522275	2465.124231
939.824747	2565.947308
940.127179	2427.315577
940.429573	2586.111923
940.731929	2540.741538
941.034246	2538.220962
941.336524	2502.932885
941.638763	2457.562500
941.940964	2518.056346
942.243126	2429.836154
942.545250	2477.727115
942.847335	2490.330000
943.149381	2502.932885
943.451389	2477.727115
943.753359	2510.494615
944.055290	2432.356731
944.357182	2404.630385
944.659036	2505.453462
944.960851	2523.097500
945.262628	2485.288846
945.564367	2384.465769
945.866067	2487.809423
946.167729	2538.220962
946.469352	2510.494615
946.770937	2492.850577
947.072484	2548.303269
947.373992	2573.509038
947.675462	2427.315577
947.976893	2429.836154
948.278286	2510.494615
948.579641	2518.056346
948.880958	2444.959615
949.182236	2518.056346
949.483476	2480.247692
949.784678	2525.618077
950.085841	2538.220962
950.386967	2518.056346
950.688054	2487.809423
950.989103	2545.782692
951.290114	2482.768269
951.591087	2497.891731
951.892021	2497.891731
952.192917	2507.974038
952.493776	2442.439038
952.794596	2434.877308
953.095378	2573.509038
953.396122	2563.426731
953.696828	2518.056346
953.997496	2455.041923
954.298126	2502.932885
954.598718	2591.153077
954.899272	2455.041923
955.199788	2467.644808
955.500266	2603.755962
955.800706	2419.753846
956.101108	2480.247692
956.401472	2538.220962
956.701798	2467.644808
957.002087	2510.494615
957.302337	2576.029615
957.602550	2485.288846
957.902724	2452.521346
958.202861	2507.974038
958.502960	2515.535769
958.803022	2462.603654
959.103045	2492.850577
959.403031	2515.535769
959.702979	2462.603654
960.002889	2437.397885
960.302762	2455.041923
960.602596	2419.753846
960.902393	2618.879423
961.202153	2520.576923
961.501875	2497.891731
961.801559	2523.097500
962.101205	2475.206538
962.400814	2533.179808
962.700385	2510.494615
962.999918	2573.509038
963.299414	2409.671538
963.598873	2548.303269
963.898293	2495.371154
964.197677	2515.535769
964.497022	2465.124231
964.796331	2555.865000
965.095601	2467.644808
965.394835	2497.891731
965.694030	2533.179808
965.993189	2487.809423
966.292309	2548.303269
966.591393	2392.027500
966.890439	2467.644808
967.189447	2444.959615
967.488419	2477.727115
967.787353	2553.344423
968.086249	2439.918462
968.385108	2482.768269
968.683930	2533.179808
968.982714	2482.768269
969.281462	2495.371154
969.580172	2490.330000
969.878844	2576.029615
970.177480	2530.659231
970.476078	2470.165385
970.774639	2482.768269
971.073162	2495.371154
971.371649	2497.891731
971.670098	2465.124231
971.968510	2354.218846
972.266885	2409.671538
972.565223	2457.562500
972.863524	2507.974038
973.161788	2538.220962
973.460014	2386.986346
973.758204	2394.548077
974.056356	2502.932885
974.354471	2523.097500
974.652550	2513.015192
974.950591	2472.685962
975.248595	2497.891731
975.546563	2455.041923
975.844493	2540.741538
976.142386	2505.453462
976.440243	2530.659231
976.738062	2462.603654
977.035845	2518.056346
977.333590	2470.165385
977.631299	2553.344423
977.928971	2490.330000
978.226606	2450.000769
978.524204	2487.809423
978.821765	2550.823846
979.119290	2394.548077
979.416777	2455.041923
979.714228	2470.165385
980.011642	2477.727115
980.309020	2444.959615
980.606360	2462.603654
980.903664	2543.262115
981.200931	2500.412308
981.498162	2548.303269
981.795356	2482.768269
982.092513	2540.741538
982.389633	2495.371154
982.686717	2505.453462
982.983764	2502.932885
983.280775	2394.548077
983.577749	2444.959615
983.874686	2528.138654
984.171587	2457.562500
984.468451	2510.494615
984.765279	2507.974038
985.062070	2482.768269
985.358824	2528.138654
985.655543	2543.262115
985.952224	2485.288846
986.248869	2487.809423
986.545478	2485.288846
986.842050	2518.056346
987.138586	2485.288846
987.435086	2523.097500
987.731549	2402.109808
988.027975	2452.521346
988.324366	2548.303269
988.620719	2507.974038
988.917037	2495.371154
989.213318	2500.412308
989.509563	2455.041923
989.805772	2548.303269
990.101944	2507.974038
990.398080	2583.591346
990.694180	2515.535769
990.990244	2462.603654
991.286271	2497.891731
991.582262	2462.603654
991.878217	2510.494615
992.174136	2553.344423
992.470019	2560.906154
992.765865	2507.974038
993.061676	2520.576923
993.357450	2485.288846
993.653188	2455.041923
993.948890	2500.412308
994.244556	2492.850577
994.540186	2500.412308
994.835780	2482.768269
995.131337	2533.179808
995.426859	2409.671538
995.722345	2560.906154
996.017795	2465.124231
996.313208	2495.371154
996.608586	2480.247692
996.903928	2530.659231
997.199234	2545.782692
997.494504	2523.097500
997.789738	2492.850577
998.084936	2581.070769
998.380099	2475.206538
998.675225	2432.356731
998.970316	2515.535769
999.265371	2520.576923
999.560390	2485.288846
999.855373	2513.015192
1000.150320	2515.535769
1000.445232	2467.644808
1000.740108	2520.576923
1001.034948	2563.426731
1001.329752	2515.535769
1001.624521	2447.480192
1001.919254	2487.809423
1002.213951	2424.795000
1002.508613	2450.000769
1002.803239	2502.932885
1003.097829	2457.562500
1003.392384	2502.932885
1003.686903	2497.891731
1003.981386	2596.194231
1004.275834	2505.453462
1004.570246	2502.932885
1004.864623	2470.165385
1005.158964	2497.891731
1005.453270	2452.521346
1005.747540	2502.932885
1006.041775	2409.671538
1006.335974	2530.659231
1006.630138	2563.426731
1006.924266	2485.288846
1007.218359	2495.371154
1007.512416	2480.247692
1007.806438	2434.877308
1008.100425	2500.412308
1008.394376	2462.603654
1008.688292	2386.986346
1008.982172	2490.330000
1009.276017	2432.356731
1009.569827	2505.453462
1009.863602	2465.124231
1010.157341	2533.179808
1010.451045	2545.782692
1010.744714	2510.494615
1011.038347	2482.768269
1011.331945	2543.262115
1011.625508	2455.041923
1011.919036	2427.315577
1012.212528	2515.535769
1012.505986	2530.659231
1012.799408	2646.605769
1013.092795	2457.562500
1013.386147	2543.262115
1013.679464	2422.274423
1013.972745	2515.535769
1014.265992	2558.385577
1014.559204	2462.603654
1014.852380	2424.795000
1015.145521	2495.371154
1015.438628	2477.727115
1015.731699	2437.397885
1016.024736	2515.535769
1016.317737	2392.027500
1016.610703	2538.220962
1016.903635	2497.891731
1017.196531	2523.097500
1017.489393	2457.562500
1017.782219	2510.494615
1018.075011	2563.426731
1018.367768	2482.768269
1018.660490	2510.494615
1018.953177	2510.494615
1019.245829	2510.494615
