Dividing Wavelength (nm)	Counts (n)	Blue Motor Position (mm): 0.000000	Red Motor Position (mm): 0.400000	
326.493990	2142.490385
326.888308	2142.490385
327.282561	2142.490385
327.676750	2056.790769
328.070874	2066.873077
328.464933	2129.887500
328.858929	2036.626154
329.252859	2054.270192
329.646726	2071.914231
330.040528	2097.120000
330.434265	2122.325769
330.827938	2112.243462
331.221547	2104.681731
331.615091	2215.587115
332.008571	2177.778462
332.401986	2230.710577
332.795338	2286.163269
333.188625	2190.381346
333.581847	2281.122115
333.975006	2288.683846
334.368100	2283.642692
334.761129	2311.369038
335.154095	2359.260000
335.546996	2344.136538
335.939833	2339.095385
336.332606	2412.192115
336.725315	2344.136538
337.117960	2419.753846
337.510540	2306.327885
337.903056	2349.177692
338.295508	2399.589231
338.687896	2386.986346
339.080220	2444.959615
339.472480	2437.397885
339.864676	2460.083077
340.256807	2394.548077
340.648875	2422.274423
341.040879	2412.192115
341.432818	2518.056346
341.824694	2545.782692
342.216506	2397.068654
342.608253	2480.247692
342.999937	2470.165385
343.391557	2548.303269
343.783113	2497.891731
344.174605	2417.233269
344.566033	2505.453462
344.957397	2475.206538
345.348697	2518.056346
345.739934	2558.385577
346.131106	2472.685962
346.522215	2502.932885
346.913260	2427.315577
347.304241	2447.480192
347.695159	2392.027500
348.086012	2379.424615
348.476802	2450.000769
348.867528	2497.891731
349.258191	2422.274423
349.648789	2334.054231
350.039324	2414.712692
350.429796	2429.836154
350.820203	2472.685962
351.210548	2500.412308
351.600828	2392.027500
351.991045	2427.315577
352.381198	2379.424615
352.771288	2500.412308
353.161314	2404.630385
353.551276	2495.371154
353.941175	2467.644808
354.331010	2465.124231
354.720782	2379.424615
355.110490	2412.192115
355.500135	2437.397885
355.889717	2412.192115
356.279235	2507.974038
356.668689	2460.083077
357.058080	2490.330000
357.447408	2432.356731
357.836672	2525.618077
358.225873	2502.932885
358.615010	2434.877308
359.004084	2465.124231
359.393095	2429.836154
359.782043	2422.274423
360.170927	2434.877308
360.559748	2462.603654
360.948505	2447.480192
361.337199	2424.795000
361.725830	2434.877308
362.114398	2472.685962
362.502903	2530.659231
362.891344	2407.150962
363.279722	2462.603654
363.668037	2492.850577
364.056289	2545.782692
364.444478	2434.877308
364.832603	2462.603654
365.220665	2490.330000
365.608665	2374.383462
365.996601	2523.097500
366.384474	2432.356731
366.772284	2434.877308
367.160031	2460.083077
367.547715	2427.315577
367.935336	2424.795000
368.322893	2460.083077
368.710388	2417.233269
369.097820	2495.371154
369.485189	2442.439038
369.872495	2457.562500
370.259738	2480.247692
370.646918	2452.521346
371.034035	2482.768269
371.421090	2465.124231
371.808081	2417.233269
372.195010	2354.218846
372.581875	2455.041923
372.968678	2450.000769
373.355418	2447.480192
373.742096	2492.850577
374.128710	2407.150962
374.515262	2477.727115
374.901751	2465.124231
375.288177	2437.397885
375.674540	2485.288846
376.060841	2533.179808
376.447079	2487.809423
376.833254	2477.727115
377.219367	2487.809423
377.605417	2447.480192
377.991404	2535.700385
378.377329	2497.891731
378.763191	2543.262115
379.148991	2386.986346
379.534727	2492.850577
379.920402	2351.698269
380.306013	2502.932885
380.691563	2450.000769
381.077049	2548.303269
381.462474	2470.165385
381.847835	2475.206538
382.233134	2500.412308
382.618371	2429.836154
383.003545	2407.150962
383.388657	2460.083077
383.773706	2467.644808
384.158693	2465.124231
384.543618	2470.165385
384.928480	2487.809423
385.313280	2455.041923
385.698017	2472.685962
386.082692	2457.562500
386.467305	2535.700385
386.851856	2507.974038
387.236344	2422.274423
387.620770	2495.371154
388.005133	2472.685962
388.389435	2497.891731
388.773674	2442.439038
389.157851	2424.795000
389.541965	2412.192115
389.926018	2444.959615
390.310008	2432.356731
390.693936	2540.741538
391.077802	2497.891731
391.461606	2475.206538
391.845348	2437.397885
392.229027	2510.494615
392.612645	2434.877308
392.996200	2518.056346
393.379694	2447.480192
393.763125	2477.727115
394.146494	2475.206538
394.529801	2507.974038
394.913047	2568.467885
395.296230	2472.685962
395.679351	2432.356731
396.062410	2497.891731
396.445408	2422.274423
396.828343	2412.192115
397.211217	2480.247692
397.594028	2460.083077
397.976778	2412.192115
398.359466	2480.247692
398.742092	2460.083077
399.124656	2444.959615
399.507158	2565.947308
399.889598	2560.906154
400.271977	2470.165385
400.654294	2530.659231
401.036549	2376.904038
401.418742	2437.397885
401.800874	2450.000769
402.182944	2545.782692
402.564952	2424.795000
402.946898	2427.315577
403.328783	2447.480192
403.710606	2500.412308
404.092367	2402.109808
404.474067	2518.056346
404.855705	2497.891731
405.237282	2407.150962
405.618797	2520.576923
406.000250	2475.206538
406.381642	2467.644808
406.762972	2487.809423
407.144240	2346.657115
407.525447	2520.576923
407.906593	2452.521346
408.287677	2588.632500
408.668700	2523.097500
409.049661	2452.521346
409.430560	2409.671538
409.811399	2490.330000
410.192176	2457.562500
410.572891	2485.288846
410.953545	2455.041923
411.334138	2500.412308
411.714669	2465.124231
412.095139	2472.685962
412.475547	2462.603654
412.855894	2558.385577
413.236180	2480.247692
413.616405	2502.932885
413.996568	2510.494615
414.376670	2525.618077
414.756711	2497.891731
415.136691	2450.000769
415.516609	2475.206538
415.896466	2439.918462
416.276262	2502.932885
416.655997	2497.891731
417.035670	2495.371154
417.415283	2528.138654
417.794834	2460.083077
418.174324	2505.453462
418.553753	2432.356731
418.933121	2523.097500
419.312428	2513.015192
419.691674	2490.330000
420.070859	2437.397885
420.449983	2520.576923
420.829045	2404.630385
421.208047	2455.041923
421.586988	2525.618077
421.965867	2477.727115
422.344686	2389.506923
422.723444	2412.192115
423.102141	2492.850577
423.480777	2467.644808
423.859352	2376.904038
424.237866	2480.247692
424.616319	2465.124231
424.994712	2505.453462
425.373044	2523.097500
425.751314	2462.603654
426.129524	2500.412308
426.507673	2487.809423
426.885762	2472.685962
427.263789	2495.371154
427.641756	2530.659231
428.019662	2505.453462
428.397508	2502.932885
428.775292	2515.535769
429.153016	2563.426731
429.530679	2545.782692
429.908282	2482.768269
430.285824	2475.206538
430.663305	2492.850577
431.040726	2520.576923
431.418086	2482.768269
431.795385	2429.836154
432.172624	2492.850577
432.549802	2374.383462
432.926920	2505.453462
433.303977	2444.959615
433.680974	2455.041923
434.057910	2399.589231
434.434786	2533.179808
434.811601	2472.685962
435.188355	2437.397885
435.565050	2472.685962
435.941683	2520.576923
436.318257	2510.494615
436.694770	2530.659231
437.071222	2462.603654
437.447614	2429.836154
437.823946	2500.412308
438.200218	2520.576923
438.576429	2480.247692
438.952580	2450.000769
439.328670	2515.535769
439.704700	2460.083077
440.080670	2565.947308
440.456580	2424.795000
440.832429	2500.412308
441.208218	2452.521346
441.583947	2480.247692
441.959616	2427.315577
442.335224	2442.439038
442.710773	2460.083077
443.086261	2560.906154
443.461689	2520.576923
443.837057	2487.809423
444.212365	2586.111923
444.587612	2460.083077
444.962800	2495.371154
445.337927	2444.959615
445.712995	2507.974038
446.088002	2417.233269
446.462949	2515.535769
446.837837	2487.809423
447.212664	2507.974038
447.587431	2502.932885
447.962139	2497.891731
448.336786	2492.850577
448.711374	2487.809423
449.085901	2477.727115
449.460369	2500.412308
449.834776	2482.768269
450.209124	2500.412308
450.583412	2417.233269
450.957640	2518.056346
451.331808	2500.412308
451.705917	2555.865000
452.079965	2470.165385
452.453954	2553.344423
452.827883	2477.727115
453.201752	2444.959615
453.575562	2497.891731
453.949311	2520.576923
454.323001	2485.288846
454.696632	2538.220962
455.070202	2578.550192
455.443713	2477.727115
455.817164	2601.235385
456.190556	2477.727115
456.563888	2442.439038
456.937160	2583.591346
457.310373	2467.644808
457.683526	2475.206538
458.056619	2533.179808
458.429653	2530.659231
458.802628	2460.083077
459.175542	2523.097500
459.548398	2497.891731
459.921194	2515.535769
460.293930	2601.235385
460.666607	2475.206538
461.039224	2535.700385
461.411782	2513.015192
461.784280	2432.356731
462.156719	2520.576923
462.529099	2487.809423
462.901419	2507.974038
463.273680	2460.083077
463.645882	2515.535769
464.018024	2540.741538
464.390106	2467.644808
464.762130	2523.097500
465.134094	2465.124231
465.505999	2477.727115
465.877845	2530.659231
466.249631	2457.562500
466.621358	2470.165385
466.993026	2492.850577
467.364634	2457.562500
467.736184	2550.823846
468.107674	2482.768269
468.479105	2576.029615
468.850477	2444.959615
469.221790	2467.644808
469.593043	2576.029615
469.964238	2450.000769
470.335373	2492.850577
470.706449	2402.109808
471.077467	2452.521346
471.448425	2407.150962
471.819324	2465.124231
472.190164	2500.412308
472.560945	2450.000769
472.931667	2470.165385
473.302330	2523.097500
473.672934	2467.644808
474.043479	2545.782692
474.413965	2555.865000
474.784393	2439.918462
475.154761	2515.535769
475.525070	2427.315577
475.895321	2487.809423
476.265513	2507.974038
476.635645	2545.782692
477.005719	2492.850577
477.375734	2513.015192
477.745691	2507.974038
478.115588	2533.179808
478.485427	2472.685962
478.855207	2450.000769
479.224928	2465.124231
479.594591	2482.768269
479.964194	2510.494615
480.333739	2555.865000
480.703226	2470.165385
481.072653	2533.179808
481.442022	2434.877308
481.811333	2520.576923
482.180584	2553.344423
482.549777	2470.165385
482.918912	2389.506923
483.287988	2558.385577
483.657005	2505.453462
484.025964	2490.330000
484.394864	2475.206538
484.763706	2525.618077
485.132489	2422.274423
485.501213	2492.850577
485.869879	2444.959615
486.238487	2538.220962
486.607036	2538.220962
486.975527	2470.165385
487.343959	2560.906154
487.712333	2558.385577
488.080648	2507.974038
488.448905	2548.303269
488.817104	2495.371154
489.185244	2515.535769
489.553326	2507.974038
489.921350	2467.644808
490.289315	2507.974038
490.657222	2513.015192
491.025070	2457.562500
491.392861	2513.015192
491.760593	2472.685962
492.128267	2427.315577
492.495883	2485.288846
492.863440	2437.397885
493.230939	2505.453462
493.598380	2490.330000
493.965763	2417.233269
494.333088	2502.932885
494.700354	2432.356731
495.067563	2523.097500
495.434713	2550.823846
495.801805	2457.562500
496.168839	2540.741538
496.535815	2480.247692
496.902733	2515.535769
497.269593	2565.947308
497.636395	2407.150962
498.003139	2545.782692
498.369825	2404.630385
498.736453	2513.015192
499.103023	2417.233269
499.469535	2472.685962
499.835989	2346.657115
500.202385	2487.809423
500.568723	2450.000769
500.935003	2502.932885
501.301226	2424.795000
501.667390	2533.179808
502.033497	2447.480192
502.399546	2520.576923
502.765537	2465.124231
503.131470	2533.179808
503.497345	2515.535769
503.863163	2513.015192
504.228923	2495.371154
504.594625	2538.220962
504.960269	2444.959615
505.325856	2462.603654
505.691385	2530.659231
506.056856	2477.727115
506.422270	2578.550192
506.787625	2603.755962
507.152924	2586.111923
507.518164	2439.918462
507.883347	2513.015192
508.248472	2457.562500
508.613540	2424.795000
508.978550	2533.179808
509.343503	2515.535769
509.708398	2404.630385
510.073236	2523.097500
510.438016	2462.603654
510.802738	2460.083077
511.167403	2543.262115
511.532010	2462.603654
511.896561	2480.247692
512.261053	2429.836154
512.625488	2414.712692
512.989866	2530.659231
513.354186	2570.988462
513.718449	2500.412308
514.082655	2515.535769
514.446803	2523.097500
514.810894	2515.535769
515.174927	2455.041923
515.538904	2520.576923
515.902822	2477.727115
516.266684	2535.700385
516.630488	2462.603654
516.994235	2467.644808
517.357925	2424.795000
517.721558	2507.974038
518.085133	2407.150962
518.448651	2490.330000
518.812112	2502.932885
519.175516	2518.056346
519.538863	2477.727115
519.902152	2507.974038
520.265385	2475.206538
520.628560	2409.671538
520.991678	2528.138654
521.354739	2528.138654
521.717743	2533.179808
522.080690	2442.439038
522.443580	2535.700385
522.806413	2492.850577
523.169189	2548.303269
523.531908	2455.041923
523.894569	2465.124231
524.257174	2477.727115
524.619722	2424.795000
524.982213	2578.550192
525.344647	2457.562500
525.707025	2432.356731
526.069345	2437.397885
526.431608	2482.768269
526.793815	2462.603654
527.155964	2447.480192
527.518057	2460.083077
527.880093	2492.850577
528.242072	2495.371154
528.603995	2500.412308
528.965860	2558.385577
529.327669	2495.371154
529.689421	2455.041923
530.051117	2472.685962
530.412755	2434.877308
530.774337	2447.480192
531.135862	2482.768269
531.497331	2507.974038
531.858743	2591.153077
532.220098	2487.809423
532.581396	2518.056346
532.942638	2414.712692
533.303824	2487.809423
533.664953	2460.083077
534.026025	2447.480192
534.387040	2472.685962
534.747999	2427.315577
535.108902	2477.727115
535.469748	2535.700385
535.830537	2467.644808
536.191270	2545.782692
536.551947	2507.974038
536.912567	2482.768269
537.273131	2578.550192
537.633638	2492.850577
537.994089	2482.768269
538.354483	2437.397885
538.714821	2525.618077
539.075103	2487.809423
539.435328	2505.453462
539.795497	2450.000769
540.155609	2553.344423
540.515665	2447.480192
540.875665	2482.768269
541.235609	2497.891731
541.595496	2480.247692
541.955328	2455.041923
542.315102	2492.850577
542.674821	2429.836154
543.034483	2548.303269
543.394090	2470.165385
543.753640	2467.644808
544.113134	2475.206538
544.472571	2525.618077
544.831953	2563.426731
545.191278	2495.371154
545.550548	2573.509038
545.909761	2548.303269
546.268918	2528.138654
546.628019	2530.659231
546.987064	2482.768269
547.346053	2525.618077
547.704986	2482.768269
548.063863	2472.685962
548.422684	2505.453462
548.781449	2475.206538
549.140158	2452.521346
549.498811	2419.753846
549.857408	2490.330000
550.215949	2553.344423
550.574434	2467.644808
550.932864	2475.206538
551.291237	2424.795000
551.649555	2560.906154
552.007817	2505.453462
552.366022	2563.426731
552.724173	2583.591346
553.082267	2507.974038
553.440305	2490.330000
553.798288	2502.932885
554.156215	2444.959615
554.514086	2434.877308
554.871902	2502.932885
555.229661	2485.288846
555.587365	2485.288846
555.945014	2497.891731
556.302606	2467.644808
556.660143	2540.741538
557.017625	2407.150962
557.375050	2553.344423
557.732421	2482.768269
558.089735	2507.974038
558.446994	2530.659231
558.804197	2472.685962
559.161345	2490.330000
559.518437	2530.659231
559.875474	2518.056346
560.232455	2570.988462
560.589381	2565.947308
560.946251	2475.206538
561.303065	2515.535769
561.659825	2467.644808
562.016528	2444.959615
562.373177	2513.015192
562.729770	2548.303269
563.086307	2568.467885
563.442789	2477.727115
563.799216	2513.015192
564.155587	2505.453462
564.511904	2482.768269
564.868164	2467.644808
565.224370	2513.015192
565.580520	2495.371154
565.936615	2578.550192
566.292654	2545.782692
566.648638	2487.809423
567.004567	2510.494615
567.360441	2507.974038
567.716260	2432.356731
568.072023	2497.891731
568.427732	2492.850577
568.783385	2465.124231
569.138982	2482.768269
569.494525	2535.700385
569.850013	2477.727115
570.205445	2520.576923
570.560823	2538.220962
570.916145	2545.782692
571.271412	2553.344423
571.626625	2482.768269
571.981782	2515.535769
572.336884	2462.603654
572.691931	2452.521346
573.046923	2530.659231
573.401860	2450.000769
573.756743	2437.397885
574.111570	2470.165385
574.466342	2455.041923
574.821059	2540.741538
575.175722	2434.877308
575.530330	2442.439038
575.884882	2399.589231
576.239380	2573.509038
576.593823	2470.165385
576.948211	2371.862885
577.302544	2520.576923
577.656823	2525.618077
578.011047	2465.124231
578.365216	2505.453462
578.719330	2475.206538
579.073389	2465.124231
579.427394	2432.356731
579.781344	2497.891731
580.135239	2477.727115
580.489080	2477.727115
580.842866	2442.439038
581.196597	2515.535769
581.550273	2502.932885
581.903895	2447.480192
582.257463	2472.685962
582.610975	2520.576923
582.964434	2553.344423
583.317837	2510.494615
583.671186	2467.644808
584.024481	2540.741538
584.377721	2606.276538
584.730906	2444.959615
585.084037	2495.371154
585.437113	2452.521346
585.790135	2510.494615
586.143103	2412.192115
586.496016	2608.797115
586.848874	2558.385577
587.201679	2429.836154
587.554428	2455.041923
587.907124	2545.782692
588.259765	2513.015192
588.612352	2502.932885
588.964884	2455.041923
589.317362	2543.262115
589.669786	2513.015192
590.022155	2570.988462
590.374470	2485.288846
590.726731	2513.015192
591.078937	2505.453462
591.431090	2419.753846
591.783188	2555.865000
592.135232	2482.768269
592.487222	2576.029615
592.839157	2482.768269
593.191038	2530.659231
593.542866	2543.262115
593.894639	2409.671538
594.246358	2543.262115
594.598022	2581.070769
594.949633	2475.206538
595.301190	2555.865000
595.652692	2535.700385
596.004141	2465.124231
596.355535	2540.741538
596.706876	2386.986346
597.058162	2457.562500
597.409395	2487.809423
597.760573	2422.274423
598.111698	2510.494615
598.462768	2518.056346
598.813785	2452.521346
599.164748	2523.097500
599.515657	2439.918462
599.866511	2550.823846
600.217312	2563.426731
600.568060	2480.247692
600.918753	2515.535769
601.269392	2439.918462
601.619978	2515.535769
601.970510	2515.535769
602.320988	2485.288846
602.671412	2452.521346
603.021783	2409.671538
603.372100	2492.850577
603.722363	2467.644808
604.072572	2553.344423
604.422728	2576.029615
604.772830	2485.288846
605.122878	2520.576923
605.472872	2553.344423
605.822813	2540.741538
606.172701	2437.397885
606.522534	2457.562500
606.872314	2525.618077
607.222041	2429.836154
607.571714	2495.371154
607.921333	2467.644808
608.270899	2518.056346
608.620411	2422.274423
608.969870	2525.618077
609.319276	2482.768269
609.668627	2538.220962
610.017926	2482.768269
610.367171	2601.235385
610.716362	2452.521346
611.065500	2510.494615
611.414585	2462.603654
611.763616	2475.206538
612.112594	2570.988462
612.461518	2495.371154
612.810389	2505.453462
613.159207	2470.165385
613.507971	2442.439038
613.856682	2429.836154
614.205340	2472.685962
614.553945	2553.344423
614.902496	2450.000769
615.250994	2535.700385
615.599439	2465.124231
615.947830	2510.494615
616.296169	2530.659231
616.644454	2505.453462
616.992686	2523.097500
617.340864	2492.850577
617.688990	2510.494615
618.037063	2434.877308
618.385082	2462.603654
618.733048	2465.124231
619.080961	2505.453462
619.428821	2500.412308
619.776628	2518.056346
620.124382	2470.165385
620.472083	2477.727115
620.819731	2457.562500
621.167326	2570.988462
621.514868	2462.603654
621.862357	2475.206538
622.209793	2437.397885
622.557176	2538.220962
622.904506	2480.247692
623.251783	2480.247692
623.599007	2487.809423
623.946179	2472.685962
624.293297	2588.632500
624.640363	2505.453462
624.987376	2455.041923
625.334336	2472.685962
625.681243	2540.741538
626.028097	2538.220962
626.374899	2523.097500
626.721647	2447.480192
627.068343	2535.700385
627.414987	2525.618077
627.761577	2553.344423
628.108115	2450.000769
628.454600	2538.220962
628.801032	2427.315577
629.147412	2492.850577
629.493739	2455.041923
629.840014	2389.506923
630.186236	2492.850577
630.532405	2492.850577
630.878521	2450.000769
631.224585	2457.562500
631.570597	2555.865000
631.916556	2510.494615
632.262462	2515.535769
632.608316	2500.412308
632.954117	2553.344423
633.299866	2543.262115
633.645562	2414.712692
633.991206	2477.727115
634.336797	2540.741538
634.682336	2455.041923
635.027823	2480.247692
635.373257	2442.439038
635.718639	2553.344423
636.063968	2525.618077
636.409245	2492.850577
636.754470	2596.194231
637.099642	2525.618077
637.444762	2490.330000
637.789829	2528.138654
638.134845	2439.918462
638.479808	2457.562500
638.824719	2402.109808
639.169577	2520.576923
639.514383	2497.891731
639.859137	2505.453462
640.203839	2442.439038
640.548489	2565.947308
640.893086	2520.576923
641.237632	2553.344423
641.582125	2442.439038
641.926566	2525.618077
642.270955	2598.714808
642.615292	2409.671538
642.959576	2535.700385
643.303809	2419.753846
643.647990	2513.015192
643.992118	2487.809423
644.336195	2470.165385
644.680219	2558.385577
645.024192	2545.782692
645.368112	2444.959615
645.711981	2472.685962
646.055797	2450.000769
646.399562	2482.768269
646.743274	2487.809423
647.086935	2457.562500
647.430544	2560.906154
647.774101	2455.041923
648.117606	2515.535769
648.461059	2462.603654
648.804460	2528.138654
649.147810	2550.823846
649.491108	2482.768269
649.834354	2502.932885
650.177548	2616.358846
650.520690	2447.480192
650.863781	2530.659231
651.206820	2394.548077
651.549807	2515.535769
651.892742	2427.315577
652.235626	2492.850577
652.578458	2535.700385
652.921238	2492.850577
653.263967	2553.344423
653.606644	2543.262115
653.949269	2520.576923
654.291843	2543.262115
654.634365	2550.823846
654.976836	2535.700385
655.319255	2384.465769
655.661622	2505.453462
656.003938	2565.947308
656.346203	2515.535769
656.688416	2623.920577
657.030577	2497.891731
657.372687	2492.850577
657.714746	2523.097500
658.056753	2533.179808
658.398708	2455.041923
658.740612	2518.056346
659.082465	2535.700385
659.424266	2409.671538
659.766016	2500.412308
660.107715	2497.891731
660.449362	2502.932885
660.790958	2457.562500
661.132503	2490.330000
661.473996	2404.630385
661.815438	2437.397885
662.156829	2515.535769
662.498168	2482.768269
662.839456	2570.988462
663.180693	2644.085192
663.521879	2507.974038
663.863013	2487.809423
664.204097	2510.494615
664.545129	2576.029615
664.886110	2429.836154
665.227040	2487.809423
665.567918	2462.603654
665.908746	2601.235385
666.249522	2563.426731
666.590248	2570.988462
666.930922	2502.932885
667.271545	2530.659231
667.612118	2485.288846
667.952639	2485.288846
668.293109	2510.494615
668.633528	2490.330000
668.973896	2460.083077
669.314213	2437.397885
669.654480	2502.932885
669.994695	2510.494615
670.334859	2570.988462
670.674973	2439.918462
671.015035	2553.344423
671.355047	2439.918462
671.695008	2475.206538
672.034918	2465.124231
672.374777	2490.330000
672.714585	2490.330000
673.054342	2470.165385
673.394049	2457.562500
673.733705	2472.685962
674.073310	2515.535769
674.412864	2485.288846
674.752368	2495.371154
675.091820	2523.097500
675.431223	2450.000769
675.770574	2477.727115
676.109875	2462.603654
676.449125	2573.509038
676.788324	2460.083077
677.127473	2495.371154
677.466571	2457.562500
677.805619	2540.741538
678.144616	2515.535769
678.483562	2444.959615
678.822458	2497.891731
679.161303	2462.603654
679.500098	2470.165385
679.838842	2407.150962
680.177535	2462.603654
680.516179	2523.097500
680.854771	2490.330000
681.193314	2465.124231
681.531805	2513.015192
681.870247	2485.288846
682.208638	2530.659231
682.546978	2550.823846
682.885268	2422.274423
683.223508	2626.441154
683.561697	2528.138654
683.899836	2525.618077
684.237925	2540.741538
684.575963	2520.576923
684.913951	2452.521346
685.251889	2477.727115
685.589776	2467.644808
685.927614	2444.959615
686.265401	2500.412308
686.603137	2470.165385
686.940824	2583.591346
687.278460	2558.385577
687.616046	2507.974038
687.953582	2535.700385
688.291068	2480.247692
688.628504	2570.988462
688.965889	2518.056346
689.303224	2513.015192
689.640510	2492.850577
689.977745	2565.947308
690.314930	2389.506923
690.652065	2553.344423
690.989150	2490.330000
691.326185	2480.247692
691.663170	2472.685962
692.000105	2470.165385
692.336990	2470.165385
692.673825	2560.906154
693.010610	2480.247692
693.347345	2510.494615
693.684030	2470.165385
694.020665	2530.659231
694.357251	2550.823846
694.693786	2530.659231
695.030272	2460.083077
695.366707	2450.000769
695.703093	2470.165385
696.039429	2500.412308
696.375716	2555.865000
696.711952	2505.453462
697.048139	2555.865000
697.384276	2475.206538
697.720363	2434.877308
698.056400	2518.056346
698.392388	2553.344423
698.728326	2598.714808
699.064214	2548.303269
699.400053	2528.138654
699.735842	2447.480192
700.071581	2505.453462
700.407270	2407.150962
700.742910	2437.397885
701.078501	2477.727115
701.414042	2457.562500
701.749533	2467.644808
702.084974	2538.220962
702.420366	2427.315577
702.755709	2507.974038
703.091002	2538.220962
703.426246	2497.891731
703.761440	2573.509038
704.096584	2533.179808
704.431679	2482.768269
704.766725	2538.220962
705.101721	2518.056346
705.436668	2444.959615
705.771565	2560.906154
706.106413	2444.959615
706.441212	2487.809423
706.775961	2553.344423
707.110661	2457.562500
707.445311	2535.700385
707.779913	2477.727115
708.114465	2437.397885
708.448967	2545.782692
708.783421	2528.138654
709.117825	2457.562500
709.452180	2518.056346
709.786485	2437.397885
710.120742	2528.138654
710.454949	2518.056346
710.789107	2507.974038
711.123216	2513.015192
711.457275	2482.768269
711.791286	2442.439038
712.125247	2563.426731
712.459159	2472.685962
712.793023	2510.494615
713.126837	2540.741538
713.460602	2475.206538
713.794318	2465.124231
714.127985	2475.206538
714.461602	2485.288846
714.795171	2515.535769
715.128691	2492.850577
715.462162	2477.727115
715.795584	2548.303269
716.128957	2447.480192
716.462281	2497.891731
716.795556	2576.029615
717.128782	2477.727115
717.461960	2397.068654
717.795088	2467.644808
718.128167	2558.385577
718.461198	2492.850577
718.794180	2513.015192
719.127113	2523.097500
719.459997	2457.562500
719.792833	2457.562500
720.125619	2505.453462
720.458357	2515.535769
720.791046	2530.659231
721.123686	2462.603654
721.456278	2482.768269
721.788821	2528.138654
722.121315	2558.385577
722.453761	2520.576923
722.786158	2525.618077
723.118506	2535.700385
723.450805	2502.932885
723.783056	2477.727115
724.115259	2455.041923
724.447412	2538.220962
724.779518	2487.809423
725.111574	2455.041923
725.443582	2497.891731
725.775542	2492.850577
726.107453	2462.603654
726.439315	2392.027500
726.771129	2593.673654
727.102895	2533.179808
727.434612	2399.589231
727.766281	2465.124231
728.097901	2510.494615
728.429473	2500.412308
728.760996	2419.753846
729.092471	2520.576923
729.423897	2432.356731
729.755276	2505.453462
730.086606	2495.371154
730.417887	2424.795000
730.749120	2545.782692
731.080305	2505.453462
731.411442	2507.974038
731.742530	2462.603654
732.073570	2487.809423
732.404562	2427.315577
732.735506	2558.385577
733.066401	2432.356731
733.397249	2500.412308
733.728048	2422.274423
734.058798	2487.809423
734.389501	2497.891731
734.720156	2545.782692
735.050762	2570.988462
735.381320	2545.782692
735.711831	2507.974038
736.042293	2492.850577
736.372707	2497.891731
736.703073	2434.877308
737.033391	2492.850577
737.363661	2502.932885
737.693883	2570.988462
738.024056	2437.397885
738.354182	2518.056346
738.684260	2414.712692
739.014290	2530.659231
739.344272	2495.371154
739.674207	2558.385577
740.004093	2482.768269
740.333931	2482.768269
740.663722	2520.576923
740.993464	2492.850577
741.323159	2452.521346
741.652806	2570.988462
741.982405	2439.918462
742.311956	2500.412308
742.641460	2475.206538
742.970915	2455.041923
743.300323	2586.111923
743.629683	2525.618077
743.958996	2505.453462
744.288260	2568.467885
744.617477	2502.932885
744.946647	2462.603654
745.275768	2462.603654
745.604842	2412.192115
745.933869	2452.521346
746.262847	2389.506923
746.591778	2495.371154
746.920662	2495.371154
747.249498	2545.782692
747.578286	2470.165385
747.907027	2480.247692
748.235720	2518.056346
748.564365	2447.480192
748.892963	2457.562500
749.221514	2565.947308
749.550017	2485.288846
749.878473	2492.850577
750.206881	2452.521346
750.535242	2472.685962
750.863555	2497.891731
751.191821	2487.809423
751.520039	2495.371154
751.848210	2550.823846
752.176334	2460.083077
752.504411	2593.673654
752.832440	2467.644808
753.160421	2568.467885
753.488356	2465.124231
753.816243	2510.494615
754.144082	2520.576923
754.471875	2432.356731
754.799620	2492.850577
755.127318	2442.439038
755.454969	2525.618077
755.782572	2581.070769
756.110129	2460.083077
756.437638	2545.782692
756.765100	2465.124231
757.092515	2482.768269
757.419882	2480.247692
757.747203	2601.235385
758.074477	2432.356731
758.401703	2392.027500
758.728882	2450.000769
759.056014	2480.247692
759.383099	2530.659231
759.710138	2429.836154
760.037129	2480.247692
760.364073	2560.906154
760.690970	2530.659231
761.017820	2470.165385
761.344623	2439.918462
761.671379	2550.823846
761.998088	2525.618077
762.324751	2485.288846
762.651366	2510.494615
762.977935	2495.371154
763.304456	2515.535769
763.630931	2487.809423
763.957359	2502.932885
764.283740	2485.288846
764.610074	2482.768269
764.936362	2472.685962
765.262602	2548.303269
765.588796	2555.865000
765.914943	2477.727115
766.241044	2545.782692
766.567097	2535.700385
766.893104	2487.809423
767.219064	2518.056346
767.544978	2467.644808
767.870845	2477.727115
768.196665	2487.809423
768.522438	2538.220962
768.848165	2467.644808
769.173846	2553.344423
769.499479	2442.439038
769.825066	2487.809423
770.150607	2487.809423
770.476101	2518.056346
770.801548	2520.576923
771.126949	2450.000769
771.452303	2518.056346
771.777611	2412.192115
772.102872	2487.809423
772.428087	2545.782692
772.753256	2490.330000
773.078378	2482.768269
773.403453	2455.041923
773.728482	2538.220962
774.053465	2548.303269
774.378401	2545.782692
774.703291	2606.276538
775.028135	2477.727115
775.352932	2518.056346
775.677683	2507.974038
776.002388	2618.879423
776.327046	2422.274423
776.651658	2472.685962
776.976224	2558.385577
777.300743	2392.027500
777.625216	2462.603654
777.949643	2480.247692
778.274024	2520.576923
778.598359	2447.480192
778.922647	2535.700385
779.246889	2550.823846
779.571086	2525.618077
779.895236	2424.795000
780.219339	2502.932885
780.543397	2427.315577
780.867409	2500.412308
781.191374	2502.932885
781.515294	2437.397885
781.839167	2565.947308
782.162995	2417.233269
782.486776	2555.865000
782.810511	2505.453462
783.134201	2538.220962
783.457844	2472.685962
783.781441	2513.015192
784.104993	2437.397885
784.428498	2487.809423
784.751958	2437.397885
785.075372	2419.753846
785.398739	2586.111923
785.722061	2482.768269
786.045337	2563.426731
786.368568	2507.974038
786.691752	2455.041923
787.014891	2487.809423
787.337983	2525.618077
787.661030	2495.371154
787.984031	2472.685962
788.306987	2457.562500
788.629897	2598.714808
788.952760	2492.850577
789.275579	2533.179808
789.598351	2455.041923
789.921078	2538.220962
790.243759	2427.315577
790.566395	2429.836154
790.888984	2560.906154
791.211529	2447.480192
791.534027	2563.426731
791.856480	2523.097500
792.178888	2530.659231
792.501249	2535.700385
792.823566	2492.850577
793.145836	2475.206538
793.468062	2424.795000
793.790241	2470.165385
794.112375	2472.685962
794.434464	2535.700385
794.756507	2507.974038
795.078505	2502.932885
795.400457	2495.371154
795.722364	2455.041923
796.044226	2558.385577
796.366042	2462.603654
796.687812	2485.288846
797.009538	2543.262115
797.331218	2492.850577
797.652852	2492.850577
797.974442	2480.247692
798.295986	2477.727115
798.617484	2475.206538
798.938938	2535.700385
799.260346	2480.247692
799.581709	2510.494615
799.903026	2457.562500
800.224299	2513.015192
800.545526	2437.397885
800.866708	2565.947308
801.187845	2490.330000
801.508936	2467.644808
801.829983	2560.906154
802.150984	2437.397885
802.471940	2447.480192
802.792851	2485.288846
803.113717	2492.850577
803.434538	2490.330000
803.755314	2528.138654
804.076045	2553.344423
804.396731	2477.727115
804.717372	2470.165385
805.037967	2455.041923
805.358518	2452.521346
805.679024	2480.247692
805.999485	2442.439038
806.319901	2470.165385
806.640272	2543.262115
806.960598	2576.029615
807.280879	2414.712692
807.601115	2570.988462
807.921306	2525.618077
808.241453	2485.288846
808.561554	2538.220962
808.881611	2513.015192
809.201623	2419.753846
809.521590	2568.467885
809.841513	2533.179808
810.161390	2462.603654
810.481223	2500.412308
810.801011	2485.288846
811.120755	2568.467885
811.440453	2550.823846
811.760107	2490.330000
812.079716	2470.165385
812.399281	2442.439038
812.718801	2417.233269
813.038276	2500.412308
813.357707	2485.288846
813.677093	2475.206538
813.996434	2540.741538
814.315731	2502.932885
814.634983	2545.782692
814.954191	2618.879423
815.273354	2427.315577
815.592473	2510.494615
815.911547	2490.330000
816.230577	2533.179808
816.549562	2507.974038
816.868502	2477.727115
817.187399	2424.795000
817.506250	2480.247692
817.825058	2530.659231
818.143821	2543.262115
818.462539	2497.891731
818.781213	2563.426731
819.099843	2520.576923
819.418429	2495.371154
819.736970	2500.412308
820.055466	2437.397885
820.373919	2520.576923
820.692327	2444.959615
821.010691	2497.891731
821.329011	2429.836154
821.647286	2548.303269
821.965517	2460.083077
822.283704	2502.932885
822.601847	2472.685962
822.919945	2510.494615
823.237999	2442.439038
823.556010	2550.823846
823.873976	2510.494615
824.191897	2540.741538
824.509775	2530.659231
824.827609	2480.247692
825.145398	2500.412308
825.463144	2550.823846
825.780845	2424.795000
826.098502	2344.136538
826.416116	2475.206538
826.733685	2495.371154
827.051210	2570.988462
827.368692	2492.850577
827.686129	2442.439038
828.003522	2417.233269
828.320872	2467.644808
828.638177	2545.782692
828.955439	2429.836154
829.272656	2495.371154
829.589830	2472.685962
829.906960	2528.138654
830.224046	2538.220962
830.541088	2404.630385
830.858086	2417.233269
831.175041	2515.535769
831.491952	2447.480192
831.808819	2507.974038
832.125642	2507.974038
832.442421	2487.809423
832.759157	2533.179808
833.075849	2402.109808
833.392497	2462.603654
833.709101	2578.550192
834.025662	2502.932885
834.342179	2480.247692
834.658653	2460.083077
834.975083	2470.165385
835.291469	2533.179808
835.607811	2591.153077
835.924110	2490.330000
836.240366	2555.865000
836.556578	2460.083077
836.872746	2450.000769
837.188871	2525.618077
837.504952	2500.412308
837.820990	2507.974038
838.136984	2485.288846
838.452935	2555.865000
838.768842	2467.644808
839.084706	2505.453462
839.400526	2518.056346
839.716303	2492.850577
840.032037	2502.932885
840.347727	2502.932885
840.663373	2523.097500
840.978977	2528.138654
841.294537	2505.453462
841.610054	2439.918462
841.925527	2465.124231
842.240957	2455.041923
842.556344	2427.315577
842.871687	2447.480192
843.186987	2460.083077
843.502244	2518.056346
843.817458	2427.315577
844.132629	2588.632500
844.447756	2467.644808
844.762840	2460.083077
845.077881	2497.891731
845.392879	2492.850577
845.707833	2558.385577
846.022745	2467.644808
846.337613	2444.959615
846.652438	2472.685962
846.967221	2540.741538
847.281960	2472.685962
847.596656	2548.303269
847.911309	2502.932885
848.225919	2419.753846
848.540485	2586.111923
848.855009	2424.795000
849.169490	2397.068654
849.483928	2540.741538
849.798323	2485.288846
850.112675	2462.603654
850.426984	2507.974038
850.741251	2417.233269
851.055474	2450.000769
851.369654	2457.562500
851.683792	2439.918462
851.997887	2477.727115
852.311938	2523.097500
852.625947	2500.412308
852.939914	2427.315577
853.253837	2419.753846
853.567718	2462.603654
853.881555	2550.823846
854.195350	2540.741538
854.509103	2452.521346
854.822812	2535.700385
855.136479	2444.959615
855.450103	2424.795000
855.763685	2520.576923
856.077224	2429.836154
856.390720	2462.603654
856.704173	2447.480192
857.017584	2482.768269
857.330953	2439.918462
857.644278	2505.453462
857.957561	2485.288846
858.270802	2568.467885
858.584000	2500.412308
858.897155	2540.741538
859.210268	2442.439038
859.523339	2477.727115
859.836367	2477.727115
860.149352	2545.782692
860.462295	2505.453462
860.775195	2540.741538
861.088054	2588.632500
861.400869	2447.480192
861.713642	2472.685962
862.026373	2452.521346
862.339062	2470.165385
862.651708	2442.439038
862.964312	2533.179808
863.276873	2470.165385
863.589392	2510.494615
863.901869	2485.288846
864.214303	2424.795000
864.526696	2525.618077
864.839045	2520.576923
865.151353	2429.836154
865.463619	2502.932885
865.775842	2482.768269
866.088023	2543.262115
866.400162	2409.671538
866.712258	2500.412308
867.024313	2480.247692
867.336325	2515.535769
867.648296	2460.083077
867.960224	2485.288846
868.272110	2424.795000
868.583954	2485.288846
868.895755	2462.603654
869.207515	2510.494615
869.519233	2538.220962
869.830909	2467.644808
870.142542	2457.562500
870.454134	2465.124231
870.765684	2490.330000
871.077191	2523.097500
871.388657	2523.097500
871.700081	2472.685962
872.011463	2482.768269
872.322803	2450.000769
872.634101	2525.618077
872.945357	2545.782692
873.256571	2485.288846
873.567744	2465.124231
873.878874	2495.371154
874.189963	2482.768269
874.501010	2497.891731
874.812015	2553.344423
875.122979	2487.809423
875.433900	2482.768269
875.744780	2520.576923
876.055618	2513.015192
876.366415	2424.795000
876.677169	2502.932885
876.987882	2429.836154
877.298554	2465.124231
877.609183	2530.659231
877.919771	2462.603654
878.230317	2500.412308
878.540822	2444.959615
878.851285	2548.303269
879.161707	2434.877308
879.472087	2530.659231
879.782425	2389.506923
880.092722	2482.768269
880.402977	2507.974038
880.713191	2447.480192
881.023363	2530.659231
881.333494	2444.959615
881.643583	2439.918462
881.953631	2573.509038
882.263637	2563.426731
882.573602	2455.041923
882.883526	2502.932885
883.193408	2450.000769
883.503248	2525.618077
883.813048	2404.630385
884.122806	2427.315577
884.432522	2384.465769
884.742197	2555.865000
885.051831	2533.179808
885.361424	2472.685962
885.670975	2472.685962
885.980485	2472.685962
886.289954	2402.109808
886.599382	2460.083077
886.908768	2530.659231
887.218113	2540.741538
887.527417	2560.906154
887.836680	2535.700385
888.145901	2545.782692
888.455082	2560.906154
888.764221	2414.712692
889.073319	2500.412308
889.382376	2502.932885
889.691392	2497.891731
890.000366	2475.206538
890.309300	2477.727115
890.618193	2419.753846
890.927044	2460.083077
891.235855	2477.727115
891.544625	2386.986346
891.853353	2513.015192
892.162041	2429.836154
892.470687	2550.823846
892.779293	2467.644808
893.087858	2528.138654
893.396381	2545.782692
893.704864	2384.465769
894.013306	2475.206538
894.321707	2457.562500
894.630068	2432.356731
894.938387	2442.439038
895.246665	2548.303269
895.554903	2528.138654
895.863100	2462.603654
896.171256	2465.124231
896.479371	2505.453462
896.787446	2553.344423
897.095480	2513.015192
897.403473	2480.247692
897.711425	2583.591346
898.019336	2507.974038
898.327207	2550.823846
898.635038	2505.453462
898.942827	2450.000769
899.250576	2419.753846
899.558284	2563.426731
899.865952	2510.494615
900.173579	2593.673654
900.481165	2495.371154
900.788711	2465.124231
901.096216	2505.453462
901.403681	2500.412308
901.711105	2510.494615
902.018489	2487.809423
902.325832	2513.015192
902.633135	2477.727115
902.940397	2505.453462
903.247619	2414.712692
903.554800	2507.974038
903.861941	2530.659231
904.169041	2442.439038
904.476101	2467.644808
904.783121	2513.015192
905.090100	2477.727115
905.397039	2480.247692
905.703938	2419.753846
906.010796	2457.562500
906.317614	2560.906154
906.624391	2487.809423
906.931129	2424.795000
907.237826	2419.753846
907.544483	2462.603654
907.851099	2439.918462
908.157675	2472.685962
908.464211	2492.850577
908.770707	2465.124231
909.077163	2485.288846
909.383578	2520.576923
909.689954	2515.535769
909.996289	2450.000769
910.302584	2518.056346
910.608839	2452.521346
910.915054	2470.165385
911.221229	2467.644808
911.527363	2475.206538
911.833458	2472.685962
912.139513	2470.165385
912.445527	2475.206538
912.751502	2558.385577
913.057436	2497.891731
913.363331	2510.494615
913.669186	2495.371154
913.975000	2507.974038
914.280775	2492.850577
914.586510	2523.097500
914.892205	2414.712692
915.197859	2528.138654
915.503475	2502.932885
915.809050	2460.083077
916.114585	2495.371154
916.420081	2497.891731
916.725536	2553.344423
917.030952	2429.836154
917.336328	2530.659231
917.641665	2497.891731
917.946961	2477.727115
918.252218	2450.000769
918.557435	2495.371154
918.862612	2470.165385
919.167750	2558.385577
919.472848	2543.262115
919.777906	2490.330000
920.082925	2462.603654
920.387904	2475.206538
920.692843	2497.891731
920.997743	2505.453462
921.302603	2510.494615
921.607423	2525.618077
921.912204	2492.850577
922.216946	2457.562500
922.521647	2452.521346
922.826310	2545.782692
923.130932	2502.932885
923.435516	2455.041923
923.740059	2442.439038
924.044564	2480.247692
924.349028	2442.439038
924.653454	2470.165385
924.957840	2497.891731
925.262186	2444.959615
925.566493	2520.576923
925.870761	2510.494615
926.174989	2470.165385
926.479178	2437.397885
926.783328	2523.097500
927.087438	2490.330000
927.391509	2439.918462
927.695541	2460.083077
927.999533	2472.685962
928.303486	2545.782692
928.607400	2460.083077
928.911275	2520.576923
929.215110	2500.412308
929.518906	2490.330000
929.822663	2462.603654
930.126381	2530.659231
930.430060	2470.165385
930.733699	2444.959615
931.037299	2470.165385
931.340861	2455.041923
931.644383	2460.083077
931.947866	2480.247692
932.251309	2518.056346
932.554714	2500.412308
932.858080	2543.262115
933.161407	2409.671538
933.464694	2434.877308
933.767943	2507.974038
934.071153	2520.576923
934.374323	2565.947308
934.677455	2424.795000
934.980548	2482.768269
935.283602	2427.315577
935.586617	2525.618077
935.889593	2492.850577
936.192530	2437.397885
936.495428	2455.041923
936.798287	2507.974038
937.101108	2427.315577
937.403890	2490.330000
937.706632	2497.891731
938.009336	2502.932885
938.312002	2573.509038
938.614628	2477.727115
938.917216	2465.124231
939.219765	2477.727115
939.522275	2515.535769
939.824747	2520.576923
940.127179	2593.673654
940.429573	2502.932885
940.731929	2457.562500
941.034246	2477.727115
941.336524	2404.630385
941.638763	2475.206538
941.940964	2475.206538
942.243126	2487.809423
942.545250	2548.303269
942.847335	2548.303269
943.149381	2477.727115
943.451389	2482.768269
943.753359	2507.974038
944.055290	2442.439038
944.357182	2477.727115
944.659036	2432.356731
944.960851	2535.700385
945.262628	2487.809423
945.564367	2611.317692
945.866067	2553.344423
946.167729	2555.865000
946.469352	2523.097500
946.770937	2502.932885
947.072484	2480.247692
947.373992	2550.823846
947.675462	2533.179808
947.976893	2500.412308
948.278286	2555.865000
948.579641	2485.288846
948.880958	2505.453462
949.182236	2404.630385
949.483476	2495.371154
949.784678	2397.068654
950.085841	2472.685962
950.386967	2397.068654
950.688054	2462.603654
950.989103	2432.356731
951.290114	2482.768269
951.591087	2520.576923
951.892021	2538.220962
952.192917	2485.288846
952.493776	2510.494615
952.794596	2505.453462
953.095378	2485.288846
953.396122	2487.809423
953.696828	2402.109808
953.997496	2414.712692
954.298126	2386.986346
954.598718	2477.727115
954.899272	2513.015192
955.199788	2540.741538
955.500266	2583.591346
955.800706	2477.727115
956.101108	2477.727115
956.401472	2485.288846
956.701798	2460.083077
957.002087	2485.288846
957.302337	2482.768269
957.602550	2437.397885
957.902724	2462.603654
958.202861	2505.453462
958.502960	2492.850577
958.803022	2500.412308
959.103045	2457.562500
959.403031	2465.124231
959.702979	2518.056346
960.002889	2581.070769
960.302762	2570.988462
960.602596	2497.891731
960.902393	2477.727115
961.202153	2462.603654
961.501875	2500.412308
961.801559	2419.753846
962.101205	2472.685962
962.400814	2371.862885
962.700385	2540.741538
962.999918	2490.330000
963.299414	2439.918462
963.598873	2565.947308
963.898293	2460.083077
964.197677	2480.247692
964.497022	2439.918462
964.796331	2470.165385
965.095601	2462.603654
965.394835	2555.865000
965.694030	2515.535769
965.993189	2510.494615
966.292309	2480.247692
966.591393	2450.000769
966.890439	2452.521346
967.189447	2497.891731
967.488419	2530.659231
967.787353	2444.959615
968.086249	2591.153077
968.385108	2419.753846
968.683930	2568.467885
968.982714	2495.371154
969.281462	2507.974038
969.580172	2505.453462
969.878844	2576.029615
970.177480	2523.097500
970.476078	2467.644808
970.774639	2427.315577
971.073162	2513.015192
971.371649	2447.480192
971.670098	2485.288846
971.968510	2502.932885
972.266885	2482.768269
972.565223	2444.959615
972.863524	2492.850577
973.161788	2543.262115
973.460014	2515.535769
973.758204	2480.247692
974.056356	2427.315577
974.354471	2439.918462
974.652550	2581.070769
974.950591	2507.974038
975.248595	2444.959615
975.546563	2523.097500
975.844493	2490.330000
976.142386	2434.877308
976.440243	2427.315577
976.738062	2402.109808
977.035845	2475.206538
977.333590	2505.453462
977.631299	2437.397885
977.928971	2497.891731
978.226606	2444.959615
978.524204	2437.397885
978.821765	2472.685962
979.119290	2467.644808
979.416777	2376.904038
979.714228	2437.397885
980.011642	2528.138654
980.309020	2485.288846
980.606360	2523.097500
980.903664	2502.932885
981.200931	2487.809423
981.498162	2548.303269
981.795356	2502.932885
982.092513	2485.288846
982.389633	2490.330000
982.686717	2447.480192
982.983764	2513.015192
983.280775	2485.288846
983.577749	2497.891731
983.874686	2444.959615
984.171587	2402.109808
984.468451	2576.029615
984.765279	2497.891731
985.062070	2518.056346
985.358824	2482.768269
985.655543	2515.535769
985.952224	2437.397885
986.248869	2452.521346
986.545478	2417.233269
986.842050	2475.206538
987.138586	2502.932885
987.435086	2472.685962
987.731549	2404.630385
988.027975	2513.015192
988.324366	2457.562500
988.620719	2495.371154
988.917037	2419.753846
989.213318	2523.097500
989.509563	2450.000769
989.805772	2523.097500
990.101944	2457.562500
990.398080	2510.494615
990.694180	2490.330000
990.990244	2565.947308
991.286271	2485.288846
991.582262	2472.685962
991.878217	2490.330000
992.174136	2414.712692
992.470019	2477.727115
992.765865	2538.220962
993.061676	2505.453462
993.357450	2515.535769
993.653188	2477.727115
993.948890	2482.768269
994.244556	2447.480192
994.540186	2487.809423
994.835780	2502.932885
995.131337	2487.809423
995.426859	2505.453462
995.722345	2462.603654
996.017795	2533.179808
996.313208	2465.124231
996.608586	2523.097500
996.903928	2467.644808
997.199234	2434.877308
997.494504	2465.124231
997.789738	2553.344423
998.084936	2465.124231
998.380099	2492.850577
998.675225	2507.974038
998.970316	2442.439038
999.265371	2470.165385
999.560390	2538.220962
999.855373	2495.371154
1000.150320	2477.727115
1000.445232	2480.247692
1000.740108	2455.041923
1001.034948	2467.644808
1001.329752	2487.809423
1001.624521	2437.397885
1001.919254	2535.700385
1002.213951	2497.891731
1002.508613	2482.768269
1002.803239	2487.809423
1003.097829	2518.056346
1003.392384	2472.685962
1003.686903	2518.056346
1003.981386	2490.330000
1004.275834	2442.439038
1004.570246	2457.562500
1004.864623	2560.906154
1005.158964	2392.027500
1005.453270	2570.988462
1005.747540	2404.630385
1006.041775	2538.220962
1006.335974	2429.836154
1006.630138	2530.659231
1006.924266	2429.836154
1007.218359	2558.385577
1007.512416	2598.714808
1007.806438	2490.330000
1008.100425	2495.371154
1008.394376	2495.371154
1008.688292	2417.233269
1008.982172	2452.521346
1009.276017	2444.959615
1009.569827	2497.891731
1009.863602	2548.303269
1010.157341	2467.644808
1010.451045	2419.753846
1010.744714	2507.974038
1011.038347	2417.233269
1011.331945	2386.986346
1011.625508	2497.891731
1011.919036	2409.671538
1012.212528	2472.685962
1012.505986	2553.344423
1012.799408	2467.644808
1013.092795	2502.932885
1013.386147	2520.576923
1013.679464	2429.836154
1013.972745	2460.083077
1014.265992	2437.397885
1014.559204	2465.124231
1014.852380	2545.782692
1015.145521	2359.260000
1015.438628	2450.000769
1015.731699	2578.550192
1016.024736	2457.562500
1016.317737	2563.426731
1016.610703	2535.700385
1016.903635	2550.823846
1017.196531	2397.068654
1017.489393	2437.397885
1017.782219	2591.153077
1018.075011	2507.974038
1018.367768	2490.330000
1018.660490	2492.850577
1018.953177	2492.850577
1019.245829	2492.850577
