Dividing Wavelength (nm)	Counts (n)	Blue Motor Position (mm): 0.000000	Red Motor Position (mm): 9.100000	
326.493990	2162.655000
326.888308	2162.655000
327.282561	2162.655000
327.676750	2160.134423
328.070874	2104.681731
328.464933	2094.599423
328.858929	2084.517115
329.252859	2107.202308
329.646726	2107.202308
330.040528	2054.270192
330.434265	2104.681731
330.827938	2134.928654
331.221547	2157.613846
331.615091	2157.613846
332.008571	2265.998654
332.401986	2155.093269
332.795338	2220.628269
333.188625	2263.478077
333.581847	2258.436923
333.975006	2346.657115
334.368100	2291.204423
334.761129	2238.272308
335.154095	2326.492500
335.546996	2313.889615
335.939833	2412.192115
336.332606	2399.589231
336.725315	2313.889615
337.117960	2331.533654
337.510540	2381.945192
337.903056	2369.342308
338.295508	2490.330000
338.687896	2437.397885
339.080220	2470.165385
339.472480	2460.083077
339.864676	2460.083077
340.256807	2510.494615
340.648875	2538.220962
341.040879	2439.918462
341.432818	2515.535769
341.824694	2465.124231
342.216506	2429.836154
342.608253	2422.274423
342.999937	2460.083077
343.391557	2497.891731
343.783113	2477.727115
344.174605	2470.165385
344.566033	2455.041923
344.957397	2409.671538
345.348697	2548.303269
345.739934	2447.480192
346.131106	2495.371154
346.522215	2492.850577
346.913260	2465.124231
347.304241	2422.274423
347.695159	2437.397885
348.086012	2487.809423
348.476802	2399.589231
348.867528	2457.562500
349.258191	2490.330000
349.648789	2417.233269
350.039324	2432.356731
350.429796	2465.124231
350.820203	2417.233269
351.210548	2439.918462
351.600828	2472.685962
351.991045	2439.918462
352.381198	2412.192115
352.771288	2366.821731
353.161314	2475.206538
353.551276	2349.177692
353.941175	2490.330000
354.331010	2465.124231
354.720782	2442.439038
355.110490	2482.768269
355.500135	2465.124231
355.889717	2520.576923
356.279235	2492.850577
356.668689	2414.712692
357.058080	2424.795000
357.447408	2467.644808
357.836672	2439.918462
358.225873	2480.247692
358.615010	2442.439038
359.004084	2351.698269
359.393095	2397.068654
359.782043	2465.124231
360.170927	2490.330000
360.559748	2359.260000
360.948505	2495.371154
361.337199	2472.685962
361.725830	2442.439038
362.114398	2444.959615
362.502903	2389.506923
362.891344	2457.562500
363.279722	2414.712692
363.668037	2424.795000
364.056289	2437.397885
364.444478	2495.371154
364.832603	2427.315577
365.220665	2538.220962
365.608665	2462.603654
365.996601	2432.356731
366.384474	2412.192115
366.772284	2412.192115
367.160031	2452.521346
367.547715	2465.124231
367.935336	2409.671538
368.322893	2439.918462
368.710388	2495.371154
369.097820	2409.671538
369.485189	2487.809423
369.872495	2404.630385
370.259738	2455.041923
370.646918	2507.974038
371.034035	2475.206538
371.421090	2462.603654
371.808081	2518.056346
372.195010	2462.603654
372.581875	2427.315577
372.968678	2407.150962
373.355418	2505.453462
373.742096	2427.315577
374.128710	2450.000769
374.515262	2472.685962
374.901751	2492.850577
375.288177	2457.562500
375.674540	2477.727115
376.060841	2560.906154
376.447079	2434.877308
376.833254	2555.865000
377.219367	2457.562500
377.605417	2477.727115
377.991404	2460.083077
378.377329	2417.233269
378.763191	2452.521346
379.148991	2487.809423
379.534727	2467.644808
379.920402	2429.836154
380.306013	2467.644808
380.691563	2480.247692
381.077049	2482.768269
381.462474	2497.891731
381.847835	2510.494615
382.233134	2437.397885
382.618371	2429.836154
383.003545	2470.165385
383.388657	2462.603654
383.773706	2439.918462
384.158693	2412.192115
384.543618	2424.795000
384.928480	2475.206538
385.313280	2424.795000
385.698017	2399.589231
386.082692	2535.700385
386.467305	2472.685962
386.851856	2417.233269
387.236344	2533.179808
387.620770	2500.412308
388.005133	2417.233269
388.389435	2515.535769
388.773674	2386.986346
389.157851	2480.247692
389.541965	2475.206538
389.926018	2447.480192
390.310008	2457.562500
390.693936	2502.932885
391.077802	2520.576923
391.461606	2407.150962
391.845348	2472.685962
392.229027	2397.068654
392.612645	2515.535769
392.996200	2480.247692
393.379694	2543.262115
393.763125	2429.836154
394.146494	2341.615962
394.529801	2447.480192
394.913047	2409.671538
395.296230	2379.424615
395.679351	2399.589231
396.062410	2495.371154
396.445408	2417.233269
396.828343	2540.741538
397.211217	2399.589231
397.594028	2429.836154
397.976778	2487.809423
398.359466	2507.974038
398.742092	2409.671538
399.124656	2470.165385
399.507158	2419.753846
399.889598	2427.315577
400.271977	2507.974038
400.654294	2470.165385
401.036549	2465.124231
401.418742	2545.782692
401.800874	2513.015192
402.182944	2482.768269
402.564952	2535.700385
402.946898	2482.768269
403.328783	2386.986346
403.710606	2444.959615
404.092367	2480.247692
404.474067	2482.768269
404.855705	2450.000769
405.237282	2457.562500
405.618797	2492.850577
406.000250	2520.576923
406.381642	2450.000769
406.762972	2500.412308
407.144240	2437.397885
407.525447	2450.000769
407.906593	2490.330000
408.287677	2419.753846
408.668700	2439.918462
409.049661	2487.809423
409.430560	2596.194231
409.811399	2434.877308
410.192176	2455.041923
410.572891	2540.741538
410.953545	2467.644808
411.334138	2558.385577
411.714669	2412.192115
412.095139	2518.056346
412.475547	2414.712692
412.855894	2502.932885
413.236180	2523.097500
413.616405	2490.330000
413.996568	2548.303269
414.376670	2497.891731
414.756711	2500.412308
415.136691	2444.959615
415.516609	2470.165385
415.896466	2447.480192
416.276262	2477.727115
416.655997	2429.836154
417.035670	2477.727115
417.415283	2500.412308
417.794834	2462.603654
418.174324	2482.768269
418.553753	2404.630385
418.933121	2351.698269
419.312428	2414.712692
419.691674	2586.111923
420.070859	2515.535769
420.449983	2417.233269
420.829045	2404.630385
421.208047	2356.739423
421.586988	2422.274423
421.965867	2442.439038
422.344686	2553.344423
422.723444	2482.768269
423.102141	2518.056346
423.480777	2444.959615
423.859352	2450.000769
424.237866	2419.753846
424.616319	2434.877308
424.994712	2497.891731
425.373044	2457.562500
425.751314	2460.083077
426.129524	2495.371154
426.507673	2472.685962
426.885762	2482.768269
427.263789	2457.562500
427.641756	2500.412308
428.019662	2417.233269
428.397508	2500.412308
428.775292	2475.206538
429.153016	2528.138654
429.530679	2455.041923
429.908282	2482.768269
430.285824	2460.083077
430.663305	2492.850577
431.040726	2437.397885
431.418086	2432.356731
431.795385	2409.671538
432.172624	2455.041923
432.549802	2409.671538
432.926920	2447.480192
433.303977	2490.330000
433.680974	2520.576923
434.057910	2442.439038
434.434786	2424.795000
434.811601	2502.932885
435.188355	2535.700385
435.565050	2505.453462
435.941683	2455.041923
436.318257	2492.850577
436.694770	2550.823846
437.071222	2482.768269
437.447614	2548.303269
437.823946	2472.685962
438.200218	2510.494615
438.576429	2470.165385
438.952580	2480.247692
439.328670	2563.426731
439.704700	2495.371154
440.080670	2424.795000
440.456580	2455.041923
440.832429	2505.453462
441.208218	2379.424615
441.583947	2563.426731
441.959616	2558.385577
442.335224	2513.015192
442.710773	2452.521346
443.086261	2525.618077
443.461689	2500.412308
443.837057	2417.233269
444.212365	2490.330000
444.587612	2470.165385
444.962800	2422.274423
445.337927	2470.165385
445.712995	2482.768269
446.088002	2465.124231
446.462949	2555.865000
446.837837	2450.000769
447.212664	2465.124231
447.587431	2444.959615
447.962139	2513.015192
448.336786	2462.603654
448.711374	2480.247692
449.085901	2477.727115
449.460369	2593.673654
449.834776	2460.083077
450.209124	2495.371154
450.583412	2485.288846
450.957640	2477.727115
451.331808	2465.124231
451.705917	2505.453462
452.079965	2432.356731
452.453954	2492.850577
452.827883	2487.809423
453.201752	2472.685962
453.575562	2568.467885
453.949311	2475.206538
454.323001	2490.330000
454.696632	2513.015192
455.070202	2525.618077
455.443713	2538.220962
455.817164	2518.056346
456.190556	2525.618077
456.563888	2490.330000
456.937160	2482.768269
457.310373	2482.768269
457.683526	2457.562500
458.056619	2427.315577
458.429653	2545.782692
458.802628	2490.330000
459.175542	2399.589231
459.548398	2528.138654
459.921194	2477.727115
460.293930	2513.015192
460.666607	2490.330000
461.039224	2475.206538
461.411782	2497.891731
461.784280	2452.521346
462.156719	2545.782692
462.529099	2434.877308
462.901419	2502.932885
463.273680	2538.220962
463.645882	2500.412308
464.018024	2402.109808
464.390106	2588.632500
464.762130	2450.000769
465.134094	2533.179808
465.505999	2500.412308
465.877845	2409.671538
466.249631	2492.850577
466.621358	2490.330000
466.993026	2500.412308
467.364634	2460.083077
467.736184	2505.453462
468.107674	2450.000769
468.479105	2535.700385
468.850477	2540.741538
469.221790	2505.453462
469.593043	2523.097500
469.964238	2444.959615
470.335373	2487.809423
470.706449	2485.288846
471.077467	2457.562500
471.448425	2495.371154
471.819324	2482.768269
472.190164	2548.303269
472.560945	2497.891731
472.931667	2487.809423
473.302330	2487.809423
473.672934	2460.083077
474.043479	2487.809423
474.413965	2397.068654
474.784393	2407.150962
475.154761	2507.974038
475.525070	2535.700385
475.895321	2472.685962
476.265513	2497.891731
476.635645	2492.850577
477.005719	2442.439038
477.375734	2402.109808
477.745691	2510.494615
478.115588	2543.262115
478.485427	2465.124231
478.855207	2530.659231
479.224928	2505.453462
479.594591	2505.453462
479.964194	2510.494615
480.333739	2366.821731
480.703226	2525.618077
481.072653	2543.262115
481.442022	2437.397885
481.811333	2470.165385
482.180584	2477.727115
482.549777	2487.809423
482.918912	2581.070769
483.287988	2548.303269
483.657005	2485.288846
484.025964	2432.356731
484.394864	2447.480192
484.763706	2480.247692
485.132489	2457.562500
485.501213	2482.768269
485.869879	2505.453462
486.238487	2457.562500
486.607036	2490.330000
486.975527	2538.220962
487.343959	2520.576923
487.712333	2467.644808
488.080648	2538.220962
488.448905	2475.206538
488.817104	2467.644808
489.185244	2455.041923
489.553326	2487.809423
489.921350	2482.768269
490.289315	2462.603654
490.657222	2507.974038
491.025070	2507.974038
491.392861	2507.974038
491.760593	2515.535769
492.128267	2444.959615
492.495883	2457.562500
492.863440	2462.603654
493.230939	2472.685962
493.598380	2472.685962
493.965763	2482.768269
494.333088	2497.891731
494.700354	2434.877308
495.067563	2535.700385
495.434713	2470.165385
495.801805	2510.494615
496.168839	2447.480192
496.535815	2462.603654
496.902733	2548.303269
497.269593	2515.535769
497.636395	2475.206538
498.003139	2472.685962
498.369825	2429.836154
498.736453	2477.727115
499.103023	2513.015192
499.469535	2523.097500
499.835989	2596.194231
500.202385	2475.206538
500.568723	2487.809423
500.935003	2530.659231
501.301226	2470.165385
501.667390	2492.850577
502.033497	2548.303269
502.399546	2442.439038
502.765537	2439.918462
503.131470	2530.659231
503.497345	2540.741538
503.863163	2462.603654
504.228923	2535.700385
504.594625	2535.700385
504.960269	2550.823846
505.325856	2535.700385
505.691385	2460.083077
506.056856	2533.179808
506.422270	2523.097500
506.787625	2414.712692
507.152924	2558.385577
507.518164	2495.371154
507.883347	2495.371154
508.248472	2510.494615
508.613540	2492.850577
508.978550	2462.603654
509.343503	2513.015192
509.708398	2462.603654
510.073236	2530.659231
510.438016	2515.535769
510.802738	2525.618077
511.167403	2510.494615
511.532010	2505.453462
511.896561	2545.782692
512.261053	2502.932885
512.625488	2432.356731
512.989866	2465.124231
513.354186	2417.233269
513.718449	2482.768269
514.082655	2444.959615
514.446803	2530.659231
514.810894	2422.274423
515.174927	2513.015192
515.538904	2470.165385
515.902822	2427.315577
516.266684	2540.741538
516.630488	2460.083077
516.994235	2500.412308
517.357925	2455.041923
517.721558	2507.974038
518.085133	2495.371154
518.448651	2550.823846
518.812112	2419.753846
519.175516	2528.138654
519.538863	2447.480192
519.902152	2477.727115
520.265385	2515.535769
520.628560	2490.330000
520.991678	2457.562500
521.354739	2402.109808
521.717743	2487.809423
522.080690	2487.809423
522.443580	2520.576923
522.806413	2487.809423
523.169189	2520.576923
523.531908	2538.220962
523.894569	2462.603654
524.257174	2444.959615
524.619722	2487.809423
524.982213	2510.494615
525.344647	2563.426731
525.707025	2480.247692
526.069345	2462.603654
526.431608	2472.685962
526.793815	2490.330000
527.155964	2545.782692
527.518057	2500.412308
527.880093	2510.494615
528.242072	2576.029615
528.603995	2520.576923
528.965860	2407.150962
529.327669	2510.494615
529.689421	2439.918462
530.051117	2568.467885
530.412755	2545.782692
530.774337	2487.809423
531.135862	2560.906154
531.497331	2470.165385
531.858743	2523.097500
532.220098	2452.521346
532.581396	2528.138654
532.942638	2475.206538
533.303824	2550.823846
533.664953	2490.330000
534.026025	2455.041923
534.387040	2598.714808
534.747999	2548.303269
535.108902	2439.918462
535.469748	2495.371154
535.830537	2507.974038
536.191270	2568.467885
536.551947	2528.138654
536.912567	2500.412308
537.273131	2442.439038
537.633638	2518.056346
537.994089	2497.891731
538.354483	2523.097500
538.714821	2500.412308
539.075103	2560.906154
539.435328	2472.685962
539.795497	2523.097500
540.155609	2495.371154
540.515665	2560.906154
540.875665	2470.165385
541.235609	2455.041923
541.595496	2450.000769
541.955328	2568.467885
542.315102	2581.070769
542.674821	2429.836154
543.034483	2482.768269
543.394090	2475.206538
543.753640	2518.056346
544.113134	2480.247692
544.472571	2525.618077
544.831953	2439.918462
545.191278	2523.097500
545.550548	2477.727115
545.909761	2490.330000
546.268918	2497.891731
546.628019	2490.330000
546.987064	2470.165385
547.346053	2497.891731
547.704986	2485.288846
548.063863	2462.603654
548.422684	2424.795000
548.781449	2545.782692
549.140158	2467.644808
549.498811	2538.220962
549.857408	2460.083077
550.215949	2412.192115
550.574434	2548.303269
550.932864	2462.603654
551.291237	2513.015192
551.649555	2470.165385
552.007817	2535.700385
552.366022	2518.056346
552.724173	2500.412308
553.082267	2465.124231
553.440305	2545.782692
553.798288	2538.220962
554.156215	2432.356731
554.514086	2530.659231
554.871902	2427.315577
555.229661	2437.397885
555.587365	2422.274423
555.945014	2555.865000
556.302606	2576.029615
556.660143	2497.891731
557.017625	2432.356731
557.375050	2465.124231
557.732421	2462.603654
558.089735	2623.920577
558.446994	2467.644808
558.804197	2465.124231
559.161345	2507.974038
559.518437	2480.247692
559.875474	2470.165385
560.232455	2502.932885
560.589381	2588.632500
560.946251	2386.986346
561.303065	2394.548077
561.659825	2510.494615
562.016528	2500.412308
562.373177	2452.521346
562.729770	2548.303269
563.086307	2523.097500
563.442789	2525.618077
563.799216	2535.700385
564.155587	2475.206538
564.511904	2432.356731
564.868164	2520.576923
565.224370	2457.562500
565.580520	2422.274423
565.936615	2477.727115
566.292654	2495.371154
566.648638	2470.165385
567.004567	2502.932885
567.360441	2460.083077
567.716260	2543.262115
568.072023	2513.015192
568.427732	2510.494615
568.783385	2470.165385
569.138982	2470.165385
569.494525	2500.412308
569.850013	2490.330000
570.205445	2490.330000
570.560823	2500.412308
570.916145	2495.371154
571.271412	2550.823846
571.626625	2565.947308
571.981782	2510.494615
572.336884	2540.741538
572.691931	2543.262115
573.046923	2434.877308
573.401860	2538.220962
573.756743	2470.165385
574.111570	2444.959615
574.466342	2525.618077
574.821059	2482.768269
575.175722	2513.015192
575.530330	2414.712692
575.884882	2538.220962
576.239380	2457.562500
576.593823	2465.124231
576.948211	2535.700385
577.302544	2477.727115
577.656823	2417.233269
578.011047	2628.961731
578.365216	2538.220962
578.719330	2523.097500
579.073389	2477.727115
579.427394	2492.850577
579.781344	2402.109808
580.135239	2507.974038
580.489080	2450.000769
580.842866	2452.521346
581.196597	2581.070769
581.550273	2515.535769
581.903895	2477.727115
582.257463	2465.124231
582.610975	2505.453462
582.964434	2439.918462
583.317837	2497.891731
583.671186	2573.509038
584.024481	2442.439038
584.377721	2507.974038
584.730906	2565.947308
585.084037	2528.138654
585.437113	2475.206538
585.790135	2434.877308
586.143103	2497.891731
586.496016	2422.274423
586.848874	2528.138654
587.201679	2472.685962
587.554428	2346.657115
587.907124	2497.891731
588.259765	2455.041923
588.612352	2487.809423
588.964884	2520.576923
589.317362	2513.015192
589.669786	2502.932885
590.022155	2553.344423
590.374470	2477.727115
590.726731	2500.412308
591.078937	2485.288846
591.431090	2439.918462
591.783188	2505.453462
592.135232	2588.632500
592.487222	2520.576923
592.839157	2492.850577
593.191038	2455.041923
593.542866	2518.056346
593.894639	2467.644808
594.246358	2581.070769
594.598022	2505.453462
594.949633	2482.768269
595.301190	2523.097500
595.652692	2467.644808
596.004141	2540.741538
596.355535	2548.303269
596.706876	2520.576923
597.058162	2581.070769
597.409395	2543.262115
597.760573	2535.700385
598.111698	2472.685962
598.462768	2505.453462
598.813785	2480.247692
599.164748	2540.741538
599.515657	2432.356731
599.866511	2576.029615
600.217312	2477.727115
600.568060	2560.906154
600.918753	2515.535769
601.269392	2550.823846
601.619978	2482.768269
601.970510	2492.850577
602.320988	2505.453462
602.671412	2502.932885
603.021783	2455.041923
603.372100	2535.700385
603.722363	2515.535769
604.072572	2583.591346
604.422728	2460.083077
604.772830	2518.056346
605.122878	2472.685962
605.472872	2422.274423
605.822813	2515.535769
606.172701	2450.000769
606.522534	2513.015192
606.872314	2555.865000
607.222041	2500.412308
607.571714	2553.344423
607.921333	2500.412308
608.270899	2485.288846
608.620411	2518.056346
608.969870	2560.906154
609.319276	2475.206538
609.668627	2530.659231
610.017926	2452.521346
610.367171	2507.974038
610.716362	2439.918462
611.065500	2518.056346
611.414585	2520.576923
611.763616	2530.659231
612.112594	2563.426731
612.461518	2475.206538
612.810389	2497.891731
613.159207	2465.124231
613.507971	2505.453462
613.856682	2495.371154
614.205340	2457.562500
614.553945	2467.644808
614.902496	2518.056346
615.250994	2528.138654
615.599439	2523.097500
615.947830	2593.673654
616.296169	2472.685962
616.644454	2467.644808
616.992686	2538.220962
617.340864	2540.741538
617.688990	2596.194231
618.037063	2495.371154
618.385082	2497.891731
618.733048	2482.768269
619.080961	2510.494615
619.428821	2548.303269
619.776628	2583.591346
620.124382	2452.521346
620.472083	2470.165385
620.819731	2470.165385
621.167326	2548.303269
621.514868	2515.535769
621.862357	2555.865000
622.209793	2495.371154
622.557176	2515.535769
622.904506	2518.056346
623.251783	2523.097500
623.599007	2502.932885
623.946179	2432.356731
624.293297	2492.850577
624.640363	2513.015192
624.987376	2555.865000
625.334336	2465.124231
625.681243	2404.630385
626.028097	2560.906154
626.374899	2460.083077
626.721647	2452.521346
627.068343	2497.891731
627.414987	2417.233269
627.761577	2495.371154
628.108115	2560.906154
628.454600	2455.041923
628.801032	2543.262115
629.147412	2492.850577
629.493739	2523.097500
629.840014	2535.700385
630.186236	2548.303269
630.532405	2455.041923
630.878521	2419.753846
631.224585	2450.000769
631.570597	2442.439038
631.916556	2578.550192
632.262462	2507.974038
632.608316	2520.576923
632.954117	2490.330000
633.299866	2500.412308
633.645562	2452.521346
633.991206	2442.439038
634.336797	2550.823846
634.682336	2439.918462
635.027823	2480.247692
635.373257	2540.741538
635.718639	2429.836154
636.063968	2525.618077
636.409245	2520.576923
636.754470	2555.865000
637.099642	2540.741538
637.444762	2480.247692
637.789829	2543.262115
638.134845	2439.918462
638.479808	2502.932885
638.824719	2601.235385
639.169577	2490.330000
639.514383	2560.906154
639.859137	2480.247692
640.203839	2505.453462
640.548489	2470.165385
640.893086	2550.823846
641.237632	2535.700385
641.582125	2545.782692
641.926566	2477.727115
642.270955	2485.288846
642.615292	2535.700385
642.959576	2487.809423
643.303809	2528.138654
643.647990	2523.097500
643.992118	2467.644808
644.336195	2432.356731
644.680219	2553.344423
645.024192	2528.138654
645.368112	2470.165385
645.711981	2487.809423
646.055797	2525.618077
646.399562	2586.111923
646.743274	2427.315577
647.086935	2555.865000
647.430544	2427.315577
647.774101	2462.603654
648.117606	2477.727115
648.461059	2487.809423
648.804460	2558.385577
649.147810	2462.603654
649.491108	2560.906154
649.834354	2447.480192
650.177548	2386.986346
650.520690	2507.974038
650.863781	2475.206538
651.206820	2540.741538
651.549807	2427.315577
651.892742	2523.097500
652.235626	2528.138654
652.578458	2497.891731
652.921238	2465.124231
653.263967	2502.932885
653.606644	2444.959615
653.949269	2543.262115
654.291843	2487.809423
654.634365	2538.220962
654.976836	2495.371154
655.319255	2523.097500
655.661622	2525.618077
656.003938	2467.644808
656.346203	2502.932885
656.688416	2533.179808
657.030577	2560.906154
657.372687	2437.397885
657.714746	2492.850577
658.056753	2460.083077
658.398708	2525.618077
658.740612	2550.823846
659.082465	2487.809423
659.424266	2490.330000
659.766016	2480.247692
660.107715	2477.727115
660.449362	2530.659231
660.790958	2472.685962
661.132503	2545.782692
661.473996	2490.330000
661.815438	2442.439038
662.156829	2545.782692
662.498168	2530.659231
662.839456	2573.509038
663.180693	2515.535769
663.521879	2535.700385
663.863013	2417.233269
664.204097	2470.165385
664.545129	2470.165385
664.886110	2513.015192
665.227040	2477.727115
665.567918	2518.056346
665.908746	2444.959615
666.249522	2535.700385
666.590248	2570.988462
666.930922	2513.015192
667.271545	2548.303269
667.612118	2457.562500
667.952639	2487.809423
668.293109	2465.124231
668.633528	2545.782692
668.973896	2457.562500
669.314213	2487.809423
669.654480	2578.550192
669.994695	2507.974038
670.334859	2497.891731
670.674973	2457.562500
671.015035	2492.850577
671.355047	2573.509038
671.695008	2513.015192
672.034918	2573.509038
672.374777	2422.274423
672.714585	2399.589231
673.054342	2560.906154
673.394049	2470.165385
673.733705	2586.111923
674.073310	2500.412308
674.412864	2419.753846
674.752368	2545.782692
675.091820	2570.988462
675.431223	2482.768269
675.770574	2495.371154
676.109875	2455.041923
676.449125	2518.056346
676.788324	2495.371154
677.127473	2495.371154
677.466571	2417.233269
677.805619	2528.138654
678.144616	2538.220962
678.483562	2492.850577
678.822458	2523.097500
679.161303	2472.685962
679.500098	2507.974038
679.838842	2457.562500
680.177535	2414.712692
680.516179	2565.947308
680.854771	2485.288846
681.193314	2513.015192
681.531805	2538.220962
681.870247	2467.644808
682.208638	2568.467885
682.546978	2548.303269
682.885268	2465.124231
683.223508	2437.397885
683.561697	2513.015192
683.899836	2513.015192
684.237925	2427.315577
684.575963	2528.138654
684.913951	2518.056346
685.251889	2465.124231
685.589776	2525.618077
685.927614	2513.015192
686.265401	2513.015192
686.603137	2432.356731
686.940824	2583.591346
687.278460	2513.015192
687.616046	2460.083077
687.953582	2525.618077
688.291068	2404.630385
688.628504	2510.494615
688.965889	2525.618077
689.303224	2465.124231
689.640510	2553.344423
689.977745	2487.809423
690.314930	2515.535769
690.652065	2437.397885
690.989150	2533.179808
691.326185	2550.823846
691.663170	2518.056346
692.000105	2492.850577
692.336990	2462.603654
692.673825	2434.877308
693.010610	2495.371154
693.347345	2402.109808
693.684030	2490.330000
694.020665	2480.247692
694.357251	2467.644808
694.693786	2467.644808
695.030272	2555.865000
695.366707	2450.000769
695.703093	2490.330000
696.039429	2518.056346
696.375716	2538.220962
696.711952	2447.480192
697.048139	2545.782692
697.384276	2455.041923
697.720363	2457.562500
698.056400	2563.426731
698.392388	2472.685962
698.728326	2523.097500
699.064214	2528.138654
699.400053	2397.068654
699.735842	2565.947308
700.071581	2414.712692
700.407270	2530.659231
700.742910	2518.056346
701.078501	2492.850577
701.414042	2452.521346
701.749533	2513.015192
702.084974	2601.235385
702.420366	2523.097500
702.755709	2530.659231
703.091002	2460.083077
703.426246	2495.371154
703.761440	2510.494615
704.096584	2470.165385
704.431679	2495.371154
704.766725	2525.618077
705.101721	2507.974038
705.436668	2540.741538
705.771565	2460.083077
706.106413	2513.015192
706.441212	2412.192115
706.775961	2472.685962
707.110661	2500.412308
707.445311	2475.206538
707.779913	2581.070769
708.114465	2404.630385
708.448967	2520.576923
708.783421	2394.548077
709.117825	2492.850577
709.452180	2455.041923
709.786485	2477.727115
710.120742	2495.371154
710.454949	2548.303269
710.789107	2480.247692
711.123216	2568.467885
711.457275	2497.891731
711.791286	2518.056346
712.125247	2482.768269
712.459159	2520.576923
712.793023	2553.344423
713.126837	2523.097500
713.460602	2583.591346
713.794318	2485.288846
714.127985	2525.618077
714.461602	2455.041923
714.795171	2520.576923
715.128691	2535.700385
715.462162	2462.603654
715.795584	2462.603654
716.128957	2502.932885
716.462281	2560.906154
716.795556	2502.932885
717.128782	2535.700385
717.461960	2550.823846
717.795088	2485.288846
718.128167	2510.494615
718.461198	2606.276538
718.794180	2447.480192
719.127113	2510.494615
719.459997	2472.685962
719.792833	2490.330000
720.125619	2452.521346
720.458357	2548.303269
720.791046	2455.041923
721.123686	2500.412308
721.456278	2450.000769
721.788821	2460.083077
722.121315	2573.509038
722.453761	2487.809423
722.786158	2500.412308
723.118506	2455.041923
723.450805	2550.823846
723.783056	2475.206538
724.115259	2467.644808
724.447412	2510.494615
724.779518	2366.821731
725.111574	2500.412308
725.443582	2452.521346
725.775542	2593.673654
726.107453	2495.371154
726.439315	2437.397885
726.771129	2429.836154
727.102895	2500.412308
727.434612	2515.535769
727.766281	2492.850577
728.097901	2472.685962
728.429473	2444.959615
728.760996	2439.918462
729.092471	2442.439038
729.423897	2505.453462
729.755276	2480.247692
730.086606	2467.644808
730.417887	2560.906154
730.749120	2399.589231
731.080305	2523.097500
731.411442	2444.959615
731.742530	2518.056346
732.073570	2485.288846
732.404562	2450.000769
732.735506	2505.453462
733.066401	2472.685962
733.397249	2543.262115
733.728048	2482.768269
734.058798	2505.453462
734.389501	2492.850577
734.720156	2596.194231
735.050762	2515.535769
735.381320	2475.206538
735.711831	2558.385577
736.042293	2424.795000
736.372707	2538.220962
736.703073	2437.397885
737.033391	2487.809423
737.363661	2533.179808
737.693883	2553.344423
738.024056	2507.974038
738.354182	2513.015192
738.684260	2533.179808
739.014290	2450.000769
739.344272	2500.412308
739.674207	2563.426731
740.004093	2606.276538
740.333931	2510.494615
740.663722	2576.029615
740.993464	2581.070769
741.323159	2480.247692
741.652806	2538.220962
741.982405	2450.000769
742.311956	2538.220962
742.641460	2500.412308
742.970915	2586.111923
743.300323	2497.891731
743.629683	2495.371154
743.958996	2548.303269
744.288260	2434.877308
744.617477	2482.768269
744.946647	2432.356731
745.275768	2538.220962
745.604842	2568.467885
745.933869	2487.809423
746.262847	2500.412308
746.591778	2495.371154
746.920662	2487.809423
747.249498	2553.344423
747.578286	2487.809423
747.907027	2500.412308
748.235720	2432.356731
748.564365	2417.233269
748.892963	2495.371154
749.221514	2518.056346
749.550017	2540.741538
749.878473	2550.823846
750.206881	2502.932885
750.535242	2497.891731
750.863555	2422.274423
751.191821	2495.371154
751.520039	2444.959615
751.848210	2550.823846
752.176334	2432.356731
752.504411	2465.124231
752.832440	2482.768269
753.160421	2492.850577
753.488356	2540.741538
753.816243	2394.548077
754.144082	2417.233269
754.471875	2515.535769
754.799620	2434.877308
755.127318	2581.070769
755.454969	2437.397885
755.782572	2467.644808
756.110129	2513.015192
756.437638	2613.838269
756.765100	2480.247692
757.092515	2553.344423
757.419882	2412.192115
757.747203	2581.070769
758.074477	2505.453462
758.401703	2480.247692
758.728882	2535.700385
759.056014	2515.535769
759.383099	2540.741538
759.710138	2447.480192
760.037129	2455.041923
760.364073	2538.220962
760.690970	2472.685962
761.017820	2540.741538
761.344623	2502.932885
761.671379	2583.591346
761.998088	2497.891731
762.324751	2560.906154
762.651366	2394.548077
762.977935	2586.111923
763.304456	2495.371154
763.630931	2432.356731
763.957359	2570.988462
764.283740	2497.891731
764.610074	2528.138654
764.936362	2528.138654
765.262602	2510.494615
765.588796	2455.041923
765.914943	2563.426731
766.241044	2477.727115
766.567097	2528.138654
766.893104	2404.630385
767.219064	2487.809423
767.544978	2429.836154
767.870845	2523.097500
768.196665	2583.591346
768.522438	2462.603654
768.848165	2497.891731
769.173846	2520.576923
769.499479	2434.877308
769.825066	2510.494615
770.150607	2444.959615
770.476101	2563.426731
770.801548	2500.412308
771.126949	2472.685962
771.452303	2505.453462
771.777611	2502.932885
772.102872	2500.412308
772.428087	2500.412308
772.753256	2555.865000
773.078378	2482.768269
773.403453	2480.247692
773.728482	2485.288846
774.053465	2570.988462
774.378401	2467.644808
774.703291	2510.494615
775.028135	2409.671538
775.352932	2502.932885
775.677683	2475.206538
776.002388	2513.015192
776.327046	2455.041923
776.651658	2470.165385
776.976224	2540.741538
777.300743	2523.097500
777.625216	2510.494615
777.949643	2487.809423
778.274024	2480.247692
778.598359	2480.247692
778.922647	2535.700385
779.246889	2495.371154
779.571086	2533.179808
779.895236	2510.494615
780.219339	2434.877308
780.543397	2467.644808
780.867409	2548.303269
781.191374	2505.453462
781.515294	2510.494615
781.839167	2523.097500
782.162995	2477.727115
782.486776	2533.179808
782.810511	2523.097500
783.134201	2475.206538
783.457844	2560.906154
783.781441	2513.015192
784.104993	2444.959615
784.428498	2480.247692
784.751958	2487.809423
785.075372	2460.083077
785.398739	2525.618077
785.722061	2487.809423
786.045337	2495.371154
786.368568	2513.015192
786.691752	2465.124231
787.014891	2533.179808
787.337983	2507.974038
787.661030	2502.932885
787.984031	2500.412308
788.306987	2507.974038
788.629897	2570.988462
788.952760	2462.603654
789.275579	2525.618077
789.598351	2485.288846
789.921078	2548.303269
790.243759	2424.795000
790.566395	2455.041923
790.888984	2497.891731
791.211529	2487.809423
791.534027	2467.644808
791.856480	2482.768269
792.178888	2472.685962
792.501249	2492.850577
792.823566	2487.809423
793.145836	2502.932885
793.468062	2470.165385
793.790241	2535.700385
794.112375	2470.165385
794.434464	2432.356731
794.756507	2520.576923
795.078505	2515.535769
795.400457	2588.632500
795.722364	2515.535769
796.044226	2565.947308
796.366042	2434.877308
796.687812	2462.603654
797.009538	2553.344423
797.331218	2497.891731
797.652852	2538.220962
797.974442	2528.138654
798.295986	2475.206538
798.617484	2444.959615
798.938938	2553.344423
799.260346	2482.768269
799.581709	2472.685962
799.903026	2502.932885
800.224299	2487.809423
800.545526	2434.877308
800.866708	2525.618077
801.187845	2495.371154
801.508936	2545.782692
801.829983	2452.521346
802.150984	2442.439038
802.471940	2452.521346
802.792851	2412.192115
803.113717	2538.220962
803.434538	2525.618077
803.755314	2560.906154
804.076045	2510.494615
804.396731	2505.453462
804.717372	2502.932885
805.037967	2523.097500
805.358518	2485.288846
805.679024	2555.865000
805.999485	2543.262115
806.319901	2500.412308
806.640272	2490.330000
806.960598	2386.986346
807.280879	2513.015192
807.601115	2490.330000
807.921306	2581.070769
808.241453	2505.453462
808.561554	2467.644808
808.881611	2480.247692
809.201623	2460.083077
809.521590	2419.753846
809.841513	2467.644808
810.161390	2422.274423
810.481223	2520.576923
810.801011	2485.288846
811.120755	2520.576923
811.440453	2457.562500
811.760107	2545.782692
812.079716	2475.206538
812.399281	2497.891731
812.718801	2530.659231
813.038276	2528.138654
813.357707	2482.768269
813.677093	2583.591346
813.996434	2452.521346
814.315731	2485.288846
814.634983	2467.644808
814.954191	2520.576923
815.273354	2520.576923
815.592473	2550.823846
815.911547	2548.303269
816.230577	2502.932885
816.549562	2480.247692
816.868502	2530.659231
817.187399	2455.041923
817.506250	2518.056346
817.825058	2455.041923
818.143821	2515.535769
818.462539	2530.659231
818.781213	2518.056346
819.099843	2593.673654
819.418429	2548.303269
819.736970	2543.262115
820.055466	2404.630385
820.373919	2502.932885
820.692327	2475.206538
821.010691	2492.850577
821.329011	2510.494615
821.647286	2523.097500
821.965517	2424.795000
822.283704	2513.015192
822.601847	2510.494615
822.919945	2520.576923
823.237999	2495.371154
823.556010	2548.303269
823.873976	2490.330000
824.191897	2460.083077
824.509775	2490.330000
824.827609	2442.439038
825.145398	2467.644808
825.463144	2520.576923
825.780845	2475.206538
826.098502	2550.823846
826.416116	2490.330000
826.733685	2533.179808
827.051210	2460.083077
827.368692	2432.356731
827.686129	2520.576923
828.003522	2550.823846
828.320872	2434.877308
828.638177	2500.412308
828.955439	2480.247692
829.272656	2485.288846
829.589830	2434.877308
829.906960	2563.426731
830.224046	2480.247692
830.541088	2450.000769
830.858086	2497.891731
831.175041	2422.274423
831.491952	2439.918462
831.808819	2475.206538
832.125642	2460.083077
832.442421	2507.974038
832.759157	2460.083077
833.075849	2450.000769
833.392497	2538.220962
833.709101	2460.083077
834.025662	2457.562500
834.342179	2525.618077
834.658653	2455.041923
834.975083	2467.644808
835.291469	2530.659231
835.607811	2518.056346
835.924110	2477.727115
836.240366	2528.138654
836.556578	2462.603654
836.872746	2465.124231
837.188871	2462.603654
837.504952	2472.685962
837.820990	2432.356731
838.136984	2505.453462
838.452935	2528.138654
838.768842	2505.453462
839.084706	2565.947308
839.400526	2439.918462
839.716303	2523.097500
840.032037	2548.303269
840.347727	2447.480192
840.663373	2427.315577
840.978977	2500.412308
841.294537	2475.206538
841.610054	2452.521346
841.925527	2417.233269
842.240957	2462.603654
842.556344	2444.959615
842.871687	2457.562500
843.186987	2460.083077
843.502244	2482.768269
843.817458	2404.630385
844.132629	2462.603654
844.447756	2518.056346
844.762840	2500.412308
845.077881	2439.918462
845.392879	2492.850577
845.707833	2470.165385
846.022745	2548.303269
846.337613	2480.247692
846.652438	2490.330000
846.967221	2434.877308
847.281960	2480.247692
847.596656	2533.179808
847.911309	2450.000769
848.225919	2394.548077
848.540485	2462.603654
848.855009	2480.247692
849.169490	2550.823846
849.483928	2460.083077
849.798323	2528.138654
850.112675	2565.947308
850.426984	2540.741538
850.741251	2565.947308
851.055474	2535.700385
851.369654	2462.603654
851.683792	2442.439038
851.997887	2535.700385
852.311938	2502.932885
852.625947	2487.809423
852.939914	2490.330000
853.253837	2485.288846
853.567718	2457.562500
853.881555	2525.618077
854.195350	2477.727115
854.509103	2444.959615
854.822812	2553.344423
855.136479	2553.344423
855.450103	2558.385577
855.763685	2457.562500
856.077224	2502.932885
856.390720	2565.947308
856.704173	2490.330000
857.017584	2502.932885
857.330953	2427.315577
857.644278	2545.782692
857.957561	2507.974038
858.270802	2515.535769
858.584000	2500.412308
858.897155	2548.303269
859.210268	2507.974038
859.523339	2573.509038
859.836367	2402.109808
860.149352	2530.659231
860.462295	2477.727115
860.775195	2482.768269
861.088054	2505.453462
861.400869	2485.288846
861.713642	2419.753846
862.026373	2543.262115
862.339062	2515.535769
862.651708	2513.015192
862.964312	2477.727115
863.276873	2535.700385
863.589392	2480.247692
863.901869	2548.303269
864.214303	2434.877308
864.526696	2482.768269
864.839045	2593.673654
865.151353	2525.618077
865.463619	2553.344423
865.775842	2528.138654
866.088023	2495.371154
866.400162	2525.618077
866.712258	2502.932885
867.024313	2530.659231
867.336325	2472.685962
867.648296	2487.809423
867.960224	2523.097500
868.272110	2384.465769
868.583954	2465.124231
868.895755	2540.741538
869.207515	2417.233269
869.519233	2475.206538
869.830909	2462.603654
870.142542	2467.644808
870.454134	2475.206538
870.765684	2528.138654
871.077191	2447.480192
871.388657	2485.288846
871.700081	2432.356731
872.011463	2497.891731
872.322803	2588.632500
872.634101	2432.356731
872.945357	2477.727115
873.256571	2530.659231
873.567744	2482.768269
873.878874	2422.274423
874.189963	2611.317692
874.501010	2412.192115
874.812015	2535.700385
875.122979	2520.576923
875.433900	2455.041923
875.744780	2535.700385
876.055618	2455.041923
876.366415	2528.138654
876.677169	2465.124231
876.987882	2558.385577
877.298554	2507.974038
877.609183	2442.439038
877.919771	2467.644808
878.230317	2518.056346
878.540822	2472.685962
878.851285	2558.385577
879.161707	2535.700385
879.472087	2457.562500
879.782425	2487.809423
880.092722	2560.906154
880.402977	2487.809423
880.713191	2513.015192
881.023363	2477.727115
881.333494	2507.974038
881.643583	2570.988462
881.953631	2477.727115
882.263637	2429.836154
882.573602	2507.974038
882.883526	2523.097500
883.193408	2535.700385
883.503248	2507.974038
883.813048	2505.453462
884.122806	2518.056346
884.432522	2490.330000
884.742197	2497.891731
885.051831	2477.727115
885.361424	2528.138654
885.670975	2437.397885
885.980485	2495.371154
886.289954	2472.685962
886.599382	2437.397885
886.908768	2432.356731
887.218113	2487.809423
887.527417	2482.768269
887.836680	2460.083077
888.145901	2487.809423
888.455082	2606.276538
888.764221	2487.809423
889.073319	2560.906154
889.382376	2399.589231
889.691392	2533.179808
890.000366	2513.015192
890.309300	2558.385577
890.618193	2510.494615
890.927044	2475.206538
891.235855	2439.918462
891.544625	2475.206538
891.853353	2457.562500
892.162041	2520.576923
892.470687	2427.315577
892.779293	2525.618077
893.087858	2482.768269
893.396381	2568.467885
893.704864	2480.247692
894.013306	2523.097500
894.321707	2573.509038
894.630068	2505.453462
894.938387	2507.974038
895.246665	2510.494615
895.554903	2470.165385
895.863100	2429.836154
896.171256	2533.179808
896.479371	2523.097500
896.787446	2545.782692
897.095480	2389.506923
897.403473	2535.700385
897.711425	2500.412308
898.019336	2470.165385
898.327207	2583.591346
898.635038	2434.877308
898.942827	2437.397885
899.250576	2485.288846
899.558284	2465.124231
899.865952	2505.453462
900.173579	2528.138654
900.481165	2563.426731
900.788711	2487.809423
901.096216	2492.850577
901.403681	2422.274423
901.711105	2573.509038
902.018489	2495.371154
902.325832	2412.192115
902.633135	2560.906154
902.940397	2505.453462
903.247619	2555.865000
903.554800	2502.932885
903.861941	2535.700385
904.169041	2480.247692
904.476101	2523.097500
904.783121	2548.303269
905.090100	2520.576923
905.397039	2492.850577
905.703938	2570.988462
906.010796	2550.823846
906.317614	2437.397885
906.624391	2465.124231
906.931129	2424.795000
907.237826	2560.906154
907.544483	2444.959615
907.851099	2492.850577
908.157675	2407.150962
908.464211	2472.685962
908.770707	2490.330000
909.077163	2457.562500
909.383578	2434.877308
909.689954	2548.303269
909.996289	2480.247692
910.302584	2444.959615
910.608839	2507.974038
910.915054	2513.015192
911.221229	2558.385577
911.527363	2424.795000
911.833458	2518.056346
912.139513	2608.797115
912.445527	2450.000769
912.751502	2518.056346
913.057436	2432.356731
913.363331	2482.768269
913.669186	2452.521346
913.975000	2581.070769
914.280775	2437.397885
914.586510	2460.083077
914.892205	2500.412308
915.197859	2520.576923
915.503475	2455.041923
915.809050	2507.974038
916.114585	2520.576923
916.420081	2500.412308
916.725536	2460.083077
917.030952	2386.986346
917.336328	2457.562500
917.641665	2424.795000
917.946961	2586.111923
918.252218	2465.124231
918.557435	2402.109808
918.862612	2507.974038
919.167750	2492.850577
919.472848	2528.138654
919.777906	2492.850577
920.082925	2485.288846
920.387904	2513.015192
920.692843	2485.288846
920.997743	2432.356731
921.302603	2394.548077
921.607423	2407.150962
921.912204	2540.741538
922.216946	2502.932885
922.521647	2480.247692
922.826310	2487.809423
923.130932	2482.768269
923.435516	2550.823846
923.740059	2439.918462
924.044564	2510.494615
924.349028	2472.685962
924.653454	2495.371154
924.957840	2404.630385
925.262186	2480.247692
925.566493	2444.959615
925.870761	2530.659231
926.174989	2472.685962
926.479178	2482.768269
926.783328	2480.247692
927.087438	2482.768269
927.391509	2409.671538
927.695541	2429.836154
927.999533	2520.576923
928.303486	2485.288846
928.607400	2545.782692
928.911275	2399.589231
929.215110	2520.576923
929.518906	2500.412308
929.822663	2558.385577
930.126381	2507.974038
930.430060	2470.165385
930.733699	2596.194231
931.037299	2465.124231
931.340861	2472.685962
931.644383	2533.179808
931.947866	2525.618077
932.251309	2467.644808
932.554714	2482.768269
932.858080	2414.712692
933.161407	2470.165385
933.464694	2558.385577
933.767943	2518.056346
934.071153	2465.124231
934.374323	2507.974038
934.677455	2475.206538
934.980548	2543.262115
935.283602	2492.850577
935.586617	2477.727115
935.889593	2402.109808
936.192530	2472.685962
936.495428	2439.918462
936.798287	2530.659231
937.101108	2467.644808
937.403890	2505.453462
937.706632	2555.865000
938.009336	2485.288846
938.312002	2550.823846
938.614628	2578.550192
938.917216	2432.356731
939.219765	2447.480192
939.522275	2518.056346
939.824747	2520.576923
940.127179	2553.344423
940.429573	2475.206538
940.731929	2472.685962
941.034246	2548.303269
941.336524	2515.535769
941.638763	2409.671538
941.940964	2452.521346
942.243126	2485.288846
942.545250	2477.727115
942.847335	2487.809423
943.149381	2510.494615
943.451389	2495.371154
943.753359	2462.603654
944.055290	2472.685962
944.357182	2492.850577
944.659036	2545.782692
944.960851	2462.603654
945.262628	2495.371154
945.564367	2460.083077
945.866067	2460.083077
946.167729	2467.644808
946.469352	2515.535769
946.770937	2472.685962
947.072484	2535.700385
947.373992	2455.041923
947.675462	2543.262115
947.976893	2497.891731
948.278286	2455.041923
948.579641	2502.932885
948.880958	2376.904038
949.182236	2480.247692
949.483476	2553.344423
949.784678	2472.685962
950.085841	2515.535769
950.386967	2412.192115
950.688054	2525.618077
950.989103	2530.659231
951.290114	2470.165385
951.591087	2447.480192
951.892021	2500.412308
952.192917	2442.439038
952.493776	2444.959615
952.794596	2444.959615
953.095378	2543.262115
953.396122	2515.535769
953.696828	2444.959615
953.997496	2507.974038
954.298126	2427.315577
954.598718	2434.877308
954.899272	2507.974038
955.199788	2407.150962
955.500266	2376.904038
955.800706	2533.179808
956.101108	2477.727115
956.401472	2432.356731
956.701798	2472.685962
957.002087	2507.974038
957.302337	2510.494615
957.602550	2533.179808
957.902724	2434.877308
958.202861	2505.453462
958.502960	2447.480192
958.803022	2485.288846
959.103045	2525.618077
959.403031	2462.603654
959.702979	2518.056346
960.002889	2467.644808
960.302762	2548.303269
960.602596	2482.768269
960.902393	2465.124231
961.202153	2427.315577
961.501875	2507.974038
961.801559	2538.220962
962.101205	2515.535769
962.400814	2482.768269
962.700385	2608.797115
962.999918	2533.179808
963.299414	2437.397885
963.598873	2457.562500
963.898293	2465.124231
964.197677	2477.727115
964.497022	2485.288846
964.796331	2482.768269
965.095601	2523.097500
965.394835	2487.809423
965.694030	2467.644808
965.993189	2523.097500
966.292309	2576.029615
966.591393	2515.535769
966.890439	2462.603654
967.189447	2412.192115
967.488419	2505.453462
967.787353	2507.974038
968.086249	2523.097500
968.385108	2515.535769
968.683930	2525.618077
968.982714	2543.262115
969.281462	2487.809423
969.580172	2450.000769
969.878844	2422.274423
970.177480	2467.644808
970.476078	2450.000769
970.774639	2497.891731
971.073162	2596.194231
971.371649	2520.576923
971.670098	2482.768269
971.968510	2525.618077
972.266885	2583.591346
972.565223	2497.891731
972.863524	2495.371154
973.161788	2535.700385
973.460014	2427.315577
973.758204	2470.165385
974.056356	2528.138654
974.354471	2432.356731
974.652550	2528.138654
974.950591	2467.644808
975.248595	2515.535769
975.546563	2528.138654
975.844493	2515.535769
976.142386	2472.685962
976.440243	2487.809423
976.738062	2477.727115
977.035845	2457.562500
977.333590	2492.850577
977.631299	2424.795000
977.928971	2457.562500
978.226606	2533.179808
978.524204	2497.891731
978.821765	2525.618077
979.119290	2472.685962
979.416777	2397.068654
979.714228	2540.741538
980.011642	2487.809423
980.309020	2613.838269
980.606360	2424.795000
980.903664	2462.603654
981.200931	2530.659231
981.498162	2558.385577
981.795356	2480.247692
982.092513	2477.727115
982.389633	2565.947308
982.686717	2439.918462
982.983764	2548.303269
983.280775	2444.959615
983.577749	2392.027500
983.874686	2513.015192
984.171587	2495.371154
984.468451	2417.233269
984.765279	2538.220962
985.062070	2576.029615
985.358824	2505.453462
985.655543	2457.562500
985.952224	2497.891731
986.248869	2432.356731
986.545478	2543.262115
986.842050	2422.274423
987.138586	2472.685962
987.435086	2452.521346
987.731549	2515.535769
988.027975	2525.618077
988.324366	2555.865000
988.620719	2500.412308
988.917037	2455.041923
989.213318	2457.562500
989.509563	2497.891731
989.805772	2427.315577
990.101944	2525.618077
990.398080	2432.356731
990.694180	2518.056346
990.990244	2432.356731
991.286271	2533.179808
991.582262	2467.644808
991.878217	2586.111923
992.174136	2386.986346
992.470019	2505.453462
992.765865	2460.083077
993.061676	2482.768269
993.357450	2472.685962
993.653188	2518.056346
993.948890	2659.208654
994.244556	2520.576923
994.540186	2510.494615
994.835780	2490.330000
995.131337	2523.097500
995.426859	2497.891731
995.722345	2485.288846
996.017795	2530.659231
996.313208	2525.618077
996.608586	2576.029615
996.903928	2513.015192
997.199234	2437.397885
997.494504	2409.671538
997.789738	2538.220962
998.084936	2467.644808
998.380099	2520.576923
998.675225	2502.932885
998.970316	2515.535769
999.265371	2462.603654
999.560390	2442.439038
999.855373	2490.330000
1000.150320	2419.753846
1000.445232	2412.192115
1000.740108	2505.453462
1001.034948	2460.083077
1001.329752	2510.494615
1001.624521	2515.535769
1001.919254	2510.494615
1002.213951	2452.521346
1002.508613	2495.371154
1002.803239	2576.029615
1003.097829	2507.974038
1003.392384	2465.124231
1003.686903	2495.371154
1003.981386	2381.945192
1004.275834	2523.097500
1004.570246	2497.891731
1004.864623	2417.233269
1005.158964	2472.685962
1005.453270	2545.782692
1005.747540	2586.111923
1006.041775	2437.397885
1006.335974	2422.274423
1006.630138	2565.947308
1006.924266	2457.562500
1007.218359	2442.439038
1007.512416	2538.220962
1007.806438	2424.795000
1008.100425	2507.974038
1008.394376	2407.150962
1008.688292	2505.453462
1008.982172	2407.150962
1009.276017	2472.685962
1009.569827	2492.850577
1009.863602	2437.397885
1010.157341	2497.891731
1010.451045	2482.768269
1010.744714	2480.247692
1011.038347	2505.453462
1011.331945	2593.673654
1011.625508	2507.974038
1011.919036	2505.453462
1012.212528	2555.865000
1012.505986	2452.521346
1012.799408	2480.247692
1013.092795	2457.562500
1013.386147	2447.480192
1013.679464	2467.644808
1013.972745	2505.453462
1014.265992	2465.124231
1014.559204	2492.850577
1014.852380	2447.480192
1015.145521	2457.562500
1015.438628	2518.056346
1015.731699	2462.603654
1016.024736	2500.412308
1016.317737	2457.562500
1016.610703	2523.097500
1016.903635	2477.727115
1017.196531	2510.494615
1017.489393	2495.371154
1017.782219	2528.138654
1018.075011	2429.836154
1018.367768	2467.644808
1018.660490	2450.000769
1018.953177	2450.000769
1019.245829	2450.000769
