Dividing Wavelength (nm)	Counts (n)	Blue Motor Position (mm): 0.000000	Red Motor Position (mm): 8.300000	
326.493990	2059.311346
326.888308	2059.311346
327.282561	2059.311346
327.676750	2074.434808
328.070874	2157.613846
328.464933	2107.202308
328.858929	2109.722885
329.252859	2104.681731
329.646726	2074.434808
330.040528	2066.873077
330.434265	2117.284615
330.827938	2076.955385
331.221547	2134.928654
331.615091	2145.010962
332.008571	2192.901923
332.401986	2127.366923
332.795338	2263.478077
333.188625	2326.492500
333.581847	2306.327885
333.975006	2311.369038
334.368100	2273.560385
334.761129	2276.080962
335.154095	2311.369038
335.546996	2386.986346
335.939833	2329.013077
336.332606	2361.780577
336.725315	2392.027500
337.117960	2470.165385
337.510540	2412.192115
337.903056	2439.918462
338.295508	2450.000769
338.687896	2475.206538
339.080220	2359.260000
339.472480	2510.494615
339.864676	2460.083077
340.256807	2510.494615
340.648875	2412.192115
341.040879	2429.836154
341.432818	2485.288846
341.824694	2434.877308
342.216506	2450.000769
342.608253	2480.247692
342.999937	2424.795000
343.391557	2437.397885
343.783113	2477.727115
344.174605	2505.453462
344.566033	2460.083077
344.957397	2427.315577
345.348697	2462.603654
345.739934	2407.150962
346.131106	2507.974038
346.522215	2394.548077
346.913260	2477.727115
347.304241	2429.836154
347.695159	2548.303269
348.086012	2457.562500
348.476802	2462.603654
348.867528	2437.397885
349.258191	2444.959615
349.648789	2457.562500
350.039324	2432.356731
350.429796	2450.000769
350.820203	2417.233269
351.210548	2472.685962
351.600828	2528.138654
351.991045	2419.753846
352.381198	2399.589231
352.771288	2477.727115
353.161314	2500.412308
353.551276	2467.644808
353.941175	2470.165385
354.331010	2450.000769
354.720782	2407.150962
355.110490	2379.424615
355.500135	2437.397885
355.889717	2359.260000
356.279235	2455.041923
356.668689	2427.315577
357.058080	2424.795000
357.447408	2477.727115
357.836672	2444.959615
358.225873	2361.780577
358.615010	2492.850577
359.004084	2472.685962
359.393095	2407.150962
359.782043	2507.974038
360.170927	2429.836154
360.559748	2409.671538
360.948505	2475.206538
361.337199	2437.397885
361.725830	2487.809423
362.114398	2409.671538
362.502903	2439.918462
362.891344	2397.068654
363.279722	2457.562500
363.668037	2427.315577
364.056289	2460.083077
364.444478	2399.589231
364.832603	2432.356731
365.220665	2507.974038
365.608665	2482.768269
365.996601	2384.465769
366.384474	2455.041923
366.772284	2510.494615
367.160031	2371.862885
367.547715	2480.247692
367.935336	2351.698269
368.322893	2412.192115
368.710388	2565.947308
369.097820	2470.165385
369.485189	2414.712692
369.872495	2500.412308
370.259738	2439.918462
370.646918	2361.780577
371.034035	2419.753846
371.421090	2427.315577
371.808081	2409.671538
372.195010	2550.823846
372.581875	2460.083077
372.968678	2510.494615
373.355418	2412.192115
373.742096	2520.576923
374.128710	2434.877308
374.515262	2490.330000
374.901751	2444.959615
375.288177	2455.041923
375.674540	2369.342308
376.060841	2432.356731
376.447079	2434.877308
376.833254	2477.727115
377.219367	2371.862885
377.605417	2444.959615
377.991404	2389.506923
378.377329	2462.603654
378.763191	2507.974038
379.148991	2439.918462
379.534727	2427.315577
379.920402	2500.412308
380.306013	2485.288846
380.691563	2507.974038
381.077049	2460.083077
381.462474	2497.891731
381.847835	2404.630385
382.233134	2507.974038
382.618371	2502.932885
383.003545	2434.877308
383.388657	2502.932885
383.773706	2457.562500
384.158693	2457.562500
384.543618	2419.753846
384.928480	2477.727115
385.313280	2439.918462
385.698017	2417.233269
386.082692	2457.562500
386.467305	2540.741538
386.851856	2427.315577
387.236344	2505.453462
387.620770	2437.397885
388.005133	2472.685962
388.389435	2429.836154
388.773674	2432.356731
389.157851	2427.315577
389.541965	2507.974038
389.926018	2414.712692
390.310008	2414.712692
390.693936	2550.823846
391.077802	2492.850577
391.461606	2407.150962
391.845348	2412.192115
392.229027	2482.768269
392.612645	2475.206538
392.996200	2374.383462
393.379694	2346.657115
393.763125	2480.247692
394.146494	2439.918462
394.529801	2528.138654
394.913047	2477.727115
395.296230	2437.397885
395.679351	2495.371154
396.062410	2480.247692
396.445408	2492.850577
396.828343	2452.521346
397.211217	2452.521346
397.594028	2412.192115
397.976778	2450.000769
398.359466	2520.576923
398.742092	2525.618077
399.124656	2490.330000
399.507158	2500.412308
399.889598	2525.618077
400.271977	2485.288846
400.654294	2437.397885
401.036549	2475.206538
401.418742	2460.083077
401.800874	2533.179808
402.182944	2472.685962
402.564952	2482.768269
402.946898	2366.821731
403.328783	2510.494615
403.710606	2480.247692
404.092367	2414.712692
404.474067	2429.836154
404.855705	2502.932885
405.237282	2480.247692
405.618797	2404.630385
406.000250	2457.562500
406.381642	2495.371154
406.762972	2444.959615
407.144240	2429.836154
407.525447	2507.974038
407.906593	2437.397885
408.287677	2477.727115
408.668700	2613.838269
409.049661	2500.412308
409.430560	2507.974038
409.811399	2412.192115
410.192176	2432.356731
410.572891	2460.083077
410.953545	2475.206538
411.334138	2513.015192
411.714669	2444.959615
412.095139	2515.535769
412.475547	2475.206538
412.855894	2376.904038
413.236180	2455.041923
413.616405	2472.685962
413.996568	2502.932885
414.376670	2371.862885
414.756711	2513.015192
415.136691	2447.480192
415.516609	2500.412308
415.896466	2475.206538
416.276262	2465.124231
416.655997	2540.741538
417.035670	2392.027500
417.415283	2500.412308
417.794834	2518.056346
418.174324	2507.974038
418.553753	2424.795000
418.933121	2439.918462
419.312428	2399.589231
419.691674	2477.727115
420.070859	2462.603654
420.449983	2588.632500
420.829045	2480.247692
421.208047	2495.371154
421.586988	2487.809423
421.965867	2490.330000
422.344686	2492.850577
422.723444	2601.235385
423.102141	2507.974038
423.480777	2513.015192
423.859352	2475.206538
424.237866	2439.918462
424.616319	2475.206538
424.994712	2447.480192
425.373044	2500.412308
425.751314	2502.932885
426.129524	2460.083077
426.507673	2472.685962
426.885762	2502.932885
427.263789	2450.000769
427.641756	2450.000769
428.019662	2455.041923
428.397508	2434.877308
428.775292	2570.988462
429.153016	2399.589231
429.530679	2490.330000
429.908282	2457.562500
430.285824	2507.974038
430.663305	2490.330000
431.040726	2560.906154
431.418086	2450.000769
431.795385	2477.727115
432.172624	2371.862885
432.549802	2460.083077
432.926920	2540.741538
433.303977	2444.959615
433.680974	2477.727115
434.057910	2480.247692
434.434786	2510.494615
434.811601	2465.124231
435.188355	2477.727115
435.565050	2457.562500
435.941683	2495.371154
436.318257	2429.836154
436.694770	2472.685962
437.071222	2397.068654
437.447614	2523.097500
437.823946	2472.685962
438.200218	2510.494615
438.576429	2439.918462
438.952580	2507.974038
439.328670	2480.247692
439.704700	2379.424615
440.080670	2480.247692
440.456580	2596.194231
440.832429	2457.562500
441.208218	2480.247692
441.583947	2480.247692
441.959616	2460.083077
442.335224	2437.397885
442.710773	2482.768269
443.086261	2465.124231
443.461689	2470.165385
443.837057	2470.165385
444.212365	2487.809423
444.587612	2460.083077
444.962800	2432.356731
445.337927	2535.700385
445.712995	2455.041923
446.088002	2477.727115
446.462949	2500.412308
446.837837	2485.288846
447.212664	2543.262115
447.587431	2386.986346
447.962139	2528.138654
448.336786	2460.083077
448.711374	2553.344423
449.085901	2550.823846
449.460369	2507.974038
449.834776	2472.685962
450.209124	2450.000769
450.583412	2550.823846
450.957640	2434.877308
451.331808	2523.097500
451.705917	2480.247692
452.079965	2545.782692
452.453954	2404.630385
452.827883	2538.220962
453.201752	2525.618077
453.575562	2495.371154
453.949311	2432.356731
454.323001	2462.603654
454.696632	2422.274423
455.070202	2447.480192
455.443713	2472.685962
455.817164	2450.000769
456.190556	2515.535769
456.563888	2505.453462
456.937160	2502.932885
457.310373	2520.576923
457.683526	2389.506923
458.056619	2427.315577
458.429653	2518.056346
458.802628	2480.247692
459.175542	2439.918462
459.548398	2444.959615
459.921194	2497.891731
460.293930	2487.809423
460.666607	2480.247692
461.039224	2470.165385
461.411782	2487.809423
461.784280	2518.056346
462.156719	2472.685962
462.529099	2560.906154
462.901419	2510.494615
463.273680	2462.603654
463.645882	2467.644808
464.018024	2535.700385
464.390106	2485.288846
464.762130	2460.083077
465.134094	2434.877308
465.505999	2502.932885
465.877845	2482.768269
466.249631	2412.192115
466.621358	2570.988462
466.993026	2548.303269
467.364634	2470.165385
467.736184	2394.548077
468.107674	2520.576923
468.479105	2409.671538
468.850477	2432.356731
469.221790	2429.836154
469.593043	2497.891731
469.964238	2510.494615
470.335373	2485.288846
470.706449	2510.494615
471.077467	2439.918462
471.448425	2467.644808
471.819324	2540.741538
472.190164	2492.850577
472.560945	2409.671538
472.931667	2540.741538
473.302330	2497.891731
473.672934	2490.330000
474.043479	2586.111923
474.413965	2500.412308
474.784393	2525.618077
475.154761	2442.439038
475.525070	2576.029615
475.895321	2452.521346
476.265513	2510.494615
476.635645	2487.809423
477.005719	2460.083077
477.375734	2497.891731
477.745691	2520.576923
478.115588	2475.206538
478.485427	2492.850577
478.855207	2460.083077
479.224928	2649.126346
479.594591	2505.453462
479.964194	2487.809423
480.333739	2475.206538
480.703226	2550.823846
481.072653	2487.809423
481.442022	2371.862885
481.811333	2528.138654
482.180584	2513.015192
482.549777	2429.836154
482.918912	2492.850577
483.287988	2520.576923
483.657005	2472.685962
484.025964	2470.165385
484.394864	2535.700385
484.763706	2465.124231
485.132489	2545.782692
485.501213	2500.412308
485.869879	2530.659231
486.238487	2502.932885
486.607036	2583.591346
486.975527	2477.727115
487.343959	2424.795000
487.712333	2490.330000
488.080648	2510.494615
488.448905	2394.548077
488.817104	2533.179808
489.185244	2497.891731
489.553326	2500.412308
489.921350	2460.083077
490.289315	2553.344423
490.657222	2525.618077
491.025070	2543.262115
491.392861	2555.865000
491.760593	2495.371154
492.128267	2485.288846
492.495883	2482.768269
492.863440	2530.659231
493.230939	2472.685962
493.598380	2533.179808
493.965763	2523.097500
494.333088	2429.836154
494.700354	2475.206538
495.067563	2450.000769
495.434713	2570.988462
495.801805	2434.877308
496.168839	2530.659231
496.535815	2507.974038
496.902733	2495.371154
497.269593	2490.330000
497.636395	2482.768269
498.003139	2455.041923
498.369825	2543.262115
498.736453	2452.521346
499.103023	2505.453462
499.469535	2550.823846
499.835989	2467.644808
500.202385	2500.412308
500.568723	2450.000769
500.935003	2462.603654
501.301226	2490.330000
501.667390	2477.727115
502.033497	2475.206538
502.399546	2545.782692
502.765537	2530.659231
503.131470	2505.453462
503.497345	2497.891731
503.863163	2447.480192
504.228923	2528.138654
504.594625	2540.741538
504.960269	2467.644808
505.325856	2578.550192
505.691385	2472.685962
506.056856	2417.233269
506.422270	2444.959615
506.787625	2427.315577
507.152924	2538.220962
507.518164	2475.206538
507.883347	2573.509038
508.248472	2502.932885
508.613540	2538.220962
508.978550	2412.192115
509.343503	2477.727115
509.708398	2520.576923
510.073236	2520.576923
510.438016	2513.015192
510.802738	2560.906154
511.167403	2558.385577
511.532010	2485.288846
511.896561	2439.918462
512.261053	2565.947308
512.625488	2510.494615
512.989866	2548.303269
513.354186	2538.220962
513.718449	2485.288846
514.082655	2477.727115
514.446803	2465.124231
514.810894	2492.850577
515.174927	2467.644808
515.538904	2507.974038
515.902822	2634.002885
516.266684	2422.274423
516.630488	2505.453462
516.994235	2457.562500
517.357925	2553.344423
517.721558	2460.083077
518.085133	2485.288846
518.448651	2513.015192
518.812112	2437.397885
519.175516	2540.741538
519.538863	2450.000769
519.902152	2538.220962
520.265385	2525.618077
520.628560	2553.344423
520.991678	2369.342308
521.354739	2545.782692
521.717743	2482.768269
522.080690	2457.562500
522.443580	2515.535769
522.806413	2439.918462
523.169189	2538.220962
523.531908	2475.206538
523.894569	2518.056346
524.257174	2543.262115
524.619722	2505.453462
524.982213	2553.344423
525.344647	2497.891731
525.707025	2472.685962
526.069345	2434.877308
526.431608	2447.480192
526.793815	2480.247692
527.155964	2523.097500
527.518057	2555.865000
527.880093	2447.480192
528.242072	2502.932885
528.603995	2485.288846
528.965860	2550.823846
529.327669	2568.467885
529.689421	2437.397885
530.051117	2510.494615
530.412755	2538.220962
530.774337	2495.371154
531.135862	2518.056346
531.497331	2467.644808
531.858743	2510.494615
532.220098	2442.439038
532.581396	2568.467885
532.942638	2502.932885
533.303824	2482.768269
533.664953	2490.330000
534.026025	2520.576923
534.387040	2507.974038
534.747999	2515.535769
535.108902	2510.494615
535.469748	2505.453462
535.830537	2560.906154
536.191270	2487.809423
536.551947	2487.809423
536.912567	2490.330000
537.273131	2543.262115
537.633638	2444.959615
537.994089	2487.809423
538.354483	2528.138654
538.714821	2515.535769
539.075103	2500.412308
539.435328	2558.385577
539.795497	2482.768269
540.155609	2422.274423
540.515665	2437.397885
540.875665	2495.371154
541.235609	2487.809423
541.595496	2480.247692
541.955328	2525.618077
542.315102	2462.603654
542.674821	2462.603654
543.034483	2437.397885
543.394090	2444.959615
543.753640	2533.179808
544.113134	2540.741538
544.472571	2465.124231
544.831953	2518.056346
545.191278	2452.521346
545.550548	2515.535769
545.909761	2510.494615
546.268918	2523.097500
546.628019	2447.480192
546.987064	2530.659231
547.346053	2518.056346
547.704986	2510.494615
548.063863	2394.548077
548.422684	2507.974038
548.781449	2429.836154
549.140158	2442.439038
549.498811	2510.494615
549.857408	2407.150962
550.215949	2482.768269
550.574434	2515.535769
550.932864	2485.288846
551.291237	2460.083077
551.649555	2457.562500
552.007817	2581.070769
552.366022	2467.644808
552.724173	2523.097500
553.082267	2444.959615
553.440305	2507.974038
553.798288	2480.247692
554.156215	2578.550192
554.514086	2444.959615
554.871902	2477.727115
555.229661	2482.768269
555.587365	2460.083077
555.945014	2553.344423
556.302606	2518.056346
556.660143	2457.562500
557.017625	2500.412308
557.375050	2530.659231
557.732421	2439.918462
558.089735	2558.385577
558.446994	2563.426731
558.804197	2555.865000
559.161345	2515.535769
559.518437	2525.618077
559.875474	2502.932885
560.232455	2470.165385
560.589381	2472.685962
560.946251	2583.591346
561.303065	2457.562500
561.659825	2444.959615
562.016528	2495.371154
562.373177	2424.795000
562.729770	2490.330000
563.086307	2573.509038
563.442789	2462.603654
563.799216	2472.685962
564.155587	2472.685962
564.511904	2480.247692
564.868164	2505.453462
565.224370	2510.494615
565.580520	2510.494615
565.936615	2450.000769
566.292654	2525.618077
566.648638	2482.768269
567.004567	2434.877308
567.360441	2530.659231
567.716260	2480.247692
568.072023	2392.027500
568.427732	2510.494615
568.783385	2467.644808
569.138982	2540.741538
569.494525	2439.918462
569.850013	2480.247692
570.205445	2455.041923
570.560823	2513.015192
570.916145	2500.412308
571.271412	2530.659231
571.626625	2424.795000
571.981782	2487.809423
572.336884	2505.453462
572.691931	2581.070769
573.046923	2465.124231
573.401860	2528.138654
573.756743	2452.521346
574.111570	2492.850577
574.466342	2434.877308
574.821059	2482.768269
575.175722	2482.768269
575.530330	2485.288846
575.884882	2419.753846
576.239380	2528.138654
576.593823	2490.330000
576.948211	2475.206538
577.302544	2578.550192
577.656823	2419.753846
578.011047	2432.356731
578.365216	2515.535769
578.719330	2507.974038
579.073389	2442.439038
579.427394	2389.506923
579.781344	2500.412308
580.135239	2523.097500
580.489080	2513.015192
580.842866	2404.630385
581.196597	2455.041923
581.550273	2525.618077
581.903895	2520.576923
582.257463	2515.535769
582.610975	2558.385577
582.964434	2568.467885
583.317837	2538.220962
583.671186	2525.618077
584.024481	2543.262115
584.377721	2452.521346
584.730906	2502.932885
585.084037	2507.974038
585.437113	2518.056346
585.790135	2591.153077
586.143103	2495.371154
586.496016	2500.412308
586.848874	2507.974038
587.201679	2432.356731
587.554428	2480.247692
587.907124	2518.056346
588.259765	2535.700385
588.612352	2543.262115
588.964884	2601.235385
589.317362	2480.247692
589.669786	2442.439038
590.022155	2518.056346
590.374470	2485.288846
590.726731	2570.988462
591.078937	2485.288846
591.431090	2545.782692
591.783188	2502.932885
592.135232	2543.262115
592.487222	2470.165385
592.839157	2513.015192
593.191038	2452.521346
593.542866	2535.700385
593.894639	2515.535769
594.246358	2439.918462
594.598022	2419.753846
594.949633	2490.330000
595.301190	2497.891731
595.652692	2538.220962
596.004141	2439.918462
596.355535	2505.453462
596.706876	2490.330000
597.058162	2442.439038
597.409395	2518.056346
597.760573	2500.412308
598.111698	2492.850577
598.462768	2515.535769
598.813785	2495.371154
599.164748	2497.891731
599.515657	2495.371154
599.866511	2550.823846
600.217312	2381.945192
600.568060	2518.056346
600.918753	2427.315577
601.269392	2432.356731
601.619978	2439.918462
601.970510	2455.041923
602.320988	2482.768269
602.671412	2502.932885
603.021783	2550.823846
603.372100	2480.247692
603.722363	2568.467885
604.072572	2535.700385
604.422728	2460.083077
604.772830	2424.795000
605.122878	2505.453462
605.472872	2518.056346
605.822813	2487.809423
606.172701	2545.782692
606.522534	2452.521346
606.872314	2543.262115
607.222041	2437.397885
607.571714	2543.262115
607.921333	2502.932885
608.270899	2465.124231
608.620411	2399.589231
608.969870	2528.138654
609.319276	2550.823846
609.668627	2485.288846
610.017926	2467.644808
610.367171	2545.782692
610.716362	2533.179808
611.065500	2545.782692
611.414585	2452.521346
611.763616	2492.850577
612.112594	2538.220962
612.461518	2455.041923
612.810389	2427.315577
613.159207	2480.247692
613.507971	2515.535769
613.856682	2487.809423
614.205340	2462.603654
614.553945	2502.932885
614.902496	2565.947308
615.250994	2538.220962
615.599439	2427.315577
615.947830	2586.111923
616.296169	2535.700385
616.644454	2533.179808
616.992686	2422.274423
617.340864	2482.768269
617.688990	2558.385577
618.037063	2502.932885
618.385082	2389.506923
618.733048	2505.453462
619.080961	2510.494615
619.428821	2518.056346
619.776628	2404.630385
620.124382	2530.659231
620.472083	2442.439038
620.819731	2470.165385
621.167326	2548.303269
621.514868	2518.056346
621.862357	2535.700385
622.209793	2439.918462
622.557176	2525.618077
622.904506	2432.356731
623.251783	2533.179808
623.599007	2548.303269
623.946179	2505.453462
624.293297	2543.262115
624.640363	2530.659231
624.987376	2460.083077
625.334336	2472.685962
625.681243	2487.809423
626.028097	2525.618077
626.374899	2465.124231
626.721647	2485.288846
627.068343	2550.823846
627.414987	2578.550192
627.761577	2588.632500
628.108115	2603.755962
628.454600	2482.768269
628.801032	2460.083077
629.147412	2523.097500
629.493739	2502.932885
629.840014	2530.659231
630.186236	2465.124231
630.532405	2540.741538
630.878521	2414.712692
631.224585	2515.535769
631.570597	2480.247692
631.916556	2467.644808
632.262462	2450.000769
632.608316	2553.344423
632.954117	2628.961731
633.299866	2480.247692
633.645562	2492.850577
633.991206	2540.741538
634.336797	2444.959615
634.682336	2482.768269
635.027823	2384.465769
635.373257	2525.618077
635.718639	2434.877308
636.063968	2533.179808
636.409245	2520.576923
636.754470	2538.220962
637.099642	2477.727115
637.444762	2538.220962
637.789829	2429.836154
638.134845	2545.782692
638.479808	2482.768269
638.824719	2548.303269
639.169577	2467.644808
639.514383	2384.465769
639.859137	2482.768269
640.203839	2525.618077
640.548489	2487.809423
640.893086	2477.727115
641.237632	2487.809423
641.582125	2480.247692
641.926566	2492.850577
642.270955	2507.974038
642.615292	2442.439038
642.959576	2528.138654
643.303809	2470.165385
643.647990	2470.165385
643.992118	2422.274423
644.336195	2384.465769
644.680219	2472.685962
645.024192	2460.083077
645.368112	2500.412308
645.711981	2465.124231
646.055797	2543.262115
646.399562	2510.494615
646.743274	2444.959615
647.086935	2409.671538
647.430544	2583.591346
647.774101	2424.795000
648.117606	2495.371154
648.461059	2442.439038
648.804460	2555.865000
649.147810	2500.412308
649.491108	2472.685962
649.834354	2507.974038
650.177548	2535.700385
650.520690	2442.439038
650.863781	2500.412308
651.206820	2606.276538
651.549807	2452.521346
651.892742	2523.097500
652.235626	2414.712692
652.578458	2525.618077
652.921238	2533.179808
653.263967	2429.836154
653.606644	2525.618077
653.949269	2487.809423
654.291843	2538.220962
654.634365	2475.206538
654.976836	2535.700385
655.319255	2497.891731
655.661622	2472.685962
656.003938	2548.303269
656.346203	2447.480192
656.688416	2492.850577
657.030577	2548.303269
657.372687	2525.618077
657.714746	2482.768269
658.056753	2437.397885
658.398708	2540.741538
658.740612	2538.220962
659.082465	2518.056346
659.424266	2525.618077
659.766016	2447.480192
660.107715	2520.576923
660.449362	2558.385577
660.790958	2502.932885
661.132503	2497.891731
661.473996	2462.603654
661.815438	2470.165385
662.156829	2487.809423
662.498168	2434.877308
662.839456	2568.467885
663.180693	2460.083077
663.521879	2465.124231
663.863013	2447.480192
664.204097	2548.303269
664.545129	2578.550192
664.886110	2545.782692
665.227040	2518.056346
665.567918	2427.315577
665.908746	2462.603654
666.249522	2502.932885
666.590248	2528.138654
666.930922	2482.768269
667.271545	2548.303269
667.612118	2429.836154
667.952639	2525.618077
668.293109	2543.262115
668.633528	2510.494615
668.973896	2553.344423
669.314213	2565.947308
669.654480	2497.891731
669.994695	2490.330000
670.334859	2500.412308
670.674973	2480.247692
671.015035	2457.562500
671.355047	2507.974038
671.695008	2450.000769
672.034918	2485.288846
672.374777	2515.535769
672.714585	2548.303269
673.054342	2477.727115
673.394049	2570.988462
673.733705	2482.768269
674.073310	2518.056346
674.412864	2477.727115
674.752368	2603.755962
675.091820	2570.988462
675.431223	2510.494615
675.770574	2482.768269
676.109875	2568.467885
676.449125	2480.247692
676.788324	2520.576923
677.127473	2500.412308
677.466571	2545.782692
677.805619	2472.685962
678.144616	2490.330000
678.483562	2500.412308
678.822458	2460.083077
679.161303	2507.974038
679.500098	2485.288846
679.838842	2465.124231
680.177535	2470.165385
680.516179	2535.700385
680.854771	2402.109808
681.193314	2472.685962
681.531805	2437.397885
681.870247	2510.494615
682.208638	2386.986346
682.546978	2550.823846
682.885268	2490.330000
683.223508	2518.056346
683.561697	2500.412308
683.899836	2538.220962
684.237925	2565.947308
684.575963	2611.317692
684.913951	2442.439038
685.251889	2485.288846
685.589776	2578.550192
685.927614	2513.015192
686.265401	2545.782692
686.603137	2520.576923
686.940824	2553.344423
687.278460	2523.097500
687.616046	2601.235385
687.953582	2518.056346
688.291068	2520.576923
688.628504	2455.041923
688.965889	2545.782692
689.303224	2515.535769
689.640510	2523.097500
689.977745	2429.836154
690.314930	2528.138654
690.652065	2427.315577
690.989150	2507.974038
691.326185	2560.906154
691.663170	2475.206538
692.000105	2578.550192
692.336990	2523.097500
692.673825	2518.056346
693.010610	2560.906154
693.347345	2487.809423
693.684030	2507.974038
694.020665	2490.330000
694.357251	2507.974038
694.693786	2510.494615
695.030272	2497.891731
695.366707	2502.932885
695.703093	2444.959615
696.039429	2452.521346
696.375716	2525.618077
696.711952	2422.274423
697.048139	2560.906154
697.384276	2442.439038
697.720363	2485.288846
698.056400	2452.521346
698.392388	2460.083077
698.728326	2490.330000
699.064214	2616.358846
699.400053	2457.562500
699.735842	2505.453462
700.071581	2515.535769
700.407270	2500.412308
700.742910	2502.932885
701.078501	2497.891731
701.414042	2477.727115
701.749533	2528.138654
702.084974	2480.247692
702.420366	2510.494615
702.755709	2553.344423
703.091002	2442.439038
703.426246	2492.850577
703.761440	2540.741538
704.096584	2480.247692
704.431679	2505.453462
704.766725	2470.165385
705.101721	2530.659231
705.436668	2495.371154
705.771565	2555.865000
706.106413	2482.768269
706.441212	2409.671538
706.775961	2500.412308
707.110661	2482.768269
707.445311	2558.385577
707.779913	2500.412308
708.114465	2570.988462
708.448967	2495.371154
708.783421	2530.659231
709.117825	2492.850577
709.452180	2530.659231
709.786485	2460.083077
710.120742	2502.932885
710.454949	2495.371154
710.789107	2565.947308
711.123216	2424.795000
711.457275	2434.877308
711.791286	2520.576923
712.125247	2487.809423
712.459159	2447.480192
712.793023	2407.150962
713.126837	2533.179808
713.460602	2515.535769
713.794318	2502.932885
714.127985	2533.179808
714.461602	2497.891731
714.795171	2500.412308
715.128691	2548.303269
715.462162	2444.959615
715.795584	2455.041923
716.128957	2558.385577
716.462281	2455.041923
716.795556	2513.015192
717.128782	2497.891731
717.461960	2598.714808
717.795088	2543.262115
718.128167	2502.932885
718.461198	2510.494615
718.794180	2467.644808
719.127113	2543.262115
719.459997	2465.124231
719.792833	2424.795000
720.125619	2490.330000
720.458357	2523.097500
720.791046	2576.029615
721.123686	2523.097500
721.456278	2497.891731
721.788821	2475.206538
722.121315	2505.453462
722.453761	2472.685962
722.786158	2495.371154
723.118506	2472.685962
723.450805	2598.714808
723.783056	2467.644808
724.115259	2540.741538
724.447412	2538.220962
724.779518	2404.630385
725.111574	2507.974038
725.443582	2523.097500
725.775542	2520.576923
726.107453	2543.262115
726.439315	2568.467885
726.771129	2583.591346
727.102895	2545.782692
727.434612	2535.700385
727.766281	2530.659231
728.097901	2507.974038
728.429473	2525.618077
728.760996	2583.591346
729.092471	2497.891731
729.423897	2450.000769
729.755276	2412.192115
730.086606	2487.809423
730.417887	2439.918462
730.749120	2432.356731
731.080305	2505.453462
731.411442	2404.630385
731.742530	2487.809423
732.073570	2505.453462
732.404562	2581.070769
732.735506	2583.591346
733.066401	2482.768269
733.397249	2472.685962
733.728048	2472.685962
734.058798	2495.371154
734.389501	2409.671538
734.720156	2495.371154
735.050762	2535.700385
735.381320	2525.618077
735.711831	2467.644808
736.042293	2555.865000
736.372707	2518.056346
736.703073	2462.603654
737.033391	2427.315577
737.363661	2578.550192
737.693883	2538.220962
738.024056	2528.138654
738.354182	2434.877308
738.684260	2543.262115
739.014290	2381.945192
739.344272	2507.974038
739.674207	2533.179808
740.004093	2482.768269
740.333931	2470.165385
740.663722	2515.535769
740.993464	2487.809423
741.323159	2601.235385
741.652806	2515.535769
741.982405	2500.412308
742.311956	2477.727115
742.641460	2502.932885
742.970915	2455.041923
743.300323	2538.220962
743.629683	2495.371154
743.958996	2472.685962
744.288260	2485.288846
744.617477	2487.809423
744.946647	2472.685962
745.275768	2427.315577
745.604842	2455.041923
745.933869	2492.850577
746.262847	2513.015192
746.591778	2495.371154
746.920662	2366.821731
747.249498	2507.974038
747.578286	2520.576923
747.907027	2530.659231
748.235720	2533.179808
748.564365	2528.138654
748.892963	2518.056346
749.221514	2510.494615
749.550017	2500.412308
749.878473	2470.165385
750.206881	2502.932885
750.535242	2548.303269
750.863555	2510.494615
751.191821	2550.823846
751.520039	2525.618077
751.848210	2515.535769
752.176334	2548.303269
752.504411	2505.453462
752.832440	2495.371154
753.160421	2507.974038
753.488356	2513.015192
753.816243	2427.315577
754.144082	2593.673654
754.471875	2472.685962
754.799620	2482.768269
755.127318	2490.330000
755.454969	2432.356731
755.782572	2550.823846
756.110129	2500.412308
756.437638	2495.371154
756.765100	2530.659231
757.092515	2480.247692
757.419882	2505.453462
757.747203	2460.083077
758.074477	2417.233269
758.401703	2525.618077
758.728882	2475.206538
759.056014	2543.262115
759.383099	2450.000769
759.710138	2487.809423
760.037129	2457.562500
760.364073	2477.727115
760.690970	2450.000769
761.017820	2565.947308
761.344623	2553.344423
761.671379	2437.397885
761.998088	2492.850577
762.324751	2555.865000
762.651366	2487.809423
762.977935	2495.371154
763.304456	2487.809423
763.630931	2530.659231
763.957359	2417.233269
764.283740	2528.138654
764.610074	2507.974038
764.936362	2548.303269
765.262602	2560.906154
765.588796	2518.056346
765.914943	2513.015192
766.241044	2472.685962
766.567097	2462.603654
766.893104	2576.029615
767.219064	2513.015192
767.544978	2460.083077
767.870845	2490.330000
768.196665	2414.712692
768.522438	2513.015192
768.848165	2470.165385
769.173846	2439.918462
769.499479	2601.235385
769.825066	2487.809423
770.150607	2560.906154
770.476101	2455.041923
770.801548	2530.659231
771.126949	2505.453462
771.452303	2457.562500
771.777611	2591.153077
772.102872	2447.480192
772.428087	2550.823846
772.753256	2447.480192
773.078378	2442.439038
773.403453	2455.041923
773.728482	2523.097500
774.053465	2520.576923
774.378401	2518.056346
774.703291	2444.959615
775.028135	2513.015192
775.352932	2500.412308
775.677683	2465.124231
776.002388	2507.974038
776.327046	2543.262115
776.651658	2485.288846
776.976224	2470.165385
777.300743	2518.056346
777.625216	2523.097500
777.949643	2540.741538
778.274024	2533.179808
778.598359	2455.041923
778.922647	2376.904038
779.246889	2535.700385
779.571086	2530.659231
779.895236	2520.576923
780.219339	2533.179808
780.543397	2492.850577
780.867409	2492.850577
781.191374	2444.959615
781.515294	2545.782692
781.839167	2460.083077
782.162995	2515.535769
782.486776	2520.576923
782.810511	2528.138654
783.134201	2513.015192
783.457844	2495.371154
783.781441	2487.809423
784.104993	2429.836154
784.428498	2523.097500
784.751958	2581.070769
785.075372	2518.056346
785.398739	2513.015192
785.722061	2540.741538
786.045337	2530.659231
786.368568	2591.153077
786.691752	2523.097500
787.014891	2510.494615
787.337983	2490.330000
787.661030	2515.535769
787.984031	2444.959615
788.306987	2591.153077
788.629897	2480.247692
788.952760	2505.453462
789.275579	2497.891731
789.598351	2472.685962
789.921078	2490.330000
790.243759	2591.153077
790.566395	2462.603654
790.888984	2507.974038
791.211529	2444.959615
791.534027	2540.741538
791.856480	2480.247692
792.178888	2500.412308
792.501249	2447.480192
792.823566	2558.385577
793.145836	2460.083077
793.468062	2505.453462
793.790241	2424.795000
794.112375	2477.727115
794.434464	2477.727115
794.756507	2500.412308
795.078505	2402.109808
795.400457	2457.562500
795.722364	2462.603654
796.044226	2528.138654
796.366042	2480.247692
796.687812	2576.029615
797.009538	2502.932885
797.331218	2480.247692
797.652852	2447.480192
797.974442	2460.083077
798.295986	2492.850577
798.617484	2485.288846
798.938938	2520.576923
799.260346	2523.097500
799.581709	2470.165385
799.903026	2490.330000
800.224299	2507.974038
800.545526	2576.029615
800.866708	2455.041923
801.187845	2500.412308
801.508936	2495.371154
801.829983	2442.439038
802.150984	2442.439038
802.471940	2538.220962
802.792851	2555.865000
803.113717	2613.838269
803.434538	2460.083077
803.755314	2450.000769
804.076045	2462.603654
804.396731	2528.138654
804.717372	2485.288846
805.037967	2495.371154
805.358518	2576.029615
805.679024	2455.041923
805.999485	2477.727115
806.319901	2497.891731
806.640272	2482.768269
806.960598	2497.891731
807.280879	2533.179808
807.601115	2543.262115
807.921306	2523.097500
808.241453	2480.247692
808.561554	2507.974038
808.881611	2480.247692
809.201623	2485.288846
809.521590	2465.124231
809.841513	2480.247692
810.161390	2497.891731
810.481223	2570.988462
810.801011	2432.356731
811.120755	2568.467885
811.440453	2500.412308
811.760107	2482.768269
812.079716	2520.576923
812.399281	2495.371154
812.718801	2497.891731
813.038276	2525.618077
813.357707	2626.441154
813.677093	2470.165385
813.996434	2417.233269
814.315731	2563.426731
814.634983	2507.974038
814.954191	2492.850577
815.273354	2565.947308
815.592473	2563.426731
815.911547	2434.877308
816.230577	2523.097500
816.549562	2475.206538
816.868502	2518.056346
817.187399	2545.782692
817.506250	2492.850577
817.825058	2515.535769
818.143821	2497.891731
818.462539	2407.150962
818.781213	2528.138654
819.099843	2470.165385
819.418429	2533.179808
819.736970	2502.932885
820.055466	2502.932885
820.373919	2437.397885
820.692327	2460.083077
821.010691	2555.865000
821.329011	2419.753846
821.647286	2429.836154
821.965517	2462.603654
822.283704	2470.165385
822.601847	2502.932885
822.919945	2439.918462
823.237999	2480.247692
823.556010	2450.000769
823.873976	2434.877308
824.191897	2490.330000
824.509775	2490.330000
824.827609	2475.206538
825.145398	2424.795000
825.463144	2442.439038
825.780845	2465.124231
826.098502	2460.083077
826.416116	2523.097500
826.733685	2502.932885
827.051210	2505.453462
827.368692	2482.768269
827.686129	2525.618077
828.003522	2460.083077
828.320872	2560.906154
828.638177	2538.220962
828.955439	2450.000769
829.272656	2518.056346
829.589830	2444.959615
829.906960	2495.371154
830.224046	2548.303269
830.541088	2394.548077
830.858086	2502.932885
831.175041	2497.891731
831.491952	2497.891731
831.808819	2457.562500
832.125642	2553.344423
832.442421	2525.618077
832.759157	2497.891731
833.075849	2462.603654
833.392497	2507.974038
833.709101	2560.906154
834.025662	2523.097500
834.342179	2477.727115
834.658653	2510.494615
834.975083	2462.603654
835.291469	2495.371154
835.607811	2455.041923
835.924110	2558.385577
836.240366	2439.918462
836.556578	2495.371154
836.872746	2482.768269
837.188871	2497.891731
837.504952	2397.068654
837.820990	2550.823846
838.136984	2477.727115
838.452935	2475.206538
838.768842	2472.685962
839.084706	2543.262115
839.400526	2485.288846
839.716303	2538.220962
840.032037	2457.562500
840.347727	2455.041923
840.663373	2490.330000
840.978977	2487.809423
841.294537	2548.303269
841.610054	2477.727115
841.925527	2507.974038
842.240957	2465.124231
842.556344	2533.179808
842.871687	2513.015192
843.186987	2533.179808
843.502244	2497.891731
843.817458	2442.439038
844.132629	2530.659231
844.447756	2545.782692
844.762840	2444.959615
845.077881	2397.068654
845.392879	2525.618077
845.707833	2475.206538
846.022745	2513.015192
846.337613	2497.891731
846.652438	2533.179808
846.967221	2432.356731
847.281960	2447.480192
847.596656	2500.412308
847.911309	2528.138654
848.225919	2465.124231
848.540485	2500.412308
848.855009	2507.974038
849.169490	2535.700385
849.483928	2502.932885
849.798323	2553.344423
850.112675	2550.823846
850.426984	2573.509038
850.741251	2457.562500
851.055474	2424.795000
851.369654	2495.371154
851.683792	2530.659231
851.997887	2480.247692
852.311938	2447.480192
852.625947	2548.303269
852.939914	2472.685962
853.253837	2495.371154
853.567718	2359.260000
853.881555	2397.068654
854.195350	2477.727115
854.509103	2465.124231
854.822812	2482.768269
855.136479	2475.206538
855.450103	2528.138654
855.763685	2528.138654
856.077224	2477.727115
856.390720	2394.548077
856.704173	2533.179808
857.017584	2543.262115
857.330953	2548.303269
857.644278	2371.862885
857.957561	2502.932885
858.270802	2510.494615
858.584000	2450.000769
858.897155	2492.850577
859.210268	2455.041923
859.523339	2581.070769
859.836367	2465.124231
860.149352	2545.782692
860.462295	2460.083077
860.775195	2502.932885
861.088054	2596.194231
861.400869	2523.097500
861.713642	2422.274423
862.026373	2505.453462
862.339062	2525.618077
862.651708	2462.603654
862.964312	2495.371154
863.276873	2414.712692
863.589392	2523.097500
863.901869	2492.850577
864.214303	2465.124231
864.526696	2487.809423
864.839045	2427.315577
865.151353	2510.494615
865.463619	2444.959615
865.775842	2507.974038
866.088023	2533.179808
866.400162	2518.056346
866.712258	2460.083077
867.024313	2437.397885
867.336325	2497.891731
867.648296	2520.576923
867.960224	2497.891731
868.272110	2465.124231
868.583954	2518.056346
868.895755	2528.138654
869.207515	2550.823846
869.519233	2467.644808
869.830909	2528.138654
870.142542	2407.150962
870.454134	2447.480192
870.765684	2429.836154
871.077191	2487.809423
871.388657	2543.262115
871.700081	2523.097500
872.011463	2492.850577
872.322803	2495.371154
872.634101	2497.891731
872.945357	2555.865000
873.256571	2525.618077
873.567744	2560.906154
873.878874	2452.521346
874.189963	2518.056346
874.501010	2467.644808
874.812015	2518.056346
875.122979	2434.877308
875.433900	2470.165385
875.744780	2477.727115
876.055618	2553.344423
876.366415	2457.562500
876.677169	2578.550192
876.987882	2460.083077
877.298554	2538.220962
877.609183	2439.918462
877.919771	2457.562500
878.230317	2492.850577
878.540822	2576.029615
878.851285	2462.603654
879.161707	2530.659231
879.472087	2482.768269
879.782425	2550.823846
880.092722	2507.974038
880.402977	2470.165385
880.713191	2510.494615
881.023363	2555.865000
881.333494	2530.659231
881.643583	2482.768269
881.953631	2495.371154
882.263637	2570.988462
882.573602	2487.809423
882.883526	2450.000769
883.193408	2550.823846
883.503248	2538.220962
883.813048	2505.453462
884.122806	2507.974038
884.432522	2530.659231
884.742197	2550.823846
885.051831	2462.603654
885.361424	2462.603654
885.670975	2412.192115
885.980485	2374.383462
886.289954	2500.412308
886.599382	2505.453462
886.908768	2581.070769
887.218113	2515.535769
887.527417	2507.974038
887.836680	2515.535769
888.145901	2497.891731
888.455082	2586.111923
888.764221	2467.644808
889.073319	2447.480192
889.382376	2482.768269
889.691392	2502.932885
890.000366	2457.562500
890.309300	2538.220962
890.618193	2482.768269
890.927044	2540.741538
891.235855	2520.576923
891.544625	2502.932885
891.853353	2502.932885
892.162041	2465.124231
892.470687	2525.618077
892.779293	2500.412308
893.087858	2485.288846
893.396381	2490.330000
893.704864	2513.015192
894.013306	2462.603654
894.321707	2444.959615
894.630068	2472.685962
894.938387	2545.782692
895.246665	2495.371154
895.554903	2485.288846
895.863100	2497.891731
896.171256	2450.000769
896.479371	2492.850577
896.787446	2507.974038
897.095480	2502.932885
897.403473	2507.974038
897.711425	2510.494615
898.019336	2480.247692
898.327207	2507.974038
898.635038	2565.947308
898.942827	2472.685962
899.250576	2500.412308
899.558284	2465.124231
899.865952	2618.879423
900.173579	2523.097500
900.481165	2535.700385
900.788711	2490.330000
901.096216	2392.027500
901.403681	2457.562500
901.711105	2500.412308
902.018489	2497.891731
902.325832	2399.589231
902.633135	2525.618077
902.940397	2482.768269
903.247619	2500.412308
903.554800	2477.727115
903.861941	2495.371154
904.169041	2472.685962
904.476101	2520.576923
904.783121	2505.453462
905.090100	2548.303269
905.397039	2573.509038
905.703938	2444.959615
906.010796	2530.659231
906.317614	2427.315577
906.624391	2442.439038
906.931129	2455.041923
907.237826	2548.303269
907.544483	2530.659231
907.851099	2457.562500
908.157675	2545.782692
908.464211	2457.562500
908.770707	2523.097500
909.077163	2500.412308
909.383578	2563.426731
909.689954	2482.768269
909.996289	2518.056346
910.302584	2455.041923
910.608839	2510.494615
910.915054	2424.795000
911.221229	2450.000769
911.527363	2528.138654
911.833458	2452.521346
912.139513	2434.877308
912.445527	2397.068654
912.751502	2560.906154
913.057436	2442.439038
913.363331	2591.153077
913.669186	2523.097500
913.975000	2507.974038
914.280775	2565.947308
914.586510	2525.618077
914.892205	2545.782692
915.197859	2460.083077
915.503475	2502.932885
915.809050	2563.426731
916.114585	2452.521346
916.420081	2528.138654
916.725536	2480.247692
917.030952	2560.906154
917.336328	2505.453462
917.641665	2495.371154
917.946961	2523.097500
918.252218	2490.330000
918.557435	2439.918462
918.862612	2502.932885
919.167750	2518.056346
919.472848	2465.124231
919.777906	2470.165385
920.082925	2490.330000
920.387904	2515.535769
920.692843	2472.685962
920.997743	2482.768269
921.302603	2581.070769
921.607423	2485.288846
921.912204	2442.439038
922.216946	2490.330000
922.521647	2510.494615
922.826310	2515.535769
923.130932	2452.521346
923.435516	2515.535769
923.740059	2515.535769
924.044564	2505.453462
924.349028	2563.426731
924.653454	2525.618077
924.957840	2482.768269
925.262186	2533.179808
925.566493	2457.562500
925.870761	2480.247692
926.174989	2553.344423
926.479178	2495.371154
926.783328	2500.412308
927.087438	2528.138654
927.391509	2555.865000
927.695541	2545.782692
927.999533	2502.932885
928.303486	2439.918462
928.607400	2528.138654
928.911275	2447.480192
929.215110	2523.097500
929.518906	2500.412308
929.822663	2505.453462
930.126381	2452.521346
930.430060	2528.138654
930.733699	2490.330000
931.037299	2480.247692
931.340861	2427.315577
931.644383	2450.000769
931.947866	2467.644808
932.251309	2495.371154
932.554714	2515.535769
932.858080	2487.809423
933.161407	2455.041923
933.464694	2518.056346
933.767943	2492.850577
934.071153	2558.385577
934.374323	2543.262115
934.677455	2432.356731
934.980548	2523.097500
935.283602	2535.700385
935.586617	2472.685962
935.889593	2465.124231
936.192530	2450.000769
936.495428	2515.535769
936.798287	2497.891731
937.101108	2570.988462
937.403890	2432.356731
937.706632	2444.959615
938.009336	2467.644808
938.312002	2497.891731
938.614628	2470.165385
938.917216	2424.795000
939.219765	2482.768269
939.522275	2407.150962
939.824747	2376.904038
940.127179	2485.288846
940.429573	2543.262115
940.731929	2545.782692
941.034246	2513.015192
941.336524	2467.644808
941.638763	2533.179808
941.940964	2439.918462
942.243126	2407.150962
942.545250	2480.247692
942.847335	2533.179808
943.149381	2500.412308
943.451389	2505.453462
943.753359	2507.974038
944.055290	2540.741538
944.357182	2495.371154
944.659036	2490.330000
944.960851	2452.521346
945.262628	2442.439038
945.564367	2555.865000
945.866067	2422.274423
946.167729	2429.836154
946.469352	2485.288846
946.770937	2480.247692
947.072484	2563.426731
947.373992	2475.206538
947.675462	2560.906154
947.976893	2513.015192
948.278286	2520.576923
948.579641	2515.535769
948.880958	2558.385577
949.182236	2485.288846
949.483476	2505.453462
949.784678	2480.247692
950.085841	2513.015192
950.386967	2492.850577
950.688054	2477.727115
950.989103	2548.303269
951.290114	2510.494615
951.591087	2515.535769
951.892021	2520.576923
952.192917	2533.179808
952.493776	2507.974038
952.794596	2505.453462
953.095378	2437.397885
953.396122	2394.548077
953.696828	2525.618077
953.997496	2497.891731
954.298126	2487.809423
954.598718	2558.385577
954.899272	2452.521346
955.199788	2492.850577
955.500266	2502.932885
955.800706	2422.274423
956.101108	2548.303269
956.401472	2520.576923
956.701798	2409.671538
957.002087	2540.741538
957.302337	2581.070769
957.602550	2452.521346
957.902724	2475.206538
958.202861	2455.041923
958.502960	2530.659231
958.803022	2565.947308
959.103045	2485.288846
959.403031	2381.945192
959.702979	2381.945192
960.002889	2465.124231
960.302762	2417.233269
960.602596	2417.233269
960.902393	2505.453462
961.202153	2455.041923
961.501875	2472.685962
961.801559	2462.603654
962.101205	2472.685962
962.400814	2507.974038
962.700385	2472.685962
962.999918	2455.041923
963.299414	2505.453462
963.598873	2460.083077
963.898293	2518.056346
964.197677	2485.288846
964.497022	2462.603654
964.796331	2492.850577
965.095601	2465.124231
965.394835	2447.480192
965.694030	2397.068654
965.993189	2495.371154
966.292309	2450.000769
966.591393	2548.303269
966.890439	2432.356731
967.189447	2472.685962
967.488419	2578.550192
967.787353	2455.041923
968.086249	2442.439038
968.385108	2510.494615
968.683930	2429.836154
968.982714	2513.015192
969.281462	2447.480192
969.580172	2530.659231
969.878844	2434.877308
970.177480	2535.700385
970.476078	2455.041923
970.774639	2457.562500
971.073162	2576.029615
971.371649	2482.768269
971.670098	2487.809423
971.968510	2583.591346
972.266885	2502.932885
972.565223	2548.303269
972.863524	2480.247692
973.161788	2548.303269
973.460014	2429.836154
973.758204	2455.041923
974.056356	2477.727115
974.354471	2470.165385
974.652550	2447.480192
974.950591	2409.671538
975.248595	2502.932885
975.546563	2507.974038
975.844493	2460.083077
976.142386	2487.809423
976.440243	2490.330000
976.738062	2434.877308
977.035845	2492.850577
977.333590	2495.371154
977.631299	2477.727115
977.928971	2480.247692
978.226606	2467.644808
978.524204	2540.741538
978.821765	2437.397885
979.119290	2487.809423
979.416777	2424.795000
979.714228	2452.521346
980.011642	2480.247692
980.309020	2502.932885
980.606360	2457.562500
980.903664	2518.056346
981.200931	2545.782692
981.498162	2450.000769
981.795356	2414.712692
982.092513	2487.809423
982.389633	2548.303269
982.686717	2452.521346
982.983764	2530.659231
983.280775	2482.768269
983.577749	2472.685962
983.874686	2502.932885
984.171587	2495.371154
984.468451	2475.206538
984.765279	2495.371154
985.062070	2439.918462
985.358824	2540.741538
985.655543	2578.550192
985.952224	2523.097500
986.248869	2442.439038
986.545478	2581.070769
986.842050	2480.247692
987.138586	2452.521346
987.435086	2450.000769
987.731549	2480.247692
988.027975	2460.083077
988.324366	2485.288846
988.620719	2545.782692
988.917037	2550.823846
989.213318	2621.400000
989.509563	2450.000769
989.805772	2422.274423
990.101944	2507.974038
990.398080	2535.700385
990.694180	2500.412308
990.990244	2450.000769
991.286271	2490.330000
991.582262	2502.932885
991.878217	2472.685962
992.174136	2515.535769
992.470019	2505.453462
992.765865	2485.288846
993.061676	2439.918462
993.357450	2535.700385
993.653188	2497.891731
993.948890	2497.891731
994.244556	2477.727115
994.540186	2505.453462
994.835780	2472.685962
995.131337	2402.109808
995.426859	2548.303269
995.722345	2371.862885
996.017795	2452.521346
996.313208	2455.041923
996.608586	2470.165385
996.903928	2472.685962
997.199234	2455.041923
997.494504	2480.247692
997.789738	2442.439038
998.084936	2545.782692
998.380099	2515.535769
998.675225	2462.603654
998.970316	2480.247692
999.265371	2480.247692
999.560390	2452.521346
999.855373	2507.974038
1000.150320	2444.959615
1000.445232	2480.247692
1000.740108	2434.877308
1001.034948	2505.453462
1001.329752	2442.439038
1001.624521	2452.521346
1001.919254	2475.206538
1002.213951	2437.397885
1002.508613	2437.397885
1002.803239	2455.041923
1003.097829	2424.795000
1003.392384	2437.397885
1003.686903	2507.974038
1003.981386	2497.891731
1004.275834	2518.056346
1004.570246	2407.150962
1004.864623	2533.179808
1005.158964	2507.974038
1005.453270	2523.097500
1005.747540	2523.097500
1006.041775	2467.644808
1006.335974	2460.083077
1006.630138	2513.015192
1006.924266	2424.795000
1007.218359	2465.124231
1007.512416	2397.068654
1007.806438	2535.700385
1008.100425	2460.083077
1008.394376	2528.138654
1008.688292	2442.439038
1008.982172	2492.850577
1009.276017	2477.727115
1009.569827	2424.795000
1009.863602	2528.138654
1010.157341	2495.371154
1010.451045	2424.795000
1010.744714	2518.056346
1011.038347	2487.809423
1011.331945	2492.850577
1011.625508	2497.891731
1011.919036	2553.344423
1012.212528	2497.891731
1012.505986	2477.727115
1012.799408	2535.700385
1013.092795	2528.138654
1013.386147	2434.877308
1013.679464	2482.768269
1013.972745	2492.850577
1014.265992	2568.467885
1014.559204	2462.603654
1014.852380	2477.727115
1015.145521	2450.000769
1015.438628	2475.206538
1015.731699	2427.315577
1016.024736	2500.412308
1016.317737	2523.097500
1016.610703	2515.535769
1016.903635	2568.467885
1017.196531	2497.891731
1017.489393	2505.453462
1017.782219	2470.165385
1018.075011	2487.809423
1018.367768	2502.932885
1018.660490	2523.097500
1018.953177	2523.097500
1019.245829	2523.097500
