Dividing Wavelength (nm)	Counts (n)	Blue Motor Position (mm): 0.000000	Red Motor Position (mm): 0.900000	
326.493990	2117.284615
326.888308	2117.284615
327.282561	2117.284615
327.676750	2089.558269
328.070874	2099.640577
328.464933	2142.490385
328.858929	2059.311346
329.252859	2104.681731
329.646726	2137.449231
330.040528	2142.490385
330.434265	2129.887500
330.827938	2117.284615
331.221547	2195.422500
331.615091	2223.148846
332.008571	2170.216731
332.401986	2258.436923
332.795338	2197.943077
333.188625	2235.751731
333.581847	2240.792885
333.975006	2273.560385
334.368100	2298.766154
334.761129	2233.231154
335.154095	2271.039808
335.546996	2344.136538
335.939833	2376.904038
336.332606	2444.959615
336.725315	2442.439038
337.117960	2404.630385
337.510540	2417.233269
337.903056	2462.603654
338.295508	2392.027500
338.687896	2409.671538
339.080220	2371.862885
339.472480	2528.138654
339.864676	2394.548077
340.256807	2450.000769
340.648875	2515.535769
341.040879	2429.836154
341.432818	2472.685962
341.824694	2472.685962
342.216506	2565.947308
342.608253	2462.603654
342.999937	2500.412308
343.391557	2490.330000
343.783113	2490.330000
344.174605	2422.274423
344.566033	2505.453462
344.957397	2460.083077
345.348697	2500.412308
345.739934	2394.548077
346.131106	2465.124231
346.522215	2497.891731
346.913260	2490.330000
347.304241	2490.330000
347.695159	2447.480192
348.086012	2462.603654
348.476802	2482.768269
348.867528	2424.795000
349.258191	2495.371154
349.648789	2452.521346
350.039324	2525.618077
350.429796	2439.918462
350.820203	2482.768269
351.210548	2487.809423
351.600828	2414.712692
351.991045	2472.685962
352.381198	2434.877308
352.771288	2444.959615
353.161314	2412.192115
353.551276	2447.480192
353.941175	2455.041923
354.331010	2507.974038
354.720782	2482.768269
355.110490	2419.753846
355.500135	2371.862885
355.889717	2492.850577
356.279235	2407.150962
356.668689	2505.453462
357.058080	2465.124231
357.447408	2404.630385
357.836672	2490.330000
358.225873	2427.315577
358.615010	2477.727115
359.004084	2442.439038
359.393095	2467.644808
359.782043	2434.877308
360.170927	2392.027500
360.559748	2507.974038
360.948505	2394.548077
361.337199	2417.233269
361.725830	2457.562500
362.114398	2455.041923
362.502903	2447.480192
362.891344	2432.356731
363.279722	2432.356731
363.668037	2392.027500
364.056289	2432.356731
364.444478	2346.657115
364.832603	2450.000769
365.220665	2470.165385
365.608665	2450.000769
365.996601	2444.959615
366.384474	2392.027500
366.772284	2505.453462
367.160031	2475.206538
367.547715	2495.371154
367.935336	2457.562500
368.322893	2434.877308
368.710388	2497.891731
369.097820	2366.821731
369.485189	2427.315577
369.872495	2422.274423
370.259738	2558.385577
370.646918	2467.644808
371.034035	2507.974038
371.421090	2392.027500
371.808081	2460.083077
372.195010	2412.192115
372.581875	2397.068654
372.968678	2462.603654
373.355418	2455.041923
373.742096	2495.371154
374.128710	2399.589231
374.515262	2472.685962
374.901751	2414.712692
375.288177	2533.179808
375.674540	2477.727115
376.060841	2419.753846
376.447079	2444.959615
376.833254	2457.562500
377.219367	2475.206538
377.605417	2497.891731
377.991404	2394.548077
378.377329	2402.109808
378.763191	2407.150962
379.148991	2477.727115
379.534727	2341.615962
379.920402	2392.027500
380.306013	2450.000769
380.691563	2523.097500
381.077049	2422.274423
381.462474	2485.288846
381.847835	2419.753846
382.233134	2414.712692
382.618371	2434.877308
383.003545	2349.177692
383.388657	2487.809423
383.773706	2384.465769
384.158693	2422.274423
384.543618	2513.015192
384.928480	2480.247692
385.313280	2487.809423
385.698017	2442.439038
386.082692	2465.124231
386.467305	2485.288846
386.851856	2450.000769
387.236344	2417.233269
387.620770	2344.136538
388.005133	2457.562500
388.389435	2513.015192
388.773674	2409.671538
389.157851	2407.150962
389.541965	2427.315577
389.926018	2523.097500
390.310008	2485.288846
390.693936	2339.095385
391.077802	2507.974038
391.461606	2386.986346
391.845348	2444.959615
392.229027	2467.644808
392.612645	2555.865000
392.996200	2543.262115
393.379694	2482.768269
393.763125	2492.850577
394.146494	2437.397885
394.529801	2513.015192
394.913047	2414.712692
395.296230	2495.371154
395.679351	2434.877308
396.062410	2467.644808
396.445408	2399.589231
396.828343	2513.015192
397.211217	2573.509038
397.594028	2467.644808
397.976778	2502.932885
398.359466	2434.877308
398.742092	2434.877308
399.124656	2520.576923
399.507158	2402.109808
399.889598	2525.618077
400.271977	2442.439038
400.654294	2467.644808
401.036549	2394.548077
401.418742	2500.412308
401.800874	2432.356731
402.182944	2480.247692
402.564952	2452.521346
402.946898	2497.891731
403.328783	2550.823846
403.710606	2465.124231
404.092367	2470.165385
404.474067	2485.288846
404.855705	2482.768269
405.237282	2530.659231
405.618797	2432.356731
406.000250	2510.494615
406.381642	2447.480192
406.762972	2460.083077
407.144240	2424.795000
407.525447	2455.041923
407.906593	2460.083077
408.287677	2487.809423
408.668700	2465.124231
409.049661	2402.109808
409.430560	2427.315577
409.811399	2455.041923
410.192176	2482.768269
410.572891	2472.685962
410.953545	2444.959615
411.334138	2513.015192
411.714669	2538.220962
412.095139	2490.330000
412.475547	2480.247692
412.855894	2462.603654
413.236180	2470.165385
413.616405	2386.986346
413.996568	2550.823846
414.376670	2485.288846
414.756711	2540.741538
415.136691	2434.877308
415.516609	2452.521346
415.896466	2535.700385
416.276262	2528.138654
416.655997	2495.371154
417.035670	2477.727115
417.415283	2424.795000
417.794834	2548.303269
418.174324	2487.809423
418.553753	2467.644808
418.933121	2392.027500
419.312428	2507.974038
419.691674	2437.397885
420.070859	2543.262115
420.449983	2452.521346
420.829045	2455.041923
421.208047	2502.932885
421.586988	2457.562500
421.965867	2480.247692
422.344686	2515.535769
422.723444	2482.768269
423.102141	2540.741538
423.480777	2502.932885
423.859352	2450.000769
424.237866	2472.685962
424.616319	2475.206538
424.994712	2540.741538
425.373044	2465.124231
425.751314	2434.877308
426.129524	2444.959615
426.507673	2518.056346
426.885762	2495.371154
427.263789	2513.015192
427.641756	2528.138654
428.019662	2538.220962
428.397508	2507.974038
428.775292	2533.179808
429.153016	2465.124231
429.530679	2507.974038
429.908282	2422.274423
430.285824	2563.426731
430.663305	2560.906154
431.040726	2412.192115
431.418086	2457.562500
431.795385	2510.494615
432.172624	2424.795000
432.549802	2525.618077
432.926920	2520.576923
433.303977	2386.986346
433.680974	2500.412308
434.057910	2417.233269
434.434786	2502.932885
434.811601	2525.618077
435.188355	2457.562500
435.565050	2490.330000
435.941683	2447.480192
436.318257	2424.795000
436.694770	2492.850577
437.071222	2472.685962
437.447614	2444.959615
437.823946	2497.891731
438.200218	2417.233269
438.576429	2439.918462
438.952580	2480.247692
439.328670	2528.138654
439.704700	2613.838269
440.080670	2447.480192
440.456580	2520.576923
440.832429	2505.453462
441.208218	2467.644808
441.583947	2455.041923
441.959616	2452.521346
442.335224	2480.247692
442.710773	2452.521346
443.086261	2482.768269
443.461689	2497.891731
443.837057	2515.535769
444.212365	2535.700385
444.587612	2475.206538
444.962800	2515.535769
445.337927	2523.097500
445.712995	2487.809423
446.088002	2482.768269
446.462949	2523.097500
446.837837	2492.850577
447.212664	2500.412308
447.587431	2447.480192
447.962139	2535.700385
448.336786	2540.741538
448.711374	2399.589231
449.085901	2520.576923
449.460369	2407.150962
449.834776	2492.850577
450.209124	2439.918462
450.583412	2429.836154
450.957640	2480.247692
451.331808	2477.727115
451.705917	2490.330000
452.079965	2419.753846
452.453954	2480.247692
452.827883	2505.453462
453.201752	2437.397885
453.575562	2510.494615
453.949311	2424.795000
454.323001	2500.412308
454.696632	2447.480192
455.070202	2513.015192
455.443713	2444.959615
455.817164	2533.179808
456.190556	2470.165385
456.563888	2568.467885
456.937160	2460.083077
457.310373	2523.097500
457.683526	2540.741538
458.056619	2384.465769
458.429653	2538.220962
458.802628	2439.918462
459.175542	2444.959615
459.548398	2450.000769
459.921194	2528.138654
460.293930	2497.891731
460.666607	2490.330000
461.039224	2452.521346
461.411782	2399.589231
461.784280	2497.891731
462.156719	2558.385577
462.529099	2450.000769
462.901419	2520.576923
463.273680	2429.836154
463.645882	2492.850577
464.018024	2482.768269
464.390106	2596.194231
464.762130	2485.288846
465.134094	2465.124231
465.505999	2485.288846
465.877845	2560.906154
466.249631	2563.426731
466.621358	2472.685962
466.993026	2598.714808
467.364634	2578.550192
467.736184	2560.906154
468.107674	2450.000769
468.479105	2495.371154
468.850477	2497.891731
469.221790	2422.274423
469.593043	2510.494615
469.964238	2591.153077
470.335373	2502.932885
470.706449	2558.385577
471.077467	2450.000769
471.448425	2500.412308
471.819324	2495.371154
472.190164	2505.453462
472.560945	2492.850577
472.931667	2500.412308
473.302330	2490.330000
473.672934	2487.809423
474.043479	2502.932885
474.413965	2450.000769
474.784393	2460.083077
475.154761	2540.741538
475.525070	2513.015192
475.895321	2465.124231
476.265513	2490.330000
476.635645	2444.959615
477.005719	2540.741538
477.375734	2404.630385
477.745691	2523.097500
478.115588	2520.576923
478.485427	2437.397885
478.855207	2560.906154
479.224928	2467.644808
479.594591	2485.288846
479.964194	2414.712692
480.333739	2462.603654
480.703226	2586.111923
481.072653	2543.262115
481.442022	2513.015192
481.811333	2422.274423
482.180584	2555.865000
482.549777	2427.315577
482.918912	2510.494615
483.287988	2515.535769
483.657005	2515.535769
484.025964	2492.850577
484.394864	2477.727115
484.763706	2581.070769
485.132489	2492.850577
485.501213	2402.109808
485.869879	2560.906154
486.238487	2518.056346
486.607036	2444.959615
486.975527	2444.959615
487.343959	2480.247692
487.712333	2565.947308
488.080648	2533.179808
488.448905	2472.685962
488.817104	2518.056346
489.185244	2480.247692
489.553326	2487.809423
489.921350	2470.165385
490.289315	2530.659231
490.657222	2462.603654
491.025070	2495.371154
491.392861	2467.644808
491.760593	2495.371154
492.128267	2555.865000
492.495883	2465.124231
492.863440	2462.603654
493.230939	2487.809423
493.598380	2422.274423
493.965763	2497.891731
494.333088	2533.179808
494.700354	2621.400000
495.067563	2452.521346
495.434713	2520.576923
495.801805	2457.562500
496.168839	2581.070769
496.535815	2495.371154
496.902733	2485.288846
497.269593	2495.371154
497.636395	2523.097500
498.003139	2460.083077
498.369825	2518.056346
498.736453	2412.192115
499.103023	2402.109808
499.469535	2540.741538
499.835989	2490.330000
500.202385	2477.727115
500.568723	2565.947308
500.935003	2480.247692
501.301226	2535.700385
501.667390	2540.741538
502.033497	2422.274423
502.399546	2472.685962
502.765537	2525.618077
503.131470	2563.426731
503.497345	2545.782692
503.863163	2510.494615
504.228923	2475.206538
504.594625	2482.768269
504.960269	2555.865000
505.325856	2502.932885
505.691385	2530.659231
506.056856	2553.344423
506.422270	2576.029615
506.787625	2528.138654
507.152924	2455.041923
507.518164	2490.330000
507.883347	2465.124231
508.248472	2502.932885
508.613540	2502.932885
508.978550	2588.632500
509.343503	2505.453462
509.708398	2573.509038
510.073236	2485.288846
510.438016	2470.165385
510.802738	2523.097500
511.167403	2588.632500
511.532010	2439.918462
511.896561	2523.097500
512.261053	2560.906154
512.625488	2520.576923
512.989866	2472.685962
513.354186	2450.000769
513.718449	2475.206538
514.082655	2530.659231
514.446803	2490.330000
514.810894	2439.918462
515.174927	2560.906154
515.538904	2442.439038
515.902822	2525.618077
516.266684	2581.070769
516.630488	2485.288846
516.994235	2525.618077
517.357925	2480.247692
517.721558	2518.056346
518.085133	2485.288846
518.448651	2422.274423
518.812112	2477.727115
519.175516	2555.865000
519.538863	2477.727115
519.902152	2548.303269
520.265385	2429.836154
520.628560	2487.809423
520.991678	2447.480192
521.354739	2558.385577
521.717743	2613.838269
522.080690	2535.700385
522.443580	2588.632500
522.806413	2422.274423
523.169189	2507.974038
523.531908	2455.041923
523.894569	2533.179808
524.257174	2457.562500
524.619722	2530.659231
524.982213	2427.315577
525.344647	2518.056346
525.707025	2485.288846
526.069345	2477.727115
526.431608	2525.618077
526.793815	2507.974038
527.155964	2467.644808
527.518057	2502.932885
527.880093	2497.891731
528.242072	2462.603654
528.603995	2538.220962
528.965860	2437.397885
529.327669	2500.412308
529.689421	2472.685962
530.051117	2505.453462
530.412755	2487.809423
530.774337	2457.562500
531.135862	2525.618077
531.497331	2535.700385
531.858743	2528.138654
532.220098	2528.138654
532.581396	2482.768269
532.942638	2553.344423
533.303824	2518.056346
533.664953	2523.097500
534.026025	2497.891731
534.387040	2475.206538
534.747999	2505.453462
535.108902	2447.480192
535.469748	2611.317692
535.830537	2497.891731
536.191270	2543.262115
536.551947	2523.097500
536.912567	2477.727115
537.273131	2515.535769
537.633638	2482.768269
537.994089	2515.535769
538.354483	2480.247692
538.714821	2492.850577
539.075103	2457.562500
539.435328	2535.700385
539.795497	2447.480192
540.155609	2515.535769
540.515665	2500.412308
540.875665	2502.932885
541.235609	2507.974038
541.595496	2467.644808
541.955328	2462.603654
542.315102	2505.453462
542.674821	2490.330000
543.034483	2477.727115
543.394090	2462.603654
543.753640	2414.712692
544.113134	2502.932885
544.472571	2515.535769
544.831953	2457.562500
545.191278	2520.576923
545.550548	2467.644808
545.909761	2485.288846
546.268918	2603.755962
546.628019	2528.138654
546.987064	2444.959615
547.346053	2482.768269
547.704986	2452.521346
548.063863	2505.453462
548.422684	2553.344423
548.781449	2543.262115
549.140158	2515.535769
549.498811	2540.741538
549.857408	2477.727115
550.215949	2525.618077
550.574434	2480.247692
550.932864	2482.768269
551.291237	2520.576923
551.649555	2432.356731
552.007817	2502.932885
552.366022	2439.918462
552.724173	2525.618077
553.082267	2525.618077
553.440305	2495.371154
553.798288	2545.782692
554.156215	2586.111923
554.514086	2467.644808
554.871902	2487.809423
555.229661	2518.056346
555.587365	2502.932885
555.945014	2518.056346
556.302606	2437.397885
556.660143	2417.233269
557.017625	2528.138654
557.375050	2414.712692
557.732421	2502.932885
558.089735	2477.727115
558.446994	2518.056346
558.804197	2462.603654
559.161345	2502.932885
559.518437	2455.041923
559.875474	2528.138654
560.232455	2457.562500
560.589381	2490.330000
560.946251	2470.165385
561.303065	2462.603654
561.659825	2507.974038
562.016528	2497.891731
562.373177	2545.782692
562.729770	2565.947308
563.086307	2364.301154
563.442789	2513.015192
563.799216	2588.632500
564.155587	2518.056346
564.511904	2533.179808
564.868164	2397.068654
565.224370	2475.206538
565.580520	2472.685962
565.936615	2437.397885
566.292654	2535.700385
566.648638	2457.562500
567.004567	2543.262115
567.360441	2505.453462
567.716260	2523.097500
568.072023	2492.850577
568.427732	2513.015192
568.783385	2490.330000
569.138982	2573.509038
569.494525	2530.659231
569.850013	2470.165385
570.205445	2530.659231
570.560823	2545.782692
570.916145	2495.371154
571.271412	2530.659231
571.626625	2535.700385
571.981782	2515.535769
572.336884	2518.056346
572.691931	2538.220962
573.046923	2505.453462
573.401860	2497.891731
573.756743	2477.727115
574.111570	2497.891731
574.466342	2462.603654
574.821059	2573.509038
575.175722	2507.974038
575.530330	2513.015192
575.884882	2518.056346
576.239380	2510.494615
576.593823	2434.877308
576.948211	2548.303269
577.302544	2424.795000
577.656823	2528.138654
578.011047	2444.959615
578.365216	2452.521346
578.719330	2533.179808
579.073389	2457.562500
579.427394	2477.727115
579.781344	2477.727115
580.135239	2540.741538
580.489080	2465.124231
580.842866	2528.138654
581.196597	2507.974038
581.550273	2457.562500
581.903895	2505.453462
582.257463	2502.932885
582.610975	2523.097500
582.964434	2518.056346
583.317837	2397.068654
583.671186	2462.603654
584.024481	2450.000769
584.377721	2490.330000
584.730906	2457.562500
585.084037	2553.344423
585.437113	2495.371154
585.790135	2444.959615
586.143103	2530.659231
586.496016	2462.603654
586.848874	2465.124231
587.201679	2472.685962
587.554428	2502.932885
587.907124	2480.247692
588.259765	2475.206538
588.612352	2548.303269
588.964884	2510.494615
589.317362	2515.535769
589.669786	2535.700385
590.022155	2523.097500
590.374470	2482.768269
590.726731	2465.124231
591.078937	2472.685962
591.431090	2578.550192
591.783188	2439.918462
592.135232	2510.494615
592.487222	2523.097500
592.839157	2525.618077
593.191038	2452.521346
593.542866	2555.865000
593.894639	2465.124231
594.246358	2500.412308
594.598022	2497.891731
594.949633	2545.782692
595.301190	2497.891731
595.652692	2513.015192
596.004141	2530.659231
596.355535	2462.603654
596.706876	2578.550192
597.058162	2437.397885
597.409395	2414.712692
597.760573	2525.618077
598.111698	2520.576923
598.462768	2487.809423
598.813785	2487.809423
599.164748	2583.591346
599.515657	2543.262115
599.866511	2545.782692
600.217312	2593.673654
600.568060	2553.344423
600.918753	2424.795000
601.269392	2439.918462
601.619978	2528.138654
601.970510	2495.371154
602.320988	2545.782692
602.671412	2558.385577
603.021783	2470.165385
603.372100	2523.097500
603.722363	2432.356731
604.072572	2442.439038
604.422728	2442.439038
604.772830	2470.165385
605.122878	2490.330000
605.472872	2535.700385
605.822813	2510.494615
606.172701	2455.041923
606.522534	2576.029615
606.872314	2545.782692
607.222041	2533.179808
607.571714	2465.124231
607.921333	2538.220962
608.270899	2507.974038
608.620411	2518.056346
608.969870	2596.194231
609.319276	2432.356731
609.668627	2407.150962
610.017926	2563.426731
610.367171	2497.891731
610.716362	2513.015192
611.065500	2540.741538
611.414585	2502.932885
611.763616	2455.041923
612.112594	2497.891731
612.461518	2495.371154
612.810389	2525.618077
613.159207	2570.988462
613.507971	2477.727115
613.856682	2452.521346
614.205340	2507.974038
614.553945	2523.097500
614.902496	2510.494615
615.250994	2518.056346
615.599439	2485.288846
615.947830	2513.015192
616.296169	2404.630385
616.644454	2475.206538
616.992686	2432.356731
617.340864	2457.562500
617.688990	2480.247692
618.037063	2502.932885
618.385082	2452.521346
618.733048	2505.453462
619.080961	2502.932885
619.428821	2520.576923
619.776628	2550.823846
620.124382	2369.342308
620.472083	2538.220962
620.819731	2429.836154
621.167326	2505.453462
621.514868	2510.494615
621.862357	2500.412308
622.209793	2492.850577
622.557176	2414.712692
622.904506	2507.974038
623.251783	2530.659231
623.599007	2414.712692
623.946179	2555.865000
624.293297	2518.056346
624.640363	2386.986346
624.987376	2525.618077
625.334336	2513.015192
625.681243	2487.809423
626.028097	2412.192115
626.374899	2482.768269
626.721647	2548.303269
627.068343	2434.877308
627.414987	2472.685962
627.761577	2515.535769
628.108115	2470.165385
628.454600	2548.303269
628.801032	2583.591346
629.147412	2540.741538
629.493739	2477.727115
629.840014	2540.741538
630.186236	2492.850577
630.532405	2520.576923
630.878521	2495.371154
631.224585	2487.809423
631.570597	2545.782692
631.916556	2500.412308
632.262462	2545.782692
632.608316	2568.467885
632.954117	2482.768269
633.299866	2507.974038
633.645562	2540.741538
633.991206	2467.644808
634.336797	2467.644808
634.682336	2591.153077
635.027823	2518.056346
635.373257	2555.865000
635.718639	2482.768269
636.063968	2533.179808
636.409245	2500.412308
636.754470	2497.891731
637.099642	2437.397885
637.444762	2495.371154
637.789829	2485.288846
638.134845	2520.576923
638.479808	2392.027500
638.824719	2442.439038
639.169577	2492.850577
639.514383	2472.685962
639.859137	2505.453462
640.203839	2444.959615
640.548489	2414.712692
640.893086	2475.206538
641.237632	2439.918462
641.582125	2583.591346
641.926566	2437.397885
642.270955	2457.562500
642.615292	2467.644808
642.959576	2535.700385
643.303809	2505.453462
643.647990	2523.097500
643.992118	2462.603654
644.336195	2502.932885
644.680219	2482.768269
645.024192	2513.015192
645.368112	2475.206538
645.711981	2540.741538
646.055797	2490.330000
646.399562	2510.494615
646.743274	2505.453462
647.086935	2578.550192
647.430544	2490.330000
647.774101	2510.494615
648.117606	2550.823846
648.461059	2507.974038
648.804460	2533.179808
649.147810	2439.918462
649.491108	2455.041923
649.834354	2500.412308
650.177548	2563.426731
650.520690	2525.618077
650.863781	2485.288846
651.206820	2482.768269
651.549807	2540.741538
651.892742	2470.165385
652.235626	2487.809423
652.578458	2548.303269
652.921238	2470.165385
653.263967	2465.124231
653.606644	2495.371154
653.949269	2492.850577
654.291843	2472.685962
654.634365	2460.083077
654.976836	2497.891731
655.319255	2513.015192
655.661622	2530.659231
656.003938	2510.494615
656.346203	2525.618077
656.688416	2477.727115
657.030577	2414.712692
657.372687	2535.700385
657.714746	2414.712692
658.056753	2477.727115
658.398708	2432.356731
658.740612	2477.727115
659.082465	2422.274423
659.424266	2533.179808
659.766016	2502.932885
660.107715	2439.918462
660.449362	2588.632500
660.790958	2555.865000
661.132503	2515.535769
661.473996	2455.041923
661.815438	2450.000769
662.156829	2502.932885
662.498168	2502.932885
662.839456	2477.727115
663.180693	2507.974038
663.521879	2510.494615
663.863013	2550.823846
664.204097	2540.741538
664.545129	2462.603654
664.886110	2497.891731
665.227040	2505.453462
665.567918	2525.618077
665.908746	2439.918462
666.249522	2515.535769
666.590248	2502.932885
666.930922	2588.632500
667.271545	2442.439038
667.612118	2525.618077
667.952639	2513.015192
668.293109	2470.165385
668.633528	2523.097500
668.973896	2444.959615
669.314213	2502.932885
669.654480	2490.330000
669.994695	2510.494615
670.334859	2490.330000
670.674973	2523.097500
671.015035	2465.124231
671.355047	2560.906154
671.695008	2510.494615
672.034918	2535.700385
672.374777	2560.906154
672.714585	2442.439038
673.054342	2470.165385
673.394049	2510.494615
673.733705	2548.303269
674.073310	2439.918462
674.412864	2520.576923
674.752368	2540.741538
675.091820	2530.659231
675.431223	2472.685962
675.770574	2606.276538
676.109875	2409.671538
676.449125	2470.165385
676.788324	2434.877308
677.127473	2525.618077
677.466571	2381.945192
677.805619	2525.618077
678.144616	2444.959615
678.483562	2472.685962
678.822458	2427.315577
679.161303	2535.700385
679.500098	2447.480192
679.838842	2548.303269
680.177535	2505.453462
680.516179	2502.932885
680.854771	2467.644808
681.193314	2502.932885
681.531805	2558.385577
681.870247	2386.986346
682.208638	2510.494615
682.546978	2538.220962
682.885268	2434.877308
683.223508	2392.027500
683.561697	2507.974038
683.899836	2495.371154
684.237925	2528.138654
684.575963	2502.932885
684.913951	2545.782692
685.251889	2487.809423
685.589776	2487.809423
685.927614	2528.138654
686.265401	2495.371154
686.603137	2518.056346
686.940824	2513.015192
687.278460	2528.138654
687.616046	2548.303269
687.953582	2492.850577
688.291068	2528.138654
688.628504	2540.741538
688.965889	2472.685962
689.303224	2437.397885
689.640510	2525.618077
689.977745	2457.562500
690.314930	2495.371154
690.652065	2404.630385
690.989150	2518.056346
691.326185	2548.303269
691.663170	2533.179808
692.000105	2523.097500
692.336990	2407.150962
692.673825	2518.056346
693.010610	2442.439038
693.347345	2495.371154
693.684030	2475.206538
694.020665	2397.068654
694.357251	2482.768269
694.693786	2545.782692
695.030272	2447.480192
695.366707	2528.138654
695.703093	2598.714808
696.039429	2530.659231
696.375716	2457.562500
696.711952	2518.056346
697.048139	2543.262115
697.384276	2472.685962
697.720363	2475.206538
698.056400	2457.562500
698.392388	2548.303269
698.728326	2424.795000
699.064214	2540.741538
699.400053	2452.521346
699.735842	2437.397885
700.071581	2442.439038
700.407270	2477.727115
700.742910	2505.453462
701.078501	2485.288846
701.414042	2543.262115
701.749533	2540.741538
702.084974	2467.644808
702.420366	2548.303269
702.755709	2462.603654
703.091002	2495.371154
703.426246	2540.741538
703.761440	2467.644808
704.096584	2477.727115
704.431679	2404.630385
704.766725	2492.850577
705.101721	2475.206538
705.436668	2492.850577
705.771565	2523.097500
706.106413	2518.056346
706.441212	2419.753846
706.775961	2442.439038
707.110661	2535.700385
707.445311	2444.959615
707.779913	2513.015192
708.114465	2444.959615
708.448967	2530.659231
708.783421	2452.521346
709.117825	2462.603654
709.452180	2545.782692
709.786485	2422.274423
710.120742	2475.206538
710.454949	2455.041923
710.789107	2500.412308
711.123216	2492.850577
711.457275	2555.865000
711.791286	2654.167500
712.125247	2472.685962
712.459159	2475.206538
712.793023	2439.918462
713.126837	2507.974038
713.460602	2475.206538
713.794318	2465.124231
714.127985	2467.644808
714.461602	2485.288846
714.795171	2482.768269
715.128691	2507.974038
715.462162	2528.138654
715.795584	2513.015192
716.128957	2477.727115
716.462281	2450.000769
716.795556	2502.932885
717.128782	2457.562500
717.461960	2490.330000
717.795088	2467.644808
718.128167	2485.288846
718.461198	2500.412308
718.794180	2528.138654
719.127113	2495.371154
719.459997	2528.138654
719.792833	2457.562500
720.125619	2475.206538
720.458357	2422.274423
720.791046	2407.150962
721.123686	2543.262115
721.456278	2477.727115
721.788821	2447.480192
722.121315	2460.083077
722.453761	2467.644808
722.786158	2424.795000
723.118506	2487.809423
723.450805	2487.809423
723.783056	2510.494615
724.115259	2477.727115
724.447412	2507.974038
724.779518	2528.138654
725.111574	2392.027500
725.443582	2505.453462
725.775542	2447.480192
726.107453	2487.809423
726.439315	2457.562500
726.771129	2480.247692
727.102895	2548.303269
727.434612	2447.480192
727.766281	2482.768269
728.097901	2568.467885
728.429473	2429.836154
728.760996	2502.932885
729.092471	2538.220962
729.423897	2505.453462
729.755276	2518.056346
730.086606	2434.877308
730.417887	2500.412308
730.749120	2437.397885
731.080305	2543.262115
731.411442	2518.056346
731.742530	2558.385577
732.073570	2520.576923
732.404562	2472.685962
732.735506	2455.041923
733.066401	2477.727115
733.397249	2412.192115
733.728048	2505.453462
734.058798	2460.083077
734.389501	2558.385577
734.720156	2507.974038
735.050762	2515.535769
735.381320	2487.809423
735.711831	2419.753846
736.042293	2467.644808
736.372707	2447.480192
736.703073	2472.685962
737.033391	2432.356731
737.363661	2485.288846
737.693883	2472.685962
738.024056	2548.303269
738.354182	2500.412308
738.684260	2470.165385
739.014290	2447.480192
739.344272	2495.371154
739.674207	2513.015192
740.004093	2424.795000
740.333931	2470.165385
740.663722	2538.220962
740.993464	2558.385577
741.323159	2419.753846
741.652806	2502.932885
741.982405	2485.288846
742.311956	2553.344423
742.641460	2507.974038
742.970915	2520.576923
743.300323	2535.700385
743.629683	2427.315577
743.958996	2465.124231
744.288260	2472.685962
744.617477	2424.795000
744.946647	2457.562500
745.275768	2432.356731
745.604842	2543.262115
745.933869	2465.124231
746.262847	2578.550192
746.591778	2412.192115
746.920662	2444.959615
747.249498	2455.041923
747.578286	2492.850577
747.907027	2543.262115
748.235720	2576.029615
748.564365	2497.891731
748.892963	2492.850577
749.221514	2424.795000
749.550017	2475.206538
749.878473	2462.603654
750.206881	2472.685962
750.535242	2470.165385
750.863555	2477.727115
751.191821	2452.521346
751.520039	2550.823846
751.848210	2495.371154
752.176334	2576.029615
752.504411	2437.397885
752.832440	2470.165385
753.160421	2525.618077
753.488356	2513.015192
753.816243	2477.727115
754.144082	2507.974038
754.471875	2434.877308
754.799620	2457.562500
755.127318	2439.918462
755.454969	2598.714808
755.782572	2452.521346
756.110129	2497.891731
756.437638	2588.632500
756.765100	2505.453462
757.092515	2507.974038
757.419882	2460.083077
757.747203	2502.932885
758.074477	2472.685962
758.401703	2507.974038
758.728882	2477.727115
759.056014	2444.959615
759.383099	2460.083077
759.710138	2530.659231
760.037129	2472.685962
760.364073	2598.714808
760.690970	2442.439038
761.017820	2510.494615
761.344623	2525.618077
761.671379	2550.823846
761.998088	2518.056346
762.324751	2530.659231
762.651366	2485.288846
762.977935	2502.932885
763.304456	2460.083077
763.630931	2568.467885
763.957359	2570.988462
764.283740	2397.068654
764.610074	2490.330000
764.936362	2581.070769
765.262602	2422.274423
765.588796	2520.576923
765.914943	2482.768269
766.241044	2570.988462
766.567097	2490.330000
766.893104	2480.247692
767.219064	2450.000769
767.544978	2480.247692
767.870845	2545.782692
768.196665	2505.453462
768.522438	2586.111923
768.848165	2444.959615
769.173846	2480.247692
769.499479	2563.426731
769.825066	2482.768269
770.150607	2472.685962
770.476101	2538.220962
770.801548	2434.877308
771.126949	2555.865000
771.452303	2460.083077
771.777611	2540.741538
772.102872	2548.303269
772.428087	2442.439038
772.753256	2497.891731
773.078378	2555.865000
773.403453	2495.371154
773.728482	2528.138654
774.053465	2455.041923
774.378401	2548.303269
774.703291	2487.809423
775.028135	2482.768269
775.352932	2381.945192
775.677683	2472.685962
776.002388	2487.809423
776.327046	2472.685962
776.651658	2470.165385
776.976224	2490.330000
777.300743	2475.206538
777.625216	2472.685962
777.949643	2500.412308
778.274024	2570.988462
778.598359	2540.741538
778.922647	2392.027500
779.246889	2505.453462
779.571086	2535.700385
779.895236	2450.000769
780.219339	2545.782692
780.543397	2480.247692
780.867409	2528.138654
781.191374	2477.727115
781.515294	2515.535769
781.839167	2507.974038
782.162995	2500.412308
782.486776	2442.439038
782.810511	2432.356731
783.134201	2472.685962
783.457844	2477.727115
783.781441	2525.618077
784.104993	2500.412308
784.428498	2460.083077
784.751958	2555.865000
785.075372	2447.480192
785.398739	2513.015192
785.722061	2535.700385
786.045337	2455.041923
786.368568	2513.015192
786.691752	2472.685962
787.014891	2475.206538
787.337983	2477.727115
787.661030	2442.439038
787.984031	2369.342308
788.306987	2455.041923
788.629897	2472.685962
788.952760	2467.644808
789.275579	2480.247692
789.598351	2429.836154
789.921078	2432.356731
790.243759	2525.618077
790.566395	2472.685962
790.888984	2601.235385
791.211529	2444.959615
791.534027	2439.918462
791.856480	2548.303269
792.178888	2530.659231
792.501249	2535.700385
792.823566	2477.727115
793.145836	2505.453462
793.468062	2538.220962
793.790241	2510.494615
794.112375	2548.303269
794.434464	2573.509038
794.756507	2507.974038
795.078505	2492.850577
795.400457	2455.041923
795.722364	2507.974038
796.044226	2500.412308
796.366042	2502.932885
796.687812	2465.124231
797.009538	2462.603654
797.331218	2442.439038
797.652852	2596.194231
797.974442	2475.206538
798.295986	2487.809423
798.617484	2545.782692
798.938938	2530.659231
799.260346	2472.685962
799.581709	2482.768269
799.903026	2477.727115
800.224299	2533.179808
800.545526	2495.371154
800.866708	2500.412308
801.187845	2535.700385
801.508936	2482.768269
801.829983	2470.165385
802.150984	2452.521346
802.471940	2480.247692
802.792851	2518.056346
803.113717	2455.041923
803.434538	2450.000769
803.755314	2424.795000
804.076045	2434.877308
804.396731	2477.727115
804.717372	2497.891731
805.037967	2510.494615
805.358518	2543.262115
805.679024	2568.467885
805.999485	2543.262115
806.319901	2482.768269
806.640272	2480.247692
806.960598	2470.165385
807.280879	2467.644808
807.601115	2500.412308
807.921306	2490.330000
808.241453	2500.412308
808.561554	2470.165385
808.881611	2558.385577
809.201623	2470.165385
809.521590	2465.124231
809.841513	2550.823846
810.161390	2500.412308
810.481223	2548.303269
810.801011	2485.288846
811.120755	2528.138654
811.440453	2470.165385
811.760107	2565.947308
812.079716	2462.603654
812.399281	2573.509038
812.718801	2548.303269
813.038276	2475.206538
813.357707	2507.974038
813.677093	2470.165385
813.996434	2515.535769
814.315731	2553.344423
814.634983	2477.727115
814.954191	2528.138654
815.273354	2510.494615
815.592473	2518.056346
815.911547	2470.165385
816.230577	2477.727115
816.549562	2462.603654
816.868502	2480.247692
817.187399	2497.891731
817.506250	2535.700385
817.825058	2462.603654
818.143821	2450.000769
818.462539	2570.988462
818.781213	2548.303269
819.099843	2553.344423
819.418429	2424.795000
819.736970	2515.535769
820.055466	2510.494615
820.373919	2523.097500
820.692327	2470.165385
821.010691	2487.809423
821.329011	2543.262115
821.647286	2490.330000
821.965517	2505.453462
822.283704	2434.877308
822.601847	2477.727115
822.919945	2510.494615
823.237999	2591.153077
823.556010	2462.603654
823.873976	2447.480192
824.191897	2477.727115
824.509775	2470.165385
824.827609	2505.453462
825.145398	2490.330000
825.463144	2422.274423
825.780845	2492.850577
826.098502	2455.041923
826.416116	2513.015192
826.733685	2455.041923
827.051210	2525.618077
827.368692	2510.494615
827.686129	2472.685962
828.003522	2550.823846
828.320872	2528.138654
828.638177	2427.315577
828.955439	2475.206538
829.272656	2510.494615
829.589830	2409.671538
829.906960	2462.603654
830.224046	2513.015192
830.541088	2472.685962
830.858086	2510.494615
831.175041	2520.576923
831.491952	2515.535769
831.808819	2525.618077
832.125642	2520.576923
832.442421	2495.371154
832.759157	2429.836154
833.075849	2432.356731
833.392497	2528.138654
833.709101	2500.412308
834.025662	2487.809423
834.342179	2455.041923
834.658653	2510.494615
834.975083	2482.768269
835.291469	2570.988462
835.607811	2462.603654
835.924110	2513.015192
836.240366	2460.083077
836.556578	2520.576923
836.872746	2450.000769
837.188871	2535.700385
837.504952	2465.124231
837.820990	2455.041923
838.136984	2485.288846
838.452935	2379.424615
838.768842	2482.768269
839.084706	2518.056346
839.400526	2497.891731
839.716303	2502.932885
840.032037	2495.371154
840.347727	2535.700385
840.663373	2457.562500
840.978977	2472.685962
841.294537	2495.371154
841.610054	2507.974038
841.925527	2442.439038
842.240957	2482.768269
842.556344	2515.535769
842.871687	2477.727115
843.186987	2518.056346
843.502244	2444.959615
843.817458	2495.371154
844.132629	2392.027500
844.447756	2482.768269
844.762840	2442.439038
845.077881	2518.056346
845.392879	2462.603654
845.707833	2530.659231
846.022745	2515.535769
846.337613	2470.165385
846.652438	2447.480192
846.967221	2465.124231
847.281960	2455.041923
847.596656	2482.768269
847.911309	2540.741538
848.225919	2608.797115
848.540485	2457.562500
848.855009	2568.467885
849.169490	2540.741538
849.483928	2475.206538
849.798323	2462.603654
850.112675	2502.932885
850.426984	2548.303269
850.741251	2495.371154
851.055474	2442.439038
851.369654	2570.988462
851.683792	2460.083077
851.997887	2533.179808
852.311938	2507.974038
852.625947	2495.371154
852.939914	2465.124231
853.253837	2515.535769
853.567718	2490.330000
853.881555	2568.467885
854.195350	2553.344423
854.509103	2513.015192
854.822812	2452.521346
855.136479	2515.535769
855.450103	2492.850577
855.763685	2490.330000
856.077224	2470.165385
856.390720	2576.029615
856.704173	2553.344423
857.017584	2465.124231
857.330953	2434.877308
857.644278	2399.589231
857.957561	2507.974038
858.270802	2389.506923
858.584000	2492.850577
858.897155	2407.150962
859.210268	2540.741538
859.523339	2442.439038
859.836367	2460.083077
860.149352	2434.877308
860.462295	2502.932885
860.775195	2465.124231
861.088054	2500.412308
861.400869	2485.288846
861.713642	2563.426731
862.026373	2460.083077
862.339062	2507.974038
862.651708	2465.124231
862.964312	2462.603654
863.276873	2470.165385
863.589392	2515.535769
863.901869	2462.603654
864.214303	2487.809423
864.526696	2505.453462
864.839045	2424.795000
865.151353	2513.015192
865.463619	2545.782692
865.775842	2467.644808
866.088023	2487.809423
866.400162	2437.397885
866.712258	2530.659231
867.024313	2492.850577
867.336325	2538.220962
867.648296	2482.768269
867.960224	2553.344423
868.272110	2520.576923
868.583954	2429.836154
868.895755	2497.891731
869.207515	2576.029615
869.519233	2490.330000
869.830909	2505.453462
870.142542	2480.247692
870.454134	2507.974038
870.765684	2497.891731
871.077191	2530.659231
871.388657	2477.727115
871.700081	2540.741538
872.011463	2502.932885
872.322803	2528.138654
872.634101	2545.782692
872.945357	2553.344423
873.256571	2606.276538
873.567744	2530.659231
873.878874	2452.521346
874.189963	2588.632500
874.501010	2465.124231
874.812015	2507.974038
875.122979	2560.906154
875.433900	2495.371154
875.744780	2523.097500
876.055618	2432.356731
876.366415	2518.056346
876.677169	2555.865000
876.987882	2492.850577
877.298554	2581.070769
877.609183	2475.206538
877.919771	2558.385577
878.230317	2507.974038
878.540822	2540.741538
878.851285	2455.041923
879.161707	2376.904038
879.472087	2472.685962
879.782425	2457.562500
880.092722	2505.453462
880.402977	2533.179808
880.713191	2497.891731
881.023363	2505.453462
881.333494	2452.521346
881.643583	2452.521346
881.953631	2399.589231
882.263637	2588.632500
882.573602	2482.768269
882.883526	2596.194231
883.193408	2475.206538
883.503248	2500.412308
883.813048	2457.562500
884.122806	2460.083077
884.432522	2487.809423
884.742197	2472.685962
885.051831	2419.753846
885.361424	2533.179808
885.670975	2444.959615
885.980485	2558.385577
886.289954	2525.618077
886.599382	2434.877308
886.908768	2505.453462
887.218113	2558.385577
887.527417	2487.809423
887.836680	2447.480192
888.145901	2497.891731
888.455082	2482.768269
888.764221	2381.945192
889.073319	2543.262115
889.382376	2598.714808
889.691392	2482.768269
890.000366	2485.288846
890.309300	2495.371154
890.618193	2515.535769
890.927044	2432.356731
891.235855	2500.412308
891.544625	2543.262115
891.853353	2457.562500
892.162041	2533.179808
892.470687	2439.918462
892.779293	2520.576923
893.087858	2520.576923
893.396381	2437.397885
893.704864	2545.782692
894.013306	2555.865000
894.321707	2535.700385
894.630068	2485.288846
894.938387	2417.233269
895.246665	2422.274423
895.554903	2492.850577
895.863100	2412.192115
896.171256	2442.439038
896.479371	2437.397885
896.787446	2500.412308
897.095480	2465.124231
897.403473	2480.247692
897.711425	2560.906154
898.019336	2502.932885
898.327207	2550.823846
898.635038	2462.603654
898.942827	2465.124231
899.250576	2455.041923
899.558284	2409.671538
899.865952	2525.618077
900.173579	2439.918462
900.481165	2502.932885
900.788711	2563.426731
901.096216	2465.124231
901.403681	2467.644808
901.711105	2434.877308
902.018489	2450.000769
902.325832	2510.494615
902.633135	2492.850577
902.940397	2467.644808
903.247619	2502.932885
903.554800	2394.548077
903.861941	2530.659231
904.169041	2520.576923
904.476101	2467.644808
904.783121	2520.576923
905.090100	2467.644808
905.397039	2505.453462
905.703938	2510.494615
906.010796	2482.768269
906.317614	2465.124231
906.624391	2477.727115
906.931129	2533.179808
907.237826	2495.371154
907.544483	2581.070769
907.851099	2492.850577
908.157675	2523.097500
908.464211	2450.000769
908.770707	2533.179808
909.077163	2439.918462
909.383578	2450.000769
909.689954	2450.000769
909.996289	2465.124231
910.302584	2500.412308
910.608839	2490.330000
910.915054	2475.206538
911.221229	2505.453462
911.527363	2538.220962
911.833458	2470.165385
912.139513	2576.029615
912.445527	2518.056346
912.751502	2482.768269
913.057436	2457.562500
913.363331	2490.330000
913.669186	2548.303269
913.975000	2397.068654
914.280775	2470.165385
914.586510	2447.480192
914.892205	2490.330000
915.197859	2447.480192
915.503475	2447.480192
915.809050	2485.288846
916.114585	2497.891731
916.420081	2505.453462
916.725536	2502.932885
917.030952	2558.385577
917.336328	2467.644808
917.641665	2578.550192
917.946961	2523.097500
918.252218	2470.165385
918.557435	2502.932885
918.862612	2467.644808
919.167750	2447.480192
919.472848	2485.288846
919.777906	2475.206538
920.082925	2460.083077
920.387904	2482.768269
920.692843	2497.891731
920.997743	2467.644808
921.302603	2467.644808
921.607423	2530.659231
921.912204	2550.823846
922.216946	2437.397885
922.521647	2523.097500
922.826310	2437.397885
923.130932	2414.712692
923.435516	2510.494615
923.740059	2467.644808
924.044564	2434.877308
924.349028	2513.015192
924.653454	2452.521346
924.957840	2510.494615
925.262186	2472.685962
925.566493	2513.015192
925.870761	2490.330000
926.174989	2429.836154
926.479178	2485.288846
926.783328	2460.083077
927.087438	2490.330000
927.391509	2545.782692
927.695541	2550.823846
927.999533	2563.426731
928.303486	2510.494615
928.607400	2520.576923
928.911275	2477.727115
929.215110	2555.865000
929.518906	2540.741538
929.822663	2535.700385
930.126381	2525.618077
930.430060	2548.303269
930.733699	2477.727115
931.037299	2535.700385
931.340861	2432.356731
931.644383	2563.426731
931.947866	2528.138654
932.251309	2487.809423
932.554714	2437.397885
932.858080	2525.618077
933.161407	2419.753846
933.464694	2538.220962
933.767943	2528.138654
934.071153	2467.644808
934.374323	2487.809423
934.677455	2444.959615
934.980548	2472.685962
935.283602	2386.986346
935.586617	2472.685962
935.889593	2593.673654
936.192530	2588.632500
936.495428	2495.371154
936.798287	2447.480192
937.101108	2480.247692
937.403890	2444.959615
937.706632	2518.056346
938.009336	2492.850577
938.312002	2533.179808
938.614628	2455.041923
938.917216	2533.179808
939.219765	2432.356731
939.522275	2465.124231
939.824747	2470.165385
940.127179	2417.233269
940.429573	2515.535769
940.731929	2439.918462
941.034246	2548.303269
941.336524	2576.029615
941.638763	2502.932885
941.940964	2497.891731
942.243126	2450.000769
942.545250	2487.809423
942.847335	2558.385577
943.149381	2490.330000
943.451389	2523.097500
943.753359	2540.741538
944.055290	2397.068654
944.357182	2457.562500
944.659036	2545.782692
944.960851	2540.741538
945.262628	2596.194231
945.564367	2507.974038
945.866067	2457.562500
946.167729	2558.385577
946.469352	2475.206538
946.770937	2482.768269
947.072484	2548.303269
947.373992	2497.891731
947.675462	2528.138654
947.976893	2457.562500
948.278286	2434.877308
948.579641	2487.809423
948.880958	2422.274423
949.182236	2492.850577
949.483476	2487.809423
949.784678	2447.480192
950.085841	2533.179808
950.386967	2550.823846
950.688054	2510.494615
950.989103	2422.274423
951.290114	2492.850577
951.591087	2500.412308
951.892021	2465.124231
952.192917	2505.453462
952.493776	2540.741538
952.794596	2444.959615
953.095378	2424.795000
953.396122	2442.439038
953.696828	2487.809423
953.997496	2495.371154
954.298126	2513.015192
954.598718	2447.480192
954.899272	2485.288846
955.199788	2507.974038
955.500266	2462.603654
955.800706	2540.741538
956.101108	2427.315577
956.401472	2523.097500
956.701798	2407.150962
957.002087	2550.823846
957.302337	2560.906154
957.602550	2447.480192
957.902724	2495.371154
958.202861	2437.397885
958.502960	2450.000769
958.803022	2450.000769
959.103045	2437.397885
959.403031	2437.397885
959.702979	2518.056346
960.002889	2475.206538
960.302762	2525.618077
960.602596	2457.562500
960.902393	2538.220962
961.202153	2477.727115
961.501875	2467.644808
961.801559	2543.262115
962.101205	2513.015192
962.400814	2402.109808
962.700385	2457.562500
962.999918	2518.056346
963.299414	2429.836154
963.598873	2540.741538
963.898293	2455.041923
964.197677	2578.550192
964.497022	2412.192115
964.796331	2450.000769
965.095601	2470.165385
965.394835	2492.850577
965.694030	2417.233269
965.993189	2510.494615
966.292309	2520.576923
966.591393	2555.865000
966.890439	2525.618077
967.189447	2457.562500
967.488419	2475.206538
967.787353	2364.301154
968.086249	2497.891731
968.385108	2492.850577
968.683930	2533.179808
968.982714	2502.932885
969.281462	2523.097500
969.580172	2533.179808
969.878844	2444.959615
970.177480	2550.823846
970.476078	2414.712692
970.774639	2500.412308
971.073162	2455.041923
971.371649	2513.015192
971.670098	2490.330000
971.968510	2528.138654
972.266885	2439.918462
972.565223	2427.315577
972.863524	2555.865000
973.161788	2505.453462
973.460014	2523.097500
973.758204	2470.165385
974.056356	2487.809423
974.354471	2477.727115
974.652550	2467.644808
974.950591	2460.083077
975.248595	2490.330000
975.546563	2543.262115
975.844493	2477.727115
976.142386	2497.891731
976.440243	2490.330000
976.738062	2485.288846
977.035845	2439.918462
977.333590	2533.179808
977.631299	2452.521346
977.928971	2439.918462
978.226606	2487.809423
978.524204	2444.959615
978.821765	2525.618077
979.119290	2490.330000
979.416777	2475.206538
979.714228	2472.685962
980.011642	2543.262115
980.309020	2422.274423
980.606360	2525.618077
980.903664	2452.521346
981.200931	2460.083077
981.498162	2570.988462
981.795356	2520.576923
982.092513	2472.685962
982.389633	2540.741538
982.686717	2500.412308
982.983764	2505.453462
983.280775	2525.618077
983.577749	2530.659231
983.874686	2384.465769
984.171587	2460.083077
984.468451	2487.809423
984.765279	2482.768269
985.062070	2460.083077
985.358824	2482.768269
985.655543	2550.823846
985.952224	2427.315577
986.248869	2490.330000
986.545478	2565.947308
986.842050	2540.741538
987.138586	2470.165385
987.435086	2407.150962
987.731549	2495.371154
988.027975	2492.850577
988.324366	2485.288846
988.620719	2424.795000
988.917037	2457.562500
989.213318	2427.315577
989.509563	2490.330000
989.805772	2462.603654
990.101944	2497.891731
990.398080	2417.233269
990.694180	2563.426731
990.990244	2450.000769
991.286271	2530.659231
991.582262	2497.891731
991.878217	2492.850577
992.174136	2434.877308
992.470019	2429.836154
992.765865	2485.288846
993.061676	2553.344423
993.357450	2480.247692
993.653188	2528.138654
993.948890	2505.453462
994.244556	2472.685962
994.540186	2535.700385
994.835780	2414.712692
995.131337	2477.727115
995.426859	2513.015192
995.722345	2424.795000
996.017795	2462.603654
996.313208	2462.603654
996.608586	2477.727115
996.903928	2419.753846
997.199234	2477.727115
997.494504	2581.070769
997.789738	2429.836154
998.084936	2492.850577
998.380099	2515.535769
998.675225	2482.768269
998.970316	2520.576923
999.265371	2510.494615
999.560390	2540.741538
999.855373	2457.562500
1000.150320	2475.206538
1000.445232	2510.494615
1000.740108	2485.288846
1001.034948	2525.618077
1001.329752	2437.397885
1001.624521	2432.356731
1001.919254	2530.659231
1002.213951	2467.644808
1002.508613	2472.685962
1002.803239	2528.138654
1003.097829	2424.795000
1003.392384	2485.288846
1003.686903	2502.932885
1003.981386	2500.412308
1004.275834	2487.809423
1004.570246	2432.356731
1004.864623	2482.768269
1005.158964	2465.124231
1005.453270	2505.453462
1005.747540	2462.603654
1006.041775	2465.124231
1006.335974	2460.083077
1006.630138	2482.768269
1006.924266	2447.480192
1007.218359	2444.959615
1007.512416	2437.397885
1007.806438	2460.083077
1008.100425	2480.247692
1008.394376	2563.426731
1008.688292	2518.056346
1008.982172	2518.056346
1009.276017	2480.247692
1009.569827	2505.453462
1009.863602	2429.836154
1010.157341	2412.192115
1010.451045	2513.015192
1010.744714	2525.618077
1011.038347	2507.974038
1011.331945	2525.618077
1011.625508	2485.288846
1011.919036	2500.412308
1012.212528	2518.056346
1012.505986	2397.068654
1012.799408	2543.262115
1013.092795	2467.644808
1013.386147	2475.206538
1013.679464	2452.521346
1013.972745	2502.932885
1014.265992	2419.753846
1014.559204	2402.109808
1014.852380	2412.192115
1015.145521	2550.823846
1015.438628	2490.330000
1015.731699	2475.206538
1016.024736	2455.041923
1016.317737	2470.165385
1016.610703	2424.795000
1016.903635	2460.083077
1017.196531	2502.932885
1017.489393	2492.850577
1017.782219	2490.330000
1018.075011	2497.891731
1018.367768	2450.000769
1018.660490	2475.206538
1018.953177	2475.206538
1019.245829	2475.206538
