Dividing Wavelength (nm)	Counts (n)	Blue Motor Position (mm): 0.000000	Red Motor Position (mm): 0.800000	
326.493990	2021.502692
326.888308	2021.502692
327.282561	2021.502692
327.676750	2150.052115
328.070874	2031.585000
328.464933	2074.434808
328.858929	2104.681731
329.252859	2124.846346
329.646726	2071.914231
330.040528	2084.517115
330.434265	2034.105577
330.827938	2134.928654
331.221547	2150.052115
331.615091	2175.257885
332.008571	2180.299038
332.401986	2185.340192
332.795338	2165.175577
333.188625	2208.025385
333.581847	2326.492500
333.975006	2278.601538
334.368100	2311.369038
334.761129	2311.369038
335.154095	2369.342308
335.546996	2447.480192
335.939833	2329.013077
336.332606	2379.424615
336.725315	2414.712692
337.117960	2374.383462
337.510540	2392.027500
337.903056	2364.301154
338.295508	2374.383462
338.687896	2346.657115
339.080220	2467.644808
339.472480	2475.206538
339.864676	2513.015192
340.256807	2447.480192
340.648875	2331.533654
341.040879	2452.521346
341.432818	2437.397885
341.824694	2455.041923
342.216506	2487.809423
342.608253	2429.836154
342.999937	2535.700385
343.391557	2462.603654
343.783113	2507.974038
344.174605	2502.932885
344.566033	2465.124231
344.957397	2457.562500
345.348697	2465.124231
345.739934	2482.768269
346.131106	2475.206538
346.522215	2497.891731
346.913260	2487.809423
347.304241	2432.356731
347.695159	2465.124231
348.086012	2417.233269
348.476802	2472.685962
348.867528	2386.986346
349.258191	2460.083077
349.648789	2386.986346
350.039324	2397.068654
350.429796	2439.918462
350.820203	2412.192115
351.210548	2399.589231
351.600828	2427.315577
351.991045	2402.109808
352.381198	2470.165385
352.771288	2450.000769
353.161314	2450.000769
353.551276	2417.233269
353.941175	2500.412308
354.331010	2470.165385
354.720782	2515.535769
355.110490	2424.795000
355.500135	2462.603654
355.889717	2450.000769
356.279235	2444.959615
356.668689	2427.315577
357.058080	2417.233269
357.447408	2374.383462
357.836672	2500.412308
358.225873	2472.685962
358.615010	2457.562500
359.004084	2457.562500
359.393095	2482.768269
359.782043	2460.083077
360.170927	2480.247692
360.559748	2467.644808
360.948505	2417.233269
361.337199	2480.247692
361.725830	2495.371154
362.114398	2439.918462
362.502903	2457.562500
362.891344	2437.397885
363.279722	2424.795000
363.668037	2462.603654
364.056289	2394.548077
364.444478	2402.109808
364.832603	2487.809423
365.220665	2442.439038
365.608665	2439.918462
365.996601	2467.644808
366.384474	2349.177692
366.772284	2502.932885
367.160031	2505.453462
367.547715	2419.753846
367.935336	2518.056346
368.322893	2450.000769
368.710388	2419.753846
369.097820	2533.179808
369.485189	2409.671538
369.872495	2497.891731
370.259738	2414.712692
370.646918	2480.247692
371.034035	2510.494615
371.421090	2485.288846
371.808081	2462.603654
372.195010	2392.027500
372.581875	2535.700385
372.968678	2439.918462
373.355418	2452.521346
373.742096	2429.836154
374.128710	2414.712692
374.515262	2497.891731
374.901751	2444.959615
375.288177	2455.041923
375.674540	2485.288846
376.060841	2518.056346
376.447079	2462.603654
376.833254	2422.274423
377.219367	2417.233269
377.605417	2422.274423
377.991404	2376.904038
378.377329	2500.412308
378.763191	2439.918462
379.148991	2397.068654
379.534727	2450.000769
379.920402	2457.562500
380.306013	2444.959615
380.691563	2475.206538
381.077049	2447.480192
381.462474	2535.700385
381.847835	2518.056346
382.233134	2543.262115
382.618371	2492.850577
383.003545	2422.274423
383.388657	2513.015192
383.773706	2427.315577
384.158693	2455.041923
384.543618	2424.795000
384.928480	2470.165385
385.313280	2530.659231
385.698017	2568.467885
386.082692	2497.891731
386.467305	2432.356731
386.851856	2530.659231
387.236344	2465.124231
387.620770	2447.480192
388.005133	2538.220962
388.389435	2460.083077
388.773674	2364.301154
389.157851	2462.603654
389.541965	2417.233269
389.926018	2427.315577
390.310008	2434.877308
390.693936	2513.015192
391.077802	2470.165385
391.461606	2452.521346
391.845348	2427.315577
392.229027	2482.768269
392.612645	2439.918462
392.996200	2460.083077
393.379694	2450.000769
393.763125	2472.685962
394.146494	2444.959615
394.529801	2490.330000
394.913047	2444.959615
395.296230	2520.576923
395.679351	2424.795000
396.062410	2523.097500
396.445408	2550.823846
396.828343	2543.262115
397.211217	2485.288846
397.594028	2402.109808
397.976778	2450.000769
398.359466	2394.548077
398.742092	2450.000769
399.124656	2452.521346
399.507158	2490.330000
399.889598	2480.247692
400.271977	2462.603654
400.654294	2444.959615
401.036549	2525.618077
401.418742	2490.330000
401.800874	2535.700385
402.182944	2424.795000
402.564952	2462.603654
402.946898	2528.138654
403.328783	2439.918462
403.710606	2462.603654
404.092367	2523.097500
404.474067	2500.412308
404.855705	2487.809423
405.237282	2419.753846
405.618797	2581.070769
406.000250	2475.206538
406.381642	2444.959615
406.762972	2507.974038
407.144240	2515.535769
407.525447	2505.453462
407.906593	2452.521346
408.287677	2467.644808
408.668700	2497.891731
409.049661	2462.603654
409.430560	2462.603654
409.811399	2414.712692
410.192176	2528.138654
410.572891	2437.397885
410.953545	2545.782692
411.334138	2394.548077
411.714669	2442.439038
412.095139	2477.727115
412.475547	2422.274423
412.855894	2427.315577
413.236180	2613.838269
413.616405	2424.795000
413.996568	2528.138654
414.376670	2495.371154
414.756711	2533.179808
415.136691	2490.330000
415.516609	2507.974038
415.896466	2497.891731
416.276262	2502.932885
416.655997	2444.959615
417.035670	2354.218846
417.415283	2497.891731
417.794834	2462.603654
418.174324	2495.371154
418.553753	2472.685962
418.933121	2523.097500
419.312428	2427.315577
419.691674	2384.465769
420.070859	2523.097500
420.449983	2485.288846
420.829045	2480.247692
421.208047	2563.426731
421.586988	2472.685962
421.965867	2460.083077
422.344686	2437.397885
422.723444	2460.083077
423.102141	2460.083077
423.480777	2480.247692
423.859352	2505.453462
424.237866	2392.027500
424.616319	2515.535769
424.994712	2505.453462
425.373044	2606.276538
425.751314	2432.356731
426.129524	2470.165385
426.507673	2507.974038
426.885762	2462.603654
427.263789	2477.727115
427.641756	2475.206538
428.019662	2429.836154
428.397508	2518.056346
428.775292	2475.206538
429.153016	2492.850577
429.530679	2467.644808
429.908282	2510.494615
430.285824	2397.068654
430.663305	2482.768269
431.040726	2485.288846
431.418086	2487.809423
431.795385	2439.918462
432.172624	2422.274423
432.549802	2495.371154
432.926920	2472.685962
433.303977	2457.562500
433.680974	2429.836154
434.057910	2490.330000
434.434786	2422.274423
434.811601	2495.371154
435.188355	2407.150962
435.565050	2581.070769
435.941683	2515.535769
436.318257	2455.041923
436.694770	2447.480192
437.071222	2487.809423
437.447614	2515.535769
437.823946	2528.138654
438.200218	2472.685962
438.576429	2472.685962
438.952580	2482.768269
439.328670	2492.850577
439.704700	2467.644808
440.080670	2475.206538
440.456580	2530.659231
440.832429	2475.206538
441.208218	2444.959615
441.583947	2492.850577
441.959616	2462.603654
442.335224	2565.947308
442.710773	2533.179808
443.086261	2462.603654
443.461689	2530.659231
443.837057	2465.124231
444.212365	2477.727115
444.587612	2485.288846
444.962800	2540.741538
445.337927	2414.712692
445.712995	2528.138654
446.088002	2548.303269
446.462949	2583.591346
446.837837	2429.836154
447.212664	2482.768269
447.587431	2487.809423
447.962139	2472.685962
448.336786	2470.165385
448.711374	2475.206538
449.085901	2394.548077
449.460369	2467.644808
449.834776	2505.453462
450.209124	2480.247692
450.583412	2507.974038
450.957640	2507.974038
451.331808	2528.138654
451.705917	2472.685962
452.079965	2530.659231
452.453954	2502.932885
452.827883	2543.262115
453.201752	2523.097500
453.575562	2455.041923
453.949311	2545.782692
454.323001	2530.659231
454.696632	2560.906154
455.070202	2500.412308
455.443713	2442.439038
455.817164	2523.097500
456.190556	2424.795000
456.563888	2535.700385
456.937160	2565.947308
457.310373	2490.330000
457.683526	2560.906154
458.056619	2538.220962
458.429653	2442.439038
458.802628	2437.397885
459.175542	2444.959615
459.548398	2490.330000
459.921194	2513.015192
460.293930	2460.083077
460.666607	2523.097500
461.039224	2417.233269
461.411782	2535.700385
461.784280	2520.576923
462.156719	2581.070769
462.529099	2434.877308
462.901419	2502.932885
463.273680	2482.768269
463.645882	2525.618077
464.018024	2545.782692
464.390106	2452.521346
464.762130	2389.506923
465.134094	2460.083077
465.505999	2432.356731
465.877845	2523.097500
466.249631	2505.453462
466.621358	2565.947308
466.993026	2419.753846
467.364634	2465.124231
467.736184	2515.535769
468.107674	2563.426731
468.479105	2492.850577
468.850477	2404.630385
469.221790	2452.521346
469.593043	2513.015192
469.964238	2505.453462
470.335373	2439.918462
470.706449	2568.467885
471.077467	2485.288846
471.448425	2576.029615
471.819324	2477.727115
472.190164	2409.671538
472.560945	2528.138654
472.931667	2513.015192
473.302330	2593.673654
473.672934	2538.220962
474.043479	2455.041923
474.413965	2543.262115
474.784393	2510.494615
475.154761	2475.206538
475.525070	2487.809423
475.895321	2497.891731
476.265513	2465.124231
476.635645	2570.988462
477.005719	2477.727115
477.375734	2507.974038
477.745691	2437.397885
478.115588	2467.644808
478.485427	2555.865000
478.855207	2533.179808
479.224928	2487.809423
479.594591	2583.591346
479.964194	2588.632500
480.333739	2502.932885
480.703226	2465.124231
481.072653	2563.426731
481.442022	2475.206538
481.811333	2507.974038
482.180584	2520.576923
482.549777	2497.891731
482.918912	2429.836154
483.287988	2437.397885
483.657005	2563.426731
484.025964	2460.083077
484.394864	2407.150962
484.763706	2530.659231
485.132489	2467.644808
485.501213	2475.206538
485.869879	2470.165385
486.238487	2487.809423
486.607036	2515.535769
486.975527	2452.521346
487.343959	2558.385577
487.712333	2570.988462
488.080648	2472.685962
488.448905	2513.015192
488.817104	2460.083077
489.185244	2543.262115
489.553326	2530.659231
489.921350	2455.041923
490.289315	2495.371154
490.657222	2455.041923
491.025070	2439.918462
491.392861	2560.906154
491.760593	2492.850577
492.128267	2507.974038
492.495883	2538.220962
492.863440	2374.383462
493.230939	2510.494615
493.598380	2555.865000
493.965763	2507.974038
494.333088	2507.974038
494.700354	2447.480192
495.067563	2495.371154
495.434713	2397.068654
495.801805	2442.439038
496.168839	2487.809423
496.535815	2502.932885
496.902733	2518.056346
497.269593	2487.809423
497.636395	2505.453462
498.003139	2402.109808
498.369825	2480.247692
498.736453	2442.439038
499.103023	2452.521346
499.469535	2543.262115
499.835989	2470.165385
500.202385	2631.482308
500.568723	2591.153077
500.935003	2490.330000
501.301226	2470.165385
501.667390	2525.618077
502.033497	2505.453462
502.399546	2439.918462
502.765537	2535.700385
503.131470	2444.959615
503.497345	2467.644808
503.863163	2462.603654
504.228923	2505.453462
504.594625	2523.097500
504.960269	2533.179808
505.325856	2528.138654
505.691385	2419.753846
506.056856	2472.685962
506.422270	2540.741538
506.787625	2530.659231
507.152924	2538.220962
507.518164	2465.124231
507.883347	2586.111923
508.248472	2535.700385
508.613540	2495.371154
508.978550	2497.891731
509.343503	2497.891731
509.708398	2523.097500
510.073236	2412.192115
510.438016	2528.138654
510.802738	2467.644808
511.167403	2538.220962
511.532010	2480.247692
511.896561	2450.000769
512.261053	2457.562500
512.625488	2502.932885
512.989866	2427.315577
513.354186	2434.877308
513.718449	2444.959615
514.082655	2528.138654
514.446803	2530.659231
514.810894	2528.138654
515.174927	2482.768269
515.538904	2361.780577
515.902822	2462.603654
516.266684	2525.618077
516.630488	2558.385577
516.994235	2465.124231
517.357925	2535.700385
517.721558	2550.823846
518.085133	2472.685962
518.448651	2427.315577
518.812112	2533.179808
519.175516	2442.439038
519.538863	2500.412308
519.902152	2530.659231
520.265385	2467.644808
520.628560	2485.288846
520.991678	2480.247692
521.354739	2565.947308
521.717743	2520.576923
522.080690	2518.056346
522.443580	2442.439038
522.806413	2455.041923
523.169189	2432.356731
523.531908	2565.947308
523.894569	2523.097500
524.257174	2500.412308
524.619722	2482.768269
524.982213	2500.412308
525.344647	2507.974038
525.707025	2550.823846
526.069345	2470.165385
526.431608	2555.865000
526.793815	2465.124231
527.155964	2507.974038
527.518057	2399.589231
527.880093	2525.618077
528.242072	2462.603654
528.603995	2573.509038
528.965860	2437.397885
529.327669	2444.959615
529.689421	2533.179808
530.051117	2510.494615
530.412755	2500.412308
530.774337	2472.685962
531.135862	2482.768269
531.497331	2510.494615
531.858743	2480.247692
532.220098	2616.358846
532.581396	2550.823846
532.942638	2525.618077
533.303824	2460.083077
533.664953	2444.959615
534.026025	2528.138654
534.387040	2545.782692
534.747999	2432.356731
535.108902	2470.165385
535.469748	2422.274423
535.830537	2497.891731
536.191270	2543.262115
536.551947	2495.371154
536.912567	2505.453462
537.273131	2510.494615
537.633638	2528.138654
537.994089	2480.247692
538.354483	2482.768269
538.714821	2487.809423
539.075103	2424.795000
539.435328	2528.138654
539.795497	2414.712692
540.155609	2470.165385
540.515665	2407.150962
540.875665	2523.097500
541.235609	2513.015192
541.595496	2523.097500
541.955328	2485.288846
542.315102	2563.426731
542.674821	2480.247692
543.034483	2500.412308
543.394090	2520.576923
543.753640	2502.932885
544.113134	2455.041923
544.472571	2581.070769
544.831953	2515.535769
545.191278	2505.453462
545.550548	2505.453462
545.909761	2533.179808
546.268918	2565.947308
546.628019	2507.974038
546.987064	2492.850577
547.346053	2432.356731
547.704986	2485.288846
548.063863	2422.274423
548.422684	2497.891731
548.781449	2570.988462
549.140158	2455.041923
549.498811	2442.439038
549.857408	2500.412308
550.215949	2568.467885
550.574434	2495.371154
550.932864	2492.850577
551.291237	2586.111923
551.649555	2495.371154
552.007817	2402.109808
552.366022	2507.974038
552.724173	2550.823846
553.082267	2467.644808
553.440305	2533.179808
553.798288	2429.836154
554.156215	2518.056346
554.514086	2545.782692
554.871902	2477.727115
555.229661	2490.330000
555.587365	2455.041923
555.945014	2437.397885
556.302606	2513.015192
556.660143	2502.932885
557.017625	2480.247692
557.375050	2492.850577
557.732421	2618.879423
558.089735	2535.700385
558.446994	2490.330000
558.804197	2505.453462
559.161345	2404.630385
559.518437	2538.220962
559.875474	2447.480192
560.232455	2515.535769
560.589381	2502.932885
560.946251	2583.591346
561.303065	2543.262115
561.659825	2487.809423
562.016528	2578.550192
562.373177	2510.494615
562.729770	2460.083077
563.086307	2470.165385
563.442789	2457.562500
563.799216	2467.644808
564.155587	2485.288846
564.511904	2560.906154
564.868164	2520.576923
565.224370	2447.480192
565.580520	2502.932885
565.936615	2492.850577
566.292654	2424.795000
566.648638	2434.877308
567.004567	2538.220962
567.360441	2540.741538
567.716260	2485.288846
568.072023	2568.467885
568.427732	2432.356731
568.783385	2502.932885
569.138982	2540.741538
569.494525	2553.344423
569.850013	2513.015192
570.205445	2535.700385
570.560823	2439.918462
570.916145	2490.330000
571.271412	2490.330000
571.626625	2601.235385
571.981782	2502.932885
572.336884	2429.836154
572.691931	2470.165385
573.046923	2515.535769
573.401860	2475.206538
573.756743	2505.453462
574.111570	2555.865000
574.466342	2550.823846
574.821059	2462.603654
575.175722	2502.932885
575.530330	2437.397885
575.884882	2497.891731
576.239380	2475.206538
576.593823	2439.918462
576.948211	2550.823846
577.302544	2417.233269
577.656823	2497.891731
578.011047	2492.850577
578.365216	2465.124231
578.719330	2565.947308
579.073389	2563.426731
579.427394	2447.480192
579.781344	2404.630385
580.135239	2487.809423
580.489080	2437.397885
580.842866	2550.823846
581.196597	2482.768269
581.550273	2482.768269
581.903895	2497.891731
582.257463	2482.768269
582.610975	2550.823846
582.964434	2530.659231
583.317837	2419.753846
583.671186	2502.932885
584.024481	2480.247692
584.377721	2490.330000
584.730906	2530.659231
585.084037	2434.877308
585.437113	2470.165385
585.790135	2505.453462
586.143103	2555.865000
586.496016	2606.276538
586.848874	2528.138654
587.201679	2565.947308
587.554428	2497.891731
587.907124	2452.521346
588.259765	2487.809423
588.612352	2513.015192
588.964884	2573.509038
589.317362	2492.850577
589.669786	2530.659231
590.022155	2487.809423
590.374470	2565.947308
590.726731	2530.659231
591.078937	2495.371154
591.431090	2555.865000
591.783188	2447.480192
592.135232	2477.727115
592.487222	2495.371154
592.839157	2432.356731
593.191038	2477.727115
593.542866	2452.521346
593.894639	2487.809423
594.246358	2472.685962
594.598022	2444.959615
594.949633	2518.056346
595.301190	2455.041923
595.652692	2513.015192
596.004141	2465.124231
596.355535	2553.344423
596.706876	2437.397885
597.058162	2482.768269
597.409395	2505.453462
597.760573	2513.015192
598.111698	2480.247692
598.462768	2528.138654
598.813785	2505.453462
599.164748	2558.385577
599.515657	2550.823846
599.866511	2475.206538
600.217312	2578.550192
600.568060	2422.274423
600.918753	2487.809423
601.269392	2530.659231
601.619978	2482.768269
601.970510	2442.439038
602.320988	2500.412308
602.671412	2487.809423
603.021783	2540.741538
603.372100	2540.741538
603.722363	2414.712692
604.072572	2470.165385
604.422728	2472.685962
604.772830	2500.412308
605.122878	2470.165385
605.472872	2513.015192
605.822813	2535.700385
606.172701	2495.371154
606.522534	2520.576923
606.872314	2470.165385
607.222041	2480.247692
607.571714	2518.056346
607.921333	2477.727115
608.270899	2475.206538
608.620411	2535.700385
608.969870	2439.918462
609.319276	2538.220962
609.668627	2523.097500
610.017926	2518.056346
610.367171	2442.439038
610.716362	2586.111923
611.065500	2487.809423
611.414585	2455.041923
611.763616	2467.644808
612.112594	2475.206538
612.461518	2482.768269
612.810389	2507.974038
613.159207	2467.644808
613.507971	2442.439038
613.856682	2472.685962
614.205340	2555.865000
614.553945	2442.439038
614.902496	2563.426731
615.250994	2429.836154
615.599439	2530.659231
615.947830	2422.274423
616.296169	2505.453462
616.644454	2450.000769
616.992686	2475.206538
617.340864	2500.412308
617.688990	2520.576923
618.037063	2573.509038
618.385082	2550.823846
618.733048	2598.714808
619.080961	2490.330000
619.428821	2505.453462
619.776628	2505.453462
620.124382	2540.741538
620.472083	2618.879423
620.819731	2475.206538
621.167326	2497.891731
621.514868	2442.439038
621.862357	2475.206538
622.209793	2528.138654
622.557176	2548.303269
622.904506	2462.603654
623.251783	2505.453462
623.599007	2477.727115
623.946179	2533.179808
624.293297	2507.974038
624.640363	2510.494615
624.987376	2432.356731
625.334336	2417.233269
625.681243	2530.659231
626.028097	2558.385577
626.374899	2450.000769
626.721647	2596.194231
627.068343	2462.603654
627.414987	2495.371154
627.761577	2487.809423
628.108115	2495.371154
628.454600	2457.562500
628.801032	2520.576923
629.147412	2462.603654
629.493739	2487.809423
629.840014	2477.727115
630.186236	2533.179808
630.532405	2460.083077
630.878521	2535.700385
631.224585	2548.303269
631.570597	2497.891731
631.916556	2535.700385
632.262462	2540.741538
632.608316	2427.315577
632.954117	2588.632500
633.299866	2477.727115
633.645562	2523.097500
633.991206	2490.330000
634.336797	2502.932885
634.682336	2502.932885
635.027823	2543.262115
635.373257	2505.453462
635.718639	2550.823846
636.063968	2525.618077
636.409245	2460.083077
636.754470	2429.836154
637.099642	2538.220962
637.444762	2570.988462
637.789829	2447.480192
638.134845	2419.753846
638.479808	2535.700385
638.824719	2523.097500
639.169577	2369.342308
639.514383	2477.727115
639.859137	2480.247692
640.203839	2518.056346
640.548489	2485.288846
640.893086	2460.083077
641.237632	2442.439038
641.582125	2419.753846
641.926566	2412.192115
642.270955	2507.974038
642.615292	2495.371154
642.959576	2530.659231
643.303809	2545.782692
643.647990	2540.741538
643.992118	2513.015192
644.336195	2518.056346
644.680219	2505.453462
645.024192	2467.644808
645.368112	2480.247692
645.711981	2510.494615
646.055797	2432.356731
646.399562	2513.015192
646.743274	2467.644808
647.086935	2515.535769
647.430544	2455.041923
647.774101	2460.083077
648.117606	2505.453462
648.461059	2477.727115
648.804460	2563.426731
649.147810	2573.509038
649.491108	2455.041923
649.834354	2513.015192
650.177548	2452.521346
650.520690	2525.618077
650.863781	2444.959615
651.206820	2472.685962
651.549807	2485.288846
651.892742	2555.865000
652.235626	2523.097500
652.578458	2472.685962
652.921238	2520.576923
653.263967	2523.097500
653.606644	2513.015192
653.949269	2414.712692
654.291843	2500.412308
654.634365	2480.247692
654.976836	2530.659231
655.319255	2500.412308
655.661622	2477.727115
656.003938	2545.782692
656.346203	2485.288846
656.688416	2490.330000
657.030577	2495.371154
657.372687	2487.809423
657.714746	2528.138654
658.056753	2548.303269
658.398708	2540.741538
658.740612	2588.632500
659.082465	2437.397885
659.424266	2518.056346
659.766016	2467.644808
660.107715	2480.247692
660.449362	2583.591346
660.790958	2507.974038
661.132503	2558.385577
661.473996	2553.344423
661.815438	2465.124231
662.156829	2475.206538
662.498168	2472.685962
662.839456	2477.727115
663.180693	2500.412308
663.521879	2513.015192
663.863013	2523.097500
664.204097	2540.741538
664.545129	2437.397885
664.886110	2495.371154
665.227040	2540.741538
665.567918	2535.700385
665.908746	2490.330000
666.249522	2477.727115
666.590248	2487.809423
666.930922	2510.494615
667.271545	2518.056346
667.612118	2530.659231
667.952639	2432.356731
668.293109	2497.891731
668.633528	2550.823846
668.973896	2417.233269
669.314213	2545.782692
669.654480	2495.371154
669.994695	2497.891731
670.334859	2565.947308
670.674973	2442.439038
671.015035	2477.727115
671.355047	2432.356731
671.695008	2437.397885
672.034918	2543.262115
672.374777	2560.906154
672.714585	2477.727115
673.054342	2455.041923
673.394049	2442.439038
673.733705	2581.070769
674.073310	2455.041923
674.412864	2427.315577
674.752368	2538.220962
675.091820	2500.412308
675.431223	2455.041923
675.770574	2548.303269
676.109875	2477.727115
676.449125	2452.521346
676.788324	2485.288846
677.127473	2432.356731
677.466571	2427.315577
677.805619	2507.974038
678.144616	2601.235385
678.483562	2477.727115
678.822458	2530.659231
679.161303	2543.262115
679.500098	2513.015192
679.838842	2444.959615
680.177535	2477.727115
680.516179	2470.165385
680.854771	2485.288846
681.193314	2470.165385
681.531805	2477.727115
681.870247	2513.015192
682.208638	2480.247692
682.546978	2502.932885
682.885268	2495.371154
683.223508	2467.644808
683.561697	2611.317692
683.899836	2460.083077
684.237925	2525.618077
684.575963	2513.015192
684.913951	2492.850577
685.251889	2535.700385
685.589776	2565.947308
685.927614	2497.891731
686.265401	2540.741538
686.603137	2515.535769
686.940824	2583.591346
687.278460	2462.603654
687.616046	2472.685962
687.953582	2485.288846
688.291068	2477.727115
688.628504	2480.247692
688.965889	2439.918462
689.303224	2470.165385
689.640510	2477.727115
689.977745	2492.850577
690.314930	2570.988462
690.652065	2369.342308
690.989150	2485.288846
691.326185	2482.768269
691.663170	2535.700385
692.000105	2424.795000
692.336990	2465.124231
692.673825	2477.727115
693.010610	2419.753846
693.347345	2533.179808
693.684030	2462.603654
694.020665	2548.303269
694.357251	2513.015192
694.693786	2475.206538
695.030272	2429.836154
695.366707	2550.823846
695.703093	2502.932885
696.039429	2495.371154
696.375716	2502.932885
696.711952	2450.000769
697.048139	2550.823846
697.384276	2455.041923
697.720363	2538.220962
698.056400	2500.412308
698.392388	2520.576923
698.728326	2505.453462
699.064214	2543.262115
699.400053	2507.974038
699.735842	2500.412308
700.071581	2535.700385
700.407270	2583.591346
700.742910	2480.247692
701.078501	2442.439038
701.414042	2460.083077
701.749533	2497.891731
702.084974	2460.083077
702.420366	2550.823846
702.755709	2485.288846
703.091002	2460.083077
703.426246	2513.015192
703.761440	2434.877308
704.096584	2535.700385
704.431679	2533.179808
704.766725	2540.741538
705.101721	2530.659231
705.436668	2497.891731
705.771565	2492.850577
706.106413	2525.618077
706.441212	2455.041923
706.775961	2389.506923
707.110661	2472.685962
707.445311	2419.753846
707.779913	2523.097500
708.114465	2528.138654
708.448967	2419.753846
708.783421	2424.795000
709.117825	2520.576923
709.452180	2455.041923
709.786485	2477.727115
710.120742	2394.548077
710.454949	2518.056346
710.789107	2576.029615
711.123216	2507.974038
711.457275	2422.274423
711.791286	2538.220962
712.125247	2452.521346
712.459159	2472.685962
712.793023	2472.685962
713.126837	2545.782692
713.460602	2462.603654
713.794318	2485.288846
714.127985	2455.041923
714.461602	2540.741538
714.795171	2442.439038
715.128691	2444.959615
715.462162	2513.015192
715.795584	2447.480192
716.128957	2621.400000
716.462281	2460.083077
716.795556	2523.097500
717.128782	2465.124231
717.461960	2472.685962
717.795088	2374.383462
718.128167	2535.700385
718.461198	2495.371154
718.794180	2553.344423
719.127113	2465.124231
719.459997	2462.603654
719.792833	2518.056346
720.125619	2492.850577
720.458357	2490.330000
720.791046	2518.056346
721.123686	2460.083077
721.456278	2528.138654
721.788821	2515.535769
722.121315	2510.494615
722.453761	2507.974038
722.786158	2444.959615
723.118506	2472.685962
723.450805	2482.768269
723.783056	2485.288846
724.115259	2523.097500
724.447412	2462.603654
724.779518	2515.535769
725.111574	2480.247692
725.443582	2457.562500
725.775542	2500.412308
726.107453	2510.494615
726.439315	2457.562500
726.771129	2540.741538
727.102895	2452.521346
727.434612	2460.083077
727.766281	2455.041923
728.097901	2487.809423
728.429473	2485.288846
728.760996	2520.576923
729.092471	2505.453462
729.423897	2477.727115
729.755276	2497.891731
730.086606	2487.809423
730.417887	2485.288846
730.749120	2452.521346
731.080305	2497.891731
731.411442	2507.974038
731.742530	2477.727115
732.073570	2497.891731
732.404562	2475.206538
732.735506	2412.192115
733.066401	2573.509038
733.397249	2467.644808
733.728048	2437.397885
734.058798	2437.397885
734.389501	2515.535769
734.720156	2429.836154
735.050762	2513.015192
735.381320	2472.685962
735.711831	2452.521346
736.042293	2492.850577
736.372707	2485.288846
736.703073	2455.041923
737.033391	2500.412308
737.363661	2404.630385
737.693883	2515.535769
738.024056	2533.179808
738.354182	2548.303269
738.684260	2586.111923
739.014290	2563.426731
739.344272	2437.397885
739.674207	2515.535769
740.004093	2482.768269
740.333931	2472.685962
740.663722	2505.453462
740.993464	2513.015192
741.323159	2452.521346
741.652806	2455.041923
741.982405	2480.247692
742.311956	2492.850577
742.641460	2530.659231
742.970915	2465.124231
743.300323	2538.220962
743.629683	2429.836154
743.958996	2500.412308
744.288260	2515.535769
744.617477	2487.809423
744.946647	2558.385577
745.275768	2465.124231
745.604842	2455.041923
745.933869	2497.891731
746.262847	2407.150962
746.591778	2558.385577
746.920662	2497.891731
747.249498	2477.727115
747.578286	2381.945192
747.907027	2427.315577
748.235720	2497.891731
748.564365	2538.220962
748.892963	2457.562500
749.221514	2515.535769
749.550017	2528.138654
749.878473	2462.603654
750.206881	2432.356731
750.535242	2523.097500
750.863555	2437.397885
751.191821	2533.179808
751.520039	2404.630385
751.848210	2581.070769
752.176334	2409.671538
752.504411	2518.056346
752.832440	2434.877308
753.160421	2528.138654
753.488356	2525.618077
753.816243	2495.371154
754.144082	2558.385577
754.471875	2528.138654
754.799620	2472.685962
755.127318	2467.644808
755.454969	2437.397885
755.782572	2442.439038
756.110129	2568.467885
756.437638	2535.700385
756.765100	2467.644808
757.092515	2523.097500
757.419882	2450.000769
757.747203	2472.685962
758.074477	2472.685962
758.401703	2427.315577
758.728882	2439.918462
759.056014	2510.494615
759.383099	2545.782692
759.710138	2545.782692
760.037129	2543.262115
760.364073	2540.741538
760.690970	2475.206538
761.017820	2427.315577
761.344623	2457.562500
761.671379	2424.795000
761.998088	2429.836154
762.324751	2518.056346
762.651366	2386.986346
762.977935	2507.974038
763.304456	2457.562500
763.630931	2515.535769
763.957359	2492.850577
764.283740	2502.932885
764.610074	2492.850577
764.936362	2422.274423
765.262602	2548.303269
765.588796	2500.412308
765.914943	2485.288846
766.241044	2434.877308
766.567097	2505.453462
766.893104	2452.521346
767.219064	2525.618077
767.544978	2513.015192
767.870845	2477.727115
768.196665	2452.521346
768.522438	2550.823846
768.848165	2497.891731
769.173846	2510.494615
769.499479	2397.068654
769.825066	2515.535769
770.150607	2439.918462
770.476101	2467.644808
770.801548	2414.712692
771.126949	2462.603654
771.452303	2482.768269
771.777611	2470.165385
772.102872	2447.480192
772.428087	2452.521346
772.753256	2455.041923
773.078378	2470.165385
773.403453	2586.111923
773.728482	2442.439038
774.053465	2439.918462
774.378401	2467.644808
774.703291	2450.000769
775.028135	2523.097500
775.352932	2530.659231
775.677683	2515.535769
776.002388	2518.056346
776.327046	2555.865000
776.651658	2550.823846
776.976224	2545.782692
777.300743	2518.056346
777.625216	2507.974038
777.949643	2538.220962
778.274024	2515.535769
778.598359	2371.862885
778.922647	2472.685962
779.246889	2472.685962
779.571086	2477.727115
779.895236	2472.685962
780.219339	2510.494615
780.543397	2470.165385
780.867409	2520.576923
781.191374	2497.891731
781.515294	2414.712692
781.839167	2596.194231
782.162995	2465.124231
782.486776	2530.659231
782.810511	2533.179808
783.134201	2563.426731
783.457844	2361.780577
783.781441	2523.097500
784.104993	2495.371154
784.428498	2444.959615
784.751958	2480.247692
785.075372	2505.453462
785.398739	2525.618077
785.722061	2452.521346
786.045337	2462.603654
786.368568	2480.247692
786.691752	2492.850577
787.014891	2467.644808
787.337983	2525.618077
787.661030	2500.412308
787.984031	2485.288846
788.306987	2520.576923
788.629897	2502.932885
788.952760	2452.521346
789.275579	2434.877308
789.598351	2442.439038
789.921078	2490.330000
790.243759	2460.083077
790.566395	2455.041923
790.888984	2467.644808
791.211529	2490.330000
791.534027	2439.918462
791.856480	2465.124231
792.178888	2558.385577
792.501249	2497.891731
792.823566	2525.618077
793.145836	2510.494615
793.468062	2523.097500
793.790241	2518.056346
794.112375	2381.945192
794.434464	2482.768269
794.756507	2475.206538
795.078505	2515.535769
795.400457	2432.356731
795.722364	2495.371154
796.044226	2450.000769
796.366042	2583.591346
796.687812	2447.480192
797.009538	2495.371154
797.331218	2492.850577
797.652852	2450.000769
797.974442	2389.506923
798.295986	2618.879423
798.617484	2402.109808
798.938938	2576.029615
799.260346	2510.494615
799.581709	2500.412308
799.903026	2457.562500
800.224299	2500.412308
800.545526	2533.179808
800.866708	2424.795000
801.187845	2495.371154
801.508936	2417.233269
801.829983	2525.618077
802.150984	2409.671538
802.471940	2487.809423
802.792851	2417.233269
803.113717	2412.192115
803.434538	2407.150962
803.755314	2444.959615
804.076045	2502.932885
804.396731	2528.138654
804.717372	2500.412308
805.037967	2462.603654
805.358518	2472.685962
805.679024	2535.700385
805.999485	2462.603654
806.319901	2520.576923
806.640272	2596.194231
806.960598	2404.630385
807.280879	2518.056346
807.601115	2495.371154
807.921306	2535.700385
808.241453	2523.097500
808.561554	2543.262115
808.881611	2467.644808
809.201623	2502.932885
809.521590	2397.068654
809.841513	2505.453462
810.161390	2455.041923
810.481223	2497.891731
810.801011	2505.453462
811.120755	2528.138654
811.440453	2437.397885
811.760107	2543.262115
812.079716	2457.562500
812.399281	2502.932885
812.718801	2472.685962
813.038276	2518.056346
813.357707	2485.288846
813.677093	2608.797115
813.996434	2520.576923
814.315731	2560.906154
814.634983	2437.397885
814.954191	2528.138654
815.273354	2482.768269
815.592473	2570.988462
815.911547	2485.288846
816.230577	2497.891731
816.549562	2452.521346
816.868502	2545.782692
817.187399	2500.412308
817.506250	2528.138654
817.825058	2588.632500
818.143821	2414.712692
818.462539	2457.562500
818.781213	2500.412308
819.099843	2417.233269
819.418429	2533.179808
819.736970	2467.644808
820.055466	2518.056346
820.373919	2530.659231
820.692327	2543.262115
821.010691	2540.741538
821.329011	2513.015192
821.647286	2467.644808
821.965517	2439.918462
822.283704	2515.535769
822.601847	2560.906154
822.919945	2545.782692
823.237999	2482.768269
823.556010	2636.523462
823.873976	2397.068654
824.191897	2490.330000
824.509775	2593.673654
824.827609	2586.111923
825.145398	2442.439038
825.463144	2477.727115
825.780845	2591.153077
826.098502	2455.041923
826.416116	2553.344423
826.733685	2500.412308
827.051210	2538.220962
827.368692	2535.700385
827.686129	2492.850577
828.003522	2480.247692
828.320872	2485.288846
828.638177	2553.344423
828.955439	2487.809423
829.272656	2510.494615
829.589830	2480.247692
829.906960	2462.603654
830.224046	2480.247692
830.541088	2462.603654
830.858086	2545.782692
831.175041	2495.371154
831.491952	2520.576923
831.808819	2434.877308
832.125642	2485.288846
832.442421	2462.603654
832.759157	2513.015192
833.075849	2470.165385
833.392497	2543.262115
833.709101	2538.220962
834.025662	2475.206538
834.342179	2429.836154
834.658653	2465.124231
834.975083	2399.589231
835.291469	2477.727115
835.607811	2467.644808
835.924110	2510.494615
836.240366	2472.685962
836.556578	2475.206538
836.872746	2402.109808
837.188871	2528.138654
837.504952	2505.453462
837.820990	2591.153077
838.136984	2452.521346
838.452935	2505.453462
838.768842	2487.809423
839.084706	2568.467885
839.400526	2455.041923
839.716303	2419.753846
840.032037	2573.509038
840.347727	2447.480192
840.663373	2452.521346
840.978977	2513.015192
841.294537	2475.206538
841.610054	2414.712692
841.925527	2543.262115
842.240957	2429.836154
842.556344	2455.041923
842.871687	2507.974038
843.186987	2523.097500
843.502244	2475.206538
843.817458	2525.618077
844.132629	2502.932885
844.447756	2548.303269
844.762840	2465.124231
845.077881	2492.850577
845.392879	2437.397885
845.707833	2419.753846
846.022745	2402.109808
846.337613	2407.150962
846.652438	2470.165385
846.967221	2543.262115
847.281960	2485.288846
847.596656	2465.124231
847.911309	2497.891731
848.225919	2525.618077
848.540485	2439.918462
848.855009	2477.727115
849.169490	2543.262115
849.483928	2578.550192
849.798323	2492.850577
850.112675	2535.700385
850.426984	2477.727115
850.741251	2394.548077
851.055474	2507.974038
851.369654	2555.865000
851.683792	2528.138654
851.997887	2457.562500
852.311938	2497.891731
852.625947	2492.850577
852.939914	2487.809423
853.253837	2548.303269
853.567718	2477.727115
853.881555	2507.974038
854.195350	2465.124231
854.509103	2432.356731
854.822812	2492.850577
855.136479	2528.138654
855.450103	2513.015192
855.763685	2558.385577
856.077224	2429.836154
856.390720	2510.494615
856.704173	2412.192115
857.017584	2540.741538
857.330953	2457.562500
857.644278	2530.659231
857.957561	2555.865000
858.270802	2434.877308
858.584000	2555.865000
858.897155	2467.644808
859.210268	2535.700385
859.523339	2583.591346
859.836367	2507.974038
860.149352	2528.138654
860.462295	2523.097500
860.775195	2548.303269
861.088054	2455.041923
861.400869	2492.850577
861.713642	2523.097500
862.026373	2465.124231
862.339062	2518.056346
862.651708	2523.097500
862.964312	2591.153077
863.276873	2505.453462
863.589392	2472.685962
863.901869	2507.974038
864.214303	2460.083077
864.526696	2424.795000
864.839045	2502.932885
865.151353	2465.124231
865.463619	2573.509038
865.775842	2424.795000
866.088023	2467.644808
866.400162	2460.083077
866.712258	2518.056346
867.024313	2465.124231
867.336325	2497.891731
867.648296	2417.233269
867.960224	2455.041923
868.272110	2497.891731
868.583954	2573.509038
868.895755	2487.809423
869.207515	2533.179808
869.519233	2467.644808
869.830909	2543.262115
870.142542	2465.124231
870.454134	2548.303269
870.765684	2581.070769
871.077191	2593.673654
871.388657	2510.494615
871.700081	2513.015192
872.011463	2553.344423
872.322803	2470.165385
872.634101	2520.576923
872.945357	2465.124231
873.256571	2404.630385
873.567744	2505.453462
873.878874	2404.630385
874.189963	2490.330000
874.501010	2407.150962
874.812015	2397.068654
875.122979	2497.891731
875.433900	2492.850577
875.744780	2485.288846
876.055618	2462.603654
876.366415	2482.768269
876.677169	2523.097500
876.987882	2490.330000
877.298554	2518.056346
877.609183	2475.206538
877.919771	2480.247692
878.230317	2530.659231
878.540822	2525.618077
878.851285	2467.644808
879.161707	2538.220962
879.472087	2525.618077
879.782425	2510.494615
880.092722	2502.932885
880.402977	2462.603654
880.713191	2487.809423
881.023363	2452.521346
881.333494	2616.358846
881.643583	2424.795000
881.953631	2510.494615
882.263637	2452.521346
882.573602	2515.535769
882.883526	2432.356731
883.193408	2477.727115
883.503248	2540.741538
883.813048	2485.288846
884.122806	2492.850577
884.432522	2429.836154
884.742197	2528.138654
885.051831	2450.000769
885.361424	2518.056346
885.670975	2490.330000
885.980485	2520.576923
886.289954	2518.056346
886.599382	2460.083077
886.908768	2513.015192
887.218113	2429.836154
887.527417	2510.494615
887.836680	2568.467885
888.145901	2550.823846
888.455082	2485.288846
888.764221	2535.700385
889.073319	2439.918462
889.382376	2497.891731
889.691392	2555.865000
890.000366	2452.521346
890.309300	2533.179808
890.618193	2450.000769
890.927044	2523.097500
891.235855	2548.303269
891.544625	2495.371154
891.853353	2444.959615
892.162041	2520.576923
892.470687	2490.330000
892.779293	2507.974038
893.087858	2417.233269
893.396381	2437.397885
893.704864	2465.124231
894.013306	2520.576923
894.321707	2457.562500
894.630068	2452.521346
894.938387	2467.644808
895.246665	2442.439038
895.554903	2455.041923
895.863100	2467.644808
896.171256	2485.288846
896.479371	2518.056346
896.787446	2475.206538
897.095480	2533.179808
897.403473	2573.509038
897.711425	2518.056346
898.019336	2472.685962
898.327207	2482.768269
898.635038	2530.659231
898.942827	2490.330000
899.250576	2533.179808
899.558284	2565.947308
899.865952	2540.741538
900.173579	2450.000769
900.481165	2505.453462
900.788711	2470.165385
901.096216	2518.056346
901.403681	2450.000769
901.711105	2560.906154
902.018489	2492.850577
902.325832	2460.083077
902.633135	2407.150962
902.940397	2439.918462
903.247619	2495.371154
903.554800	2485.288846
903.861941	2450.000769
904.169041	2573.509038
904.476101	2434.877308
904.783121	2487.809423
905.090100	2558.385577
905.397039	2560.906154
905.703938	2475.206538
906.010796	2487.809423
906.317614	2513.015192
906.624391	2528.138654
906.931129	2465.124231
907.237826	2497.891731
907.544483	2447.480192
907.851099	2460.083077
908.157675	2553.344423
908.464211	2407.150962
908.770707	2472.685962
909.077163	2487.809423
909.383578	2540.741538
909.689954	2495.371154
909.996289	2462.603654
910.302584	2475.206538
910.608839	2477.727115
910.915054	2480.247692
911.221229	2558.385577
911.527363	2419.753846
911.833458	2492.850577
912.139513	2543.262115
912.445527	2455.041923
912.751502	2397.068654
913.057436	2515.535769
913.363331	2394.548077
913.669186	2455.041923
913.975000	2442.439038
914.280775	2538.220962
914.586510	2523.097500
914.892205	2553.344423
915.197859	2538.220962
915.503475	2485.288846
915.809050	2533.179808
916.114585	2470.165385
916.420081	2530.659231
916.725536	2462.603654
917.030952	2573.509038
917.336328	2505.453462
917.641665	2565.947308
917.946961	2465.124231
918.252218	2530.659231
918.557435	2444.959615
918.862612	2492.850577
919.167750	2502.932885
919.472848	2543.262115
919.777906	2530.659231
920.082925	2558.385577
920.387904	2475.206538
920.692843	2500.412308
920.997743	2455.041923
921.302603	2500.412308
921.607423	2518.056346
921.912204	2447.480192
922.216946	2570.988462
922.521647	2447.480192
922.826310	2540.741538
923.130932	2482.768269
923.435516	2447.480192
923.740059	2465.124231
924.044564	2513.015192
924.349028	2510.494615
924.653454	2470.165385
924.957840	2402.109808
925.262186	2457.562500
925.566493	2450.000769
925.870761	2485.288846
926.174989	2480.247692
926.479178	2444.959615
926.783328	2543.262115
927.087438	2540.741538
927.391509	2507.974038
927.695541	2455.041923
927.999533	2452.521346
928.303486	2439.918462
928.607400	2545.782692
928.911275	2528.138654
929.215110	2417.233269
929.518906	2510.494615
929.822663	2485.288846
930.126381	2558.385577
930.430060	2432.356731
930.733699	2497.891731
931.037299	2510.494615
931.340861	2513.015192
931.644383	2487.809423
931.947866	2470.165385
932.251309	2487.809423
932.554714	2419.753846
932.858080	2460.083077
933.161407	2462.603654
933.464694	2520.576923
933.767943	2457.562500
934.071153	2515.535769
934.374323	2460.083077
934.677455	2576.029615
934.980548	2470.165385
935.283602	2538.220962
935.586617	2513.015192
935.889593	2470.165385
936.192530	2482.768269
936.495428	2475.206538
936.798287	2487.809423
937.101108	2434.877308
937.403890	2535.700385
937.706632	2429.836154
938.009336	2457.562500
938.312002	2518.056346
938.614628	2447.480192
938.917216	2533.179808
939.219765	2530.659231
939.522275	2497.891731
939.824747	2513.015192
940.127179	2518.056346
940.429573	2500.412308
940.731929	2429.836154
941.034246	2477.727115
941.336524	2525.618077
941.638763	2533.179808
941.940964	2470.165385
942.243126	2510.494615
942.545250	2507.974038
942.847335	2543.262115
943.149381	2429.836154
943.451389	2490.330000
943.753359	2611.317692
944.055290	2507.974038
944.357182	2470.165385
944.659036	2394.548077
944.960851	2525.618077
945.262628	2450.000769
945.564367	2492.850577
945.866067	2450.000769
946.167729	2497.891731
946.469352	2518.056346
946.770937	2399.589231
947.072484	2439.918462
947.373992	2465.124231
947.675462	2507.974038
947.976893	2472.685962
948.278286	2465.124231
948.579641	2490.330000
948.880958	2502.932885
949.182236	2543.262115
949.483476	2586.111923
949.784678	2477.727115
950.085841	2520.576923
950.386967	2485.288846
950.688054	2520.576923
950.989103	2487.809423
951.290114	2442.439038
951.591087	2485.288846
951.892021	2467.644808
952.192917	2500.412308
952.493776	2543.262115
952.794596	2591.153077
953.095378	2472.685962
953.396122	2497.891731
953.696828	2520.576923
953.997496	2555.865000
954.298126	2439.918462
954.598718	2545.782692
954.899272	2457.562500
955.199788	2470.165385
955.500266	2457.562500
955.800706	2409.671538
956.101108	2442.439038
956.401472	2513.015192
956.701798	2535.700385
957.002087	2427.315577
957.302337	2490.330000
957.602550	2570.988462
957.902724	2530.659231
958.202861	2462.603654
958.502960	2467.644808
958.803022	2535.700385
959.103045	2490.330000
959.403031	2520.576923
959.702979	2535.700385
960.002889	2442.439038
960.302762	2487.809423
960.602596	2470.165385
960.902393	2460.083077
961.202153	2462.603654
961.501875	2525.618077
961.801559	2518.056346
962.101205	2485.288846
962.400814	2429.836154
962.700385	2565.947308
962.999918	2492.850577
963.299414	2513.015192
963.598873	2533.179808
963.898293	2555.865000
964.197677	2452.521346
964.497022	2540.741538
964.796331	2455.041923
965.095601	2581.070769
965.394835	2472.685962
965.694030	2505.453462
965.993189	2409.671538
966.292309	2558.385577
966.591393	2495.371154
966.890439	2500.412308
967.189447	2462.603654
967.488419	2404.630385
967.787353	2472.685962
968.086249	2472.685962
968.385108	2439.918462
968.683930	2439.918462
968.982714	2492.850577
969.281462	2525.618077
969.580172	2490.330000
969.878844	2485.288846
970.177480	2530.659231
970.476078	2510.494615
970.774639	2437.397885
971.073162	2515.535769
971.371649	2477.727115
971.670098	2545.782692
971.968510	2565.947308
972.266885	2437.397885
972.565223	2467.644808
972.863524	2513.015192
973.161788	2487.809423
973.460014	2457.562500
973.758204	2472.685962
974.056356	2487.809423
974.354471	2555.865000
974.652550	2467.644808
974.950591	2472.685962
975.248595	2515.535769
975.546563	2558.385577
975.844493	2513.015192
976.142386	2558.385577
976.440243	2460.083077
976.738062	2492.850577
977.035845	2487.809423
977.333590	2475.206538
977.631299	2533.179808
977.928971	2460.083077
978.226606	2576.029615
978.524204	2487.809423
978.821765	2538.220962
979.119290	2576.029615
979.416777	2490.330000
979.714228	2386.986346
980.011642	2518.056346
980.309020	2528.138654
980.606360	2417.233269
980.903664	2535.700385
981.200931	2402.109808
981.498162	2553.344423
981.795356	2507.974038
982.092513	2538.220962
982.389633	2497.891731
982.686717	2424.795000
982.983764	2470.165385
983.280775	2407.150962
983.577749	2407.150962
983.874686	2452.521346
984.171587	2477.727115
984.468451	2490.330000
984.765279	2457.562500
985.062070	2502.932885
985.358824	2540.741538
985.655543	2497.891731
985.952224	2500.412308
986.248869	2568.467885
986.545478	2495.371154
986.842050	2510.494615
987.138586	2467.644808
987.435086	2505.453462
987.731549	2472.685962
988.027975	2482.768269
988.324366	2555.865000
988.620719	2462.603654
988.917037	2402.109808
989.213318	2505.453462
989.509563	2439.918462
989.805772	2457.562500
990.101944	2404.630385
990.398080	2485.288846
990.694180	2417.233269
990.990244	2500.412308
991.286271	2462.603654
991.582262	2502.932885
991.878217	2487.809423
992.174136	2528.138654
992.470019	2525.618077
992.765865	2520.576923
993.061676	2475.206538
993.357450	2518.056346
993.653188	2477.727115
993.948890	2497.891731
994.244556	2444.959615
994.540186	2442.439038
994.835780	2447.480192
995.131337	2548.303269
995.426859	2538.220962
995.722345	2487.809423
996.017795	2404.630385
996.313208	2563.426731
996.608586	2497.891731
996.903928	2422.274423
997.199234	2487.809423
997.494504	2533.179808
997.789738	2540.741538
998.084936	2482.768269
998.380099	2490.330000
998.675225	2442.439038
998.970316	2530.659231
999.265371	2490.330000
999.560390	2485.288846
999.855373	2475.206538
1000.150320	2450.000769
1000.445232	2475.206538
1000.740108	2475.206538
1001.034948	2482.768269
1001.329752	2487.809423
1001.624521	2485.288846
1001.919254	2432.356731
1002.213951	2507.974038
1002.508613	2434.877308
1002.803239	2432.356731
1003.097829	2457.562500
1003.392384	2470.165385
1003.686903	2432.356731
1003.981386	2533.179808
1004.275834	2525.618077
1004.570246	2513.015192
1004.864623	2485.288846
1005.158964	2495.371154
1005.453270	2495.371154
1005.747540	2497.891731
1006.041775	2490.330000
1006.335974	2523.097500
1006.630138	2487.809423
1006.924266	2417.233269
1007.218359	2588.632500
1007.512416	2465.124231
1007.806438	2495.371154
1008.100425	2497.891731
1008.394376	2467.644808
1008.688292	2467.644808
1008.982172	2538.220962
1009.276017	2427.315577
1009.569827	2528.138654
1009.863602	2482.768269
1010.157341	2366.821731
1010.451045	2402.109808
1010.744714	2432.356731
1011.038347	2447.480192
1011.331945	2470.165385
1011.625508	2578.550192
1011.919036	2581.070769
1012.212528	2485.288846
1012.505986	2482.768269
1012.799408	2500.412308
1013.092795	2518.056346
1013.386147	2510.494615
1013.679464	2472.685962
1013.972745	2485.288846
1014.265992	2444.959615
1014.559204	2497.891731
1014.852380	2475.206538
1015.145521	2485.288846
1015.438628	2477.727115
1015.731699	2548.303269
1016.024736	2467.644808
1016.317737	2523.097500
1016.610703	2497.891731
1016.903635	2513.015192
1017.196531	2528.138654
1017.489393	2487.809423
1017.782219	2525.618077
1018.075011	2452.521346
1018.367768	2470.165385
1018.660490	2502.932885
1018.953177	2502.932885
1019.245829	2502.932885
