Dividing Wavelength (nm)	Counts (n)	Blue Motor Position (mm): 0.000000	Red Motor Position (mm): 6.000000	
326.493990	2205.504808
326.888308	2205.504808
327.282561	2205.504808
327.676750	2202.984231
328.070874	2213.066538
328.464933	2230.710577
328.858929	2180.299038
329.252859	2150.052115
329.646726	2160.134423
330.040528	2155.093269
330.434265	2172.737308
330.827938	2197.943077
331.221547	2182.819615
331.615091	2288.683846
332.008571	2306.327885
332.401986	2250.875192
332.795338	2278.601538
333.188625	2366.821731
333.581847	2344.136538
333.975006	2341.615962
334.368100	2429.836154
334.761129	2384.465769
335.154095	2397.068654
335.546996	2392.027500
335.939833	2520.576923
336.332606	2515.535769
336.725315	2528.138654
337.117960	2482.768269
337.510540	2530.659231
337.903056	2470.165385
338.295508	2538.220962
338.687896	2523.097500
339.080220	2560.906154
339.472480	2555.865000
339.864676	2565.947308
340.256807	2573.509038
340.648875	2591.153077
341.040879	2581.070769
341.432818	2558.385577
341.824694	2548.303269
342.216506	2601.235385
342.608253	2666.770385
342.999937	2621.400000
343.391557	2528.138654
343.783113	2482.768269
344.174605	2596.194231
344.566033	2644.085192
344.957397	2606.276538
345.348697	2613.838269
345.739934	2475.206538
346.131106	2543.262115
346.522215	2560.906154
346.913260	2502.932885
347.304241	2666.770385
347.695159	2568.467885
348.086012	2626.441154
348.476802	2540.741538
348.867528	2545.782692
349.258191	2593.673654
349.648789	2563.426731
350.039324	2533.179808
350.429796	2470.165385
350.820203	2558.385577
351.210548	2475.206538
351.600828	2530.659231
351.991045	2611.317692
352.381198	2500.412308
352.771288	2533.179808
353.161314	2603.755962
353.551276	2560.906154
353.941175	2520.576923
354.331010	2500.412308
354.720782	2520.576923
355.110490	2505.453462
355.500135	2540.741538
355.889717	2480.247692
356.279235	2560.906154
356.668689	2540.741538
357.058080	2573.509038
357.447408	2565.947308
357.836672	2540.741538
358.225873	2505.453462
358.615010	2560.906154
359.004084	2515.535769
359.393095	2573.509038
359.782043	2520.576923
360.170927	2497.891731
360.559748	2510.494615
360.948505	2502.932885
361.337199	2626.441154
361.725830	2515.535769
362.114398	2507.974038
362.502903	2475.206538
362.891344	2606.276538
363.279722	2497.891731
363.668037	2462.603654
364.056289	2568.467885
364.444478	2538.220962
364.832603	2513.015192
365.220665	2578.550192
365.608665	2636.523462
365.996601	2482.768269
366.384474	2578.550192
366.772284	2581.070769
367.160031	2583.591346
367.547715	2563.426731
367.935336	2570.988462
368.322893	2649.126346
368.710388	2565.947308
369.097820	2596.194231
369.485189	2586.111923
369.872495	2596.194231
370.259738	2553.344423
370.646918	2543.262115
371.034035	2538.220962
371.421090	2598.714808
371.808081	2568.467885
372.195010	2520.576923
372.581875	2545.782692
372.968678	2618.879423
373.355418	2598.714808
373.742096	2558.385577
374.128710	2444.959615
374.515262	2558.385577
374.901751	2628.961731
375.288177	2583.591346
375.674540	2518.056346
376.060841	2513.015192
376.447079	2608.797115
376.833254	2533.179808
377.219367	2550.823846
377.605417	2543.262115
377.991404	2576.029615
378.377329	2528.138654
378.763191	2621.400000
379.148991	2450.000769
379.534727	2586.111923
379.920402	2543.262115
380.306013	2523.097500
380.691563	2550.823846
381.077049	2576.029615
381.462474	2548.303269
381.847835	2581.070769
382.233134	2666.770385
382.618371	2535.700385
383.003545	2538.220962
383.388657	2558.385577
383.773706	2621.400000
384.158693	2447.480192
384.543618	2573.509038
384.928480	2533.179808
385.313280	2613.838269
385.698017	2616.358846
386.082692	2583.591346
386.467305	2570.988462
386.851856	2631.482308
387.236344	2596.194231
387.620770	2583.591346
388.005133	2565.947308
388.389435	2555.865000
388.773674	2596.194231
389.157851	2543.262115
389.541965	2601.235385
389.926018	2523.097500
390.310008	2578.550192
390.693936	2558.385577
391.077802	2515.535769
391.461606	2591.153077
391.845348	2626.441154
392.229027	2573.509038
392.612645	2659.208654
392.996200	2563.426731
393.379694	2576.029615
393.763125	2533.179808
394.146494	2540.741538
394.529801	2578.550192
394.913047	2586.111923
395.296230	2684.414423
395.679351	2621.400000
396.062410	2535.700385
396.445408	2634.002885
396.828343	2507.974038
397.211217	2601.235385
397.594028	2591.153077
397.976778	2583.591346
398.359466	2591.153077
398.742092	2603.755962
399.124656	2570.988462
399.507158	2621.400000
399.889598	2651.646923
400.271977	2606.276538
400.654294	2510.494615
401.036549	2570.988462
401.418742	2570.988462
401.800874	2621.400000
402.182944	2573.509038
402.564952	2525.618077
402.946898	2606.276538
403.328783	2560.906154
403.710606	2636.523462
404.092367	2520.576923
404.474067	2568.467885
404.855705	2618.879423
405.237282	2570.988462
405.618797	2623.920577
406.000250	2596.194231
406.381642	2603.755962
406.762972	2649.126346
407.144240	2555.865000
407.525447	2565.947308
407.906593	2507.974038
408.287677	2596.194231
408.668700	2563.426731
409.049661	2558.385577
409.430560	2628.961731
409.811399	2492.850577
410.192176	2608.797115
410.572891	2555.865000
410.953545	2593.673654
411.334138	2613.838269
411.714669	2596.194231
412.095139	2649.126346
412.475547	2573.509038
412.855894	2601.235385
413.236180	2656.688077
413.616405	2689.455577
413.996568	2593.673654
414.376670	2515.535769
414.756711	2505.453462
415.136691	2664.249808
415.516609	2548.303269
415.896466	2570.988462
416.276262	2588.632500
416.655997	2578.550192
417.035670	2681.893846
417.415283	2578.550192
417.794834	2596.194231
418.174324	2628.961731
418.553753	2618.879423
418.933121	2616.358846
419.312428	2548.303269
419.691674	2573.509038
420.070859	2558.385577
420.449983	2553.344423
420.829045	2548.303269
421.208047	2664.249808
421.586988	2606.276538
421.965867	2583.591346
422.344686	2576.029615
422.723444	2669.290962
423.102141	2666.770385
423.480777	2507.974038
423.859352	2545.782692
424.237866	2513.015192
424.616319	2593.673654
424.994712	2588.632500
425.373044	2618.879423
425.751314	2558.385577
426.129524	2555.865000
426.507673	2702.058462
426.885762	2669.290962
427.263789	2588.632500
427.641756	2608.797115
428.019662	2644.085192
428.397508	2676.852692
428.775292	2593.673654
429.153016	2573.509038
429.530679	2543.262115
429.908282	2550.823846
430.285824	2583.591346
430.663305	2641.564615
431.040726	2555.865000
431.418086	2601.235385
431.795385	2606.276538
432.172624	2596.194231
432.549802	2611.317692
432.926920	2694.496731
433.303977	2596.194231
433.680974	2634.002885
434.057910	2613.838269
434.434786	2606.276538
434.811601	2621.400000
435.188355	2588.632500
435.565050	2656.688077
435.941683	2621.400000
436.318257	2613.838269
436.694770	2586.111923
437.071222	2623.920577
437.447614	2679.373269
437.823946	2681.893846
438.200218	2626.441154
438.576429	2699.537885
438.952580	2646.605769
439.328670	2684.414423
439.704700	2666.770385
440.080670	2684.414423
440.456580	2639.044038
440.832429	2749.949423
441.208218	2671.811538
441.583947	2699.537885
441.959616	2747.428846
442.335224	2770.114038
442.710773	2770.114038
443.086261	2747.428846
443.461689	2815.484423
443.837057	2830.607885
444.212365	2830.607885
444.587612	2855.813654
444.962800	2941.513269
445.337927	2918.828077
445.712995	2916.307500
446.088002	2996.965962
446.462949	3014.610000
446.837837	3092.747885
447.212664	3107.871346
447.587431	3186.009231
447.962139	3271.708846
448.336786	3528.807692
448.711374	3561.575192
449.085901	3402.778846
449.460369	3422.943462
449.834776	3425.464038
450.209124	3685.083462
450.583412	3851.441538
450.957640	3909.414808
451.331808	3889.250192
451.705917	3964.867500
452.079965	3859.003269
452.453954	4108.540385
452.827883	4141.307885
453.201752	4262.295577
453.575562	4239.610385
453.949311	4443.777115
454.323001	4579.888269
454.696632	4710.958269
455.070202	4821.863654
455.443713	5048.715577
455.817164	5331.020192
456.190556	5318.417308
456.563888	5671.298077
456.937160	5762.038846
457.310373	5643.571731
457.683526	5789.765192
458.056619	5900.670577
458.429653	6036.781731
458.802628	6132.563654
459.175542	6329.168654
459.548398	6790.434231
459.921194	7092.903462
460.293930	7518.880962
460.666607	7959.981923
461.039224	8481.741346
461.411782	9152.214808
461.784280	9091.720962
462.156719	9333.696346
462.529099	9389.149038
462.901419	9144.653077
463.273680	8965.692115
463.645882	9318.572885
464.018024	9318.572885
464.390106	9578.192308
464.762130	10369.653462
465.134094	11014.921154
465.505999	12950.724231
465.877845	15123.461538
466.249631	16958.441538
466.621358	16542.546346
466.993026	15907.360962
467.364634	16043.472115
467.736184	15148.667308
468.107674	15012.556154
468.479105	15272.175577
468.850477	14929.377115
469.221790	14851.239231
469.593043	14566.414038
469.964238	14715.128077
470.335373	14460.549808
470.706449	15136.064423
471.077467	15425.930769
471.448425	17454.995192
471.819324	21412.300962
472.190164	21722.331923
472.560945	18697.639615
472.931667	17361.733846
473.302330	17190.334615
473.672934	17243.266731
474.043479	17545.735962
474.413965	17192.855192
474.784393	17245.787308
475.154761	18289.306154
475.525070	17891.055000
475.895321	18213.688846
476.265513	18732.927692
476.635645	19300.057500
477.005719	19655.458846
477.375734	20051.189423
477.745691	20192.341731
478.115588	20996.405769
478.485427	21913.895769
478.855207	23171.663654
479.224928	25208.289808
479.594591	27139.051731
479.964194	26478.660577
480.333739	27002.940577
480.703226	26960.090769
481.072653	26405.563846
481.442022	27597.796731
481.811333	28432.107692
482.180584	28003.609615
482.549777	27358.341923
482.918912	27010.502308
483.287988	27549.905769
483.657005	26657.621538
484.025964	26554.277885
484.394864	26150.985577
484.763706	25820.790000
485.132489	25767.857885
485.501213	25629.226154
485.869879	25440.182885
486.238487	25495.635577
486.607036	25493.115000
486.975527	25490.594423
487.343959	25165.440000
487.712333	24948.670385
488.080648	24719.297885
488.448905	25374.647885
488.817104	25034.370000
489.185244	25412.456538
489.553326	25596.458654
489.921350	26342.549423
490.289315	28464.875192
490.657222	29843.630769
491.025070	29710.040192
491.392861	29609.217115
491.760593	28051.500577
492.128267	27050.831538
492.495883	25916.571923
492.863440	25223.413269
493.230939	24174.853269
493.598380	23733.752308
493.965763	23053.196538
494.333088	22481.025577
494.700354	22143.268269
495.067563	21543.370962
495.434713	21424.903846
495.801805	21503.041731
496.168839	21145.119808
496.535815	20608.236923
496.902733	20278.041346
497.269593	20220.068077
497.636395	19869.707885
498.003139	19559.676923
498.369825	19005.150000
498.736453	19247.125385
499.103023	18811.065577
499.469535	18584.213654
499.835989	18324.594231
500.202385	18541.363846
500.568723	17608.750385
500.935003	17717.135192
501.301226	17381.898462
501.667390	17575.982885
502.033497	17276.034231
502.399546	17016.414808
502.765537	16298.050385
503.131470	16277.885769
503.497345	16000.622308
503.863163	15257.052115
504.228923	15297.381346
504.594625	15554.480192
504.960269	15025.159038
505.325856	15163.790769
505.691385	14357.206154
506.056856	14362.247308
506.422270	13956.434423
506.787625	13379.222308
507.152924	13419.551538
507.518164	13505.251154
507.883347	12877.627500
508.248472	12653.296154
508.613540	12643.213846
508.978550	12320.580000
509.343503	12247.483269
509.708398	11786.217692
510.073236	11766.053077
510.438016	11766.053077
510.802738	11201.443846
511.167403	11077.935577
511.532010	10999.797692
511.896561	10757.822308
512.261053	10757.822308
512.625488	10485.600000
512.989866	10049.540192
513.354186	9774.797308
513.718449	9406.793077
514.082655	9447.122308
514.446803	9190.023462
514.810894	9101.803269
515.174927	8945.527500
515.538904	8761.525385
515.902822	8484.261923
516.266684	8375.877115
516.630488	8138.942885
516.994235	7889.405769
517.357925	7783.541538
517.721558	7609.621731
518.085133	7488.634038
518.448651	7218.932308
518.812112	7196.247115
519.175516	7037.450769
519.538863	7095.424038
519.902152	6742.543269
520.265385	6644.240769
520.628560	6480.403269
520.991678	6311.524615
521.354739	6283.798269
521.717743	6228.345577
522.080690	6089.713846
522.443580	5794.806346
522.806413	5696.503846
523.169189	5661.215769
523.531908	5507.460577
523.894569	5489.816538
524.257174	5325.979038
524.619722	5086.524231
524.982213	5089.044808
525.344647	5041.153846
525.707025	4942.851346
526.069345	4824.384231
526.431608	4806.740192
526.793815	4615.176346
527.155964	4547.120769
527.518057	4446.297692
527.880093	4433.694808
528.242072	4181.637115
528.603995	4272.377885
528.965860	4174.075385
529.327669	4078.293462
529.689421	3929.579423
530.051117	3939.661731
530.412755	3843.879808
530.774337	3901.853077
531.135862	3682.562885
531.497331	3763.221346
531.858743	3632.151346
532.220098	3629.630769
532.581396	3609.466154
532.942638	3564.095769
533.303824	3584.260385
533.664953	3498.560769
534.026025	3443.108077
534.387040	3488.478462
534.747999	3329.682115
535.108902	3329.682115
535.469748	3387.655385
535.830537	3203.653269
536.191270	3306.996923
536.551947	3276.750000
536.912567	3175.926923
537.273131	3241.461923
537.633638	3133.077115
537.994089	3065.021538
538.354483	3095.268462
538.714821	3004.527692
539.075103	3077.624423
539.435328	3002.007115
539.795497	3049.898077
540.155609	2959.157308
540.515665	3019.651154
540.875665	2883.540000
541.235609	2976.801346
541.595496	2901.184038
541.955328	2901.184038
542.315102	2875.978269
542.674821	2928.910385
543.034483	2863.375385
543.394090	2860.854808
543.753640	2805.402115
544.113134	2838.169615
544.472571	2860.854808
544.831953	2823.046154
545.191278	2734.825962
545.550548	2792.799231
545.909761	2820.525577
546.268918	2765.072885
546.628019	2792.799231
546.987064	2797.840385
547.346053	2772.634615
547.704986	2704.579038
548.063863	2782.716923
548.422684	2767.593462
548.781449	2815.484423
549.140158	2722.223077
549.498811	2787.758077
549.857408	2782.716923
550.215949	2659.208654
550.574434	2797.840385
550.932864	2702.058462
551.291237	2815.484423
551.649555	2762.552308
552.007817	2694.496731
552.366022	2699.537885
552.724173	2707.099615
553.082267	2722.223077
553.440305	2681.893846
553.798288	2671.811538
554.156215	2679.373269
554.514086	2679.373269
554.871902	2717.181923
555.229661	2697.017308
555.587365	2686.935000
555.945014	2694.496731
556.302606	2634.002885
556.660143	2699.537885
557.017625	2749.949423
557.375050	2760.031731
557.732421	2636.523462
558.089735	2631.482308
558.446994	2659.208654
558.804197	2709.620192
559.161345	2644.085192
559.518437	2714.661346
559.875474	2656.688077
560.232455	2634.002885
560.589381	2644.085192
560.946251	2707.099615
561.303065	2611.317692
561.659825	2654.167500
562.016528	2651.646923
562.373177	2621.400000
562.729770	2674.332115
563.086307	2616.358846
563.442789	2616.358846
563.799216	2691.976154
564.155587	2641.564615
564.511904	2636.523462
564.868164	2694.496731
565.224370	2603.755962
565.580520	2586.111923
565.936615	2681.893846
566.292654	2659.208654
566.648638	2727.264231
567.004567	2545.782692
567.360441	2664.249808
567.716260	2616.358846
568.072023	2659.208654
568.427732	2598.714808
568.783385	2639.044038
569.138982	2737.346538
569.494525	2699.537885
569.850013	2684.414423
570.205445	2628.961731
570.560823	2578.550192
570.916145	2644.085192
571.271412	2734.825962
571.626625	2616.358846
571.981782	2654.167500
572.336884	2608.797115
572.691931	2626.441154
573.046923	2697.017308
573.401860	2568.467885
573.756743	2686.935000
574.111570	2603.755962
574.466342	2578.550192
574.821059	2634.002885
575.175722	2623.920577
575.530330	2628.961731
575.884882	2626.441154
576.239380	2644.085192
576.593823	2636.523462
576.948211	2586.111923
577.302544	2628.961731
577.656823	2674.332115
578.011047	2697.017308
578.365216	2588.632500
578.719330	2659.208654
579.073389	2613.838269
579.427394	2676.852692
579.781344	2608.797115
580.135239	2644.085192
580.489080	2679.373269
580.842866	2671.811538
581.196597	2679.373269
581.550273	2639.044038
581.903895	2581.070769
582.257463	2588.632500
582.610975	2601.235385
582.964434	2639.044038
583.317837	2659.208654
583.671186	2631.482308
584.024481	2699.537885
584.377721	2676.852692
584.730906	2618.879423
585.084037	2634.002885
585.437113	2661.729231
585.790135	2649.126346
586.143103	2608.797115
586.496016	2593.673654
586.848874	2641.564615
587.201679	2626.441154
587.554428	2639.044038
587.907124	2659.208654
588.259765	2686.935000
588.612352	2601.235385
588.964884	2674.332115
589.317362	2628.961731
589.669786	2719.702500
590.022155	2598.714808
590.374470	2671.811538
590.726731	2641.564615
591.078937	2699.537885
591.431090	2639.044038
591.783188	2679.373269
592.135232	2606.276538
592.487222	2631.482308
592.839157	2644.085192
593.191038	2644.085192
593.542866	2568.467885
593.894639	2603.755962
594.246358	2616.358846
594.598022	2550.823846
594.949633	2606.276538
595.301190	2593.673654
595.652692	2621.400000
596.004141	2709.620192
596.355535	2681.893846
596.706876	2593.673654
597.058162	2656.688077
597.409395	2651.646923
597.760573	2634.002885
598.111698	2631.482308
598.462768	2651.646923
598.813785	2568.467885
599.164748	2581.070769
599.515657	2631.482308
599.866511	2656.688077
600.217312	2661.729231
600.568060	2644.085192
600.918753	2520.576923
601.269392	2581.070769
601.619978	2689.455577
601.970510	2631.482308
602.320988	2641.564615
602.671412	2601.235385
603.021783	2631.482308
603.372100	2518.056346
603.722363	2686.935000
604.072572	2555.865000
604.422728	2596.194231
604.772830	2666.770385
605.122878	2639.044038
605.472872	2649.126346
605.822813	2593.673654
606.172701	2649.126346
606.522534	2654.167500
606.872314	2639.044038
607.222041	2639.044038
607.571714	2636.523462
607.921333	2608.797115
608.270899	2626.441154
608.620411	2644.085192
608.969870	2669.290962
609.319276	2654.167500
609.668627	2659.208654
610.017926	2588.632500
610.367171	2621.400000
610.716362	2568.467885
611.065500	2681.893846
611.414585	2634.002885
611.763616	2704.579038
612.112594	2656.688077
612.461518	2608.797115
612.810389	2626.441154
613.159207	2616.358846
613.507971	2641.564615
613.856682	2528.138654
614.205340	2563.426731
614.553945	2533.179808
614.902496	2649.126346
615.250994	2631.482308
615.599439	2639.044038
615.947830	2646.605769
616.296169	2601.235385
616.644454	2649.126346
616.992686	2712.140769
617.340864	2704.579038
617.688990	2639.044038
618.037063	2505.453462
618.385082	2639.044038
618.733048	2611.317692
619.080961	2616.358846
619.428821	2593.673654
619.776628	2593.673654
620.124382	2623.920577
620.472083	2570.988462
620.819731	2598.714808
621.167326	2661.729231
621.514868	2596.194231
621.862357	2611.317692
622.209793	2676.852692
622.557176	2558.385577
622.904506	2636.523462
623.251783	2523.097500
623.599007	2616.358846
623.946179	2618.879423
624.293297	2598.714808
624.640363	2654.167500
624.987376	2666.770385
625.334336	2588.632500
625.681243	2654.167500
626.028097	2644.085192
626.374899	2712.140769
626.721647	2588.632500
627.068343	2674.332115
627.414987	2626.441154
627.761577	2591.153077
628.108115	2565.947308
628.454600	2613.838269
628.801032	2686.935000
629.147412	2634.002885
629.493739	2621.400000
629.840014	2623.920577
630.186236	2626.441154
630.532405	2603.755962
630.878521	2601.235385
631.224585	2697.017308
631.570597	2596.194231
631.916556	2664.249808
632.262462	2651.646923
632.608316	2717.181923
632.954117	2699.537885
633.299866	2608.797115
633.645562	2631.482308
633.991206	2611.317692
634.336797	2664.249808
634.682336	2659.208654
635.027823	2553.344423
635.373257	2631.482308
635.718639	2570.988462
636.063968	2591.153077
636.409245	2664.249808
636.754470	2570.988462
637.099642	2565.947308
637.444762	2621.400000
637.789829	2581.070769
638.134845	2656.688077
638.479808	2676.852692
638.824719	2659.208654
639.169577	2661.729231
639.514383	2646.605769
639.859137	2654.167500
640.203839	2558.385577
640.548489	2654.167500
640.893086	2611.317692
641.237632	2623.920577
641.582125	2621.400000
641.926566	2644.085192
642.270955	2601.235385
642.615292	2646.605769
642.959576	2646.605769
643.303809	2651.646923
643.647990	2636.523462
643.992118	2596.194231
644.336195	2598.714808
644.680219	2634.002885
645.024192	2646.605769
645.368112	2618.879423
645.711981	2578.550192
646.055797	2603.755962
646.399562	2611.317692
646.743274	2573.509038
647.086935	2659.208654
647.430544	2644.085192
647.774101	2651.646923
648.117606	2641.564615
648.461059	2596.194231
648.804460	2613.838269
649.147810	2636.523462
649.491108	2646.605769
649.834354	2606.276538
650.177548	2644.085192
650.520690	2621.400000
650.863781	2628.961731
651.206820	2507.974038
651.549807	2649.126346
651.892742	2631.482308
652.235626	2611.317692
652.578458	2618.879423
652.921238	2689.455577
653.263967	2634.002885
653.606644	2581.070769
653.949269	2520.576923
654.291843	2593.673654
654.634365	2654.167500
654.976836	2666.770385
655.319255	2636.523462
655.661622	2591.153077
656.003938	2651.646923
656.346203	2626.441154
656.688416	2613.838269
657.030577	2618.879423
657.372687	2661.729231
657.714746	2661.729231
658.056753	2634.002885
658.398708	2596.194231
658.740612	2664.249808
659.082465	2631.482308
659.424266	2641.564615
659.766016	2671.811538
660.107715	2639.044038
660.449362	2671.811538
660.790958	2676.852692
661.132503	2631.482308
661.473996	2570.988462
661.815438	2649.126346
662.156829	2636.523462
662.498168	2654.167500
662.839456	2611.317692
663.180693	2606.276538
663.521879	2684.414423
663.863013	2578.550192
664.204097	2626.441154
664.545129	2641.564615
664.886110	2634.002885
665.227040	2656.688077
665.567918	2573.509038
665.908746	2623.920577
666.249522	2616.358846
666.590248	2656.688077
666.930922	2613.838269
667.271545	2686.935000
667.612118	2661.729231
667.952639	2628.961731
668.293109	2674.332115
668.633528	2681.893846
668.973896	2628.961731
669.314213	2596.194231
669.654480	2593.673654
669.994695	2656.688077
670.334859	2671.811538
670.674973	2608.797115
671.015035	2608.797115
671.355047	2611.317692
671.695008	2548.303269
672.034918	2616.358846
672.374777	2603.755962
672.714585	2568.467885
673.054342	2636.523462
673.394049	2649.126346
673.733705	2719.702500
674.073310	2702.058462
674.412864	2628.961731
674.752368	2608.797115
675.091820	2684.414423
675.431223	2674.332115
675.770574	2631.482308
676.109875	2608.797115
676.449125	2608.797115
676.788324	2621.400000
677.127473	2555.865000
677.466571	2616.358846
677.805619	2684.414423
678.144616	2623.920577
678.483562	2626.441154
678.822458	2689.455577
679.161303	2628.961731
679.500098	2666.770385
679.838842	2626.441154
680.177535	2679.373269
680.516179	2719.702500
680.854771	2603.755962
681.193314	2558.385577
681.531805	2644.085192
681.870247	2639.044038
682.208638	2649.126346
682.546978	2606.276538
682.885268	2613.838269
683.223508	2651.646923
683.561697	2603.755962
683.899836	2593.673654
684.237925	2639.044038
684.575963	2555.865000
684.913951	2586.111923
685.251889	2616.358846
685.589776	2691.976154
685.927614	2699.537885
686.265401	2613.838269
686.603137	2563.426731
686.940824	2628.961731
687.278460	2606.276538
687.616046	2628.961731
687.953582	2555.865000
688.291068	2641.564615
688.628504	2608.797115
688.965889	2613.838269
689.303224	2613.838269
689.640510	2679.373269
689.977745	2702.058462
690.314930	2664.249808
690.652065	2601.235385
690.989150	2550.823846
691.326185	2548.303269
691.663170	2570.988462
692.000105	2661.729231
692.336990	2722.223077
692.673825	2646.605769
693.010610	2664.249808
693.347345	2686.935000
693.684030	2601.235385
694.020665	2565.947308
694.357251	2608.797115
694.693786	2560.906154
695.030272	2583.591346
695.366707	2596.194231
695.703093	2664.249808
696.039429	2649.126346
696.375716	2560.906154
696.711952	2646.605769
697.048139	2568.467885
697.384276	2636.523462
697.720363	2649.126346
698.056400	2581.070769
698.392388	2588.632500
698.728326	2654.167500
699.064214	2689.455577
699.400053	2608.797115
699.735842	2661.729231
700.071581	2634.002885
700.407270	2666.770385
700.742910	2593.673654
701.078501	2674.332115
701.414042	2651.646923
701.749533	2606.276538
702.084974	2618.879423
702.420366	2631.482308
702.755709	2586.111923
703.091002	2606.276538
703.426246	2603.755962
703.761440	2603.755962
704.096584	2611.317692
704.431679	2588.632500
704.766725	2533.179808
705.101721	2606.276538
705.436668	2641.564615
705.771565	2656.688077
706.106413	2644.085192
706.441212	2570.988462
706.775961	2578.550192
707.110661	2646.605769
707.445311	2553.344423
707.779913	2596.194231
708.114465	2666.770385
708.448967	2618.879423
708.783421	2634.002885
709.117825	2591.153077
709.452180	2674.332115
709.786485	2649.126346
710.120742	2578.550192
710.454949	2576.029615
710.789107	2545.782692
711.123216	2641.564615
711.457275	2623.920577
711.791286	2492.850577
712.125247	2568.467885
712.459159	2613.838269
712.793023	2631.482308
713.126837	2671.811538
713.460602	2661.729231
713.794318	2618.879423
714.127985	2636.523462
714.461602	2581.070769
714.795171	2626.441154
715.128691	2606.276538
715.462162	2760.031731
715.795584	2674.332115
716.128957	2570.988462
716.462281	2664.249808
716.795556	2623.920577
717.128782	2603.755962
717.461960	2631.482308
717.795088	2581.070769
718.128167	2596.194231
718.461198	2581.070769
718.794180	2581.070769
719.127113	2681.893846
719.459997	2651.646923
719.792833	2639.044038
720.125619	2636.523462
720.458357	2671.811538
720.791046	2656.688077
721.123686	2591.153077
721.456278	2664.249808
721.788821	2689.455577
722.121315	2586.111923
722.453761	2568.467885
722.786158	2611.317692
723.118506	2601.235385
723.450805	2603.755962
723.783056	2603.755962
724.115259	2568.467885
724.447412	2646.605769
724.779518	2596.194231
725.111574	2666.770385
725.443582	2560.906154
725.775542	2669.290962
726.107453	2639.044038
726.439315	2634.002885
726.771129	2618.879423
727.102895	2601.235385
727.434612	2623.920577
727.766281	2588.632500
728.097901	2616.358846
728.429473	2573.509038
728.760996	2576.029615
729.092471	2656.688077
729.423897	2573.509038
729.755276	2543.262115
730.086606	2611.317692
730.417887	2623.920577
730.749120	2654.167500
731.080305	2606.276538
731.411442	2651.646923
731.742530	2641.564615
732.073570	2671.811538
732.404562	2626.441154
732.735506	2583.591346
733.066401	2515.535769
733.397249	2636.523462
733.728048	2626.441154
734.058798	2659.208654
734.389501	2591.153077
734.720156	2548.303269
735.050762	2659.208654
735.381320	2664.249808
735.711831	2628.961731
736.042293	2636.523462
736.372707	2568.467885
736.703073	2628.961731
737.033391	2641.564615
737.363661	2603.755962
737.693883	2598.714808
738.024056	2649.126346
738.354182	2523.097500
738.684260	2626.441154
739.014290	2717.181923
739.344272	2593.673654
739.674207	2603.755962
740.004093	2606.276538
740.333931	2603.755962
740.663722	2568.467885
740.993464	2611.317692
741.323159	2586.111923
741.652806	2654.167500
741.982405	2636.523462
742.311956	2528.138654
742.641460	2555.865000
742.970915	2669.290962
743.300323	2565.947308
743.629683	2573.509038
743.958996	2628.961731
744.288260	2583.591346
744.617477	2543.262115
744.946647	2639.044038
745.275768	2621.400000
745.604842	2649.126346
745.933869	2686.935000
746.262847	2636.523462
746.591778	2659.208654
746.920662	2601.235385
747.249498	2689.455577
747.578286	2659.208654
747.907027	2704.579038
748.235720	2644.085192
748.564365	2621.400000
748.892963	2644.085192
749.221514	2593.673654
749.550017	2616.358846
749.878473	2651.646923
750.206881	2646.605769
750.535242	2626.441154
750.863555	2601.235385
751.191821	2528.138654
751.520039	2621.400000
751.848210	2588.632500
752.176334	2649.126346
752.504411	2616.358846
752.832440	2644.085192
753.160421	2636.523462
753.488356	2634.002885
753.816243	2608.797115
754.144082	2644.085192
754.471875	2586.111923
754.799620	2558.385577
755.127318	2656.688077
755.454969	2543.262115
755.782572	2601.235385
756.110129	2628.961731
756.437638	2578.550192
756.765100	2543.262115
757.092515	2555.865000
757.419882	2621.400000
757.747203	2578.550192
758.074477	2639.044038
758.401703	2616.358846
758.728882	2634.002885
759.056014	2560.906154
759.383099	2507.974038
759.710138	2573.509038
760.037129	2664.249808
760.364073	2596.194231
760.690970	2611.317692
761.017820	2573.509038
761.344623	2661.729231
761.671379	2581.070769
761.998088	2719.702500
762.324751	2570.988462
762.651366	2681.893846
762.977935	2540.741538
763.304456	2626.441154
763.630931	2623.920577
763.957359	2646.605769
764.283740	2576.029615
764.610074	2651.646923
764.936362	2684.414423
765.262602	2646.605769
765.588796	2603.755962
765.914943	2644.085192
766.241044	2550.823846
766.567097	2565.947308
766.893104	2558.385577
767.219064	2636.523462
767.544978	2626.441154
767.870845	2515.535769
768.196665	2608.797115
768.522438	2664.249808
768.848165	2588.632500
769.173846	2573.509038
769.499479	2598.714808
769.825066	2578.550192
770.150607	2570.988462
770.476101	2573.509038
770.801548	2576.029615
771.126949	2603.755962
771.452303	2578.550192
771.777611	2606.276538
772.102872	2530.659231
772.428087	2568.467885
772.753256	2565.947308
773.078378	2588.632500
773.403453	2714.661346
773.728482	2560.906154
774.053465	2623.920577
774.378401	2583.591346
774.703291	2598.714808
775.028135	2525.618077
775.352932	2636.523462
775.677683	2621.400000
776.002388	2515.535769
776.327046	2593.673654
776.651658	2623.920577
776.976224	2598.714808
777.300743	2596.194231
777.625216	2623.920577
777.949643	2596.194231
778.274024	2616.358846
778.598359	2623.920577
778.922647	2487.809423
779.246889	2626.441154
779.571086	2639.044038
779.895236	2608.797115
780.219339	2591.153077
780.543397	2603.755962
780.867409	2563.426731
781.191374	2644.085192
781.515294	2669.290962
781.839167	2621.400000
782.162995	2591.153077
782.486776	2570.988462
782.810511	2651.646923
783.134201	2568.467885
783.457844	2581.070769
783.781441	2565.947308
784.104993	2555.865000
784.428498	2581.070769
784.751958	2618.879423
785.075372	2616.358846
785.398739	2608.797115
785.722061	2558.385577
786.045337	2505.453462
786.368568	2548.303269
786.691752	2553.344423
787.014891	2588.632500
787.337983	2644.085192
787.661030	2644.085192
787.984031	2593.673654
788.306987	2616.358846
788.629897	2593.673654
788.952760	2616.358846
789.275579	2616.358846
789.598351	2581.070769
789.921078	2578.550192
790.243759	2661.729231
790.566395	2558.385577
790.888984	2684.414423
791.211529	2555.865000
791.534027	2588.632500
791.856480	2596.194231
792.178888	2689.455577
792.501249	2601.235385
792.823566	2628.961731
793.145836	2578.550192
793.468062	2639.044038
793.790241	2583.591346
794.112375	2636.523462
794.434464	2623.920577
794.756507	2618.879423
795.078505	2593.673654
795.400457	2591.153077
795.722364	2608.797115
796.044226	2560.906154
796.366042	2689.455577
796.687812	2596.194231
797.009538	2555.865000
797.331218	2583.591346
797.652852	2661.729231
797.974442	2623.920577
798.295986	2603.755962
798.617484	2598.714808
798.938938	2621.400000
799.260346	2636.523462
799.581709	2591.153077
799.903026	2636.523462
800.224299	2598.714808
800.545526	2641.564615
800.866708	2674.332115
801.187845	2565.947308
801.508936	2613.838269
801.829983	2654.167500
802.150984	2530.659231
802.471940	2666.770385
802.792851	2528.138654
803.113717	2596.194231
803.434538	2581.070769
803.755314	2606.276538
804.076045	2583.591346
804.396731	2583.591346
804.717372	2603.755962
805.037967	2550.823846
805.358518	2598.714808
805.679024	2601.235385
805.999485	2525.618077
806.319901	2621.400000
806.640272	2581.070769
806.960598	2563.426731
807.280879	2505.453462
807.601115	2507.974038
807.921306	2621.400000
808.241453	2636.523462
808.561554	2606.276538
808.881611	2618.879423
809.201623	2583.591346
809.521590	2591.153077
809.841513	2533.179808
810.161390	2644.085192
810.481223	2634.002885
810.801011	2565.947308
811.120755	2651.646923
811.440453	2626.441154
811.760107	2691.976154
812.079716	2636.523462
812.399281	2613.838269
812.718801	2616.358846
813.038276	2664.249808
813.357707	2641.564615
813.677093	2649.126346
813.996434	2641.564615
814.315731	2664.249808
814.634983	2601.235385
814.954191	2565.947308
815.273354	2558.385577
815.592473	2606.276538
815.911547	2510.494615
816.230577	2631.482308
816.549562	2523.097500
816.868502	2634.002885
817.187399	2628.961731
817.506250	2676.852692
817.825058	2621.400000
818.143821	2576.029615
818.462539	2591.153077
818.781213	2593.673654
819.099843	2634.002885
819.418429	2601.235385
819.736970	2593.673654
820.055466	2631.482308
820.373919	2626.441154
820.692327	2586.111923
821.010691	2626.441154
821.329011	2586.111923
821.647286	2681.893846
821.965517	2714.661346
822.283704	2674.332115
822.601847	2754.990577
822.919945	2724.743654
823.237999	2691.976154
823.556010	2651.646923
823.873976	2686.935000
824.191897	2742.387692
824.509775	2591.153077
824.827609	2596.194231
825.145398	2586.111923
825.463144	2634.002885
825.780845	2656.688077
826.098502	2671.811538
826.416116	2628.961731
826.733685	2689.455577
827.051210	2616.358846
827.368692	2644.085192
827.686129	2530.659231
828.003522	2654.167500
828.320872	2618.879423
828.638177	2603.755962
828.955439	2591.153077
829.272656	2601.235385
829.589830	2616.358846
829.906960	2618.879423
830.224046	2656.688077
830.541088	2626.441154
830.858086	2520.576923
831.175041	2548.303269
831.491952	2639.044038
831.808819	2528.138654
832.125642	2533.179808
832.442421	2656.688077
832.759157	2628.961731
833.075849	2674.332115
833.392497	2593.673654
833.709101	2545.782692
834.025662	2563.426731
834.342179	2563.426731
834.658653	2621.400000
834.975083	2671.811538
835.291469	2623.920577
835.607811	2646.605769
835.924110	2545.782692
836.240366	2601.235385
836.556578	2631.482308
836.872746	2621.400000
837.188871	2583.591346
837.504952	2497.891731
837.820990	2500.412308
838.136984	2465.124231
838.452935	2586.111923
838.768842	2560.906154
839.084706	2694.496731
839.400526	2565.947308
839.716303	2618.879423
840.032037	2628.961731
840.347727	2631.482308
840.663373	2616.358846
840.978977	2548.303269
841.294537	2669.290962
841.610054	2563.426731
841.925527	2586.111923
842.240957	2618.879423
842.556344	2654.167500
842.871687	2623.920577
843.186987	2606.276538
843.502244	2623.920577
843.817458	2533.179808
844.132629	2515.535769
844.447756	2671.811538
844.762840	2558.385577
845.077881	2631.482308
845.392879	2576.029615
845.707833	2628.961731
846.022745	2560.906154
846.337613	2568.467885
846.652438	2621.400000
846.967221	2563.426731
847.281960	2593.673654
847.596656	2636.523462
847.911309	2628.961731
848.225919	2540.741538
848.540485	2611.317692
848.855009	2666.770385
849.169490	2518.056346
849.483928	2588.632500
849.798323	2570.988462
850.112675	2565.947308
850.426984	2588.632500
850.741251	2628.961731
851.055474	2649.126346
851.369654	2626.441154
851.683792	2664.249808
851.997887	2583.591346
852.311938	2704.579038
852.625947	2649.126346
852.939914	2659.208654
853.253837	2606.276538
853.567718	2611.317692
853.881555	2606.276538
854.195350	2583.591346
854.509103	2583.591346
854.822812	2583.591346
855.136479	2545.782692
855.450103	2613.838269
855.763685	2676.852692
856.077224	2550.823846
856.390720	2570.988462
856.704173	2573.509038
857.017584	2606.276538
857.330953	2618.879423
857.644278	2601.235385
857.957561	2596.194231
858.270802	2555.865000
858.584000	2583.591346
858.897155	2634.002885
859.210268	2651.646923
859.523339	2533.179808
859.836367	2583.591346
860.149352	2641.564615
860.462295	2591.153077
860.775195	2606.276538
861.088054	2490.330000
861.400869	2606.276538
861.713642	2611.317692
862.026373	2601.235385
862.339062	2649.126346
862.651708	2601.235385
862.964312	2583.591346
863.276873	2636.523462
863.589392	2540.741538
863.901869	2563.426731
864.214303	2530.659231
864.526696	2616.358846
864.839045	2558.385577
865.151353	2565.947308
865.463619	2586.111923
865.775842	2681.893846
866.088023	2573.509038
866.400162	2558.385577
866.712258	2649.126346
867.024313	2568.467885
867.336325	2676.852692
867.648296	2520.576923
867.960224	2538.220962
868.272110	2644.085192
868.583954	2523.097500
868.895755	2649.126346
869.207515	2576.029615
869.519233	2598.714808
869.830909	2626.441154
870.142542	2576.029615
870.454134	2538.220962
870.765684	2598.714808
871.077191	2603.755962
871.388657	2523.097500
871.700081	2603.755962
872.011463	2593.673654
872.322803	2598.714808
872.634101	2641.564615
872.945357	2560.906154
873.256571	2545.782692
873.567744	2631.482308
873.878874	2623.920577
874.189963	2555.865000
874.501010	2631.482308
874.812015	2608.797115
875.122979	2560.906154
875.433900	2686.935000
875.744780	2608.797115
876.055618	2560.906154
876.366415	2583.591346
876.677169	2606.276538
876.987882	2628.961731
877.298554	2558.385577
877.609183	2646.605769
877.919771	2530.659231
878.230317	2583.591346
878.540822	2603.755962
878.851285	2618.879423
879.161707	2613.838269
879.472087	2596.194231
879.782425	2666.770385
880.092722	2565.947308
880.402977	2639.044038
880.713191	2616.358846
881.023363	2628.961731
881.333494	2588.632500
881.643583	2704.579038
881.953631	2644.085192
882.263637	2603.755962
882.573602	2608.797115
882.883526	2628.961731
883.193408	2591.153077
883.503248	2616.358846
883.813048	2560.906154
884.122806	2593.673654
884.432522	2568.467885
884.742197	2591.153077
885.051831	2613.838269
885.361424	2742.387692
885.670975	2631.482308
885.980485	2689.455577
886.289954	2651.646923
886.599382	2636.523462
886.908768	2570.988462
887.218113	2525.618077
887.527417	2568.467885
887.836680	2586.111923
888.145901	2598.714808
888.455082	2611.317692
888.764221	2644.085192
889.073319	2543.262115
889.382376	2644.085192
889.691392	2603.755962
890.000366	2626.441154
890.309300	2626.441154
890.618193	2651.646923
890.927044	2525.618077
891.235855	2565.947308
891.544625	2639.044038
891.853353	2649.126346
892.162041	2591.153077
892.470687	2628.961731
892.779293	2613.838269
893.087858	2608.797115
893.396381	2634.002885
893.704864	2631.482308
894.013306	2644.085192
894.321707	2626.441154
894.630068	2613.838269
894.938387	2616.358846
895.246665	2581.070769
895.554903	2611.317692
895.863100	2623.920577
896.171256	2586.111923
896.479371	2639.044038
896.787446	2591.153077
897.095480	2550.823846
897.403473	2535.700385
897.711425	2598.714808
898.019336	2578.550192
898.327207	2601.235385
898.635038	2565.947308
898.942827	2613.838269
899.250576	2628.961731
899.558284	2654.167500
899.865952	2570.988462
900.173579	2543.262115
900.481165	2616.358846
900.788711	2573.509038
901.096216	2601.235385
901.403681	2545.782692
901.711105	2651.646923
902.018489	2563.426731
902.325832	2616.358846
902.633135	2641.564615
902.940397	2583.591346
903.247619	2550.823846
903.554800	2596.194231
903.861941	2502.932885
904.169041	2656.688077
904.476101	2631.482308
904.783121	2530.659231
905.090100	2573.509038
905.397039	2626.441154
905.703938	2563.426731
906.010796	2681.893846
906.317614	2702.058462
906.624391	2626.441154
906.931129	2634.002885
907.237826	2550.823846
907.544483	2545.782692
907.851099	2616.358846
908.157675	2598.714808
908.464211	2606.276538
908.770707	2596.194231
909.077163	2588.632500
909.383578	2548.303269
909.689954	2568.467885
909.996289	2543.262115
910.302584	2644.085192
910.608839	2568.467885
910.915054	2623.920577
911.221229	2573.509038
911.527363	2495.371154
911.833458	2560.906154
912.139513	2573.509038
912.445527	2505.453462
912.751502	2656.688077
913.057436	2583.591346
913.363331	2611.317692
913.669186	2576.029615
913.975000	2618.879423
914.280775	2598.714808
914.586510	2591.153077
914.892205	2631.482308
915.197859	2608.797115
915.503475	2477.727115
915.809050	2628.961731
916.114585	2616.358846
916.420081	2565.947308
916.725536	2623.920577
917.030952	2603.755962
917.336328	2578.550192
917.641665	2588.632500
917.946961	2568.467885
918.252218	2576.029615
918.557435	2586.111923
918.862612	2538.220962
919.167750	2578.550192
919.472848	2553.344423
919.777906	2548.303269
920.082925	2613.838269
920.387904	2538.220962
920.692843	2583.591346
920.997743	2671.811538
921.302603	2573.509038
921.607423	2560.906154
921.912204	2578.550192
922.216946	2480.247692
922.521647	2621.400000
922.826310	2565.947308
923.130932	2636.523462
923.435516	2623.920577
923.740059	2651.646923
924.044564	2616.358846
924.349028	2563.426731
924.653454	2694.496731
924.957840	2646.605769
925.262186	2596.194231
925.566493	2649.126346
925.870761	2576.029615
926.174989	2591.153077
926.479178	2588.632500
926.783328	2583.591346
927.087438	2563.426731
927.391509	2634.002885
927.695541	2626.441154
927.999533	2644.085192
928.303486	2576.029615
928.607400	2611.317692
928.911275	2555.865000
929.215110	2578.550192
929.518906	2596.194231
929.822663	2654.167500
930.126381	2616.358846
930.430060	2553.344423
930.733699	2669.290962
931.037299	2578.550192
931.340861	2555.865000
931.644383	2558.385577
931.947866	2591.153077
932.251309	2694.496731
932.554714	2568.467885
932.858080	2623.920577
933.161407	2578.550192
933.464694	2581.070769
933.767943	2586.111923
934.071153	2654.167500
934.374323	2621.400000
934.677455	2618.879423
934.980548	2570.988462
935.283602	2634.002885
935.586617	2661.729231
935.889593	2535.700385
936.192530	2533.179808
936.495428	2591.153077
936.798287	2576.029615
937.101108	2591.153077
937.403890	2583.591346
937.706632	2576.029615
938.009336	2611.317692
938.312002	2588.632500
938.614628	2581.070769
938.917216	2591.153077
939.219765	2689.455577
939.522275	2606.276538
939.824747	2613.838269
940.127179	2631.482308
940.429573	2611.317692
940.731929	2573.509038
941.034246	2578.550192
941.336524	2646.605769
941.638763	2576.029615
941.940964	2596.194231
942.243126	2621.400000
942.545250	2543.262115
942.847335	2578.550192
943.149381	2538.220962
943.451389	2588.632500
943.753359	2626.441154
944.055290	2586.111923
944.357182	2558.385577
944.659036	2548.303269
944.960851	2593.673654
945.262628	2603.755962
945.564367	2588.632500
945.866067	2578.550192
946.167729	2492.850577
946.469352	2576.029615
946.770937	2520.576923
947.072484	2674.332115
947.373992	2649.126346
947.675462	2520.576923
947.976893	2593.673654
948.278286	2520.576923
948.579641	2586.111923
948.880958	2553.344423
949.182236	2591.153077
949.483476	2535.700385
949.784678	2601.235385
950.085841	2603.755962
950.386967	2656.688077
950.688054	2636.523462
950.989103	2568.467885
951.290114	2565.947308
951.591087	2581.070769
951.892021	2452.521346
952.192917	2548.303269
952.493776	2674.332115
952.794596	2578.550192
953.095378	2616.358846
953.396122	2631.482308
953.696828	2628.961731
953.997496	2525.618077
954.298126	2639.044038
954.598718	2618.879423
954.899272	2631.482308
955.199788	2513.015192
955.500266	2578.550192
955.800706	2608.797115
956.101108	2608.797115
956.401472	2535.700385
956.701798	2565.947308
957.002087	2538.220962
957.302337	2593.673654
957.602550	2583.591346
957.902724	2608.797115
958.202861	2613.838269
958.502960	2573.509038
958.803022	2646.605769
959.103045	2616.358846
959.403031	2664.249808
959.702979	2616.358846
960.002889	2636.523462
960.302762	2618.879423
960.602596	2528.138654
960.902393	2570.988462
961.202153	2598.714808
961.501875	2634.002885
961.801559	2613.838269
962.101205	2628.961731
962.400814	2570.988462
962.700385	2502.932885
962.999918	2576.029615
963.299414	2565.947308
963.598873	2518.056346
963.898293	2581.070769
964.197677	2550.823846
964.497022	2578.550192
964.796331	2628.961731
965.095601	2497.891731
965.394835	2555.865000
965.694030	2651.646923
965.993189	2578.550192
966.292309	2568.467885
966.591393	2528.138654
966.890439	2644.085192
967.189447	2576.029615
967.488419	2593.673654
967.787353	2598.714808
968.086249	2623.920577
968.385108	2545.782692
968.683930	2568.467885
968.982714	2576.029615
969.281462	2548.303269
969.580172	2565.947308
969.878844	2634.002885
970.177480	2543.262115
970.476078	2563.426731
970.774639	2563.426731
971.073162	2649.126346
971.371649	2581.070769
971.670098	2581.070769
971.968510	2616.358846
972.266885	2550.823846
972.565223	2507.974038
972.863524	2626.441154
973.161788	2641.564615
973.460014	2603.755962
973.758204	2596.194231
974.056356	2583.591346
974.354471	2563.426731
974.652550	2480.247692
974.950591	2641.564615
975.248595	2558.385577
975.546563	2500.412308
975.844493	2535.700385
976.142386	2505.453462
976.440243	2581.070769
976.738062	2623.920577
977.035845	2560.906154
977.333590	2568.467885
977.631299	2593.673654
977.928971	2616.358846
978.226606	2535.700385
978.524204	2545.782692
978.821765	2598.714808
979.119290	2591.153077
979.416777	2598.714808
979.714228	2608.797115
980.011642	2563.426731
980.309020	2598.714808
980.606360	2596.194231
980.903664	2598.714808
981.200931	2623.920577
981.498162	2545.782692
981.795356	2603.755962
982.092513	2578.550192
982.389633	2603.755962
982.686717	2535.700385
982.983764	2598.714808
983.280775	2661.729231
983.577749	2553.344423
983.874686	2601.235385
984.171587	2598.714808
984.468451	2563.426731
984.765279	2505.453462
985.062070	2611.317692
985.358824	2576.029615
985.655543	2573.509038
985.952224	2485.288846
986.248869	2598.714808
986.545478	2586.111923
986.842050	2639.044038
987.138586	2565.947308
987.435086	2613.838269
987.731549	2563.426731
988.027975	2588.632500
988.324366	2553.344423
988.620719	2623.920577
988.917037	2560.906154
989.213318	2500.412308
989.509563	2568.467885
989.805772	2636.523462
990.101944	2631.482308
990.398080	2641.564615
990.694180	2611.317692
990.990244	2608.797115
991.286271	2603.755962
991.582262	2611.317692
991.878217	2520.576923
992.174136	2560.906154
992.470019	2593.673654
992.765865	2606.276538
993.061676	2520.576923
993.357450	2596.194231
993.653188	2565.947308
993.948890	2621.400000
994.244556	2543.262115
994.540186	2576.029615
994.835780	2548.303269
995.131337	2578.550192
995.426859	2560.906154
995.722345	2596.194231
996.017795	2593.673654
996.313208	2583.591346
996.608586	2628.961731
996.903928	2631.482308
997.199234	2492.850577
997.494504	2691.976154
997.789738	2606.276538
998.084936	2628.961731
998.380099	2560.906154
998.675225	2666.770385
998.970316	2576.029615
999.265371	2603.755962
999.560390	2558.385577
999.855373	2560.906154
1000.150320	2558.385577
1000.445232	2518.056346
1000.740108	2601.235385
1001.034948	2618.879423
1001.329752	2591.153077
1001.624521	2553.344423
1001.919254	2583.591346
1002.213951	2606.276538
1002.508613	2583.591346
1002.803239	2606.276538
1003.097829	2616.358846
1003.392384	2565.947308
1003.686903	2608.797115
1003.981386	2611.317692
1004.275834	2573.509038
1004.570246	2492.850577
1004.864623	2568.467885
1005.158964	2628.961731
1005.453270	2606.276538
1005.747540	2616.358846
1006.041775	2646.605769
1006.335974	2654.167500
1006.630138	2563.426731
1006.924266	2457.562500
1007.218359	2608.797115
1007.512416	2628.961731
1007.806438	2611.317692
1008.100425	2656.688077
1008.394376	2603.755962
1008.688292	2573.509038
1008.982172	2618.879423
1009.276017	2560.906154
1009.569827	2618.879423
1009.863602	2591.153077
1010.157341	2555.865000
1010.451045	2674.332115
1010.744714	2601.235385
1011.038347	2573.509038
1011.331945	2671.811538
1011.625508	2583.591346
1011.919036	2530.659231
1012.212528	2636.523462
1012.505986	2565.947308
1012.799408	2691.976154
1013.092795	2631.482308
1013.386147	2576.029615
1013.679464	2654.167500
1013.972745	2583.591346
1014.265992	2500.412308
1014.559204	2576.029615
1014.852380	2603.755962
1015.145521	2606.276538
1015.438628	2656.688077
1015.731699	2576.029615
1016.024736	2563.426731
1016.317737	2641.564615
1016.610703	2533.179808
1016.903635	2613.838269
1017.196531	2588.632500
1017.489393	2540.741538
1017.782219	2576.029615
1018.075011	2656.688077
1018.367768	2636.523462
1018.660490	2573.509038
1018.953177	2573.509038
1019.245829	2573.509038
