Dividing Wavelength (nm)	Counts (n)	Blue Motor Position (mm): 0.000000	Red Motor Position (mm): 3.900000	
326.493990	2165.175577
326.888308	2165.175577
327.282561	2165.175577
327.676750	2084.517115
328.070874	2041.667308
328.464933	2049.229038
328.858929	2087.037692
329.252859	2114.764038
329.646726	2145.010962
330.040528	2044.187885
330.434265	2127.366923
330.827938	2182.819615
331.221547	2089.558269
331.615091	2165.175577
332.008571	2180.299038
332.401986	2097.120000
332.795338	2271.039808
333.188625	2223.148846
333.581847	2205.504808
333.975006	2218.107692
334.368100	2354.218846
334.761129	2258.436923
335.154095	2291.204423
335.546996	2321.451346
335.939833	2379.424615
336.332606	2376.904038
336.725315	2339.095385
337.117960	2429.836154
337.510540	2480.247692
337.903056	2404.630385
338.295508	2412.192115
338.687896	2409.671538
339.080220	2439.918462
339.472480	2424.795000
339.864676	2452.521346
340.256807	2429.836154
340.648875	2470.165385
341.040879	2465.124231
341.432818	2523.097500
341.824694	2490.330000
342.216506	2419.753846
342.608253	2455.041923
342.999937	2497.891731
343.391557	2429.836154
343.783113	2475.206538
344.174605	2470.165385
344.566033	2497.891731
344.957397	2523.097500
345.348697	2505.453462
345.739934	2447.480192
346.131106	2460.083077
346.522215	2472.685962
346.913260	2364.301154
347.304241	2477.727115
347.695159	2422.274423
348.086012	2450.000769
348.476802	2535.700385
348.867528	2497.891731
349.258191	2371.862885
349.648789	2470.165385
350.039324	2444.959615
350.429796	2407.150962
350.820203	2402.109808
351.210548	2389.506923
351.600828	2450.000769
351.991045	2417.233269
352.381198	2427.315577
352.771288	2460.083077
353.161314	2429.836154
353.551276	2379.424615
353.941175	2392.027500
354.331010	2386.986346
354.720782	2465.124231
355.110490	2450.000769
355.500135	2455.041923
355.889717	2409.671538
356.279235	2477.727115
356.668689	2422.274423
357.058080	2545.782692
357.447408	2432.356731
357.836672	2455.041923
358.225873	2513.015192
358.615010	2444.959615
359.004084	2523.097500
359.393095	2394.548077
359.782043	2452.521346
360.170927	2399.589231
360.559748	2412.192115
360.948505	2480.247692
361.337199	2407.150962
361.725830	2399.589231
362.114398	2540.741538
362.502903	2465.124231
362.891344	2460.083077
363.279722	2392.027500
363.668037	2444.959615
364.056289	2465.124231
364.444478	2402.109808
364.832603	2419.753846
365.220665	2480.247692
365.608665	2402.109808
365.996601	2482.768269
366.384474	2490.330000
366.772284	2460.083077
367.160031	2490.330000
367.547715	2500.412308
367.935336	2470.165385
368.322893	2409.671538
368.710388	2455.041923
369.097820	2429.836154
369.485189	2424.795000
369.872495	2450.000769
370.259738	2465.124231
370.646918	2437.397885
371.034035	2434.877308
371.421090	2487.809423
371.808081	2414.712692
372.195010	2477.727115
372.581875	2513.015192
372.968678	2447.480192
373.355418	2472.685962
373.742096	2402.109808
374.128710	2518.056346
374.515262	2444.959615
374.901751	2477.727115
375.288177	2384.465769
375.674540	2455.041923
376.060841	2417.233269
376.447079	2507.974038
376.833254	2528.138654
377.219367	2533.179808
377.605417	2376.904038
377.991404	2402.109808
378.377329	2361.780577
378.763191	2492.850577
379.148991	2434.877308
379.534727	2502.932885
379.920402	2465.124231
380.306013	2414.712692
380.691563	2424.795000
381.077049	2452.521346
381.462474	2384.465769
381.847835	2351.698269
382.233134	2518.056346
382.618371	2326.492500
383.003545	2510.494615
383.388657	2462.603654
383.773706	2505.453462
384.158693	2497.891731
384.543618	2376.904038
384.928480	2455.041923
385.313280	2434.877308
385.698017	2402.109808
386.082692	2457.562500
386.467305	2452.521346
386.851856	2417.233269
387.236344	2432.356731
387.620770	2520.576923
388.005133	2518.056346
388.389435	2550.823846
388.773674	2568.467885
389.157851	2500.412308
389.541965	2460.083077
389.926018	2477.727115
390.310008	2490.330000
390.693936	2412.192115
391.077802	2505.453462
391.461606	2424.795000
391.845348	2472.685962
392.229027	2475.206538
392.612645	2460.083077
392.996200	2452.521346
393.379694	2497.891731
393.763125	2515.535769
394.146494	2513.015192
394.529801	2465.124231
394.913047	2399.589231
395.296230	2392.027500
395.679351	2502.932885
396.062410	2465.124231
396.445408	2447.480192
396.828343	2485.288846
397.211217	2439.918462
397.594028	2429.836154
397.976778	2437.397885
398.359466	2386.986346
398.742092	2437.397885
399.124656	2475.206538
399.507158	2394.548077
399.889598	2472.685962
400.271977	2467.644808
400.654294	2447.480192
401.036549	2452.521346
401.418742	2437.397885
401.800874	2485.288846
402.182944	2432.356731
402.564952	2538.220962
402.946898	2535.700385
403.328783	2412.192115
403.710606	2497.891731
404.092367	2490.330000
404.474067	2482.768269
404.855705	2492.850577
405.237282	2450.000769
405.618797	2422.274423
406.000250	2510.494615
406.381642	2434.877308
406.762972	2460.083077
407.144240	2450.000769
407.525447	2525.618077
407.906593	2434.877308
408.287677	2482.768269
408.668700	2455.041923
409.049661	2404.630385
409.430560	2427.315577
409.811399	2457.562500
410.192176	2475.206538
410.572891	2427.315577
410.953545	2507.974038
411.334138	2538.220962
411.714669	2427.315577
412.095139	2427.315577
412.475547	2422.274423
412.855894	2487.809423
413.236180	2462.603654
413.616405	2487.809423
413.996568	2497.891731
414.376670	2414.712692
414.756711	2432.356731
415.136691	2505.453462
415.516609	2427.315577
415.896466	2477.727115
416.276262	2402.109808
416.655997	2525.618077
417.035670	2518.056346
417.415283	2386.986346
417.794834	2462.603654
418.174324	2485.288846
418.553753	2397.068654
418.933121	2457.562500
419.312428	2568.467885
419.691674	2434.877308
420.070859	2528.138654
420.449983	2487.809423
420.829045	2502.932885
421.208047	2528.138654
421.586988	2583.591346
421.965867	2492.850577
422.344686	2507.974038
422.723444	2510.494615
423.102141	2462.603654
423.480777	2455.041923
423.859352	2515.535769
424.237866	2442.439038
424.616319	2409.671538
424.994712	2444.959615
425.373044	2427.315577
425.751314	2462.603654
426.129524	2500.412308
426.507673	2344.136538
426.885762	2558.385577
427.263789	2462.603654
427.641756	2424.795000
428.019662	2465.124231
428.397508	2437.397885
428.775292	2528.138654
429.153016	2470.165385
429.530679	2467.644808
429.908282	2563.426731
430.285824	2497.891731
430.663305	2467.644808
431.040726	2465.124231
431.418086	2507.974038
431.795385	2525.618077
432.172624	2533.179808
432.549802	2417.233269
432.926920	2502.932885
433.303977	2518.056346
433.680974	2553.344423
434.057910	2424.795000
434.434786	2533.179808
434.811601	2465.124231
435.188355	2513.015192
435.565050	2434.877308
435.941683	2427.315577
436.318257	2424.795000
436.694770	2533.179808
437.071222	2525.618077
437.447614	2492.850577
437.823946	2437.397885
438.200218	2492.850577
438.576429	2470.165385
438.952580	2427.315577
439.328670	2429.836154
439.704700	2507.974038
440.080670	2596.194231
440.456580	2490.330000
440.832429	2447.480192
441.208218	2581.070769
441.583947	2502.932885
441.959616	2573.509038
442.335224	2460.083077
442.710773	2502.932885
443.086261	2560.906154
443.461689	2399.589231
443.837057	2560.906154
444.212365	2465.124231
444.587612	2490.330000
444.962800	2490.330000
445.337927	2505.453462
445.712995	2460.083077
446.088002	2482.768269
446.462949	2550.823846
446.837837	2475.206538
447.212664	2467.644808
447.587431	2515.535769
447.962139	2399.589231
448.336786	2515.535769
448.711374	2487.809423
449.085901	2487.809423
449.460369	2492.850577
449.834776	2475.206538
450.209124	2543.262115
450.583412	2407.150962
450.957640	2538.220962
451.331808	2424.795000
451.705917	2497.891731
452.079965	2424.795000
452.453954	2553.344423
452.827883	2507.974038
453.201752	2427.315577
453.575562	2467.644808
453.949311	2477.727115
454.323001	2565.947308
454.696632	2553.344423
455.070202	2412.192115
455.443713	2523.097500
455.817164	2482.768269
456.190556	2492.850577
456.563888	2455.041923
456.937160	2505.453462
457.310373	2530.659231
457.683526	2500.412308
458.056619	2515.535769
458.429653	2502.932885
458.802628	2543.262115
459.175542	2455.041923
459.548398	2540.741538
459.921194	2467.644808
460.293930	2424.795000
460.666607	2540.741538
461.039224	2447.480192
461.411782	2515.535769
461.784280	2452.521346
462.156719	2528.138654
462.529099	2565.947308
462.901419	2472.685962
463.273680	2533.179808
463.645882	2500.412308
464.018024	2528.138654
464.390106	2467.644808
464.762130	2530.659231
465.134094	2520.576923
465.505999	2515.535769
465.877845	2422.274423
466.249631	2487.809423
466.621358	2485.288846
466.993026	2505.453462
467.364634	2538.220962
467.736184	2495.371154
468.107674	2523.097500
468.479105	2497.891731
468.850477	2447.480192
469.221790	2497.891731
469.593043	2447.480192
469.964238	2565.947308
470.335373	2497.891731
470.706449	2477.727115
471.077467	2447.480192
471.448425	2492.850577
471.819324	2371.862885
472.190164	2543.262115
472.560945	2543.262115
472.931667	2497.891731
473.302330	2560.906154
473.672934	2485.288846
474.043479	2515.535769
474.413965	2480.247692
474.784393	2437.397885
475.154761	2530.659231
475.525070	2518.056346
475.895321	2447.480192
476.265513	2470.165385
476.635645	2427.315577
477.005719	2505.453462
477.375734	2492.850577
477.745691	2518.056346
478.115588	2505.453462
478.485427	2457.562500
478.855207	2548.303269
479.224928	2515.535769
479.594591	2412.192115
479.964194	2492.850577
480.333739	2452.521346
480.703226	2467.644808
481.072653	2472.685962
481.442022	2515.535769
481.811333	2450.000769
482.180584	2565.947308
482.549777	2548.303269
482.918912	2475.206538
483.287988	2432.356731
483.657005	2530.659231
484.025964	2518.056346
484.394864	2548.303269
484.763706	2497.891731
485.132489	2555.865000
485.501213	2455.041923
485.869879	2518.056346
486.238487	2477.727115
486.607036	2442.439038
486.975527	2487.809423
487.343959	2427.315577
487.712333	2553.344423
488.080648	2462.603654
488.448905	2570.988462
488.817104	2442.439038
489.185244	2437.397885
489.553326	2540.741538
489.921350	2480.247692
490.289315	2429.836154
490.657222	2495.371154
491.025070	2402.109808
491.392861	2480.247692
491.760593	2490.330000
492.128267	2545.782692
492.495883	2543.262115
492.863440	2530.659231
493.230939	2485.288846
493.598380	2505.453462
493.965763	2447.480192
494.333088	2455.041923
494.700354	2520.576923
495.067563	2457.562500
495.434713	2518.056346
495.801805	2507.974038
496.168839	2523.097500
496.535815	2500.412308
496.902733	2497.891731
497.269593	2472.685962
497.636395	2477.727115
498.003139	2515.535769
498.369825	2480.247692
498.736453	2422.274423
499.103023	2495.371154
499.469535	2518.056346
499.835989	2563.426731
500.202385	2581.070769
500.568723	2404.630385
500.935003	2528.138654
501.301226	2558.385577
501.667390	2399.589231
502.033497	2460.083077
502.399546	2487.809423
502.765537	2502.932885
503.131470	2497.891731
503.497345	2444.959615
503.863163	2419.753846
504.228923	2513.015192
504.594625	2470.165385
504.960269	2366.821731
505.325856	2437.397885
505.691385	2490.330000
506.056856	2475.206538
506.422270	2505.453462
506.787625	2543.262115
507.152924	2497.891731
507.518164	2490.330000
507.883347	2467.644808
508.248472	2462.603654
508.613540	2505.453462
508.978550	2432.356731
509.343503	2460.083077
509.708398	2583.591346
510.073236	2470.165385
510.438016	2518.056346
510.802738	2525.618077
511.167403	2500.412308
511.532010	2576.029615
511.896561	2465.124231
512.261053	2513.015192
512.625488	2442.439038
512.989866	2560.906154
513.354186	2472.685962
513.718449	2507.974038
514.082655	2525.618077
514.446803	2475.206538
514.810894	2535.700385
515.174927	2616.358846
515.538904	2462.603654
515.902822	2472.685962
516.266684	2482.768269
516.630488	2462.603654
516.994235	2472.685962
517.357925	2525.618077
517.721558	2510.494615
518.085133	2485.288846
518.448651	2581.070769
518.812112	2490.330000
519.175516	2437.397885
519.538863	2515.535769
519.902152	2497.891731
520.265385	2485.288846
520.628560	2450.000769
520.991678	2523.097500
521.354739	2548.303269
521.717743	2492.850577
522.080690	2533.179808
522.443580	2480.247692
522.806413	2475.206538
523.169189	2558.385577
523.531908	2460.083077
523.894569	2510.494615
524.257174	2500.412308
524.619722	2487.809423
524.982213	2447.480192
525.344647	2490.330000
525.707025	2555.865000
526.069345	2439.918462
526.431608	2482.768269
526.793815	2538.220962
527.155964	2505.453462
527.518057	2452.521346
527.880093	2490.330000
528.242072	2485.288846
528.603995	2513.015192
528.965860	2523.097500
529.327669	2495.371154
529.689421	2565.947308
530.051117	2397.068654
530.412755	2560.906154
530.774337	2530.659231
531.135862	2442.439038
531.497331	2558.385577
531.858743	2462.603654
532.220098	2439.918462
532.581396	2550.823846
532.942638	2500.412308
533.303824	2558.385577
533.664953	2505.453462
534.026025	2540.741538
534.387040	2555.865000
534.747999	2545.782692
535.108902	2533.179808
535.469748	2497.891731
535.830537	2510.494615
536.191270	2497.891731
536.551947	2538.220962
536.912567	2505.453462
537.273131	2538.220962
537.633638	2520.576923
537.994089	2573.509038
538.354483	2452.521346
538.714821	2462.603654
539.075103	2502.932885
539.435328	2540.741538
539.795497	2414.712692
540.155609	2545.782692
540.515665	2520.576923
540.875665	2505.453462
541.235609	2399.589231
541.595496	2593.673654
541.955328	2437.397885
542.315102	2515.535769
542.674821	2548.303269
543.034483	2505.453462
543.394090	2555.865000
543.753640	2442.439038
544.113134	2502.932885
544.472571	2487.809423
544.831953	2452.521346
545.191278	2598.714808
545.550548	2439.918462
545.909761	2490.330000
546.268918	2462.603654
546.628019	2525.618077
546.987064	2497.891731
547.346053	2465.124231
547.704986	2500.412308
548.063863	2490.330000
548.422684	2487.809423
548.781449	2437.397885
549.140158	2502.932885
549.498811	2596.194231
549.857408	2545.782692
550.215949	2513.015192
550.574434	2392.027500
550.932864	2465.124231
551.291237	2497.891731
551.649555	2523.097500
552.007817	2510.494615
552.366022	2525.618077
552.724173	2487.809423
553.082267	2533.179808
553.440305	2520.576923
553.798288	2565.947308
554.156215	2482.768269
554.514086	2543.262115
554.871902	2490.330000
555.229661	2500.412308
555.587365	2553.344423
555.945014	2470.165385
556.302606	2455.041923
556.660143	2500.412308
557.017625	2565.947308
557.375050	2434.877308
557.732421	2515.535769
558.089735	2518.056346
558.446994	2631.482308
558.804197	2518.056346
559.161345	2563.426731
559.518437	2568.467885
559.875474	2492.850577
560.232455	2555.865000
560.589381	2513.015192
560.946251	2535.700385
561.303065	2513.015192
561.659825	2525.618077
562.016528	2588.632500
562.373177	2576.029615
562.729770	2513.015192
563.086307	2485.288846
563.442789	2528.138654
563.799216	2467.644808
564.155587	2432.356731
564.511904	2555.865000
564.868164	2543.262115
565.224370	2548.303269
565.580520	2371.862885
565.936615	2455.041923
566.292654	2412.192115
566.648638	2515.535769
567.004567	2472.685962
567.360441	2530.659231
567.716260	2442.439038
568.072023	2530.659231
568.427732	2513.015192
568.783385	2450.000769
569.138982	2480.247692
569.494525	2470.165385
569.850013	2535.700385
570.205445	2530.659231
570.560823	2460.083077
570.916145	2475.206538
571.271412	2465.124231
571.626625	2533.179808
571.981782	2419.753846
572.336884	2505.453462
572.691931	2492.850577
573.046923	2452.521346
573.401860	2450.000769
573.756743	2470.165385
574.111570	2432.356731
574.466342	2570.988462
574.821059	2520.576923
575.175722	2444.959615
575.530330	2540.741538
575.884882	2455.041923
576.239380	2424.795000
576.593823	2505.453462
576.948211	2477.727115
577.302544	2495.371154
577.656823	2472.685962
578.011047	2397.068654
578.365216	2528.138654
578.719330	2548.303269
579.073389	2553.344423
579.427394	2465.124231
579.781344	2513.015192
580.135239	2497.891731
580.489080	2538.220962
580.842866	2475.206538
581.196597	2573.509038
581.550273	2485.288846
581.903895	2588.632500
582.257463	2548.303269
582.610975	2538.220962
582.964434	2550.823846
583.317837	2558.385577
583.671186	2452.521346
584.024481	2457.562500
584.377721	2472.685962
584.730906	2455.041923
585.084037	2558.385577
585.437113	2520.576923
585.790135	2467.644808
586.143103	2475.206538
586.496016	2523.097500
586.848874	2563.426731
587.201679	2485.288846
587.554428	2502.932885
587.907124	2442.439038
588.259765	2555.865000
588.612352	2450.000769
588.964884	2513.015192
589.317362	2505.453462
589.669786	2455.041923
590.022155	2402.109808
590.374470	2485.288846
590.726731	2480.247692
591.078937	2548.303269
591.431090	2492.850577
591.783188	2540.741538
592.135232	2422.274423
592.487222	2550.823846
592.839157	2477.727115
593.191038	2535.700385
593.542866	2485.288846
593.894639	2535.700385
594.246358	2434.877308
594.598022	2513.015192
594.949633	2538.220962
595.301190	2578.550192
595.652692	2437.397885
596.004141	2507.974038
596.355535	2444.959615
596.706876	2548.303269
597.058162	2538.220962
597.409395	2442.439038
597.760573	2437.397885
598.111698	2487.809423
598.462768	2452.521346
598.813785	2472.685962
599.164748	2520.576923
599.515657	2618.879423
599.866511	2553.344423
600.217312	2495.371154
600.568060	2520.576923
600.918753	2470.165385
601.269392	2533.179808
601.619978	2465.124231
601.970510	2477.727115
602.320988	2520.576923
602.671412	2455.041923
603.021783	2455.041923
603.372100	2533.179808
603.722363	2427.315577
604.072572	2535.700385
604.422728	2558.385577
604.772830	2558.385577
605.122878	2439.918462
605.472872	2467.644808
605.822813	2477.727115
606.172701	2507.974038
606.522534	2553.344423
606.872314	2560.906154
607.222041	2513.015192
607.571714	2548.303269
607.921333	2523.097500
608.270899	2500.412308
608.620411	2596.194231
608.969870	2591.153077
609.319276	2523.097500
609.668627	2470.165385
610.017926	2465.124231
610.367171	2608.797115
610.716362	2525.618077
611.065500	2515.535769
611.414585	2434.877308
611.763616	2397.068654
612.112594	2563.426731
612.461518	2437.397885
612.810389	2462.603654
613.159207	2507.974038
613.507971	2507.974038
613.856682	2460.083077
614.205340	2502.932885
614.553945	2429.836154
614.902496	2523.097500
615.250994	2492.850577
615.599439	2495.371154
615.947830	2596.194231
616.296169	2475.206538
616.644454	2505.453462
616.992686	2455.041923
617.340864	2523.097500
617.688990	2573.509038
618.037063	2543.262115
618.385082	2442.439038
618.733048	2518.056346
619.080961	2485.288846
619.428821	2434.877308
619.776628	2450.000769
620.124382	2485.288846
620.472083	2583.591346
620.819731	2412.192115
621.167326	2376.904038
621.514868	2515.535769
621.862357	2513.015192
622.209793	2530.659231
622.557176	2495.371154
622.904506	2497.891731
623.251783	2492.850577
623.599007	2450.000769
623.946179	2530.659231
624.293297	2487.809423
624.640363	2487.809423
624.987376	2419.753846
625.334336	2570.988462
625.681243	2520.576923
626.028097	2558.385577
626.374899	2472.685962
626.721647	2500.412308
627.068343	2450.000769
627.414987	2460.083077
627.761577	2507.974038
628.108115	2470.165385
628.454600	2465.124231
628.801032	2495.371154
629.147412	2540.741538
629.493739	2487.809423
629.840014	2510.494615
630.186236	2528.138654
630.532405	2513.015192
630.878521	2555.865000
631.224585	2543.262115
631.570597	2601.235385
631.916556	2422.274423
632.262462	2490.330000
632.608316	2487.809423
632.954117	2500.412308
633.299866	2490.330000
633.645562	2490.330000
633.991206	2525.618077
634.336797	2417.233269
634.682336	2510.494615
635.027823	2455.041923
635.373257	2510.494615
635.718639	2437.397885
636.063968	2452.521346
636.409245	2384.465769
636.754470	2518.056346
637.099642	2455.041923
637.444762	2502.932885
637.789829	2450.000769
638.134845	2422.274423
638.479808	2402.109808
638.824719	2513.015192
639.169577	2515.535769
639.514383	2500.412308
639.859137	2565.947308
640.203839	2480.247692
640.548489	2515.535769
640.893086	2417.233269
641.237632	2429.836154
641.582125	2472.685962
641.926566	2369.342308
642.270955	2528.138654
642.615292	2477.727115
642.959576	2480.247692
643.303809	2581.070769
643.647990	2490.330000
643.992118	2462.603654
644.336195	2437.397885
644.680219	2490.330000
645.024192	2570.988462
645.368112	2510.494615
645.711981	2550.823846
646.055797	2518.056346
646.399562	2525.618077
646.743274	2470.165385
647.086935	2495.371154
647.430544	2601.235385
647.774101	2533.179808
648.117606	2613.838269
648.461059	2555.865000
648.804460	2518.056346
649.147810	2530.659231
649.491108	2510.494615
649.834354	2470.165385
650.177548	2482.768269
650.520690	2487.809423
650.863781	2500.412308
651.206820	2540.741538
651.549807	2525.618077
651.892742	2510.494615
652.235626	2578.550192
652.578458	2465.124231
652.921238	2550.823846
653.263967	2437.397885
653.606644	2450.000769
653.949269	2472.685962
654.291843	2528.138654
654.634365	2565.947308
654.976836	2502.932885
655.319255	2495.371154
655.661622	2429.836154
656.003938	2513.015192
656.346203	2472.685962
656.688416	2505.453462
657.030577	2502.932885
657.372687	2429.836154
657.714746	2505.453462
658.056753	2470.165385
658.398708	2507.974038
658.740612	2495.371154
659.082465	2495.371154
659.424266	2487.809423
659.766016	2439.918462
660.107715	2518.056346
660.449362	2467.644808
660.790958	2457.562500
661.132503	2644.085192
661.473996	2455.041923
661.815438	2518.056346
662.156829	2492.850577
662.498168	2548.303269
662.839456	2525.618077
663.180693	2533.179808
663.521879	2497.891731
663.863013	2520.576923
664.204097	2553.344423
664.545129	2457.562500
664.886110	2535.700385
665.227040	2528.138654
665.567918	2596.194231
665.908746	2460.083077
666.249522	2417.233269
666.590248	2492.850577
666.930922	2427.315577
667.271545	2593.673654
667.612118	2495.371154
667.952639	2538.220962
668.293109	2530.659231
668.633528	2472.685962
668.973896	2455.041923
669.314213	2518.056346
669.654480	2497.891731
669.994695	2515.535769
670.334859	2465.124231
670.674973	2447.480192
671.015035	2538.220962
671.355047	2452.521346
671.695008	2507.974038
672.034918	2477.727115
672.374777	2482.768269
672.714585	2472.685962
673.054342	2495.371154
673.394049	2553.344423
673.733705	2548.303269
674.073310	2570.988462
674.412864	2490.330000
674.752368	2462.603654
675.091820	2500.412308
675.431223	2497.891731
675.770574	2465.124231
676.109875	2439.918462
676.449125	2404.630385
676.788324	2490.330000
677.127473	2492.850577
677.466571	2558.385577
677.805619	2535.700385
678.144616	2447.480192
678.483562	2535.700385
678.822458	2470.165385
679.161303	2457.562500
679.500098	2628.961731
679.838842	2407.150962
680.177535	2523.097500
680.516179	2495.371154
680.854771	2507.974038
681.193314	2513.015192
681.531805	2523.097500
681.870247	2555.865000
682.208638	2371.862885
682.546978	2487.809423
682.885268	2480.247692
683.223508	2500.412308
683.561697	2518.056346
683.899836	2555.865000
684.237925	2482.768269
684.575963	2515.535769
684.913951	2475.206538
685.251889	2563.426731
685.589776	2513.015192
685.927614	2495.371154
686.265401	2482.768269
686.603137	2568.467885
686.940824	2465.124231
687.278460	2520.576923
687.616046	2472.685962
687.953582	2475.206538
688.291068	2507.974038
688.628504	2457.562500
688.965889	2399.589231
689.303224	2565.947308
689.640510	2467.644808
689.977745	2523.097500
690.314930	2432.356731
690.652065	2545.782692
690.989150	2487.809423
691.326185	2502.932885
691.663170	2495.371154
692.000105	2495.371154
692.336990	2548.303269
692.673825	2487.809423
693.010610	2480.247692
693.347345	2507.974038
693.684030	2507.974038
694.020665	2523.097500
694.357251	2447.480192
694.693786	2525.618077
695.030272	2502.932885
695.366707	2447.480192
695.703093	2450.000769
696.039429	2452.521346
696.375716	2402.109808
696.711952	2525.618077
697.048139	2407.150962
697.384276	2535.700385
697.720363	2460.083077
698.056400	2505.453462
698.392388	2462.603654
698.728326	2548.303269
699.064214	2528.138654
699.400053	2505.453462
699.735842	2472.685962
700.071581	2525.618077
700.407270	2513.015192
700.742910	2568.467885
701.078501	2417.233269
701.414042	2515.535769
701.749533	2538.220962
702.084974	2505.453462
702.420366	2487.809423
702.755709	2558.385577
703.091002	2492.850577
703.426246	2518.056346
703.761440	2462.603654
704.096584	2513.015192
704.431679	2392.027500
704.766725	2490.330000
705.101721	2462.603654
705.436668	2525.618077
705.771565	2460.083077
706.106413	2540.741538
706.441212	2535.700385
706.775961	2540.741538
707.110661	2513.015192
707.445311	2515.535769
707.779913	2510.494615
708.114465	2523.097500
708.448967	2475.206538
708.783421	2510.494615
709.117825	2487.809423
709.452180	2475.206538
709.786485	2545.782692
710.120742	2497.891731
710.454949	2570.988462
710.789107	2417.233269
711.123216	2502.932885
711.457275	2477.727115
711.791286	2482.768269
712.125247	2515.535769
712.459159	2528.138654
712.793023	2450.000769
713.126837	2487.809423
713.460602	2465.124231
713.794318	2477.727115
714.127985	2538.220962
714.461602	2555.865000
714.795171	2507.974038
715.128691	2417.233269
715.462162	2497.891731
715.795584	2467.644808
716.128957	2497.891731
716.462281	2492.850577
716.795556	2477.727115
717.128782	2513.015192
717.461960	2427.315577
717.795088	2412.192115
718.128167	2465.124231
718.461198	2432.356731
718.794180	2480.247692
719.127113	2452.521346
719.459997	2500.412308
719.792833	2447.480192
720.125619	2525.618077
720.458357	2424.795000
720.791046	2545.782692
721.123686	2550.823846
721.456278	2407.150962
721.788821	2528.138654
722.121315	2417.233269
722.453761	2386.986346
722.786158	2424.795000
723.118506	2518.056346
723.450805	2417.233269
723.783056	2533.179808
724.115259	2447.480192
724.447412	2492.850577
724.779518	2563.426731
725.111574	2543.262115
725.443582	2520.576923
725.775542	2543.262115
726.107453	2535.700385
726.439315	2520.576923
726.771129	2485.288846
727.102895	2500.412308
727.434612	2560.906154
727.766281	2492.850577
728.097901	2555.865000
728.429473	2482.768269
728.760996	2444.959615
729.092471	2596.194231
729.423897	2530.659231
729.755276	2447.480192
730.086606	2545.782692
730.417887	2528.138654
730.749120	2578.550192
731.080305	2490.330000
731.411442	2568.467885
731.742530	2502.932885
732.073570	2467.644808
732.404562	2482.768269
732.735506	2525.618077
733.066401	2417.233269
733.397249	2520.576923
733.728048	2588.632500
734.058798	2591.153077
734.389501	2533.179808
734.720156	2437.397885
735.050762	2490.330000
735.381320	2422.274423
735.711831	2525.618077
736.042293	2510.494615
736.372707	2507.974038
736.703073	2505.453462
737.033391	2495.371154
737.363661	2497.891731
737.693883	2530.659231
738.024056	2487.809423
738.354182	2502.932885
738.684260	2558.385577
739.014290	2502.932885
739.344272	2470.165385
739.674207	2573.509038
740.004093	2450.000769
740.333931	2507.974038
740.663722	2455.041923
740.993464	2485.288846
741.323159	2419.753846
741.652806	2505.453462
741.982405	2457.562500
742.311956	2507.974038
742.641460	2477.727115
742.970915	2545.782692
743.300323	2649.126346
743.629683	2543.262115
743.958996	2518.056346
744.288260	2502.932885
744.617477	2538.220962
744.946647	2472.685962
745.275768	2475.206538
745.604842	2533.179808
745.933869	2490.330000
746.262847	2482.768269
746.591778	2545.782692
746.920662	2573.509038
747.249498	2586.111923
747.578286	2490.330000
747.907027	2470.165385
748.235720	2422.274423
748.564365	2500.412308
748.892963	2447.480192
749.221514	2455.041923
749.550017	2450.000769
749.878473	2455.041923
750.206881	2545.782692
750.535242	2507.974038
750.863555	2472.685962
751.191821	2465.124231
751.520039	2462.603654
751.848210	2482.768269
752.176334	2492.850577
752.504411	2450.000769
752.832440	2513.015192
753.160421	2485.288846
753.488356	2419.753846
753.816243	2500.412308
754.144082	2455.041923
754.471875	2520.576923
754.799620	2472.685962
755.127318	2455.041923
755.454969	2570.988462
755.782572	2518.056346
756.110129	2520.576923
756.437638	2490.330000
756.765100	2487.809423
757.092515	2424.795000
757.419882	2497.891731
757.747203	2470.165385
758.074477	2530.659231
758.401703	2477.727115
758.728882	2462.603654
759.056014	2467.644808
759.383099	2510.494615
759.710138	2545.782692
760.037129	2528.138654
760.364073	2520.576923
760.690970	2578.550192
761.017820	2545.782692
761.344623	2528.138654
761.671379	2588.632500
761.998088	2495.371154
762.324751	2487.809423
762.651366	2497.891731
762.977935	2583.591346
763.304456	2502.932885
763.630931	2507.974038
763.957359	2548.303269
764.283740	2523.097500
764.610074	2480.247692
764.936362	2520.576923
765.262602	2472.685962
765.588796	2457.562500
765.914943	2505.453462
766.241044	2510.494615
766.567097	2460.083077
766.893104	2530.659231
767.219064	2457.562500
767.544978	2437.397885
767.870845	2475.206538
768.196665	2586.111923
768.522438	2530.659231
768.848165	2507.974038
769.173846	2457.562500
769.499479	2528.138654
769.825066	2447.480192
770.150607	2520.576923
770.476101	2482.768269
770.801548	2507.974038
771.126949	2513.015192
771.452303	2467.644808
771.777611	2429.836154
772.102872	2570.988462
772.428087	2467.644808
772.753256	2520.576923
773.078378	2472.685962
773.403453	2515.535769
773.728482	2490.330000
774.053465	2533.179808
774.378401	2510.494615
774.703291	2470.165385
775.028135	2432.356731
775.352932	2515.535769
775.677683	2550.823846
776.002388	2515.535769
776.327046	2465.124231
776.651658	2550.823846
776.976224	2518.056346
777.300743	2450.000769
777.625216	2452.521346
777.949643	2366.821731
778.274024	2455.041923
778.598359	2553.344423
778.922647	2480.247692
779.246889	2394.548077
779.571086	2417.233269
779.895236	2528.138654
780.219339	2414.712692
780.543397	2414.712692
780.867409	2518.056346
781.191374	2477.727115
781.515294	2502.932885
781.839167	2558.385577
782.162995	2487.809423
782.486776	2583.591346
782.810511	2528.138654
783.134201	2450.000769
783.457844	2487.809423
783.781441	2558.385577
784.104993	2495.371154
784.428498	2492.850577
784.751958	2495.371154
785.075372	2467.644808
785.398739	2462.603654
785.722061	2447.480192
786.045337	2470.165385
786.368568	2407.150962
786.691752	2563.426731
787.014891	2540.741538
787.337983	2558.385577
787.661030	2475.206538
787.984031	2518.056346
788.306987	2444.959615
788.629897	2439.918462
788.952760	2548.303269
789.275579	2568.467885
789.598351	2447.480192
789.921078	2457.562500
790.243759	2510.494615
790.566395	2442.439038
790.888984	2427.315577
791.211529	2492.850577
791.534027	2482.768269
791.856480	2565.947308
792.178888	2444.959615
792.501249	2477.727115
792.823566	2444.959615
793.145836	2591.153077
793.468062	2442.439038
793.790241	2402.109808
794.112375	2507.974038
794.434464	2487.809423
794.756507	2500.412308
795.078505	2470.165385
795.400457	2555.865000
795.722364	2533.179808
796.044226	2477.727115
796.366042	2384.465769
796.687812	2500.412308
797.009538	2447.480192
797.331218	2490.330000
797.652852	2523.097500
797.974442	2568.467885
798.295986	2444.959615
798.617484	2598.714808
798.938938	2475.206538
799.260346	2520.576923
799.581709	2502.932885
799.903026	2507.974038
800.224299	2573.509038
800.545526	2452.521346
800.866708	2470.165385
801.187845	2480.247692
801.508936	2381.945192
801.829983	2495.371154
802.150984	2540.741538
802.471940	2485.288846
802.792851	2495.371154
803.113717	2460.083077
803.434538	2528.138654
803.755314	2535.700385
804.076045	2487.809423
804.396731	2533.179808
804.717372	2434.877308
805.037967	2467.644808
805.358518	2513.015192
805.679024	2513.015192
805.999485	2434.877308
806.319901	2502.932885
806.640272	2492.850577
806.960598	2515.535769
807.280879	2455.041923
807.601115	2548.303269
807.921306	2450.000769
808.241453	2485.288846
808.561554	2507.974038
808.881611	2452.521346
809.201623	2457.562500
809.521590	2439.918462
809.841513	2497.891731
810.161390	2507.974038
810.481223	2485.288846
810.801011	2467.644808
811.120755	2460.083077
811.440453	2523.097500
811.760107	2447.480192
812.079716	2558.385577
812.399281	2497.891731
812.718801	2560.906154
813.038276	2465.124231
813.357707	2507.974038
813.677093	2487.809423
813.996434	2477.727115
814.315731	2439.918462
814.634983	2543.262115
814.954191	2482.768269
815.273354	2538.220962
815.592473	2467.644808
815.911547	2535.700385
816.230577	2475.206538
816.549562	2450.000769
816.868502	2371.862885
817.187399	2477.727115
817.506250	2492.850577
817.825058	2568.467885
818.143821	2520.576923
818.462539	2470.165385
818.781213	2457.562500
819.099843	2500.412308
819.418429	2432.356731
819.736970	2429.836154
820.055466	2475.206538
820.373919	2548.303269
820.692327	2500.412308
821.010691	2515.535769
821.329011	2470.165385
821.647286	2442.439038
821.965517	2392.027500
822.283704	2500.412308
822.601847	2502.932885
822.919945	2500.412308
823.237999	2455.041923
823.556010	2530.659231
823.873976	2520.576923
824.191897	2535.700385
824.509775	2535.700385
824.827609	2482.768269
825.145398	2450.000769
825.463144	2545.782692
825.780845	2487.809423
826.098502	2507.974038
826.416116	2515.535769
826.733685	2530.659231
827.051210	2452.521346
827.368692	2523.097500
827.686129	2497.891731
828.003522	2497.891731
828.320872	2450.000769
828.638177	2515.535769
828.955439	2470.165385
829.272656	2497.891731
829.589830	2457.562500
829.906960	2525.618077
830.224046	2513.015192
830.541088	2495.371154
830.858086	2548.303269
831.175041	2477.727115
831.491952	2553.344423
831.808819	2485.288846
832.125642	2563.426731
832.442421	2457.562500
832.759157	2472.685962
833.075849	2470.165385
833.392497	2568.467885
833.709101	2450.000769
834.025662	2513.015192
834.342179	2530.659231
834.658653	2450.000769
834.975083	2513.015192
835.291469	2444.959615
835.607811	2485.288846
835.924110	2429.836154
836.240366	2591.153077
836.556578	2525.618077
836.872746	2533.179808
837.188871	2533.179808
837.504952	2515.535769
837.820990	2505.453462
838.136984	2432.356731
838.452935	2500.412308
838.768842	2525.618077
839.084706	2502.932885
839.400526	2462.603654
839.716303	2560.906154
840.032037	2465.124231
840.347727	2487.809423
840.663373	2475.206538
840.978977	2515.535769
841.294537	2490.330000
841.610054	2507.974038
841.925527	2518.056346
842.240957	2482.768269
842.556344	2513.015192
842.871687	2485.288846
843.186987	2553.344423
843.502244	2447.480192
843.817458	2555.865000
844.132629	2455.041923
844.447756	2487.809423
844.762840	2450.000769
845.077881	2477.727115
845.392879	2492.850577
845.707833	2467.644808
846.022745	2487.809423
846.337613	2424.795000
846.652438	2563.426731
846.967221	2460.083077
847.281960	2492.850577
847.596656	2422.274423
847.911309	2457.562500
848.225919	2560.906154
848.540485	2455.041923
848.855009	2344.136538
849.169490	2545.782692
849.483928	2412.192115
849.798323	2465.124231
850.112675	2578.550192
850.426984	2583.591346
850.741251	2467.644808
851.055474	2520.576923
851.369654	2497.891731
851.683792	2492.850577
851.997887	2545.782692
852.311938	2422.274423
852.625947	2470.165385
852.939914	2568.467885
853.253837	2439.918462
853.567718	2482.768269
853.881555	2470.165385
854.195350	2510.494615
854.509103	2437.397885
854.822812	2450.000769
855.136479	2414.712692
855.450103	2500.412308
855.763685	2505.453462
856.077224	2472.685962
856.390720	2500.412308
856.704173	2437.397885
857.017584	2424.795000
857.330953	2477.727115
857.644278	2495.371154
857.957561	2520.576923
858.270802	2432.356731
858.584000	2502.932885
858.897155	2452.521346
859.210268	2543.262115
859.523339	2384.465769
859.836367	2515.535769
860.149352	2495.371154
860.462295	2434.877308
860.775195	2439.918462
861.088054	2477.727115
861.400869	2462.603654
861.713642	2487.809423
862.026373	2513.015192
862.339062	2480.247692
862.651708	2472.685962
862.964312	2480.247692
863.276873	2467.644808
863.589392	2414.712692
863.901869	2480.247692
864.214303	2560.906154
864.526696	2465.124231
864.839045	2543.262115
865.151353	2402.109808
865.463619	2470.165385
865.775842	2525.618077
866.088023	2538.220962
866.400162	2490.330000
866.712258	2601.235385
867.024313	2460.083077
867.336325	2457.562500
867.648296	2533.179808
867.960224	2455.041923
868.272110	2510.494615
868.583954	2490.330000
868.895755	2543.262115
869.207515	2434.877308
869.519233	2422.274423
869.830909	2565.947308
870.142542	2470.165385
870.454134	2591.153077
870.765684	2507.974038
871.077191	2480.247692
871.388657	2548.303269
871.700081	2485.288846
872.011463	2424.795000
872.322803	2462.603654
872.634101	2439.918462
872.945357	2502.932885
873.256571	2427.315577
873.567744	2452.521346
873.878874	2450.000769
874.189963	2460.083077
874.501010	2515.535769
874.812015	2502.932885
875.122979	2550.823846
875.433900	2505.453462
875.744780	2550.823846
876.055618	2412.192115
876.366415	2525.618077
876.677169	2399.589231
876.987882	2573.509038
877.298554	2485.288846
877.609183	2515.535769
877.919771	2407.150962
878.230317	2470.165385
878.540822	2465.124231
878.851285	2472.685962
879.161707	2472.685962
879.472087	2452.521346
879.782425	2520.576923
880.092722	2442.439038
880.402977	2475.206538
880.713191	2525.618077
881.023363	2510.494615
881.333494	2429.836154
881.643583	2535.700385
881.953631	2548.303269
882.263637	2518.056346
882.573602	2475.206538
882.883526	2475.206538
883.193408	2386.986346
883.503248	2356.739423
883.813048	2558.385577
884.122806	2497.891731
884.432522	2533.179808
884.742197	2523.097500
885.051831	2482.768269
885.361424	2518.056346
885.670975	2462.603654
885.980485	2505.453462
886.289954	2450.000769
886.599382	2465.124231
886.908768	2518.056346
887.218113	2500.412308
887.527417	2462.603654
887.836680	2505.453462
888.145901	2513.015192
888.455082	2437.397885
888.764221	2480.247692
889.073319	2581.070769
889.382376	2497.891731
889.691392	2525.618077
890.000366	2548.303269
890.309300	2505.453462
890.618193	2485.288846
890.927044	2447.480192
891.235855	2422.274423
891.544625	2482.768269
891.853353	2482.768269
892.162041	2422.274423
892.470687	2447.480192
892.779293	2429.836154
893.087858	2530.659231
893.396381	2470.165385
893.704864	2525.618077
894.013306	2477.727115
894.321707	2490.330000
894.630068	2434.877308
894.938387	2505.453462
895.246665	2492.850577
895.554903	2422.274423
895.863100	2434.877308
896.171256	2467.644808
896.479371	2513.015192
896.787446	2439.918462
897.095480	2455.041923
897.403473	2558.385577
897.711425	2507.974038
898.019336	2490.330000
898.327207	2450.000769
898.635038	2482.768269
898.942827	2548.303269
899.250576	2462.603654
899.558284	2576.029615
899.865952	2515.535769
900.173579	2550.823846
900.481165	2523.097500
900.788711	2510.494615
901.096216	2538.220962
901.403681	2568.467885
901.711105	2555.865000
902.018489	2404.630385
902.325832	2550.823846
902.633135	2437.397885
902.940397	2533.179808
903.247619	2497.891731
903.554800	2482.768269
903.861941	2565.947308
904.169041	2502.932885
904.476101	2530.659231
904.783121	2432.356731
905.090100	2550.823846
905.397039	2432.356731
905.703938	2470.165385
906.010796	2444.959615
906.317614	2530.659231
906.624391	2475.206538
906.931129	2636.523462
907.237826	2429.836154
907.544483	2462.603654
907.851099	2490.330000
908.157675	2472.685962
908.464211	2523.097500
908.770707	2505.453462
909.077163	2601.235385
909.383578	2555.865000
909.689954	2490.330000
909.996289	2520.576923
910.302584	2513.015192
910.608839	2419.753846
910.915054	2482.768269
911.221229	2505.453462
911.527363	2500.412308
911.833458	2424.795000
912.139513	2505.453462
912.445527	2424.795000
912.751502	2361.780577
913.057436	2545.782692
913.363331	2422.274423
913.669186	2518.056346
913.975000	2457.562500
914.280775	2520.576923
914.586510	2472.685962
914.892205	2495.371154
915.197859	2518.056346
915.503475	2472.685962
915.809050	2414.712692
916.114585	2570.988462
916.420081	2482.768269
916.725536	2538.220962
917.030952	2409.671538
917.336328	2518.056346
917.641665	2455.041923
917.946961	2490.330000
918.252218	2487.809423
918.557435	2429.836154
918.862612	2538.220962
919.167750	2472.685962
919.472848	2510.494615
919.777906	2447.480192
920.082925	2379.424615
920.387904	2502.932885
920.692843	2424.795000
920.997743	2555.865000
921.302603	2513.015192
921.607423	2525.618077
921.912204	2581.070769
922.216946	2497.891731
922.521647	2487.809423
922.826310	2530.659231
923.130932	2447.480192
923.435516	2444.959615
923.740059	2437.397885
924.044564	2513.015192
924.349028	2485.288846
924.653454	2487.809423
924.957840	2578.550192
925.262186	2513.015192
925.566493	2490.330000
925.870761	2482.768269
926.174989	2487.809423
926.479178	2507.974038
926.783328	2505.453462
927.087438	2565.947308
927.391509	2545.782692
927.695541	2583.591346
927.999533	2538.220962
928.303486	2457.562500
928.607400	2432.356731
928.911275	2573.509038
929.215110	2465.124231
929.518906	2467.644808
929.822663	2518.056346
930.126381	2515.535769
930.430060	2550.823846
930.733699	2523.097500
931.037299	2598.714808
931.340861	2507.974038
931.644383	2482.768269
931.947866	2419.753846
932.251309	2460.083077
932.554714	2573.509038
932.858080	2482.768269
933.161407	2429.836154
933.464694	2490.330000
933.767943	2596.194231
934.071153	2555.865000
934.374323	2480.247692
934.677455	2555.865000
934.980548	2515.535769
935.283602	2518.056346
935.586617	2543.262115
935.889593	2545.782692
936.192530	2472.685962
936.495428	2513.015192
936.798287	2548.303269
937.101108	2480.247692
937.403890	2513.015192
937.706632	2515.535769
938.009336	2520.576923
938.312002	2457.562500
938.614628	2500.412308
938.917216	2429.836154
939.219765	2518.056346
939.522275	2394.548077
939.824747	2528.138654
940.127179	2535.700385
940.429573	2560.906154
940.731929	2462.603654
941.034246	2497.891731
941.336524	2507.974038
941.638763	2518.056346
941.940964	2429.836154
942.243126	2490.330000
942.545250	2538.220962
942.847335	2472.685962
943.149381	2467.644808
943.451389	2495.371154
943.753359	2465.124231
944.055290	2528.138654
944.357182	2444.959615
944.659036	2518.056346
944.960851	2422.274423
945.262628	2492.850577
945.564367	2467.644808
945.866067	2457.562500
946.167729	2513.015192
946.469352	2490.330000
946.770937	2485.288846
947.072484	2492.850577
947.373992	2462.603654
947.675462	2444.959615
947.976893	2500.412308
948.278286	2462.603654
948.579641	2520.576923
948.880958	2530.659231
949.182236	2477.727115
949.483476	2515.535769
949.784678	2540.741538
950.085841	2495.371154
950.386967	2591.153077
950.688054	2568.467885
950.989103	2518.056346
951.290114	2495.371154
951.591087	2543.262115
951.892021	2591.153077
952.192917	2538.220962
952.493776	2513.015192
952.794596	2437.397885
953.095378	2530.659231
953.396122	2465.124231
953.696828	2568.467885
953.997496	2434.877308
954.298126	2548.303269
954.598718	2424.795000
954.899272	2538.220962
955.199788	2412.192115
955.500266	2507.974038
955.800706	2513.015192
956.101108	2422.274423
956.401472	2477.727115
956.701798	2505.453462
957.002087	2472.685962
957.302337	2550.823846
957.602550	2525.618077
957.902724	2553.344423
958.202861	2482.768269
958.502960	2490.330000
958.803022	2444.959615
959.103045	2467.644808
959.403031	2460.083077
959.702979	2560.906154
960.002889	2500.412308
960.302762	2457.562500
960.602596	2533.179808
960.902393	2505.453462
961.202153	2394.548077
961.501875	2455.041923
961.801559	2432.356731
962.101205	2555.865000
962.400814	2472.685962
962.700385	2467.644808
962.999918	2518.056346
963.299414	2450.000769
963.598873	2447.480192
963.898293	2470.165385
964.197677	2548.303269
964.497022	2558.385577
964.796331	2565.947308
965.095601	2452.521346
965.394835	2520.576923
965.694030	2442.439038
965.993189	2477.727115
966.292309	2492.850577
966.591393	2450.000769
966.890439	2530.659231
967.189447	2434.877308
967.488419	2502.932885
967.787353	2465.124231
968.086249	2480.247692
968.385108	2480.247692
968.683930	2507.974038
968.982714	2460.083077
969.281462	2321.451346
969.580172	2545.782692
969.878844	2515.535769
970.177480	2558.385577
970.476078	2560.906154
970.774639	2460.083077
971.073162	2487.809423
971.371649	2422.274423
971.670098	2432.356731
971.968510	2500.412308
972.266885	2359.260000
972.565223	2502.932885
972.863524	2525.618077
973.161788	2414.712692
973.460014	2510.494615
973.758204	2480.247692
974.056356	2444.959615
974.354471	2543.262115
974.652550	2513.015192
974.950591	2485.288846
975.248595	2404.630385
975.546563	2507.974038
975.844493	2485.288846
976.142386	2455.041923
976.440243	2432.356731
976.738062	2432.356731
977.035845	2452.521346
977.333590	2523.097500
977.631299	2568.467885
977.928971	2545.782692
978.226606	2444.959615
978.524204	2570.988462
978.821765	2495.371154
979.119290	2467.644808
979.416777	2442.439038
979.714228	2462.603654
980.011642	2535.700385
980.309020	2462.603654
980.606360	2507.974038
980.903664	2444.959615
981.200931	2455.041923
981.498162	2507.974038
981.795356	2450.000769
982.092513	2452.521346
982.389633	2578.550192
982.686717	2548.303269
982.983764	2523.097500
983.280775	2480.247692
983.577749	2399.589231
983.874686	2497.891731
984.171587	2593.673654
984.468451	2530.659231
984.765279	2450.000769
985.062070	2490.330000
985.358824	2427.315577
985.655543	2515.535769
985.952224	2495.371154
986.248869	2490.330000
986.545478	2495.371154
986.842050	2507.974038
987.138586	2412.192115
987.435086	2457.562500
987.731549	2439.918462
988.027975	2437.397885
988.324366	2553.344423
988.620719	2490.330000
988.917037	2507.974038
989.213318	2450.000769
989.509563	2507.974038
989.805772	2510.494615
990.101944	2550.823846
990.398080	2482.768269
990.694180	2545.782692
990.990244	2487.809423
991.286271	2490.330000
991.582262	2424.795000
991.878217	2560.906154
992.174136	2452.521346
992.470019	2462.603654
992.765865	2510.494615
993.061676	2477.727115
993.357450	2515.535769
993.653188	2424.795000
993.948890	2495.371154
994.244556	2470.165385
994.540186	2452.521346
994.835780	2442.439038
995.131337	2457.562500
995.426859	2467.644808
995.722345	2475.206538
996.017795	2500.412308
996.313208	2530.659231
996.608586	2538.220962
996.903928	2432.356731
997.199234	2381.945192
997.494504	2540.741538
997.789738	2465.124231
998.084936	2558.385577
998.380099	2429.836154
998.675225	2565.947308
998.970316	2450.000769
999.265371	2477.727115
999.560390	2472.685962
999.855373	2520.576923
1000.150320	2482.768269
1000.445232	2444.959615
1000.740108	2513.015192
1001.034948	2570.988462
1001.329752	2490.330000
1001.624521	2591.153077
1001.919254	2422.274423
1002.213951	2480.247692
1002.508613	2450.000769
1002.803239	2581.070769
1003.097829	2455.041923
1003.392384	2535.700385
1003.686903	2455.041923
1003.981386	2450.000769
1004.275834	2470.165385
1004.570246	2462.603654
1004.864623	2507.974038
1005.158964	2427.315577
1005.453270	2419.753846
1005.747540	2490.330000
1006.041775	2570.988462
1006.335974	2417.233269
1006.630138	2502.932885
1006.924266	2560.906154
1007.218359	2505.453462
1007.512416	2404.630385
1007.806438	2533.179808
1008.100425	2535.700385
1008.394376	2505.453462
1008.688292	2507.974038
1008.982172	2467.644808
1009.276017	2465.124231
1009.569827	2523.097500
1009.863602	2533.179808
1010.157341	2482.768269
1010.451045	2442.439038
1010.744714	2533.179808
1011.038347	2520.576923
1011.331945	2429.836154
1011.625508	2439.918462
1011.919036	2535.700385
1012.212528	2570.988462
1012.505986	2480.247692
1012.799408	2540.741538
1013.092795	2525.618077
1013.386147	2437.397885
1013.679464	2475.206538
1013.972745	2460.083077
1014.265992	2545.782692
1014.559204	2487.809423
1014.852380	2376.904038
1015.145521	2442.439038
1015.438628	2485.288846
1015.731699	2507.974038
1016.024736	2331.533654
1016.317737	2553.344423
1016.610703	2470.165385
1016.903635	2497.891731
1017.196531	2518.056346
1017.489393	2515.535769
1017.782219	2424.795000
1018.075011	2465.124231
1018.367768	2583.591346
1018.660490	2447.480192
1018.953177	2447.480192
1019.245829	2447.480192
