Dividing Wavelength (nm)	Counts (n)	Blue Motor Position (mm): 0.000000	Red Motor Position (mm): 3.100000	
326.493990	2134.928654
326.888308	2134.928654
327.282561	2134.928654
327.676750	2049.229038
328.070874	2024.023269
328.464933	2024.023269
328.858929	2064.352500
329.252859	2056.790769
329.646726	2112.243462
330.040528	2089.558269
330.434265	2129.887500
330.827938	2124.846346
331.221547	2127.366923
331.615091	2160.134423
332.008571	2192.901923
332.401986	2223.148846
332.795338	2230.710577
333.188625	2273.560385
333.581847	2334.054231
333.975006	2296.245577
334.368100	2286.163269
334.761129	2213.066538
335.154095	2336.574808
335.546996	2316.410192
335.939833	2392.027500
336.332606	2371.862885
336.725315	2376.904038
337.117960	2381.945192
337.510540	2462.603654
337.903056	2419.753846
338.295508	2424.795000
338.687896	2412.192115
339.080220	2434.877308
339.472480	2475.206538
339.864676	2394.548077
340.256807	2568.467885
340.648875	2475.206538
341.040879	2523.097500
341.432818	2518.056346
341.824694	2467.644808
342.216506	2447.480192
342.608253	2472.685962
342.999937	2434.877308
343.391557	2507.974038
343.783113	2467.644808
344.174605	2427.315577
344.566033	2429.836154
344.957397	2523.097500
345.348697	2447.480192
345.739934	2487.809423
346.131106	2477.727115
346.522215	2520.576923
346.913260	2439.918462
347.304241	2457.562500
347.695159	2452.521346
348.086012	2427.315577
348.476802	2409.671538
348.867528	2465.124231
349.258191	2407.150962
349.648789	2419.753846
350.039324	2487.809423
350.429796	2455.041923
350.820203	2472.685962
351.210548	2442.439038
351.600828	2384.465769
351.991045	2518.056346
352.381198	2392.027500
352.771288	2434.877308
353.161314	2490.330000
353.551276	2452.521346
353.941175	2538.220962
354.331010	2419.753846
354.720782	2442.439038
355.110490	2450.000769
355.500135	2439.918462
355.889717	2407.150962
356.279235	2354.218846
356.668689	2480.247692
357.058080	2439.918462
357.447408	2510.494615
357.836672	2407.150962
358.225873	2427.315577
358.615010	2475.206538
359.004084	2465.124231
359.393095	2404.630385
359.782043	2472.685962
360.170927	2407.150962
360.559748	2442.439038
360.948505	2457.562500
361.337199	2386.986346
361.725830	2470.165385
362.114398	2507.974038
362.502903	2525.618077
362.891344	2437.397885
363.279722	2366.821731
363.668037	2490.330000
364.056289	2497.891731
364.444478	2482.768269
364.832603	2412.192115
365.220665	2417.233269
365.608665	2510.494615
365.996601	2502.932885
366.384474	2480.247692
366.772284	2439.918462
367.160031	2422.274423
367.547715	2495.371154
367.935336	2455.041923
368.322893	2530.659231
368.710388	2434.877308
369.097820	2470.165385
369.485189	2472.685962
369.872495	2407.150962
370.259738	2475.206538
370.646918	2447.480192
371.034035	2444.959615
371.421090	2500.412308
371.808081	2518.056346
372.195010	2432.356731
372.581875	2558.385577
372.968678	2432.356731
373.355418	2414.712692
373.742096	2457.562500
374.128710	2475.206538
374.515262	2548.303269
374.901751	2439.918462
375.288177	2467.644808
375.674540	2477.727115
376.060841	2402.109808
376.447079	2502.932885
376.833254	2465.124231
377.219367	2346.657115
377.605417	2371.862885
377.991404	2394.548077
378.377329	2424.795000
378.763191	2351.698269
379.148991	2492.850577
379.534727	2485.288846
379.920402	2553.344423
380.306013	2417.233269
380.691563	2429.836154
381.077049	2460.083077
381.462474	2502.932885
381.847835	2540.741538
382.233134	2487.809423
382.618371	2389.506923
383.003545	2505.453462
383.388657	2419.753846
383.773706	2414.712692
384.158693	2417.233269
384.543618	2444.959615
384.928480	2482.768269
385.313280	2444.959615
385.698017	2392.027500
386.082692	2457.562500
386.467305	2427.315577
386.851856	2515.535769
387.236344	2366.821731
387.620770	2490.330000
388.005133	2397.068654
388.389435	2397.068654
388.773674	2502.932885
389.157851	2402.109808
389.541965	2505.453462
389.926018	2452.521346
390.310008	2407.150962
390.693936	2470.165385
391.077802	2444.959615
391.461606	2533.179808
391.845348	2450.000769
392.229027	2482.768269
392.612645	2495.371154
392.996200	2513.015192
393.379694	2530.659231
393.763125	2495.371154
394.146494	2419.753846
394.529801	2442.439038
394.913047	2394.548077
395.296230	2510.494615
395.679351	2507.974038
396.062410	2510.494615
396.445408	2384.465769
396.828343	2457.562500
397.211217	2525.618077
397.594028	2422.274423
397.976778	2505.453462
398.359466	2548.303269
398.742092	2482.768269
399.124656	2482.768269
399.507158	2450.000769
399.889598	2502.932885
400.271977	2477.727115
400.654294	2510.494615
401.036549	2510.494615
401.418742	2444.959615
401.800874	2475.206538
402.182944	2487.809423
402.564952	2485.288846
402.946898	2465.124231
403.328783	2538.220962
403.710606	2417.233269
404.092367	2553.344423
404.474067	2553.344423
404.855705	2513.015192
405.237282	2457.562500
405.618797	2502.932885
406.000250	2439.918462
406.381642	2455.041923
406.762972	2404.630385
407.144240	2497.891731
407.525447	2490.330000
407.906593	2480.247692
408.287677	2518.056346
408.668700	2452.521346
409.049661	2497.891731
409.430560	2444.959615
409.811399	2444.959615
410.192176	2392.027500
410.572891	2399.589231
410.953545	2437.397885
411.334138	2427.315577
411.714669	2518.056346
412.095139	2434.877308
412.475547	2439.918462
412.855894	2583.591346
413.236180	2422.274423
413.616405	2472.685962
413.996568	2447.480192
414.376670	2495.371154
414.756711	2444.959615
415.136691	2439.918462
415.516609	2470.165385
415.896466	2543.262115
416.276262	2462.603654
416.655997	2467.644808
417.035670	2505.453462
417.415283	2450.000769
417.794834	2505.453462
418.174324	2490.330000
418.553753	2482.768269
418.933121	2543.262115
419.312428	2404.630385
419.691674	2523.097500
420.070859	2510.494615
420.449983	2515.535769
420.829045	2480.247692
421.208047	2553.344423
421.586988	2470.165385
421.965867	2485.288846
422.344686	2513.015192
422.723444	2530.659231
423.102141	2450.000769
423.480777	2490.330000
423.859352	2482.768269
424.237866	2520.576923
424.616319	2444.959615
424.994712	2490.330000
425.373044	2480.247692
425.751314	2505.453462
426.129524	2505.453462
426.507673	2513.015192
426.885762	2485.288846
427.263789	2480.247692
427.641756	2472.685962
428.019662	2558.385577
428.397508	2495.371154
428.775292	2568.467885
429.153016	2434.877308
429.530679	2455.041923
429.908282	2472.685962
430.285824	2553.344423
430.663305	2477.727115
431.040726	2528.138654
431.418086	2422.274423
431.795385	2545.782692
432.172624	2485.288846
432.549802	2568.467885
432.926920	2432.356731
433.303977	2495.371154
433.680974	2437.397885
434.057910	2477.727115
434.434786	2472.685962
434.811601	2475.206538
435.188355	2487.809423
435.565050	2523.097500
435.941683	2608.797115
436.318257	2475.206538
436.694770	2482.768269
437.071222	2452.521346
437.447614	2485.288846
437.823946	2497.891731
438.200218	2472.685962
438.576429	2369.342308
438.952580	2475.206538
439.328670	2513.015192
439.704700	2528.138654
440.080670	2565.947308
440.456580	2505.453462
440.832429	2513.015192
441.208218	2520.576923
441.583947	2518.056346
441.959616	2457.562500
442.335224	2412.192115
442.710773	2550.823846
443.086261	2515.535769
443.461689	2487.809423
443.837057	2588.632500
444.212365	2455.041923
444.587612	2485.288846
444.962800	2538.220962
445.337927	2482.768269
445.712995	2447.480192
446.088002	2482.768269
446.462949	2507.974038
446.837837	2432.356731
447.212664	2495.371154
447.587431	2518.056346
447.962139	2510.494615
448.336786	2467.644808
448.711374	2540.741538
449.085901	2422.274423
449.460369	2482.768269
449.834776	2465.124231
450.209124	2482.768269
450.583412	2495.371154
450.957640	2470.165385
451.331808	2465.124231
451.705917	2472.685962
452.079965	2450.000769
452.453954	2507.974038
452.827883	2495.371154
453.201752	2487.809423
453.575562	2470.165385
453.949311	2465.124231
454.323001	2523.097500
454.696632	2492.850577
455.070202	2462.603654
455.443713	2480.247692
455.817164	2477.727115
456.190556	2576.029615
456.563888	2455.041923
456.937160	2460.083077
457.310373	2555.865000
457.683526	2553.344423
458.056619	2432.356731
458.429653	2447.480192
458.802628	2439.918462
459.175542	2502.932885
459.548398	2550.823846
459.921194	2450.000769
460.293930	2558.385577
460.666607	2444.959615
461.039224	2480.247692
461.411782	2510.494615
461.784280	2490.330000
462.156719	2477.727115
462.529099	2472.685962
462.901419	2455.041923
463.273680	2490.330000
463.645882	2505.453462
464.018024	2492.850577
464.390106	2550.823846
464.762130	2533.179808
465.134094	2480.247692
465.505999	2447.480192
465.877845	2530.659231
466.249631	2515.535769
466.621358	2475.206538
466.993026	2465.124231
467.364634	2487.809423
467.736184	2500.412308
468.107674	2497.891731
468.479105	2523.097500
468.850477	2482.768269
469.221790	2497.891731
469.593043	2530.659231
469.964238	2553.344423
470.335373	2500.412308
470.706449	2485.288846
471.077467	2583.591346
471.448425	2439.918462
471.819324	2460.083077
472.190164	2460.083077
472.560945	2528.138654
472.931667	2490.330000
473.302330	2505.453462
473.672934	2429.836154
474.043479	2515.535769
474.413965	2472.685962
474.784393	2495.371154
475.154761	2563.426731
475.525070	2606.276538
475.895321	2533.179808
476.265513	2485.288846
476.635645	2563.426731
477.005719	2485.288846
477.375734	2497.891731
477.745691	2485.288846
478.115588	2507.974038
478.485427	2560.906154
478.855207	2523.097500
479.224928	2487.809423
479.594591	2538.220962
479.964194	2553.344423
480.333739	2475.206538
480.703226	2359.260000
481.072653	2558.385577
481.442022	2371.862885
481.811333	2460.083077
482.180584	2492.850577
482.549777	2460.083077
482.918912	2462.603654
483.287988	2480.247692
483.657005	2409.671538
484.025964	2550.823846
484.394864	2500.412308
484.763706	2480.247692
485.132489	2480.247692
485.501213	2414.712692
485.869879	2480.247692
486.238487	2455.041923
486.607036	2470.165385
486.975527	2581.070769
487.343959	2538.220962
487.712333	2460.083077
488.080648	2538.220962
488.448905	2515.535769
488.817104	2530.659231
489.185244	2482.768269
489.553326	2601.235385
489.921350	2528.138654
490.289315	2523.097500
490.657222	2545.782692
491.025070	2555.865000
491.392861	2434.877308
491.760593	2568.467885
492.128267	2475.206538
492.495883	2518.056346
492.863440	2417.233269
493.230939	2477.727115
493.598380	2452.521346
493.965763	2507.974038
494.333088	2472.685962
494.700354	2452.521346
495.067563	2477.727115
495.434713	2525.618077
495.801805	2538.220962
496.168839	2570.988462
496.535815	2475.206538
496.902733	2457.562500
497.269593	2462.603654
497.636395	2563.426731
498.003139	2480.247692
498.369825	2437.397885
498.736453	2533.179808
499.103023	2455.041923
499.469535	2490.330000
499.835989	2414.712692
500.202385	2497.891731
500.568723	2535.700385
500.935003	2417.233269
501.301226	2424.795000
501.667390	2462.603654
502.033497	2507.974038
502.399546	2472.685962
502.765537	2528.138654
503.131470	2497.891731
503.497345	2560.906154
503.863163	2472.685962
504.228923	2470.165385
504.594625	2487.809423
504.960269	2457.562500
505.325856	2545.782692
505.691385	2439.918462
506.056856	2530.659231
506.422270	2452.521346
506.787625	2518.056346
507.152924	2492.850577
507.518164	2490.330000
507.883347	2450.000769
508.248472	2495.371154
508.613540	2452.521346
508.978550	2525.618077
509.343503	2525.618077
509.708398	2510.494615
510.073236	2477.727115
510.438016	2480.247692
510.802738	2472.685962
511.167403	2417.233269
511.532010	2404.630385
511.896561	2513.015192
512.261053	2540.741538
512.625488	2480.247692
512.989866	2523.097500
513.354186	2502.932885
513.718449	2450.000769
514.082655	2540.741538
514.446803	2480.247692
514.810894	2530.659231
515.174927	2414.712692
515.538904	2465.124231
515.902822	2490.330000
516.266684	2470.165385
516.630488	2535.700385
516.994235	2502.932885
517.357925	2528.138654
517.721558	2525.618077
518.085133	2434.877308
518.448651	2452.521346
518.812112	2475.206538
519.175516	2538.220962
519.538863	2502.932885
519.902152	2467.644808
520.265385	2540.741538
520.628560	2533.179808
520.991678	2447.480192
521.354739	2596.194231
521.717743	2407.150962
522.080690	2545.782692
522.443580	2495.371154
522.806413	2457.562500
523.169189	2472.685962
523.531908	2492.850577
523.894569	2497.891731
524.257174	2533.179808
524.619722	2618.879423
524.982213	2495.371154
525.344647	2530.659231
525.707025	2518.056346
526.069345	2510.494615
526.431608	2502.932885
526.793815	2618.879423
527.155964	2495.371154
527.518057	2457.562500
527.880093	2545.782692
528.242072	2490.330000
528.603995	2457.562500
528.965860	2477.727115
529.327669	2482.768269
529.689421	2563.426731
530.051117	2414.712692
530.412755	2487.809423
530.774337	2497.891731
531.135862	2470.165385
531.497331	2450.000769
531.858743	2568.467885
532.220098	2427.315577
532.581396	2593.673654
532.942638	2576.029615
533.303824	2565.947308
533.664953	2487.809423
534.026025	2482.768269
534.387040	2515.535769
534.747999	2518.056346
535.108902	2502.932885
535.469748	2513.015192
535.830537	2465.124231
536.191270	2472.685962
536.551947	2437.397885
536.912567	2565.947308
537.273131	2505.453462
537.633638	2523.097500
537.994089	2545.782692
538.354483	2553.344423
538.714821	2502.932885
539.075103	2502.932885
539.435328	2540.741538
539.795497	2447.480192
540.155609	2460.083077
540.515665	2535.700385
540.875665	2465.124231
541.235609	2525.618077
541.595496	2452.521346
541.955328	2480.247692
542.315102	2528.138654
542.674821	2558.385577
543.034483	2427.315577
543.394090	2439.918462
543.753640	2505.453462
544.113134	2507.974038
544.472571	2462.603654
544.831953	2497.891731
545.191278	2490.330000
545.550548	2523.097500
545.909761	2467.644808
546.268918	2560.906154
546.628019	2497.891731
546.987064	2389.506923
547.346053	2535.700385
547.704986	2492.850577
548.063863	2535.700385
548.422684	2442.439038
548.781449	2545.782692
549.140158	2553.344423
549.498811	2510.494615
549.857408	2583.591346
550.215949	2465.124231
550.574434	2533.179808
550.932864	2429.836154
551.291237	2530.659231
551.649555	2545.782692
552.007817	2568.467885
552.366022	2525.618077
552.724173	2465.124231
553.082267	2439.918462
553.440305	2538.220962
553.798288	2598.714808
554.156215	2528.138654
554.514086	2502.932885
554.871902	2520.576923
555.229661	2472.685962
555.587365	2603.755962
555.945014	2502.932885
556.302606	2429.836154
556.660143	2480.247692
557.017625	2520.576923
557.375050	2545.782692
557.732421	2450.000769
558.089735	2510.494615
558.446994	2535.700385
558.804197	2565.947308
559.161345	2533.179808
559.518437	2500.412308
559.875474	2480.247692
560.232455	2402.109808
560.589381	2477.727115
560.946251	2460.083077
561.303065	2475.206538
561.659825	2495.371154
562.016528	2460.083077
562.373177	2533.179808
562.729770	2500.412308
563.086307	2432.356731
563.442789	2457.562500
563.799216	2525.618077
564.155587	2475.206538
564.511904	2475.206538
564.868164	2434.877308
565.224370	2593.673654
565.580520	2457.562500
565.936615	2528.138654
566.292654	2457.562500
566.648638	2553.344423
567.004567	2545.782692
567.360441	2502.932885
567.716260	2502.932885
568.072023	2437.397885
568.427732	2470.165385
568.783385	2548.303269
569.138982	2470.165385
569.494525	2465.124231
569.850013	2477.727115
570.205445	2460.083077
570.560823	2502.932885
570.916145	2505.453462
571.271412	2513.015192
571.626625	2523.097500
571.981782	2510.494615
572.336884	2465.124231
572.691931	2507.974038
573.046923	2530.659231
573.401860	2444.959615
573.756743	2384.465769
574.111570	2492.850577
574.466342	2523.097500
574.821059	2525.618077
575.175722	2533.179808
575.530330	2507.974038
575.884882	2586.111923
576.239380	2535.700385
576.593823	2402.109808
576.948211	2480.247692
577.302544	2502.932885
577.656823	2548.303269
578.011047	2417.233269
578.365216	2560.906154
578.719330	2535.700385
579.073389	2495.371154
579.427394	2487.809423
579.781344	2492.850577
580.135239	2439.918462
580.489080	2462.603654
580.842866	2417.233269
581.196597	2548.303269
581.550273	2565.947308
581.903895	2455.041923
582.257463	2510.494615
582.610975	2477.727115
582.964434	2528.138654
583.317837	2492.850577
583.671186	2437.397885
584.024481	2470.165385
584.377721	2523.097500
584.730906	2533.179808
585.084037	2429.836154
585.437113	2452.521346
585.790135	2429.836154
586.143103	2565.947308
586.496016	2596.194231
586.848874	2475.206538
587.201679	2530.659231
587.554428	2470.165385
587.907124	2492.850577
588.259765	2513.015192
588.612352	2472.685962
588.964884	2550.823846
589.317362	2460.083077
589.669786	2424.795000
590.022155	2480.247692
590.374470	2404.630385
590.726731	2444.959615
591.078937	2444.959615
591.431090	2467.644808
591.783188	2480.247692
592.135232	2437.397885
592.487222	2502.932885
592.839157	2538.220962
593.191038	2568.467885
593.542866	2404.630385
593.894639	2462.603654
594.246358	2490.330000
594.598022	2462.603654
594.949633	2442.439038
595.301190	2502.932885
595.652692	2470.165385
596.004141	2545.782692
596.355535	2505.453462
596.706876	2465.124231
597.058162	2515.535769
597.409395	2510.494615
597.760573	2528.138654
598.111698	2492.850577
598.462768	2548.303269
598.813785	2513.015192
599.164748	2656.688077
599.515657	2513.015192
599.866511	2565.947308
600.217312	2462.603654
600.568060	2500.412308
600.918753	2598.714808
601.269392	2429.836154
601.619978	2462.603654
601.970510	2470.165385
602.320988	2530.659231
602.671412	2518.056346
603.021783	2465.124231
603.372100	2384.465769
603.722363	2520.576923
604.072572	2490.330000
604.422728	2472.685962
604.772830	2578.550192
605.122878	2402.109808
605.472872	2555.865000
605.822813	2409.671538
606.172701	2510.494615
606.522534	2533.179808
606.872314	2500.412308
607.222041	2462.603654
607.571714	2480.247692
607.921333	2470.165385
608.270899	2475.206538
608.620411	2525.618077
608.969870	2535.700385
609.319276	2444.959615
609.668627	2450.000769
610.017926	2437.397885
610.367171	2523.097500
610.716362	2523.097500
611.065500	2402.109808
611.414585	2520.576923
611.763616	2452.521346
612.112594	2510.494615
612.461518	2530.659231
612.810389	2475.206538
613.159207	2550.823846
613.507971	2419.753846
613.856682	2515.535769
614.205340	2480.247692
614.553945	2518.056346
614.902496	2586.111923
615.250994	2394.548077
615.599439	2548.303269
615.947830	2500.412308
616.296169	2492.850577
616.644454	2371.862885
616.992686	2467.644808
617.340864	2533.179808
617.688990	2444.959615
618.037063	2470.165385
618.385082	2505.453462
618.733048	2513.015192
619.080961	2455.041923
619.428821	2528.138654
619.776628	2444.959615
620.124382	2528.138654
620.472083	2581.070769
620.819731	2507.974038
621.167326	2518.056346
621.514868	2507.974038
621.862357	2497.891731
622.209793	2450.000769
622.557176	2528.138654
622.904506	2502.932885
623.251783	2417.233269
623.599007	2462.603654
623.946179	2540.741538
624.293297	2533.179808
624.640363	2530.659231
624.987376	2427.315577
625.334336	2450.000769
625.681243	2510.494615
626.028097	2439.918462
626.374899	2540.741538
626.721647	2472.685962
627.068343	2465.124231
627.414987	2480.247692
627.761577	2505.453462
628.108115	2530.659231
628.454600	2495.371154
628.801032	2548.303269
629.147412	2500.412308
629.493739	2507.974038
629.840014	2480.247692
630.186236	2528.138654
630.532405	2543.262115
630.878521	2510.494615
631.224585	2472.685962
631.570597	2505.453462
631.916556	2452.521346
632.262462	2495.371154
632.608316	2460.083077
632.954117	2515.535769
633.299866	2477.727115
633.645562	2540.741538
633.991206	2467.644808
634.336797	2475.206538
634.682336	2523.097500
635.027823	2518.056346
635.373257	2560.906154
635.718639	2533.179808
636.063968	2533.179808
636.409245	2475.206538
636.754470	2437.397885
637.099642	2505.453462
637.444762	2470.165385
637.789829	2540.741538
638.134845	2442.439038
638.479808	2487.809423
638.824719	2502.932885
639.169577	2419.753846
639.514383	2525.618077
639.859137	2470.165385
640.203839	2502.932885
640.548489	2450.000769
640.893086	2485.288846
641.237632	2437.397885
641.582125	2495.371154
641.926566	2455.041923
642.270955	2465.124231
642.615292	2437.397885
642.959576	2462.603654
643.303809	2477.727115
643.647990	2523.097500
643.992118	2523.097500
644.336195	2502.932885
644.680219	2500.412308
645.024192	2452.521346
645.368112	2510.494615
645.711981	2510.494615
646.055797	2490.330000
646.399562	2525.618077
646.743274	2525.618077
647.086935	2485.288846
647.430544	2434.877308
647.774101	2495.371154
648.117606	2392.027500
648.461059	2442.439038
648.804460	2492.850577
649.147810	2482.768269
649.491108	2477.727115
649.834354	2606.276538
650.177548	2555.865000
650.520690	2550.823846
650.863781	2505.453462
651.206820	2513.015192
651.549807	2477.727115
651.892742	2492.850577
652.235626	2485.288846
652.578458	2578.550192
652.921238	2555.865000
653.263967	2467.644808
653.606644	2485.288846
653.949269	2462.603654
654.291843	2482.768269
654.634365	2502.932885
654.976836	2457.562500
655.319255	2538.220962
655.661622	2480.247692
656.003938	2500.412308
656.346203	2540.741538
656.688416	2457.562500
657.030577	2462.603654
657.372687	2500.412308
657.714746	2550.823846
658.056753	2399.589231
658.398708	2417.233269
658.740612	2510.494615
659.082465	2500.412308
659.424266	2500.412308
659.766016	2550.823846
660.107715	2548.303269
660.449362	2480.247692
660.790958	2555.865000
661.132503	2505.453462
661.473996	2520.576923
661.815438	2462.603654
662.156829	2500.412308
662.498168	2432.356731
662.839456	2502.932885
663.180693	2475.206538
663.521879	2510.494615
663.863013	2510.494615
664.204097	2540.741538
664.545129	2434.877308
664.886110	2507.974038
665.227040	2520.576923
665.567918	2444.959615
665.908746	2439.918462
666.249522	2447.480192
666.590248	2487.809423
666.930922	2490.330000
667.271545	2477.727115
667.612118	2510.494615
667.952639	2447.480192
668.293109	2523.097500
668.633528	2465.124231
668.973896	2477.727115
669.314213	2439.918462
669.654480	2482.768269
669.994695	2465.124231
670.334859	2528.138654
670.674973	2462.603654
671.015035	2535.700385
671.355047	2565.947308
671.695008	2452.521346
672.034918	2452.521346
672.374777	2520.576923
672.714585	2568.467885
673.054342	2497.891731
673.394049	2591.153077
673.733705	2510.494615
674.073310	2444.959615
674.412864	2558.385577
674.752368	2447.480192
675.091820	2510.494615
675.431223	2439.918462
675.770574	2553.344423
676.109875	2462.603654
676.449125	2497.891731
676.788324	2455.041923
677.127473	2490.330000
677.466571	2475.206538
677.805619	2480.247692
678.144616	2437.397885
678.483562	2487.809423
678.822458	2455.041923
679.161303	2487.809423
679.500098	2510.494615
679.838842	2462.603654
680.177535	2513.015192
680.516179	2543.262115
680.854771	2477.727115
681.193314	2399.589231
681.531805	2495.371154
681.870247	2450.000769
682.208638	2419.753846
682.546978	2523.097500
682.885268	2510.494615
683.223508	2412.192115
683.561697	2485.288846
683.899836	2530.659231
684.237925	2530.659231
684.575963	2495.371154
684.913951	2555.865000
685.251889	2502.932885
685.589776	2581.070769
685.927614	2525.618077
686.265401	2502.932885
686.603137	2487.809423
686.940824	2470.165385
687.278460	2480.247692
687.616046	2513.015192
687.953582	2475.206538
688.291068	2513.015192
688.628504	2565.947308
688.965889	2540.741538
689.303224	2530.659231
689.640510	2467.644808
689.977745	2560.906154
690.314930	2507.974038
690.652065	2515.535769
690.989150	2591.153077
691.326185	2497.891731
691.663170	2525.618077
692.000105	2437.397885
692.336990	2513.015192
692.673825	2616.358846
693.010610	2482.768269
693.347345	2538.220962
693.684030	2497.891731
694.020665	2540.741538
694.357251	2432.356731
694.693786	2535.700385
695.030272	2472.685962
695.366707	2553.344423
695.703093	2525.618077
696.039429	2530.659231
696.375716	2452.521346
696.711952	2495.371154
697.048139	2434.877308
697.384276	2497.891731
697.720363	2399.589231
698.056400	2455.041923
698.392388	2457.562500
698.728326	2477.727115
699.064214	2437.397885
699.400053	2439.918462
699.735842	2543.262115
700.071581	2407.150962
700.407270	2513.015192
700.742910	2553.344423
701.078501	2485.288846
701.414042	2576.029615
701.749533	2482.768269
702.084974	2565.947308
702.420366	2555.865000
702.755709	2447.480192
703.091002	2548.303269
703.426246	2515.535769
703.761440	2407.150962
704.096584	2437.397885
704.431679	2472.685962
704.766725	2482.768269
705.101721	2472.685962
705.436668	2457.562500
705.771565	2447.480192
706.106413	2520.576923
706.441212	2444.959615
706.775961	2450.000769
707.110661	2583.591346
707.445311	2558.385577
707.779913	2455.041923
708.114465	2538.220962
708.448967	2495.371154
708.783421	2500.412308
709.117825	2457.562500
709.452180	2528.138654
709.786485	2477.727115
710.120742	2513.015192
710.454949	2475.206538
710.789107	2568.467885
711.123216	2487.809423
711.457275	2467.644808
711.791286	2500.412308
712.125247	2513.015192
712.459159	2492.850577
712.793023	2502.932885
713.126837	2452.521346
713.460602	2414.712692
713.794318	2434.877308
714.127985	2389.506923
714.461602	2515.535769
714.795171	2515.535769
715.128691	2523.097500
715.462162	2502.932885
715.795584	2465.124231
716.128957	2452.521346
716.462281	2457.562500
716.795556	2515.535769
717.128782	2530.659231
717.461960	2462.603654
717.795088	2465.124231
718.128167	2518.056346
718.461198	2563.426731
718.794180	2485.288846
719.127113	2550.823846
719.459997	2442.439038
719.792833	2533.179808
720.125619	2555.865000
720.458357	2497.891731
720.791046	2510.494615
721.123686	2439.918462
721.456278	2525.618077
721.788821	2518.056346
722.121315	2558.385577
722.453761	2384.465769
722.786158	2500.412308
723.118506	2477.727115
723.450805	2618.879423
723.783056	2462.603654
724.115259	2457.562500
724.447412	2505.453462
724.779518	2513.015192
725.111574	2467.644808
725.443582	2429.836154
725.775542	2487.809423
726.107453	2497.891731
726.439315	2530.659231
726.771129	2487.809423
727.102895	2480.247692
727.434612	2523.097500
727.766281	2472.685962
728.097901	2455.041923
728.429473	2523.097500
728.760996	2444.959615
729.092471	2429.836154
729.423897	2500.412308
729.755276	2487.809423
730.086606	2500.412308
730.417887	2477.727115
730.749120	2596.194231
731.080305	2495.371154
731.411442	2538.220962
731.742530	2485.288846
732.073570	2528.138654
732.404562	2528.138654
732.735506	2482.768269
733.066401	2502.932885
733.397249	2437.397885
733.728048	2487.809423
734.058798	2467.644808
734.389501	2530.659231
734.720156	2565.947308
735.050762	2523.097500
735.381320	2553.344423
735.711831	2437.397885
736.042293	2450.000769
736.372707	2402.109808
736.703073	2606.276538
737.033391	2535.700385
737.363661	2518.056346
737.693883	2480.247692
738.024056	2424.795000
738.354182	2482.768269
738.684260	2487.809423
739.014290	2407.150962
739.344272	2535.700385
739.674207	2487.809423
740.004093	2480.247692
740.333931	2563.426731
740.663722	2588.632500
740.993464	2422.274423
741.323159	2502.932885
741.652806	2540.741538
741.982405	2495.371154
742.311956	2563.426731
742.641460	2586.111923
742.970915	2545.782692
743.300323	2485.288846
743.629683	2528.138654
743.958996	2535.700385
744.288260	2482.768269
744.617477	2452.521346
744.946647	2432.356731
745.275768	2528.138654
745.604842	2543.262115
745.933869	2460.083077
746.262847	2525.618077
746.591778	2439.918462
746.920662	2437.397885
747.249498	2611.317692
747.578286	2550.823846
747.907027	2437.397885
748.235720	2525.618077
748.564365	2467.644808
748.892963	2540.741538
749.221514	2530.659231
749.550017	2467.644808
749.878473	2482.768269
750.206881	2437.397885
750.535242	2520.576923
750.863555	2495.371154
751.191821	2397.068654
751.520039	2439.918462
751.848210	2583.591346
752.176334	2470.165385
752.504411	2563.426731
752.832440	2538.220962
753.160421	2434.877308
753.488356	2495.371154
753.816243	2565.947308
754.144082	2480.247692
754.471875	2523.097500
754.799620	2487.809423
755.127318	2477.727115
755.454969	2513.015192
755.782572	2460.083077
756.110129	2500.412308
756.437638	2462.603654
756.765100	2578.550192
757.092515	2586.111923
757.419882	2490.330000
757.747203	2439.918462
758.074477	2439.918462
758.401703	2497.891731
758.728882	2568.467885
759.056014	2419.753846
759.383099	2439.918462
759.710138	2424.795000
760.037129	2432.356731
760.364073	2573.509038
760.690970	2470.165385
761.017820	2596.194231
761.344623	2543.262115
761.671379	2470.165385
761.998088	2485.288846
762.324751	2560.906154
762.651366	2528.138654
762.977935	2540.741538
763.304456	2550.823846
763.630931	2427.315577
763.957359	2460.083077
764.283740	2502.932885
764.610074	2485.288846
764.936362	2500.412308
765.262602	2432.356731
765.588796	2480.247692
765.914943	2510.494615
766.241044	2497.891731
766.567097	2540.741538
766.893104	2555.865000
767.219064	2485.288846
767.544978	2525.618077
767.870845	2553.344423
768.196665	2500.412308
768.522438	2538.220962
768.848165	2447.480192
769.173846	2467.644808
769.499479	2535.700385
769.825066	2490.330000
770.150607	2573.509038
770.476101	2437.397885
770.801548	2497.891731
771.126949	2487.809423
771.452303	2444.959615
771.777611	2444.959615
772.102872	2467.644808
772.428087	2558.385577
772.753256	2492.850577
773.078378	2507.974038
773.403453	2513.015192
773.728482	2467.644808
774.053465	2533.179808
774.378401	2424.795000
774.703291	2452.521346
775.028135	2470.165385
775.352932	2543.262115
775.677683	2495.371154
776.002388	2523.097500
776.327046	2419.753846
776.651658	2525.618077
776.976224	2490.330000
777.300743	2502.932885
777.625216	2424.795000
777.949643	2520.576923
778.274024	2462.603654
778.598359	2505.453462
778.922647	2555.865000
779.246889	2447.480192
779.571086	2485.288846
779.895236	2510.494615
780.219339	2507.974038
780.543397	2472.685962
780.867409	2553.344423
781.191374	2472.685962
781.515294	2570.988462
781.839167	2502.932885
782.162995	2525.618077
782.486776	2490.330000
782.810511	2520.576923
783.134201	2475.206538
783.457844	2515.535769
783.781441	2477.727115
784.104993	2404.630385
784.428498	2535.700385
784.751958	2528.138654
785.075372	2437.397885
785.398739	2538.220962
785.722061	2538.220962
786.045337	2533.179808
786.368568	2452.521346
786.691752	2518.056346
787.014891	2563.426731
787.337983	2457.562500
787.661030	2480.247692
787.984031	2505.453462
788.306987	2482.768269
788.629897	2555.865000
788.952760	2487.809423
789.275579	2470.165385
789.598351	2548.303269
789.921078	2576.029615
790.243759	2487.809423
790.566395	2492.850577
790.888984	2439.918462
791.211529	2497.891731
791.534027	2447.480192
791.856480	2447.480192
792.178888	2535.700385
792.501249	2515.535769
792.823566	2447.480192
793.145836	2523.097500
793.468062	2533.179808
793.790241	2457.562500
794.112375	2518.056346
794.434464	2482.768269
794.756507	2419.753846
795.078505	2510.494615
795.400457	2482.768269
795.722364	2462.603654
796.044226	2384.465769
796.366042	2485.288846
796.687812	2586.111923
797.009538	2424.795000
797.331218	2530.659231
797.652852	2462.603654
797.974442	2533.179808
798.295986	2518.056346
798.617484	2452.521346
798.938938	2560.906154
799.260346	2434.877308
799.581709	2424.795000
799.903026	2447.480192
800.224299	2550.823846
800.545526	2470.165385
800.866708	2477.727115
801.187845	2543.262115
801.508936	2457.562500
801.829983	2439.918462
802.150984	2460.083077
802.471940	2497.891731
802.792851	2565.947308
803.113717	2543.262115
803.434538	2450.000769
803.755314	2510.494615
804.076045	2487.809423
804.396731	2462.603654
804.717372	2399.589231
805.037967	2480.247692
805.358518	2419.753846
805.679024	2538.220962
805.999485	2434.877308
806.319901	2505.453462
806.640272	2460.083077
806.960598	2520.576923
807.280879	2452.521346
807.601115	2573.509038
807.921306	2366.821731
808.241453	2535.700385
808.561554	2560.906154
808.881611	2500.412308
809.201623	2555.865000
809.521590	2507.974038
809.841513	2533.179808
810.161390	2525.618077
810.481223	2581.070769
810.801011	2442.439038
811.120755	2523.097500
811.440453	2545.782692
811.760107	2578.550192
812.079716	2500.412308
812.399281	2444.959615
812.718801	2490.330000
813.038276	2482.768269
813.357707	2543.262115
813.677093	2450.000769
813.996434	2412.192115
814.315731	2530.659231
814.634983	2434.877308
814.954191	2450.000769
815.273354	2500.412308
815.592473	2414.712692
815.911547	2480.247692
816.230577	2427.315577
816.549562	2500.412308
816.868502	2576.029615
817.187399	2487.809423
817.506250	2500.412308
817.825058	2497.891731
818.143821	2490.330000
818.462539	2412.192115
818.781213	2513.015192
819.099843	2404.630385
819.418429	2477.727115
819.736970	2520.576923
820.055466	2505.453462
820.373919	2490.330000
820.692327	2467.644808
821.010691	2477.727115
821.329011	2555.865000
821.647286	2523.097500
821.965517	2525.618077
822.283704	2628.961731
822.601847	2437.397885
822.919945	2437.397885
823.237999	2490.330000
823.556010	2472.685962
823.873976	2523.097500
824.191897	2518.056346
824.509775	2427.315577
824.827609	2525.618077
825.145398	2429.836154
825.463144	2434.877308
825.780845	2422.274423
826.098502	2523.097500
826.416116	2462.603654
826.733685	2555.865000
827.051210	2427.315577
827.368692	2530.659231
827.686129	2560.906154
828.003522	2434.877308
828.320872	2482.768269
828.638177	2502.932885
828.955439	2414.712692
829.272656	2535.700385
829.589830	2543.262115
829.906960	2414.712692
830.224046	2399.589231
830.541088	2492.850577
830.858086	2452.521346
831.175041	2490.330000
831.491952	2432.356731
831.808819	2530.659231
832.125642	2510.494615
832.442421	2444.959615
832.759157	2470.165385
833.075849	2525.618077
833.392497	2510.494615
833.709101	2480.247692
834.025662	2533.179808
834.342179	2525.618077
834.658653	2533.179808
834.975083	2475.206538
835.291469	2515.535769
835.607811	2545.782692
835.924110	2558.385577
836.240366	2500.412308
836.556578	2437.397885
836.872746	2467.644808
837.188871	2533.179808
837.504952	2507.974038
837.820990	2510.494615
838.136984	2467.644808
838.452935	2507.974038
838.768842	2444.959615
839.084706	2528.138654
839.400526	2500.412308
839.716303	2528.138654
840.032037	2563.426731
840.347727	2462.603654
840.663373	2528.138654
840.978977	2480.247692
841.294537	2533.179808
841.610054	2455.041923
841.925527	2500.412308
842.240957	2518.056346
842.556344	2490.330000
842.871687	2535.700385
843.186987	2513.015192
843.502244	2485.288846
843.817458	2447.480192
844.132629	2485.288846
844.447756	2437.397885
844.762840	2560.906154
845.077881	2502.932885
845.392879	2548.303269
845.707833	2482.768269
846.022745	2497.891731
846.337613	2399.589231
846.652438	2475.206538
846.967221	2422.274423
847.281960	2495.371154
847.596656	2447.480192
847.911309	2475.206538
848.225919	2487.809423
848.540485	2515.535769
848.855009	2558.385577
849.169490	2482.768269
849.483928	2603.755962
849.798323	2502.932885
850.112675	2492.850577
850.426984	2543.262115
850.741251	2515.535769
851.055474	2429.836154
851.369654	2535.700385
851.683792	2460.083077
851.997887	2520.576923
852.311938	2457.562500
852.625947	2555.865000
852.939914	2472.685962
853.253837	2530.659231
853.567718	2490.330000
853.881555	2482.768269
854.195350	2603.755962
854.509103	2485.288846
854.822812	2450.000769
855.136479	2505.453462
855.450103	2475.206538
855.763685	2465.124231
856.077224	2432.356731
856.390720	2530.659231
856.704173	2492.850577
857.017584	2507.974038
857.330953	2507.974038
857.644278	2500.412308
857.957561	2586.111923
858.270802	2490.330000
858.584000	2513.015192
858.897155	2477.727115
859.210268	2485.288846
859.523339	2523.097500
859.836367	2485.288846
860.149352	2480.247692
860.462295	2452.521346
860.775195	2507.974038
861.088054	2555.865000
861.400869	2513.015192
861.713642	2414.712692
862.026373	2500.412308
862.339062	2487.809423
862.651708	2462.603654
862.964312	2490.330000
863.276873	2432.356731
863.589392	2540.741538
863.901869	2452.521346
864.214303	2510.494615
864.526696	2505.453462
864.839045	2485.288846
865.151353	2480.247692
865.463619	2485.288846
865.775842	2515.535769
866.088023	2502.932885
866.400162	2427.315577
866.712258	2475.206538
867.024313	2452.521346
867.336325	2497.891731
867.648296	2444.959615
867.960224	2462.603654
868.272110	2457.562500
868.583954	2505.453462
868.895755	2583.591346
869.207515	2553.344423
869.519233	2520.576923
869.830909	2528.138654
870.142542	2482.768269
870.454134	2465.124231
870.765684	2495.371154
871.077191	2434.877308
871.388657	2543.262115
871.700081	2429.836154
872.011463	2528.138654
872.322803	2427.315577
872.634101	2386.986346
872.945357	2495.371154
873.256571	2455.041923
873.567744	2487.809423
873.878874	2497.891731
874.189963	2457.562500
874.501010	2457.562500
874.812015	2457.562500
875.122979	2487.809423
875.433900	2467.644808
875.744780	2437.397885
876.055618	2472.685962
876.366415	2472.685962
876.677169	2472.685962
876.987882	2528.138654
877.298554	2523.097500
877.609183	2444.959615
877.919771	2460.083077
878.230317	2510.494615
878.540822	2432.356731
878.851285	2515.535769
879.161707	2462.603654
879.472087	2450.000769
879.782425	2404.630385
880.092722	2515.535769
880.402977	2507.974038
880.713191	2505.453462
881.023363	2475.206538
881.333494	2497.891731
881.643583	2518.056346
881.953631	2407.150962
882.263637	2568.467885
882.573602	2437.397885
882.883526	2523.097500
883.193408	2462.603654
883.503248	2502.932885
883.813048	2472.685962
884.122806	2427.315577
884.432522	2570.988462
884.742197	2419.753846
885.051831	2525.618077
885.361424	2439.918462
885.670975	2593.673654
885.980485	2576.029615
886.289954	2414.712692
886.599382	2457.562500
886.908768	2450.000769
887.218113	2450.000769
887.527417	2548.303269
887.836680	2427.315577
888.145901	2507.974038
888.455082	2485.288846
888.764221	2505.453462
889.073319	2477.727115
889.382376	2487.809423
889.691392	2583.591346
890.000366	2442.439038
890.309300	2462.603654
890.618193	2467.644808
890.927044	2482.768269
891.235855	2475.206538
891.544625	2465.124231
891.853353	2495.371154
892.162041	2457.562500
892.470687	2434.877308
892.779293	2447.480192
893.087858	2492.850577
893.396381	2513.015192
893.704864	2462.603654
894.013306	2492.850577
894.321707	2477.727115
894.630068	2460.083077
894.938387	2530.659231
895.246665	2455.041923
895.554903	2535.700385
895.863100	2558.385577
896.171256	2555.865000
896.479371	2450.000769
896.787446	2502.932885
897.095480	2452.521346
897.403473	2513.015192
897.711425	2437.397885
898.019336	2560.906154
898.327207	2525.618077
898.635038	2460.083077
898.942827	2525.618077
899.250576	2457.562500
899.558284	2485.288846
899.865952	2432.356731
900.173579	2439.918462
900.481165	2502.932885
900.788711	2558.385577
901.096216	2462.603654
901.403681	2485.288846
901.711105	2535.700385
902.018489	2525.618077
902.325832	2432.356731
902.633135	2560.906154
902.940397	2507.974038
903.247619	2583.591346
903.554800	2482.768269
903.861941	2490.330000
904.169041	2465.124231
904.476101	2472.685962
904.783121	2465.124231
905.090100	2560.906154
905.397039	2399.589231
905.703938	2623.920577
906.010796	2505.453462
906.317614	2563.426731
906.624391	2500.412308
906.931129	2530.659231
907.237826	2399.589231
907.544483	2482.768269
907.851099	2475.206538
908.157675	2530.659231
908.464211	2455.041923
908.770707	2540.741538
909.077163	2510.494615
909.383578	2432.356731
909.689954	2394.548077
909.996289	2518.056346
910.302584	2485.288846
910.608839	2460.083077
910.915054	2540.741538
911.221229	2518.056346
911.527363	2452.521346
911.833458	2492.850577
912.139513	2465.124231
912.445527	2470.165385
912.751502	2563.426731
913.057436	2465.124231
913.363331	2475.206538
913.669186	2462.603654
913.975000	2505.453462
914.280775	2434.877308
914.586510	2553.344423
914.892205	2568.467885
915.197859	2510.494615
915.503475	2533.179808
915.809050	2528.138654
916.114585	2480.247692
916.420081	2492.850577
916.725536	2399.589231
917.030952	2520.576923
917.336328	2452.521346
917.641665	2450.000769
917.946961	2455.041923
918.252218	2455.041923
918.557435	2505.453462
918.862612	2475.206538
919.167750	2485.288846
919.472848	2457.562500
919.777906	2528.138654
920.082925	2472.685962
920.387904	2457.562500
920.692843	2457.562500
920.997743	2386.986346
921.302603	2477.727115
921.607423	2444.959615
921.912204	2543.262115
922.216946	2548.303269
922.521647	2447.480192
922.826310	2457.562500
923.130932	2497.891731
923.435516	2409.671538
923.740059	2518.056346
924.044564	2507.974038
924.349028	2457.562500
924.653454	2492.850577
924.957840	2520.576923
925.262186	2492.850577
925.566493	2518.056346
925.870761	2447.480192
926.174989	2495.371154
926.479178	2475.206538
926.783328	2510.494615
927.087438	2427.315577
927.391509	2507.974038
927.695541	2472.685962
927.999533	2477.727115
928.303486	2525.618077
928.607400	2452.521346
928.911275	2558.385577
929.215110	2525.618077
929.518906	2533.179808
929.822663	2447.480192
930.126381	2510.494615
930.430060	2518.056346
930.733699	2457.562500
931.037299	2480.247692
931.340861	2513.015192
931.644383	2520.576923
931.947866	2623.920577
932.251309	2452.521346
932.554714	2500.412308
932.858080	2500.412308
933.161407	2485.288846
933.464694	2470.165385
933.767943	2596.194231
934.071153	2455.041923
934.374323	2505.453462
934.677455	2467.644808
934.980548	2535.700385
935.283602	2457.562500
935.586617	2447.480192
935.889593	2578.550192
936.192530	2487.809423
936.495428	2548.303269
936.798287	2533.179808
937.101108	2513.015192
937.403890	2528.138654
937.706632	2427.315577
938.009336	2442.439038
938.312002	2500.412308
938.614628	2404.630385
938.917216	2497.891731
939.219765	2477.727115
939.522275	2465.124231
939.824747	2500.412308
940.127179	2588.632500
940.429573	2422.274423
940.731929	2447.480192
941.034246	2402.109808
941.336524	2455.041923
941.638763	2507.974038
941.940964	2414.712692
942.243126	2477.727115
942.545250	2535.700385
942.847335	2528.138654
943.149381	2437.397885
943.451389	2402.109808
943.753359	2472.685962
944.055290	2457.562500
944.357182	2452.521346
944.659036	2487.809423
944.960851	2500.412308
945.262628	2475.206538
945.564367	2523.097500
945.866067	2450.000769
946.167729	2477.727115
946.469352	2470.165385
946.770937	2518.056346
947.072484	2611.317692
947.373992	2570.988462
947.675462	2573.509038
947.976893	2490.330000
948.278286	2507.974038
948.579641	2480.247692
948.880958	2394.548077
949.182236	2515.535769
949.483476	2444.959615
949.784678	2447.480192
950.085841	2530.659231
950.386967	2573.509038
950.688054	2507.974038
950.989103	2497.891731
951.290114	2482.768269
951.591087	2550.823846
951.892021	2500.412308
952.192917	2533.179808
952.493776	2467.644808
952.794596	2495.371154
953.095378	2485.288846
953.396122	2581.070769
953.696828	2460.083077
953.997496	2497.891731
954.298126	2513.015192
954.598718	2437.397885
954.899272	2560.906154
955.199788	2535.700385
955.500266	2462.603654
955.800706	2515.535769
956.101108	2482.768269
956.401472	2455.041923
956.701798	2523.097500
957.002087	2510.494615
957.302337	2548.303269
957.602550	2450.000769
957.902724	2497.891731
958.202861	2460.083077
958.502960	2520.576923
958.803022	2457.562500
959.103045	2500.412308
959.403031	2523.097500
959.702979	2439.918462
960.002889	2581.070769
960.302762	2482.768269
960.602596	2545.782692
960.902393	2525.618077
961.202153	2520.576923
961.501875	2460.083077
961.801559	2490.330000
962.101205	2513.015192
962.400814	2543.262115
962.700385	2470.165385
962.999918	2480.247692
963.299414	2419.753846
963.598873	2495.371154
963.898293	2505.453462
964.197677	2545.782692
964.497022	2490.330000
964.796331	2520.576923
965.095601	2447.480192
965.394835	2507.974038
965.694030	2497.891731
965.993189	2525.618077
966.292309	2480.247692
966.591393	2407.150962
966.890439	2548.303269
967.189447	2492.850577
967.488419	2422.274423
967.787353	2495.371154
968.086249	2482.768269
968.385108	2482.768269
968.683930	2475.206538
968.982714	2444.959615
969.281462	2528.138654
969.580172	2495.371154
969.878844	2475.206538
970.177480	2462.603654
970.476078	2462.603654
970.774639	2523.097500
971.073162	2462.603654
971.371649	2533.179808
971.670098	2495.371154
971.968510	2500.412308
972.266885	2450.000769
972.565223	2485.288846
972.863524	2470.165385
973.161788	2467.644808
973.460014	2485.288846
973.758204	2495.371154
974.056356	2533.179808
974.354471	2444.959615
974.652550	2497.891731
974.950591	2507.974038
975.248595	2427.315577
975.546563	2500.412308
975.844493	2472.685962
976.142386	2507.974038
976.440243	2528.138654
976.738062	2442.439038
977.035845	2460.083077
977.333590	2490.330000
977.631299	2538.220962
977.928971	2497.891731
978.226606	2540.741538
978.524204	2444.959615
978.821765	2455.041923
979.119290	2548.303269
979.416777	2518.056346
979.714228	2520.576923
980.011642	2538.220962
980.309020	2543.262115
980.606360	2482.768269
980.903664	2518.056346
981.200931	2576.029615
981.498162	2553.344423
981.795356	2555.865000
982.092513	2480.247692
982.389633	2513.015192
982.686717	2477.727115
982.983764	2510.494615
983.280775	2507.974038
983.577749	2490.330000
983.874686	2510.494615
984.171587	2553.344423
984.468451	2470.165385
984.765279	2548.303269
985.062070	2424.795000
985.358824	2525.618077
985.655543	2490.330000
985.952224	2525.618077
986.248869	2583.591346
986.545478	2437.397885
986.842050	2422.274423
987.138586	2444.959615
987.435086	2447.480192
987.731549	2480.247692
988.027975	2477.727115
988.324366	2434.877308
988.620719	2523.097500
988.917037	2497.891731
989.213318	2455.041923
989.509563	2528.138654
989.805772	2472.685962
990.101944	2530.659231
990.398080	2598.714808
990.694180	2502.932885
990.990244	2467.644808
991.286271	2500.412308
991.582262	2510.494615
991.878217	2502.932885
992.174136	2480.247692
992.470019	2437.397885
992.765865	2500.412308
993.061676	2460.083077
993.357450	2530.659231
993.653188	2399.589231
993.948890	2437.397885
994.244556	2465.124231
994.540186	2525.618077
994.835780	2535.700385
995.131337	2475.206538
995.426859	2407.150962
995.722345	2548.303269
996.017795	2563.426731
996.313208	2462.603654
996.608586	2492.850577
996.903928	2457.562500
997.199234	2518.056346
997.494504	2540.741538
997.789738	2450.000769
998.084936	2414.712692
998.380099	2462.603654
998.675225	2437.397885
998.970316	2409.671538
999.265371	2414.712692
999.560390	2507.974038
999.855373	2510.494615
1000.150320	2528.138654
1000.445232	2490.330000
1000.740108	2502.932885
1001.034948	2472.685962
1001.329752	2545.782692
1001.624521	2487.809423
1001.919254	2565.947308
1002.213951	2444.959615
1002.508613	2470.165385
1002.803239	2472.685962
1003.097829	2462.603654
1003.392384	2402.109808
1003.686903	2543.262115
1003.981386	2364.301154
1004.275834	2490.330000
1004.570246	2475.206538
1004.864623	2515.535769
1005.158964	2480.247692
1005.453270	2492.850577
1005.747540	2520.576923
1006.041775	2507.974038
1006.335974	2487.809423
1006.630138	2525.618077
1006.924266	2450.000769
1007.218359	2444.959615
1007.512416	2472.685962
1007.806438	2432.356731
1008.100425	2482.768269
1008.394376	2409.671538
1008.688292	2538.220962
1008.982172	2480.247692
1009.276017	2520.576923
1009.569827	2470.165385
1009.863602	2576.029615
1010.157341	2477.727115
1010.451045	2510.494615
1010.744714	2505.453462
1011.038347	2470.165385
1011.331945	2538.220962
1011.625508	2487.809423
1011.919036	2510.494615
1012.212528	2543.262115
1012.505986	2470.165385
1012.799408	2513.015192
1013.092795	2482.768269
1013.386147	2530.659231
1013.679464	2515.535769
1013.972745	2520.576923
1014.265992	2444.959615
1014.559204	2550.823846
1014.852380	2535.700385
1015.145521	2462.603654
1015.438628	2475.206538
1015.731699	2528.138654
1016.024736	2480.247692
1016.317737	2492.850577
1016.610703	2470.165385
1016.903635	2497.891731
1017.196531	2518.056346
1017.489393	2500.412308
1017.782219	2450.000769
1018.075011	2444.959615
1018.367768	2487.809423
1018.660490	2523.097500
1018.953177	2523.097500
1019.245829	2523.097500
