Dividing Wavelength (nm)	Counts (n)	Blue Motor Position (mm): 0.000000	Red Motor Position (mm): 17.400000	
326.493990	2126.797273
326.888308	2126.797273
327.282561	2126.797273
327.676750	2096.290730
328.070874	2096.353745
328.464933	2096.457088
328.858929	2104.490167
329.252859	2113.528956
329.646726	2125.148815
330.040528	2138.084416
330.434265	2155.723413
330.827938	2171.131700
331.221547	2193.232119
331.615091	2210.024202
332.008571	2227.217057
332.401986	2247.111971
332.795338	2268.839344
333.188625	2287.675615
333.581847	2307.532720
333.975006	2325.791780
334.368100	2343.582012
334.761129	2359.471728
335.154095	2375.474871
335.546996	2394.595968
335.939833	2410.077351
336.332606	2424.802562
336.725315	2437.322267
337.117960	2446.285439
337.510540	2454.187448
337.903056	2465.245218
338.295508	2473.701754
338.687896	2484.033599
339.080220	2488.550473
339.472480	2497.148161
339.864676	2500.898779
340.256807	2505.592093
340.648875	2506.504542
341.040879	2508.916734
341.432818	2508.825993
341.824694	2515.056860
342.216506	2511.722136
342.608253	2514.620800
342.999937	2511.815398
343.391557	2514.905625
343.783113	2514.590553
344.174605	2512.695079
344.566033	2510.809688
344.957397	2513.090810
345.348697	2505.884480
345.739934	2505.939933
346.131106	2503.477329
346.522215	2502.418687
346.913260	2498.534478
347.304241	2497.198572
347.695159	2496.727224
348.086012	2494.216730
348.476802	2491.436533
348.867528	2491.739003
349.258191	2491.101297
349.648789	2490.634990
350.039324	2488.926039
350.429796	2488.305977
350.820203	2487.070894
351.210548	2482.579226
351.600828	2482.753146
351.991045	2483.426140
352.381198	2481.079483
352.771288	2482.831284
353.161314	2480.955974
353.551276	2482.367498
353.941175	2481.805409
354.331010	2482.496047
354.720782	2480.963536
355.110490	2483.027889
355.500135	2481.921355
355.889717	2482.221304
356.279235	2482.732981
356.668689	2485.079638
357.058080	2485.470328
357.447408	2483.496716
357.836672	2479.385655
358.225873	2481.321458
358.615010	2483.095944
359.004084	2485.916470
359.393095	2484.315903
359.782043	2487.980822
360.170927	2488.991574
360.559748	2488.883189
360.948505	2488.472335
361.337199	2491.849908
361.725830	2492.482573
362.114398	2490.408138
362.502903	2490.181286
362.891344	2493.896616
363.279722	2490.887047
363.668037	2493.216061
364.056289	2494.297388
364.444478	2492.984168
364.832603	2495.131699
365.220665	2497.496000
365.608665	2496.160094
365.996601	2498.957935
366.384474	2496.155053
366.772284	2499.560353
367.160031	2502.300220
367.547715	2503.953718
367.935336	2503.870539
368.322893	2507.994203
368.710388	2510.746673
369.097820	2518.585667
369.485189	2517.262364
369.872495	2527.090094
370.259738	2532.791639
370.646918	2539.511497
371.034035	2544.426622
371.421090	2558.277192
371.808081	2570.943091
372.195010	2579.230748
372.581875	2589.280288
372.968678	2606.286621
373.355418	2615.970677
373.742096	2631.192441
374.128710	2646.031078
374.515262	2662.379540
374.901751	2676.051149
375.288177	2688.016327
375.674540	2715.654453
376.060841	2732.678430
376.447079	2752.354053
376.833254	2770.308123
377.219367	2778.721809
377.605417	2817.233703
377.991404	2831.643842
378.377329	2848.917355
378.763191	2868.124152
379.148991	2907.523289
379.534727	2928.446598
379.920402	2957.551700
380.306013	2971.493011
380.691563	3023.679036
381.077049	3043.052190
381.462474	3059.017524
381.847835	3098.877928
382.233134	3122.893985
382.618371	3119.652523
383.003545	3188.983512
383.388657	3197.021631
383.773706	3227.807958
384.158693	3245.091554
384.543618	3272.555760
384.928480	3306.051707
385.313280	3351.396886
385.698017	3349.526618
386.082692	3400.817837
386.467305	3409.090371
386.851856	3440.388374
387.236344	3463.237404
387.620770	3494.724451
388.005133	3520.086496
388.389435	3544.422666
388.773674	3558.643761
389.157851	3599.630863
389.541965	3613.672997
389.926018	3581.744849
390.310008	3653.233452
390.693936	3670.504445
391.077802	3712.134293
391.461606	3698.654248
391.845348	3760.279833
392.229027	3759.584154
392.612645	3774.568983
392.996200	3853.011858
393.379694	3893.267992
393.763125	3956.738639
394.146494	3920.200356
394.529801	3983.517249
394.913047	4030.531049
395.296230	3996.394876
395.679351	4051.358577
396.062410	4074.411773
396.445408	4058.655647
396.828343	4089.310903
397.211217	4113.332001
397.594028	4033.220505
397.976778	4097.399435
398.359466	4125.561841
398.742092	4152.811798
399.124656	4075.251125
399.507158	4151.037312
399.889598	4175.350797
400.271977	4237.258686
400.654294	4205.590158
401.036549	4208.057803
401.418742	4179.051003
401.800874	4273.212196
402.182944	4288.381028
402.564952	4349.114328
402.946898	4329.663036
403.328783	4320.404957
403.710606	4225.643868
404.092367	4400.904622
404.474067	4358.695041
404.855705	4352.580122
405.237282	4273.237401
405.618797	4360.605639
406.000250	4379.454513
406.381642	4437.810910
406.762972	4384.145307
407.144240	4375.615674
407.525447	4358.074979
407.906593	4388.155544
408.287677	4406.119696
408.668700	4323.167510
409.049661	4335.959438
409.430560	4347.768340
409.811399	4258.905401
410.192176	4365.820712
410.572891	4287.619813
410.953545	4340.251980
411.334138	4215.180953
411.714669	4232.625866
412.095139	4123.429433
412.475547	4193.004917
412.855894	4145.111435
413.236180	4109.956949
413.616405	4043.791805
413.996568	4066.280392
414.376670	3991.474710
414.756711	3923.797220
415.136691	3903.448602
415.516609	3911.075868
415.896466	3895.188672
416.276262	3871.820403
416.655997	3817.181857
417.035670	3870.701267
417.415283	3876.092781
417.794834	3798.227118
418.174324	3737.226636
418.553753	3645.759941
418.933121	3684.954912
419.312428	3662.194103
419.691674	3592.905963
420.070859	3593.636931
420.449983	3517.452493
420.829045	3515.428470
421.208047	3439.332253
421.586988	3415.298552
421.965867	3379.816390
422.344686	3366.258207
422.723444	3291.485293
423.102141	3204.389278
423.480777	3239.805904
423.859352	3145.163282
424.237866	3165.330418
424.616319	3130.319604
424.994712	3116.413581
425.373044	3060.401321
425.751314	3044.178888
426.129524	2979.972232
426.507673	2980.052890
426.885762	2960.415076
427.263789	2922.888726
427.641756	2882.844321
428.019662	2866.846219
428.397508	2843.606500
428.775292	2812.933599
429.153016	2800.436579
429.530679	2775.311468
429.908282	2758.433685
430.285824	2732.693553
430.663305	2732.529716
431.040726	2698.920343
431.418086	2683.537262
431.795385	2676.832528
432.172624	2667.322391
432.549802	2651.047026
432.926920	2640.836169
433.303977	2633.650004
433.680974	2621.669702
434.057910	2612.726695
434.434786	2603.934922
434.811601	2597.482246
435.188355	2594.202975
435.565050	2585.474217
435.941683	2579.991962
436.318257	2576.846282
436.694770	2568.432597
437.071222	2568.165415
437.447614	2562.431103
437.823946	2556.880793
438.200218	2560.820454
438.576429	2557.145453
438.952580	2557.400031
439.328670	2556.411965
439.704700	2552.109340
440.080670	2549.671942
440.456580	2548.207487
440.832429	2549.014072
441.208218	2548.688917
441.583947	2545.573484
441.959616	2548.320913
442.335224	2545.601211
442.710773	2544.086344
443.086261	2546.059956
443.461689	2542.427804
443.837057	2545.218083
444.212365	2546.092723
444.587612	2543.564585
444.962800	2542.518545
445.337927	2545.429812
445.712995	2540.275232
446.088002	2543.511653
446.462949	2544.870243
446.837837	2542.059800
447.212664	2542.435366
447.587431	2542.947043
447.962139	2544.058618
448.336786	2549.694628
448.711374	2549.389638
449.085901	2544.598021
449.460369	2544.386293
449.834776	2543.839327
450.209124	2544.716488
450.583412	2543.158772
450.957640	2542.803370
451.331808	2543.229348
451.705917	2543.254554
452.079965	2543.985521
452.453954	2542.543751
452.827883	2546.153217
453.201752	2544.625748
453.575562	2540.860006
453.949311	2543.587270
454.323001	2544.386293
454.696632	2542.894111
455.070202	2542.899152
455.443713	2543.183978
455.817164	2542.649615
456.190556	2543.551982
456.563888	2544.940820
456.937160	2541.316230
457.310373	2544.451828
457.683526	2542.843700
458.056619	2544.431663
458.429653	2544.348484
458.802628	2544.822352
459.175542	2547.968032
459.548398	2549.039278
459.921194	2546.201108
460.293930	2548.578012
460.666607	2551.746377
461.039224	2554.171172
461.411782	2553.621687
461.784280	2551.988353
462.156719	2550.798640
462.529099	2553.689742
462.901419	2551.007848
463.273680	2551.562375
463.645882	2550.004659
464.018024	2551.290153
464.390106	2548.608259
464.762130	2552.585729
465.134094	2554.546738
465.505999	2558.776266
465.877845	2562.605023
466.249631	2565.473439
466.621358	2564.306412
466.993026	2562.884807
467.364634	2563.943449
467.736184	2561.145609
468.107674	2560.359189
468.479105	2558.506565
468.850477	2557.669733
469.221790	2559.913047
469.593043	2559.038406
469.964238	2557.589075
470.335373	2559.030845
470.706449	2557.803324
471.077467	2558.408262
471.448425	2564.235836
471.819324	2566.829510
472.190164	2568.815724
472.560945	2562.892368
472.931667	2560.956565
473.302330	2560.931360
473.672934	2557.155535
474.043479	2561.044786
474.413965	2559.401369
474.784393	2556.031358
475.154761	2559.618139
475.525070	2559.411452
475.895321	2555.023127
476.265513	2556.454815
476.635645	2562.960424
477.005719	2563.141906
477.375734	2561.594271
477.745691	2564.674416
478.115588	2561.783315
478.485427	2563.230126
478.855207	2567.923440
479.224928	2569.513924
479.594591	2575.341498
479.964194	2574.781930
480.333739	2572.049624
480.703226	2571.651373
481.072653	2570.741445
481.442022	2574.522310
481.811333	2575.016343
482.180584	2574.086251
482.549777	2571.847978
482.918912	2573.090623
483.287988	2572.631878
483.657005	2574.209759
484.025964	2570.635581
484.394864	2572.911662
484.763706	2571.613565
485.132489	2567.764644
485.501213	2568.994685
485.869879	2568.830848
486.238487	2568.147771
486.607036	2568.147771
486.975527	2569.377813
487.343959	2569.725653
487.712333	2568.450241
488.080648	2566.146433
488.448905	2569.304716
488.817104	2568.987123
489.185244	2569.050138
489.553326	2570.275138
489.921350	2571.449727
490.289315	2573.899728
490.657222	2576.611869
491.025070	2574.194635
491.392861	2573.113308
491.760593	2574.509707
492.128267	2570.600293
492.495883	2572.261353
492.863440	2569.385375
493.230939	2567.764644
493.598380	2567.867987
493.965763	2561.294323
494.333088	2565.397822
494.700354	2563.320867
495.067563	2563.691391
495.434713	2563.734241
495.801805	2566.103583
496.168839	2567.510065
496.535815	2568.354459
496.902733	2566.917730
497.269593	2567.646177
497.636395	2568.299006
498.003139	2565.304561
498.369825	2567.515107
498.736453	2565.675085
499.103023	2567.699109
499.469535	2570.207083
499.835989	2568.326732
500.202385	2566.365723
500.568723	2566.804304
500.935003	2569.871846
501.301226	2564.765157
501.667390	2569.282031
502.033497	2569.899572
502.399546	2569.710529
502.765537	2565.342369
503.131470	2568.838409
503.497345	2566.572411
503.863163	2567.686506
504.228923	2568.893862
504.594625	2568.863615
504.960269	2564.084601
505.325856	2567.994016
505.691385	2566.234653
506.056856	2568.810683
506.422270	2569.496280
506.787625	2567.653738
507.152924	2568.321691
507.518164	2565.841443
507.883347	2566.516958
508.248472	2568.838409
508.613540	2568.876218
508.978550	2568.989644
509.343503	2567.769685
509.708398	2569.161043
510.073236	2570.880077
510.438016	2567.822617
510.802738	2569.317319
511.167403	2572.654563
511.532010	2567.300857
511.896561	2572.652042
512.261053	2573.221693
512.625488	2568.263718
512.989866	2567.164746
513.354186	2566.761454
513.718449	2564.639128
514.082655	2568.777916
514.446803	2569.365210
514.810894	2569.443348
515.174927	2571.996692
515.538904	2570.993503
515.902822	2569.201373
516.266684	2569.579459
516.630488	2572.294120
516.994235	2572.846127
517.357925	2570.544840
517.721558	2571.162381
518.085133	2569.455951
518.448651	2571.419480
518.812112	2572.304203
519.175516	2571.326219
519.538863	2570.829665
519.902152	2573.138514
520.265385	2568.651887
520.628560	2572.430232
520.991678	2570.345714
521.354739	2570.421332
521.717743	2568.815724
522.080690	2570.418811
522.443580	2571.384192
522.806413	2573.569532
523.169189	2571.101887
523.531908	2572.667166
523.894569	2568.513255
524.257174	2570.451579
524.619722	2570.559963
524.982213	2573.599779
525.344647	2571.706826
525.707025	2573.395613
526.069345	2571.031311
526.431608	2574.131621
526.793815	2572.241188
527.155964	2573.579615
527.518057	2568.130127
527.880093	2571.913513
528.242072	2571.384192
528.603995	2572.069789
528.965860	2572.142886
529.327669	2572.576425
529.689421	2570.378482
530.051117	2571.590879
530.412755	2570.348235
530.774337	2572.994841
531.135862	2572.820921
531.497331	2569.166084
531.858743	2567.510065
532.220098	2568.528378
532.581396	2567.434448
532.942638	2568.140210
533.303824	2570.217165
533.664953	2571.953842
534.026025	2568.818245
534.387040	2572.773030
534.747999	2568.825807
535.108902	2569.589541
535.469748	2571.263204
535.830537	2570.438976
536.191270	2569.408060
536.551947	2569.110632
536.912567	2569.614747
537.273131	2570.426373
537.633638	2569.413101
537.994089	2570.239850
538.354483	2569.506362
538.714821	2570.832186
539.075103	2569.319840
539.435328	2569.992834
539.795497	2570.161712
540.155609	2571.928637
540.515665	2572.452917
540.875665	2568.024263
541.235609	2571.729511
541.595496	2571.197669
541.955328	2569.362689
542.315102	2569.274469
542.674821	2569.655076
543.034483	2572.057186
543.394090	2568.480488
543.753640	2572.263873
544.113134	2569.153482
544.472571	2571.517783
544.831953	2569.710529
545.191278	2569.113152
545.550548	2568.185580
545.909761	2569.103070
546.268918	2566.826989
546.628019	2570.532237
546.987064	2567.517627
547.346053	2571.061558
547.704986	2569.355128
548.063863	2570.204562
548.422684	2568.074675
548.781449	2567.620971
549.140158	2572.079871
549.498811	2570.197000
549.857408	2570.012998
550.215949	2568.039387
550.574434	2566.421176
550.932864	2565.833882
551.291237	2566.388409
551.649555	2566.882442
552.007817	2568.881259
552.366022	2570.824624
552.724173	2572.387382
553.082267	2568.815724
553.440305	2567.963769
553.798288	2569.524006
554.156215	2568.601475
554.514086	2571.666497
554.871902	2567.114335
555.229661	2571.013667
555.587365	2568.772874
555.945014	2571.457289
556.302606	2566.302709
556.660143	2568.735066
557.017625	2568.266238
557.375050	2568.220868
557.732421	2568.944274
558.089735	2571.278328
558.446994	2570.111301
558.804197	2569.955025
559.161345	2568.041907
559.518437	2568.581311
559.875474	2567.331104
560.232455	2569.587021
560.589381	2570.786815
560.946251	2569.289593
561.303065	2570.784295
561.659825	2569.092988
562.016528	2566.353121
562.373177	2568.611557
562.729770	2569.476115
563.086307	2569.100549
563.442789	2569.440827
563.799216	2568.661969
564.155587	2568.485529
564.511904	2569.352607
564.868164	2568.125086
565.224370	2569.458471
565.580520	2570.088616
565.936615	2568.122566
566.292654	2567.131979
566.648638	2568.893862
567.004567	2569.763461
567.360441	2569.503842
567.716260	2568.717422
568.072023	2568.833368
568.427732	2561.075032
568.783385	2567.341187
569.138982	2564.069478
569.494525	2564.424879
569.850013	2564.175342
570.205445	2567.646177
570.560823	2565.367575
570.916145	2568.528378
571.271412	2568.515776
571.626625	2567.164746
571.981782	2565.019735
572.336884	2566.206927
572.691931	2568.631722
573.046923	2565.538974
573.401860	2566.642987
573.756743	2566.978224
574.111570	2567.759603
574.466342	2566.426217
574.821059	2565.354972
575.175722	2565.309602
575.530330	2566.426217
575.884882	2568.157854
576.239380	2567.389078
576.593823	2571.411918
576.948211	2568.987123
577.302544	2565.566701
577.656823	2563.633418
578.011047	2566.267421
578.365216	2566.627863
578.719330	2567.608368
579.073389	2566.650549
579.427394	2563.746844
579.781344	2565.720456
580.135239	2565.170970
580.489080	2564.802966
580.842866	2564.051834
581.196597	2570.824624
581.550273	2565.654921
581.903895	2565.899417
582.257463	2563.945970
582.610975	2564.313974
582.964434	2563.749365
583.317837	2566.456464
583.671186	2565.659962
584.024481	2563.353634
584.377721	2562.620146
584.730906	2563.585527
585.084037	2562.456309
585.437113	2563.356155
585.790135	2563.257852
586.143103	2563.882955
586.496016	2565.233984
586.848874	2558.123437
587.201679	2562.264745
587.554428	2559.219888
587.907124	2563.252811
588.259765	2558.751061
588.612352	2562.302553
588.964884	2562.093346
589.317362	2563.986299
589.669786	2561.135526
590.022155	2561.785835
590.374470	2563.416648
590.726731	2564.593758
591.078937	2561.047306
591.431090	2563.068809
591.783188	2566.232133
592.135232	2562.675599
592.487222	2560.792728
592.839157	2563.784653
593.191038	2561.001936
593.542866	2563.053685
593.894639	2563.905640
594.246358	2563.464539
594.598022	2560.207954
594.949633	2564.445044
595.301190	2562.060578
595.652692	2562.088304
596.004141	2559.313149
596.355535	2562.824313
596.706876	2562.277348
597.058162	2559.431616
597.409395	2561.347255
597.760573	2561.284240
598.111698	2561.208623
598.462768	2558.935063
598.813785	2561.483366
599.164748	2559.882800
599.515657	2559.872717
599.866511	2558.743499
600.217312	2560.212995
600.568060	2561.064950
600.918753	2563.905640
601.269392	2560.994374
601.619978	2559.580330
601.970510	2561.518654
602.320988	2561.634601
602.671412	2559.751730
603.021783	2561.690053
603.372100	2563.043603
603.722363	2558.607388
604.072572	2561.281720
604.422728	2562.955383
604.772830	2558.025134
605.122878	2556.298539
605.472872	2554.952551
605.822813	2557.178221
606.172701	2558.322563
606.522534	2560.656617
606.872314	2560.437327
607.222041	2558.380536
607.571714	2560.207954
607.921333	2558.907336
608.270899	2559.466904
608.620411	2559.131668
608.969870	2561.299364
609.319276	2560.278530
609.668627	2566.065775
610.017926	2565.140723
610.367171	2568.326732
610.716362	2566.532082
611.065500	2562.269786
611.414585	2563.295661
611.763616	2564.051834
612.112594	2558.872048
612.461518	2561.654765
612.810389	2561.105279
613.159207	2561.916905
613.507971	2563.058727
613.856682	2560.560835
614.205340	2563.227605
614.553945	2559.759291
614.902496	2560.475135
615.250994	2559.323232
615.599439	2558.730896
615.947830	2561.538819
616.296169	2559.643345
616.644454	2558.297357
616.992686	2559.736606
617.340864	2560.797769
617.688990	2561.279199
618.037063	2563.787173
618.385082	2561.110321
618.733048	2563.096535
619.080961	2558.637635
619.428821	2561.803479
619.776628	2558.496482
620.124382	2561.291802
620.472083	2557.954558
620.819731	2562.352965
621.167326	2559.169476
621.514868	2561.294323
621.862357	2558.360371
622.209793	2562.476473
622.557176	2559.192162
622.904506	2556.850546
623.251783	2550.420554
623.599007	2554.171172
623.946179	2552.903322
624.293297	2553.848538
624.640363	2558.569579
624.987376	2555.376008
625.334336	2557.379867
625.681243	2557.314332
626.028097	2556.233004
626.374899	2557.531101
626.721647	2556.296019
627.068343	2556.054043
627.414987	2554.859290
627.761577	2555.549928
628.108115	2557.188303
628.454600	2555.128992
628.801032	2555.557490
629.147412	2554.960113
629.493739	2555.229815
629.840014	2558.672923
630.186236	2553.783003
630.532405	2556.013714
630.878521	2556.800134
631.224585	2556.081770
631.570597	2554.619835
631.916556	2554.745864
632.262462	2555.590257
632.608316	2553.357026
632.954117	2553.644372
633.299866	2557.074877
633.645562	2554.009855
633.991206	2555.224773
634.336797	2554.569423
634.682336	2554.224104
635.027823	2553.062118
635.373257	2553.062118
635.718639	2552.956254
636.063968	2555.781821
636.409245	2552.545400
636.754470	2552.784855
637.099642	2553.944320
637.444762	2553.919115
637.789829	2551.814433
638.134845	2552.651264
638.479808	2550.307128
638.824719	2551.806871
639.169577	2552.182437
639.514383	2550.569268
639.859137	2552.807540
640.203839	2553.709907
640.548489	2552.711758
640.893086	2552.389124
641.237632	2546.985007
641.582125	2550.150852
641.926566	2548.540203
642.270955	2552.379042
642.615292	2551.453990
642.959576	2551.378373
643.303809	2553.034392
643.647990	2555.076059
643.992118	2552.424413
644.336195	2555.628066
644.680219	2551.264947
645.024192	2551.154042
645.368112	2551.769063
645.711981	2553.493137
646.055797	2552.918446
646.399562	2550.115564
646.743274	2551.418702
647.086935	2551.942982
647.430544	2550.624721
647.774101	2552.729402
648.117606	2554.740823
648.461059	2553.541028
648.804460	2553.515822
649.147810	2554.100596
649.491108	2553.725030
649.834354	2552.779814
650.177548	2549.641696
650.520690	2552.961295
650.863781	2550.526418
651.206820	2555.242417
651.549807	2553.488096
651.892742	2548.588094
652.235626	2549.190512
652.578458	2552.069011
652.921238	2549.495502
653.263967	2551.791748
653.606644	2548.963660
653.949269	2552.114382
654.291843	2550.155893
654.634365	2550.327293
654.976836	2550.954916
655.319255	2549.099772
655.661622	2550.551624
656.003938	2550.266799
656.346203	2550.854093
656.688416	2551.484237
657.030577	2552.494989
657.372687	2549.624052
657.714746	2548.265461
658.056753	2552.096738
658.398708	2546.014585
658.740612	2547.516849
659.082465	2546.526262
659.424266	2549.303938
659.766016	2545.049204
660.107715	2547.907539
660.449362	2548.641027
660.790958	2551.015410
661.132503	2549.654298
661.473996	2548.094061
661.815438	2550.392828
662.156829	2549.727395
662.498168	2552.492468
662.839456	2549.838301
663.180693	2550.508774
663.521879	2547.892415
663.863013	2551.020451
664.204097	2550.208825
664.545129	2553.702345
664.886110	2549.190512
665.227040	2550.488609
665.567918	2548.152035
665.908746	2548.545245
666.249522	2549.485420
666.590248	2550.470965
666.930922	2549.435008
667.271545	2548.668753
667.612118	2551.398538
667.952639	2549.646737
668.293109	2553.704866
668.633528	2550.332334
668.973896	2549.742519
669.314213	2549.576161
669.654480	2550.231511
669.994695	2547.791592
670.334859	2550.813764
670.674973	2552.709238
671.015035	2549.954247
671.355047	2546.828732
671.695008	2548.653629
672.034918	2550.886861
672.374777	2549.745039
672.714585	2549.535831
673.054342	2549.739998
673.394049	2548.988866
673.733705	2551.453990
674.073310	2548.681356
674.412864	2550.387786
674.752368	2546.911911
675.091820	2551.045657
675.431223	2549.145142
675.770574	2549.492982
676.109875	2544.282949
676.449125	2546.841335
676.788324	2546.211190
677.127473	2546.049873
677.466571	2543.433515
677.805619	2548.956099
678.144616	2548.512477
678.483562	2550.808723
678.822458	2548.099103
679.161303	2550.307128
679.500098	2545.893598
679.838842	2547.579864
680.177535	2547.839483
680.516179	2548.633465
680.854771	2547.416026
681.193314	2547.705892
681.531805	2550.501212
681.870247	2549.288815
682.208638	2548.842673
682.546978	2550.097920
682.885268	2553.276367
683.223508	2550.541542
683.561697	2549.046839
683.899836	2550.818805
684.237925	2549.382076
684.575963	2548.305790
684.913951	2549.427447
685.251889	2550.528939
685.589776	2548.840152
685.927614	2550.949875
686.265401	2549.835780
686.603137	2549.659340
686.940824	2548.691438
687.278460	2549.528270
687.616046	2549.344267
687.953582	2551.088507
688.291068	2547.690769
688.628504	2549.641696
688.965889	2548.250337
689.303224	2550.186140
689.640510	2550.221428
689.977745	2551.272509
690.314930	2550.390307
690.652065	2549.276212
690.989150	2549.934082
691.326185	2549.243444
691.663170	2547.068187
692.000105	2548.162117
692.336990	2545.293700
692.673825	2550.095399
693.010610	2547.400903
693.347345	2542.576518
693.684030	2542.584080
694.020665	2545.492826
694.357251	2539.597197
694.693786	2544.083823
695.030272	2543.229348
695.366707	2546.743032
695.703093	2546.329658
696.039429	2546.327137
696.375716	2546.730429
696.711952	2547.058104
697.048139	2546.251520
697.384276	2546.753114
697.720363	2544.746735
698.056400	2544.686241
698.392388	2544.963505
698.728326	2545.865871
699.064214	2546.574153
699.400053	2545.321427
699.735842	2545.744884
700.071581	2545.528114
700.407270	2543.927548
700.742910	2542.208514
701.078501	2545.162630
701.414042	2545.538196
701.749533	2542.818494
702.084974	2545.079451
702.420366	2546.639688
702.755709	2543.325130
703.091002	2543.259595
703.426246	2544.051056
703.761440	2546.853938
704.096584	2546.001982
704.431679	2546.226314
704.766725	2545.114739
705.101721	2545.306303
705.436668	2544.741694
705.771565	2543.483926
706.106413	2544.986190
706.441212	2545.760007
706.775961	2543.272198
707.110661	2544.023330
707.445311	2546.359904
707.779913	2543.259595
708.114465	2545.331509
708.448967	2545.492826
708.783421	2544.943340
709.117825	2543.095757
709.452180	2546.012065
709.786485	2544.010727
710.120742	2546.430481
710.454949	2545.092054
710.789107	2542.730274
711.123216	2542.581560
711.457275	2544.280428
711.791286	2543.521735
712.125247	2540.504604
712.459159	2545.767569
712.793023	2545.195398
713.126837	2541.777496
713.460602	2547.141283
713.794318	2547.486602
714.127985	2543.791437
714.461602	2542.420243
714.795171	2546.790923
715.128691	2544.156920
715.462162	2546.380069
715.795584	2543.494008
716.128957	2545.641540
716.462281	2542.135417
716.795556	2543.725902
717.128782	2540.847403
717.461960	2543.804039
717.795088	2542.821014
718.128167	2542.793288
718.461198	2541.485109
718.794180	2545.717157
719.127113	2542.843700
719.459997	2542.475695
719.792833	2543.186498
720.125619	2542.823535
720.458357	2538.858668
720.791046	2539.942516
721.123686	2544.187167
721.456278	2543.965356
721.788821	2538.783050
722.121315	2545.429812
722.453761	2542.286652
722.786158	2542.740356
723.118506	2540.640715
723.450805	2542.881508
723.783056	2544.119112
724.115259	2542.672300
724.447412	2541.210366
724.779518	2542.924358
725.111574	2542.508463
725.443582	2544.769420
725.775542	2544.240099
726.107453	2542.891591
726.439315	2544.547610
726.771129	2547.398382
727.102895	2543.257074
727.434612	2543.332692
727.766281	2544.318237
728.097901	2541.792619
728.429473	2540.083668
728.760996	2541.921168
729.092471	2537.616023
729.423897	2544.272867
729.755276	2543.993083
730.086606	2544.255223
730.417887	2543.015099
730.749120	2544.305634
731.080305	2542.846220
731.411442	2546.039791
731.742530	2543.869574
732.073570	2545.157589
732.404562	2544.852599
732.735506	2544.839997
733.066401	2544.083823
733.397249	2543.645243
733.728048	2544.179605
734.058798	2543.229348
734.389501	2543.965356
734.720156	2545.218083
735.050762	2542.072403
735.381320	2538.924202
735.711831	2543.244471
736.042293	2544.444266
736.372707	2540.960829
736.703073	2541.548123
737.033391	2541.301107
737.363661	2542.561395
737.693883	2541.822866
738.024056	2542.299255
738.354182	2540.754141
738.684260	2543.408309
739.014290	2541.938813
739.344272	2540.431507
739.674207	2539.932433
740.004093	2543.410829
740.333931	2543.226827
740.663722	2541.545602
740.993464	2545.248330
741.323159	2542.281611
741.652806	2544.040974
741.982405	2545.918803
742.311956	2542.004348
742.641460	2541.462423
742.970915	2541.868236
743.300323	2539.861857
743.629683	2540.822197
743.958996	2540.305479
744.288260	2542.478216
744.617477	2539.619882
744.946647	2538.162988
745.275768	2537.797505
745.604842	2538.566281
745.933869	2538.389840
746.262847	2536.091074
746.591778	2538.639377
746.920662	2538.636857
747.249498	2539.975283
747.578286	2540.285314
747.907027	2538.236085
748.235720	2542.054759
748.564365	2540.522248
748.892963	2542.848741
749.221514	2541.643905
749.550017	2541.220448
749.878473	2540.739018
750.206881	2542.478216
750.535242	2542.112732
750.863555	2539.516538
751.191821	2540.247505
751.520039	2540.066024
751.848210	2540.865047
752.176334	2540.434028
752.504411	2539.115766
752.832440	2538.316743
753.160421	2539.279604
753.488356	2539.161137
753.816243	2542.891591
754.144082	2539.103163
754.471875	2539.992927
754.799620	2539.831610
755.127318	2538.389840
755.454969	2538.394881
755.782572	2542.284132
756.110129	2542.067362
756.437638	2543.360418
756.765100	2539.226672
757.092515	2539.483771
757.419882	2539.695499
757.747203	2539.304810
758.074477	2539.372865
758.401703	2535.733152
758.728882	2537.565612
759.056014	2540.739018
759.383099	2540.897814
759.710138	2538.904038
760.037129	2540.214738
760.364073	2539.874460
760.690970	2540.933102
761.017820	2538.692309
761.344623	2540.817156
761.671379	2541.079296
761.998088	2535.004705
762.324751	2537.830272
762.651366	2540.706250
762.977935	2545.956612
763.304456	2543.864533
763.630931	2550.148332
763.957359	2548.104144
764.283740	2545.598690
764.610074	2546.196067
764.936362	2543.345294
765.262602	2541.134748
765.588796	2541.406971
765.914943	2540.277752
766.241044	2541.331353
766.567097	2541.570808
766.893104	2539.372865
767.219064	2536.169212
767.544978	2540.187012
767.870845	2539.221631
768.196665	2541.084337
768.522438	2536.799356
768.848165	2539.077958
769.173846	2540.512166
769.499479	2538.218441
769.825066	2538.982176
770.150607	2537.618544
770.476101	2539.108205
770.801548	2539.909748
771.126949	2540.222300
771.452303	2539.602238
771.777611	2536.869932
772.102872	2536.663245
772.428087	2538.223482
772.753256	2538.039480
773.078378	2539.483771
773.403453	2542.742877
773.728482	2537.331198
774.053465	2536.086033
774.378401	2536.738862
774.703291	2538.490663
775.028135	2536.915303
775.352932	2537.550488
775.677683	2537.147196
776.002388	2538.097453
776.327046	2537.230375
776.651658	2537.512679
776.976224	2537.177443
777.300743	2538.039480
777.625216	2537.058976
777.949643	2535.957483
778.274024	2538.278935
778.598359	2533.769623
778.922647	2534.092257
779.246889	2533.331042
779.571086	2532.688295
779.895236	2535.287010
780.219339	2534.654345
780.543397	2535.602082
780.867409	2534.987061
781.191374	2536.330529
781.515294	2538.478060
781.839167	2536.466640
782.162995	2538.082330
782.486776	2537.641229
782.810511	2538.616692
783.134201	2539.287166
783.457844	2536.121321
783.781441	2538.203317
784.104993	2535.556712
784.428498	2537.023687
784.751958	2536.945550
785.075372	2539.622402
785.398739	2536.544778
785.722061	2538.268853
786.045337	2537.001002
786.368568	2534.568646
786.691752	2538.455375
787.014891	2538.059645
787.337983	2537.003523
787.661030	2537.616023
787.984031	2539.468647
788.306987	2537.663914
788.629897	2539.357742
788.952760	2537.003523
789.275579	2538.485622
789.598351	2540.368493
789.921078	2535.178625
790.243759	2538.236085
790.566395	2535.128214
790.888984	2535.115611
791.211529	2536.809438
791.534027	2537.495035
791.856480	2535.092926
792.178888	2535.027391
792.501249	2536.033101
792.823566	2537.043852
793.145836	2537.187525
793.468062	2534.944212
793.790241	2534.722401
794.112375	2538.462937
794.434464	2535.312216
794.756507	2536.479243
795.078505	2539.171219
795.400457	2534.324150
795.722364	2534.553522
796.044226	2533.205013
796.366042	2532.589993
796.687812	2533.923378
797.009538	2536.698533
797.331218	2535.531506
797.652852	2537.870601
797.974442	2535.889428
798.295986	2537.777340
798.617484	2537.880684
798.938938	2534.649304
799.260346	2538.732639
799.581709	2535.206352
799.903026	2537.162319
800.224299	2534.795497
800.545526	2535.297092
800.866708	2534.140148
801.187845	2535.266845
801.508936	2534.036804
801.829983	2533.983872
802.150984	2537.099305
802.471940	2536.249870
802.792851	2534.430014
803.113717	2537.300951
803.434538	2534.072092
803.755314	2535.029911
804.076045	2535.347504
804.396731	2536.489325
804.717372	2536.638039
805.037967	2537.462268
805.358518	2536.746424
805.679024	2535.579397
805.999485	2535.402957
806.319901	2537.341280
806.640272	2536.539737
806.960598	2536.383461
807.280879	2533.774664
807.601115	2534.818183
807.921306	2533.883049
808.241453	2535.294572
808.561554	2534.888759
808.881611	2536.794315
809.201623	2537.689120
809.521590	2536.779192
809.841513	2535.057638
810.161390	2536.930426
810.481223	2532.842050
810.801011	2536.980838
811.120755	2536.383461
811.440453	2534.356917
811.760107	2532.645445
812.079716	2533.600744
812.399281	2532.589993
812.718801	2533.139478
813.038276	2530.984385
813.357707	2535.155940
813.677093	2534.961856
813.996434	2536.433872
814.315731	2534.351876
814.634983	2537.673996
814.954191	2532.312729
815.273354	2535.632329
815.592473	2536.703574
815.911547	2537.053934
816.230577	2538.236085
816.549562	2538.382278
816.868502	2533.091588
817.187399	2537.321116
817.506250	2533.820034
817.825058	2535.576876
818.143821	2534.709798
818.462539	2536.151568
818.781213	2536.471681
819.099843	2534.198121
819.418429	2535.944881
819.736970	2540.222300
820.055466	2540.076106
820.373919	2543.720860
820.692327	2542.750438
821.010691	2545.157589
821.329011	2550.801161
821.647286	2567.817576
821.965517	2578.416602
822.283704	2586.358940
822.601847	2588.055288
822.919945	2582.605801
823.237999	2574.333267
823.556010	2564.581155
823.873976	2559.504713
824.191897	2551.819474
824.509775	2551.811912
824.827609	2549.326623
825.145398	2543.559543
825.463144	2547.398382
825.780845	2546.919473
826.098502	2546.939637
826.416116	2550.319731
826.733685	2556.752243
827.051210	2556.222922
827.368692	2554.093034
827.686129	2551.799309
828.003522	2547.526932
828.320872	2542.942002
828.638177	2539.791281
828.955439	2539.544264
829.272656	2534.644263
829.589830	2535.158461
829.906960	2537.772299
830.224046	2536.670807
830.541088	2539.670293
830.858086	2537.341280
831.175041	2538.311702
831.491952	2534.092257
831.808819	2537.217772
832.125642	2536.353214
832.442421	2537.805066
832.759157	2540.834800
833.075849	2540.612989
833.392497	2544.691282
833.709101	2546.470810
834.025662	2545.467620
834.342179	2541.394368
834.658653	2541.611138
834.975083	2540.665921
835.291469	2544.149358
835.607811	2536.824562
835.924110	2539.256919
836.240366	2538.226003
836.556578	2539.314892
836.872746	2537.905889
837.188871	2532.479087
837.504952	2533.688964
837.820990	2537.114428
838.136984	2535.249201
838.452935	2533.086546
838.768842	2538.505787
839.084706	2533.499921
839.400526	2534.493028
839.716303	2535.012267
840.032037	2539.955118
840.347727	2537.948739
840.663373	2536.053265
840.978977	2537.248019
841.294537	2536.123842
841.610054	2536.244829
841.925527	2535.687782
842.240957	2533.973789
842.556344	2536.136444
842.871687	2531.811134
843.186987	2532.363141
843.502244	2533.507483
843.817458	2531.732997
844.132629	2533.013450
844.447756	2533.139478
844.762840	2531.455733
845.077881	2532.718542
845.392879	2529.945908
845.707833	2531.773326
846.022745	2528.496576
846.337613	2530.961700
846.652438	2533.114273
846.967221	2534.014119
847.281960	2531.775846
847.596656	2533.893131
847.911309	2532.796680
848.225919	2532.751310
848.540485	2533.477236
848.855009	2533.051258
849.169490	2532.980682
849.483928	2533.676361
849.798323	2532.469005
850.112675	2532.486649
850.426984	2535.460930
850.741251	2532.617719
851.055474	2532.857174
851.369654	2531.707791
851.683792	2530.321473
851.997887	2531.538912
852.311938	2530.596216
852.625947	2532.322812
852.939914	2534.130065
853.253837	2534.286341
853.567718	2533.880528
853.881555	2532.965559
854.195350	2531.317101
854.509103	2534.760209
854.822812	2532.824406
855.136479	2531.866587
855.450103	2533.278110
855.763685	2532.209386
856.077224	2531.528830
856.390720	2533.938501
856.704173	2533.419262
857.017584	2532.151412
857.330953	2532.277441
857.644278	2530.132430
857.957561	2533.005888
858.270802	2534.477905
858.584000	2533.444468
858.897155	2531.891793
859.210268	2531.947246
859.523339	2530.744930
859.836367	2530.971782
860.149352	2534.485467
860.462295	2533.139478
860.775195	2529.388860
861.088054	2528.869621
861.400869	2530.626463
861.713642	2530.724766
862.026373	2531.097811
862.339062	2530.886083
862.651708	2531.773326
862.964312	2533.557894
863.276873	2534.288862
863.589392	2531.430527
863.901869	2531.196114
864.214303	2534.901362
864.526696	2531.425486
864.839045	2532.330373
865.151353	2534.790456
865.463619	2533.119314
865.775842	2531.087729
866.088023	2532.448840
866.400162	2533.681402
866.712258	2533.711649
867.024313	2530.329035
867.336325	2533.779705
867.648296	2533.008408
867.960224	2534.858512
868.272110	2530.550846
868.583954	2531.939684
868.895755	2533.688964
869.207515	2532.849612
869.519233	2532.443799
869.830909	2533.068902
870.142542	2532.806762
870.454134	2535.120652
870.765684	2529.774508
871.077191	2531.962369
871.388657	2534.823224
871.700081	2535.418080
872.011463	2531.828778
872.322803	2532.383305
872.634101	2533.167205
872.945357	2532.516896
873.256571	2533.570497
873.567744	2532.335414
873.878874	2535.057637
874.189963	2535.879346
874.501010	2533.988913
874.812015	2533.479756
875.122979	2535.758358
875.433900	2534.188038
875.744780	2534.364479
876.055618	2532.453882
876.366415	2534.016639
876.677169	2536.169212
876.987882	2533.636032
877.298554	2529.721576
877.609183	2531.060003
877.919771	2527.531195
878.230317	2530.946577
878.540822	2534.044366
878.851285	2537.381609
879.161707	2537.616023
879.472087	2535.763399
879.782425	2535.299613
880.092722	2540.098791
880.402977	2541.512835
880.713191	2551.680842
881.023363	2558.360371
881.333494	2562.342883
881.643583	2564.117369
881.953631	2561.450598
882.263637	2562.390774
882.573602	2560.399518
882.883526	2558.267110
883.193408	2551.695966
883.503248	2548.807385
883.813048	2546.007024
884.122806	2542.899152
884.432522	2542.276570
884.742197	2541.346477
885.051831	2539.909748
885.361424	2535.735673
885.670975	2537.671476
885.980485	2536.723739
886.289954	2537.288348
886.599382	2533.739376
886.908768	2533.888090
887.218113	2533.671320
887.527417	2536.464119
887.836680	2533.434386
888.145901	2532.675692
888.455082	2531.067564
888.764221	2533.386495
889.073319	2532.340456
889.382376	2535.077802
889.691392	2532.295085
890.000366	2533.883049
890.309300	2535.254242
890.618193	2533.830117
890.927044	2534.334232
891.235855	2534.084695
891.544625	2536.398584
891.853353	2534.223327
892.162041	2534.452699
892.470687	2533.547812
892.779293	2534.913965
893.087858	2531.662420
893.396381	2533.779705
893.704864	2533.651156
894.013306	2532.017822
894.321707	2537.174922
894.630068	2541.754810
894.938387	2541.863195
895.246665	2541.172557
895.554903	2541.555685
895.863100	2538.611651
896.171256	2539.755993
896.479371	2542.700027
896.787446	2537.565612
897.095480	2536.264994
897.403473	2535.980169
897.711425	2534.296423
898.019336	2534.989582
898.327207	2531.584283
898.635038	2534.641742
898.942827	2533.336083
899.250576	2535.153419
899.558284	2534.314067
899.865952	2534.477905
900.173579	2533.547812
900.481165	2533.787267
900.788711	2533.157122
901.096216	2532.128727
901.403681	2534.240971
901.711105	2533.663758
902.018489	2531.803573
902.325832	2537.366486
902.633135	2530.346679
902.940397	2532.131248
903.247619	2533.996475
903.554800	2535.158461
903.861941	2539.035108
904.169041	2545.631458
904.476101	2545.029040
904.783121	2548.116747
905.090100	2544.663556
905.397039	2542.498381
905.703938	2541.659028
906.010796	2538.841023
906.317614	2537.031249
906.624391	2533.857843
906.931129	2533.857843
907.237826	2534.160312
907.544483	2532.716022
907.851099	2533.172246
908.157675	2533.820034
908.464211	2531.584282
908.770707	2527.702594
909.077163	2528.920033
909.383578	2525.633200
909.689954	2528.678057
909.996289	2528.221833
910.302584	2530.697039
910.608839	2529.396422
910.915054	2529.479601
911.221229	2529.822399
911.527363	2530.414735
911.833458	2531.622091
912.139513	2532.589993
912.445527	2530.059333
912.751502	2531.667462
913.057436	2530.490352
913.363331	2533.620909
913.669186	2530.812986
913.975000	2534.538399
914.280775	2532.602596
914.586510	2533.814993
914.892205	2537.305992
915.197859	2540.532331
915.503475	2540.771785
915.809050	2542.616848
916.114585	2547.262271
916.420081	2546.077600
916.725536	2542.064841
917.030952	2544.212373
917.336328	2542.357228
917.641665	2541.001158
917.946961	2537.694161
918.252218	2539.451003
918.557435	2534.223327
918.862612	2534.843388
919.167750	2535.027391
919.472848	2535.549150
919.777906	2534.079654
920.082925	2535.798687
920.387904	2536.287679
920.692843	2533.048738
920.997743	2532.060672
921.302603	2530.243336
921.607423	2532.494211
921.912204	2534.324150
922.216946	2531.072605
922.521647	2532.269879
922.826310	2532.579910
923.130932	2533.595703
923.435516	2531.095291
923.740059	2530.094622
924.044564	2533.058820
924.349028	2530.936494
924.653454	2526.979188
924.957840	2527.934487
925.262186	2527.082532
925.566493	2526.880886
925.870761	2527.490866
926.174989	2530.709642
926.479178	2528.211751
926.783328	2532.201824
927.087438	2531.145702
927.391509	2532.290044
927.695541	2529.895496
927.999533	2529.192255
928.303486	2528.708304
928.607400	2527.574045
928.911275	2529.623274
929.215110	2528.751154
929.518906	2527.085053
929.822663	2532.758871
930.126381	2530.749972
930.430060	2527.508510
930.733699	2531.004550
931.037299	2530.838192
931.340861	2530.941535
931.644383	2529.658562
931.947866	2529.250228
932.251309	2530.757533
932.554714	2529.030938
932.858080	2529.492204
933.161407	2529.837523
933.464694	2530.686957
933.767943	2529.577903
934.071153	2532.151412
934.374323	2529.275434
934.677455	2531.916999
934.980548	2530.248377
935.283602	2529.260311
935.586617	2528.650331
935.889593	2530.061854
936.192530	2530.119827
936.495428	2528.068078
936.798287	2532.698378
937.101108	2529.716535
937.403890	2530.477749
937.706632	2531.150743
938.009336	2531.289375
938.312002	2529.101514
938.614628	2531.097811
938.917216	2532.627801
939.219765	2531.559077
939.522275	2529.177132
939.824747	2531.473377
940.127179	2530.187883
940.429573	2528.632687
940.731929	2527.528674
941.034246	2524.382994
941.336524	2531.521268
941.638763	2529.779549
941.940964	2530.896165
942.243126	2530.598737
942.545250	2531.501103
942.847335	2528.544467
943.149381	2528.705784
943.451389	2529.298119
943.753359	2532.453882
944.055290	2530.024045
944.357182	2529.439272
944.659036	2530.916330
944.960851	2530.734848
945.262628	2528.932636
945.564367	2531.019673
945.866067	2529.194776
946.167729	2531.284334
946.469352	2527.695032
946.770937	2532.358100
947.072484	2528.088242
947.373992	2528.398273
947.675462	2530.026566
947.976893	2532.075795
948.278286	2527.238808
948.579641	2529.570342
948.880958	2528.597399
949.182236	2531.438089
949.483476	2530.505476
949.784678	2527.652183
950.085841	2528.637728
950.386967	2531.044879
950.688054	2530.984385
950.989103	2530.613860
951.290114	2525.860052
951.591087	2527.327028
951.892021	2527.143026
952.192917	2532.486649
952.493776	2529.421627
952.794596	2531.911958
953.095378	2529.824920
953.396122	2530.949097
953.696828	2530.946577
953.997496	2531.145702
954.298126	2528.005063
954.598718	2530.996988
954.899272	2526.832995
955.199788	2529.910619
955.500266	2528.990609
955.800706	2527.810979
956.101108	2526.790145
956.401472	2527.828623
956.701798	2525.182017
957.002087	2527.296781
957.302337	2527.352234
957.602550	2529.217461
957.902724	2528.055475
958.202861	2530.107224
958.502960	2529.310722
958.803022	2528.947759
959.103045	2526.714528
959.403031	2530.588655
959.702979	2529.066226
960.002889	2530.200486
960.302762	2526.079343
960.602596	2527.750485
960.902393	2525.925587
961.202153	2526.757378
961.501875	2529.512368
961.801559	2529.192255
962.101205	2528.753675
962.400814	2526.848118
962.700385	2528.572193
962.999918	2529.255269
963.299414	2529.482121
963.598873	2529.043541
963.898293	2527.556401
964.197677	2528.730989
964.497022	2529.613191
964.796331	2526.124713
965.095601	2528.055475
965.394835	2531.344828
965.694030	2528.390712
965.993189	2529.098994
966.292309	2525.776873
966.591393	2528.872142
966.890439	2530.233253
967.189447	2528.960362
967.488419	2527.518592
967.787353	2525.313087
968.086249	2528.206709
968.385108	2528.652852
968.683930	2530.301309
968.982714	2530.807945
969.281462	2526.197810
969.580172	2529.643438
969.878844	2529.159487
970.177480	2529.240146
970.476078	2526.631349
970.774639	2528.471370
971.073162	2528.274765
971.371649	2524.766122
971.670098	2525.371060
971.968510	2526.023890
972.266885	2522.389218
972.565223	2526.903571
972.863524	2526.427182
973.161788	2530.092101
973.460014	2527.286699
973.758204	2529.986237
974.056356	2527.319466
974.354471	2526.822913
974.652550	2527.052285
974.950591	2524.347706
975.248595	2530.087060
975.546563	2528.945238
975.844493	2530.457585
976.142386	2527.647141
976.440243	2527.851308
976.738062	2526.643952
977.035845	2527.551359
977.333590	2526.543129
977.631299	2526.412059
977.928971	2526.505320
978.226606	2525.481966
978.524204	2529.169570
978.821765	2527.329549
979.119290	2528.854498
979.416777	2527.327028
979.714228	2527.982378
980.011642	2527.049765
980.309020	2529.479601
980.606360	2530.306350
980.903664	2527.674868
981.200931	2525.955834
981.498162	2524.345186
981.795356	2527.984899
982.092513	2526.366688
982.389633	2527.332069
982.686717	2530.155115
982.983764	2528.310053
983.280775	2527.914322
983.577749	2526.676719
983.874686	2529.794673
984.171587	2528.113448
984.468451	2526.911133
984.765279	2527.233767
985.062070	2528.768798
985.358824	2527.868952
985.655543	2527.195958
985.952224	2527.778211
986.248869	2527.586647
986.545478	2522.270751
986.842050	2527.816020
987.138586	2522.971471
987.435086	2525.350896
987.731549	2523.702438
988.027975	2526.502799
988.324366	2526.764939
988.620719	2529.693850
988.917037	2527.571524
989.213318	2529.235105
989.509563	2528.746113
989.805772	2528.322656
990.101944	2525.371060
990.398080	2528.549508
990.694180	2527.783253
990.990244	2527.379960
991.286271	2528.360465
991.582262	2528.269724
991.878217	2525.870135
992.174136	2527.798376
992.470019	2525.454239
992.765865	2529.288037
993.061676	2524.902233
993.357450	2529.426669
993.653188	2526.775022
993.948890	2525.890299
994.244556	2526.394415
994.540186	2531.518748
994.835780	2526.170083
995.131337	2529.023376
995.426859	2527.342152
995.722345	2526.409538
996.017795	2526.172604
996.313208	2527.735362
996.608586	2525.958355
996.903928	2528.678057
997.199234	2528.920033
997.494504	2527.037162
997.789738	2526.059178
998.084936	2526.628828
998.380099	2524.551873
998.675225	2527.621936
998.970316	2531.211237
999.265371	2524.922398
999.560390	2527.475742
999.855373	2529.782070
1000.150320	2527.153108
1000.445232	2526.308715
1000.740108	2528.231915
1001.034948	2526.838036
1001.329752	2527.959693
1001.624521	2528.514220
1001.919254	2520.584485
1002.213951	2528.206709
1002.508613	2523.846111
1002.803239	2524.715710
1003.097829	2522.253107
1003.392384	2527.574045
1003.686903	2529.020856
1003.981386	2528.970444
1004.275834	2525.439116
1004.570246	2527.500948
1004.864623	2527.266534
1005.158964	2525.925587
1005.453270	2527.629497
1005.747540	2526.916174
1006.041775	2527.911802
1006.335974	2525.701256
1006.630138	2527.964734
1006.924266	2525.257634
1007.218359	2526.996833
1007.512416	2527.964734
1007.806438	2528.186545
1008.100425	2526.056657
1008.394376	2527.611853
1008.688292	2529.106555
1008.982172	2525.935670
1009.276017	2526.240659
1009.569827	2530.487832
1009.863602	2531.070085
1010.157341	2527.750485
1010.451045	2526.371729
1010.744714	2526.462470
1011.038347	2524.995494
1011.331945	2527.619415
1011.625508	2529.955990
1011.919036	2527.465660
1012.212528	2527.107738
1012.505986	2524.055319
1012.799408	2524.743437
1013.092795	2525.628159
1013.386147	2526.548170
1013.679464	2526.112110
1013.972745	2527.901720
1014.265992	2526.031452
1014.559204	2528.635208
1014.852380	2526.691843
1015.145521	2527.223684
1015.438628	2528.446164
1015.731699	2528.572193
1016.024736	2524.574558
1016.317737	2527.541277
1016.610703	2525.544980
1016.903635	2523.543642
1017.196531	2524.761081
1017.489393	2524.491379
1017.782219	2521.885102
1018.075011	2527.074970
1018.367768	2525.421472
1018.660490	2528.307532
1018.953177	2528.307532
1019.245829	2528.307532
