Dividing Wavelength (nm)	Counts (n)	Blue Motor Position (mm): 0.000000	Red Motor Position (mm): 10.800000	
326.493990	2127.697119
326.888308	2127.697119
327.282561	2127.697119
327.676750	2094.208734
328.070874	2092.081367
328.464933	2096.749475
328.858929	2102.251895
329.252859	2112.072062
329.646726	2126.318363
330.040528	2138.119704
330.434265	2155.604946
330.827938	2171.043480
331.221547	2187.850687
331.615091	2208.557226
332.008571	2228.379043
332.401986	2248.853690
332.795338	2266.936308
333.188625	2286.909360
333.581847	2307.331074
333.975006	2323.540904
334.368100	2339.153358
334.761129	2362.360310
335.154095	2379.144831
335.546996	2392.392984
335.939833	2407.221538
336.332606	2422.884403
336.725315	2435.711619
337.117960	2445.262085
337.510540	2452.644854
337.903056	2463.483335
338.295508	2470.722432
338.687896	2479.698207
339.080220	2488.079125
339.472480	2494.438540
339.864676	2496.460043
340.256807	2502.559839
340.648875	2505.098060
341.040879	2511.018895
341.432818	2510.421519
341.824694	2513.017713
342.216506	2510.408916
342.608253	2513.950326
342.999937	2513.925121
343.391557	2510.958402
343.783113	2509.567043
344.174605	2509.123422
344.566033	2506.653256
344.957397	2507.401867
345.348697	2506.128976
345.739934	2506.890190
346.131106	2499.905672
346.522215	2502.106135
346.913260	2498.791577
347.304241	2495.454333
347.695159	2494.982985
348.086012	2491.547439
348.476802	2490.808910
348.867528	2489.425113
349.258191	2488.810092
349.648789	2488.595843
350.039324	2486.234062
350.429796	2488.217757
350.820203	2484.300780
351.210548	2485.782879
351.600828	2482.561582
351.991045	2481.502940
352.381198	2478.984883
352.771288	2482.075111
353.161314	2481.896150
353.551276	2483.738691
353.941175	2479.355408
354.331010	2479.793988
354.720782	2479.839359
355.110490	2481.044195
355.500135	2481.823053
355.889717	2480.197281
356.279235	2480.272898
356.668689	2479.173927
357.058080	2482.634679
357.447408	2478.379945
357.836672	2480.030923
358.225873	2479.622589
358.615010	2477.565798
359.004084	2483.743733
359.393095	2482.566623
359.782043	2487.096100
360.170927	2483.070738
360.559748	2487.542242
360.948505	2485.619042
361.337199	2486.269351
361.725830	2488.973930
362.114398	2488.565596
362.502903	2488.628611
362.891344	2489.568786
363.279722	2487.196923
363.668037	2492.250680
364.056289	2486.970071
364.444478	2490.657675
364.832603	2489.674650
365.220665	2489.954434
365.608665	2492.989209
365.996601	2495.620691
366.384474	2492.366626
366.772284	2496.507934
367.160031	2496.981803
367.547715	2499.310816
367.935336	2499.333501
368.322893	2506.136538
368.710388	2506.534789
369.097820	2512.682476
369.485189	2512.223731
369.872495	2521.592716
370.259738	2526.540608
370.646918	2533.762061
371.034035	2542.611807
371.421090	2550.405430
371.808081	2565.360013
372.195010	2570.260015
372.581875	2584.329875
372.968678	2599.740682
373.355418	2605.762341
373.742096	2626.249590
374.128710	2640.800881
374.515262	2654.543066
374.901751	2670.342042
375.288177	2683.587674
375.674540	2708.243957
376.060841	2725.159549
376.447079	2745.661922
376.833254	2763.857967
377.219367	2776.198711
377.605417	2814.924855
377.991404	2823.199909
378.377329	2847.112622
378.763191	2861.399252
379.148991	2901.862074
379.534727	2921.588109
379.920402	2951.696400
380.306013	2961.103193
380.691563	3010.272087
381.077049	3027.643903
381.462474	3044.589742
381.847835	3083.610793
382.233134	3097.927670
382.618371	3093.836774
383.003545	3154.640651
383.388657	3157.302380
383.773706	3180.794157
384.158693	3187.750949
384.543618	3200.129503
384.928480	3223.805282
385.313280	3258.284253
385.698017	3239.856316
386.082692	3278.768982
386.467305	3266.599637
386.851856	3279.961215
387.236344	3283.595887
387.620770	3292.659882
388.005133	3294.764563
388.389435	3293.642907
388.773674	3284.954478
389.157851	3296.012249
389.541965	3284.747791
389.926018	3238.664083
390.310008	3264.610902
390.693936	3251.508943
391.077802	3253.016248
391.461606	3216.598952
391.845348	3226.010787
392.229027	3202.148485
392.612645	3178.603776
392.996200	3190.715148
393.379694	3183.050073
393.763125	3184.791792
394.146494	3136.613485
394.529801	3131.574852
394.913047	3116.912656
395.296230	3070.145871
395.679351	3061.792679
396.062410	3037.005326
396.445408	2999.307578
396.828343	2980.940133
397.211217	2952.576081
397.594028	2903.268556
397.976778	2888.145094
398.359466	2867.708256
398.742092	2846.094309
399.124656	2811.882519
399.507158	2799.347690
399.889598	2782.666512
400.271977	2769.715787
400.654294	2743.716036
401.036549	2723.291802
401.418742	2701.486291
401.800874	2692.674354
402.182944	2678.503670
402.564952	2665.011022
402.946898	2652.519043
403.328783	2636.483132
403.710606	2615.980760
404.092367	2613.931531
404.474067	2602.087340
404.855705	2590.805237
405.237282	2580.216294
405.618797	2575.923751
406.000250	2567.852864
406.381642	2563.439334
406.762972	2559.575289
407.144240	2554.622356
407.525447	2549.387117
407.906593	2544.020809
408.287677	2540.287835
408.668700	2536.827083
409.049661	2533.373892
409.430560	2532.519417
409.811399	2531.054961
410.192176	2530.326515
410.572891	2529.058664
410.953545	2528.589837
411.334138	2524.083046
411.714669	2525.630680
412.095139	2525.638242
412.475547	2525.529857
412.855894	2525.774353
413.236180	2520.587005
413.616405	2524.771163
413.996568	2522.830319
414.376670	2523.248735
414.756711	2522.558097
415.136691	2522.734537
415.516609	2522.585823
415.896466	2523.362161
416.276262	2524.395597
416.655997	2522.888292
417.035670	2521.053312
417.415283	2522.628673
417.794834	2518.142046
418.174324	2522.220339
418.553753	2522.999198
418.933121	2523.452901
419.312428	2522.926101
419.691674	2526.301153
420.070859	2526.555732
420.449983	2523.251255
420.829045	2523.455422
421.208047	2522.237983
421.586988	2523.515916
421.965867	2523.740247
422.344686	2525.199661
422.723444	2524.539270
423.102141	2522.820237
423.480777	2524.761081
423.859352	2523.967099
424.237866	2524.839219
424.616319	2527.137985
424.994712	2522.507685
425.373044	2525.335772
425.751314	2522.656399
426.129524	2524.249404
426.507673	2525.963396
426.885762	2526.714528
427.263789	2526.472553
427.641756	2524.680422
428.019662	2526.177645
428.397508	2527.324508
428.775292	2525.746626
429.153016	2528.196627
429.530679	2528.851977
429.908282	2524.995494
430.285824	2524.894671
430.663305	2523.236132
431.040726	2528.315094
431.418086	2525.086235
431.795385	2526.207892
432.172624	2526.422141
432.549802	2525.262676
432.926920	2526.356606
433.303977	2530.671834
433.680974	2529.154446
434.057910	2528.678057
434.434786	2525.776873
434.811601	2527.289219
435.188355	2528.219312
435.565050	2527.180835
435.941683	2527.909281
436.318257	2524.657737
436.694770	2523.934332
437.071222	2525.454239
437.447614	2523.710000
437.823946	2525.668488
438.200218	2527.241328
438.576429	2532.554705
438.952580	2528.788963
439.328670	2526.225536
439.704700	2530.069416
440.080670	2530.263500
440.456580	2528.791483
440.832429	2531.465815
441.208218	2528.826771
441.583947	2531.007070
441.959616	2530.336597
442.335224	2529.406504
442.710773	2530.664272
443.086261	2528.178983
443.461689	2527.503468
443.837057	2525.610515
444.212365	2529.232584
444.587612	2532.365661
444.962800	2529.575383
445.337927	2531.445651
445.712995	2529.615712
446.088002	2530.598737
446.462949	2529.325846
446.837837	2532.224509
447.212664	2533.401618
447.587431	2529.910619
447.962139	2535.539068
448.336786	2535.052596
448.711374	2533.205013
449.085901	2534.026722
449.460369	2530.311391
449.834776	2531.927081
450.209124	2533.381454
450.583412	2532.857174
450.957640	2533.890610
451.331808	2534.147709
451.705917	2531.896834
452.079965	2534.004036
452.453954	2534.586290
452.827883	2533.268028
453.201752	2534.760209
453.575562	2534.621578
453.949311	2536.413708
454.323001	2532.121165
454.696632	2530.732328
455.070202	2534.487987
455.443713	2533.694005
455.817164	2533.694005
456.190556	2532.330373
456.563888	2532.405991
456.937160	2531.614529
457.310373	2539.027546
457.683526	2533.923378
458.056619	2536.353214
458.429653	2533.603265
458.802628	2534.939170
459.175542	2534.891279
459.548398	2534.641742
459.921194	2535.304654
460.293930	2541.031405
460.666607	2537.505118
461.039224	2540.202135
461.411782	2539.430838
461.784280	2540.827238
462.156719	2538.180632
462.529099	2539.579552
462.901419	2534.770292
463.273680	2537.933616
463.645882	2536.748945
464.018024	2535.455889
464.390106	2538.750283
464.762130	2540.698689
465.134094	2541.228010
465.505999	2539.982845
465.877845	2541.780016
466.249631	2547.915100
466.621358	2542.158103
466.993026	2544.056097
467.364634	2546.029709
467.736184	2544.033412
468.107674	2541.283463
468.479105	2539.067875
468.850477	2540.121477
469.221790	2540.653318
469.593043	2540.880170
469.964238	2541.684234
470.335373	2541.129707
470.706449	2539.700540
471.077467	2541.636343
471.448425	2544.799667
471.819324	2540.250026
472.190164	2543.373021
472.560945	2543.010058
472.931667	2542.211035
473.302330	2540.302958
473.672934	2544.787064
474.043479	2542.427804
474.413965	2540.154244
474.784393	2536.126362
475.154761	2537.452186
475.525070	2540.111394
475.895321	2538.352032
476.265513	2538.452855
476.635645	2543.186498
477.005719	2542.904193
477.375734	2542.223638
477.745691	2540.597866
478.115588	2543.604914
478.485427	2543.310006
478.855207	2542.243802
479.224928	2543.516694
479.594591	2545.913762
479.964194	2548.026006
480.333739	2544.323278
480.703226	2544.517363
481.072653	2543.821683
481.442022	2543.287321
481.811333	2545.840666
482.180584	2545.434853
482.549777	2544.444266
482.918912	2545.142466
483.287988	2545.389482
483.657005	2545.230686
484.025964	2545.820501
484.394864	2545.528114
484.763706	2543.771272
485.132489	2543.252033
485.501213	2546.780841
485.869879	2543.773792
486.238487	2542.596683
486.607036	2544.111550
486.975527	2542.069883
487.343959	2544.277908
487.712333	2544.716488
488.080648	2544.955943
488.448905	2545.747404
488.817104	2544.204811
489.185244	2543.993083
489.553326	2544.479554
489.921350	2545.265974
490.289315	2548.298228
490.657222	2549.772766
491.025070	2550.725544
491.392861	2546.241437
491.760593	2548.247817
492.128267	2545.084492
492.495883	2549.218239
492.863440	2549.687066
493.230939	2547.902498
493.598380	2546.284287
493.965763	2540.461754
494.333088	2544.280428
494.700354	2539.972763
495.067563	2545.147507
495.434713	2541.958977
495.801805	2543.398227
496.168839	2545.654143
496.535815	2547.050542
496.902733	2546.475851
497.269593	2546.871582
497.636395	2545.860830
498.003139	2544.414019
498.369825	2544.981149
498.736453	2545.979297
499.103023	2546.044832
499.469535	2545.132383
499.835989	2545.502908
500.202385	2545.303783
500.568723	2546.344781
500.935003	2547.579864
501.301226	2547.274874
501.667390	2545.696993
502.033497	2545.676828
502.399546	2546.889226
502.765537	2543.559543
503.131470	2546.828732
503.497345	2547.761345
503.863163	2545.936447
504.228923	2545.260933
504.594625	2544.240099
504.960269	2545.155069
505.325856	2545.311344
505.691385	2548.172199
506.056856	2545.258412
506.422270	2545.807898
506.787625	2545.936447
507.152924	2548.835111
507.518164	2546.493495
507.883347	2544.121632
508.248472	2546.438042
508.613540	2547.796633
508.978550	2544.910573
509.343503	2547.163968
509.708398	2548.184802
510.073236	2548.073897
510.438016	2548.598177
510.802738	2547.078269
511.167403	2547.715975
511.532010	2545.187836
511.896561	2545.341591
512.261053	2547.098433
512.625488	2544.353525
512.989866	2542.606765
513.354186	2545.016437
513.718449	2539.788760
514.082655	2545.210521
514.446803	2547.438711
514.810894	2547.181613
515.174927	2549.142621
515.538904	2547.658002
515.902822	2545.399565
516.266684	2546.667415
516.630488	2546.869061
516.994235	2547.726057
517.357925	2546.004503
517.721558	2547.784030
518.085133	2544.741694
518.448651	2547.721016
518.812112	2547.922662
519.175516	2548.449463
519.538863	2547.897456
519.902152	2550.760832
520.265385	2548.547765
520.628560	2546.566592
520.991678	2548.457024
521.354739	2548.499874
521.717743	2546.425439
522.080690	2542.785726
522.443580	2545.744884
522.806413	2548.250337
523.169189	2549.750080
523.531908	2547.726057
523.894569	2549.061963
524.257174	2546.064997
524.619722	2548.275543
524.982213	2547.353012
525.344647	2545.830583
525.707025	2549.414844
526.069345	2549.049360
526.431608	2548.179761
526.793815	2549.137580
527.155964	2549.273691
527.518057	2547.980635
527.880093	2548.061294
528.242072	2548.764535
528.603995	2550.168496
528.965860	2548.242775
529.327669	2549.747560
529.689421	2547.975594
530.051117	2547.289997
530.412755	2545.366797
530.774337	2547.587425
531.135862	2550.544062
531.497331	2544.315717
531.858743	2546.266643
532.220098	2544.391334
532.581396	2545.318906
532.942638	2546.160779
533.303824	2549.414844
533.664953	2548.585574
534.026025	2547.196736
534.387040	2551.156562
534.747999	2547.032898
535.108902	2550.458363
535.469748	2548.976263
535.830537	2549.520708
536.191270	2548.600697
536.551947	2548.247817
536.912567	2548.802343
537.273131	2549.321582
537.633638	2548.666232
537.994089	2548.731767
538.354483	2545.429812
538.714821	2549.860986
539.075103	2548.900646
539.435328	2546.183464
539.795497	2547.960471
540.155609	2549.707231
540.515665	2549.881150
540.875665	2552.603373
541.235609	2548.421736
541.595496	2549.936603
541.955328	2550.765873
542.315102	2550.927190
542.674821	2547.446273
543.034483	2553.757798
543.394090	2549.414844
543.753640	2552.121943
544.113134	2548.497354
544.472571	2550.070194
544.831953	2549.757642
545.191278	2549.205636
545.550548	2548.046170
545.909761	2547.743701
546.268918	2548.026006
546.628019	2549.245965
546.987064	2548.073897
547.346053	2547.262271
547.704986	2548.388969
548.063863	2551.438867
548.422684	2547.650440
548.781449	2549.225800
549.140158	2550.259237
549.498811	2549.024154
549.857408	2547.317724
550.215949	2546.538865
550.574434	2545.016437
550.932864	2544.444266
551.291237	2544.366128
551.649555	2550.614638
552.007817	2547.156407
552.366022	2551.297715
552.724173	2548.565409
553.082267	2546.985007
553.440305	2550.216387
553.798288	2548.562889
554.156215	2551.040616
554.514086	2548.459545
554.871902	2549.142621
555.229661	2549.142621
555.587365	2550.516336
555.945014	2548.935934
556.302606	2549.810574
556.660143	2549.281253
557.017625	2550.526418
557.375050	2549.747560
557.732421	2549.561037
558.089735	2550.874258
558.446994	2550.052550
558.804197	2549.795451
559.161345	2549.523228
559.518437	2552.142108
559.875474	2548.036088
560.232455	2550.939793
560.589381	2547.322765
560.946251	2553.833415
561.303065	2550.135729
561.659825	2549.072045
562.016528	2550.473486
562.373177	2549.576161
562.729770	2547.451314
563.086307	2549.243444
563.442789	2549.155224
563.799216	2546.745553
564.155587	2549.067004
564.511904	2549.820657
564.868164	2550.236552
565.224370	2550.922149
565.580520	2547.655481
565.936615	2550.591953
566.292654	2551.517005
566.648638	2550.312169
567.004567	2548.867878
567.360441	2547.353012
567.716260	2547.521890
568.072023	2550.405430
568.427732	2544.708927
568.783385	2548.827549
569.138982	2545.134904
569.494525	2547.007693
569.850013	2543.209183
570.205445	2551.101110
570.560823	2547.685728
570.916145	2551.529608
571.271412	2548.830070
571.626625	2549.346788
571.981782	2549.331665
572.336884	2548.020965
572.691931	2548.608259
573.046923	2548.671273
573.401860	2546.319575
573.756743	2548.739329
574.111570	2550.506253
574.466342	2550.269319
574.821059	2549.175389
575.175722	2549.583722
575.530330	2548.149514
575.884882	2548.585574
576.239380	2550.760832
576.593823	2551.111192
576.948211	2548.951057
577.302544	2547.521890
577.656823	2548.527601
578.011047	2548.809905
578.365216	2549.177909
578.719330	2550.297046
579.073389	2548.325954
579.427394	2547.292518
579.781344	2550.430636
580.135239	2550.130688
580.489080	2549.969371
580.842866	2548.192364
581.196597	2549.742519
581.550273	2550.062632
581.903895	2548.817467
582.257463	2548.431819
582.610975	2548.603218
582.964434	2547.809236
583.317837	2549.621531
583.671186	2549.140101
584.024481	2547.801674
584.377721	2549.112374
584.730906	2548.210008
585.084037	2550.755791
585.437113	2549.949206
585.790135	2550.279402
586.143103	2547.423588
586.496016	2546.916952
586.848874	2544.139276
587.201679	2547.279915
587.554428	2544.071221
587.907124	2545.470141
588.259765	2543.403268
588.612352	2548.136911
588.964884	2546.543907
589.317362	2547.191695
589.669786	2545.334030
590.022155	2547.824360
590.374470	2549.606407
590.726731	2545.535676
591.078937	2549.417364
591.431090	2546.138094
591.783188	2547.489123
592.135232	2549.135060
592.487222	2548.174720
592.839157	2546.538865
593.191038	2549.548434
593.542866	2549.293856
593.894639	2549.825698
594.246358	2549.253527
594.598022	2547.819318
594.949633	2548.462066
595.301190	2549.767724
595.652692	2549.150183
596.004141	2546.932075
596.355535	2550.236552
596.706876	2547.501726
597.058162	2544.459389
597.409395	2547.350491
597.760573	2546.911911
598.111698	2547.688248
598.462768	2546.725388
598.813785	2547.400903
599.164748	2548.141952
599.515657	2548.739329
599.866511	2545.449976
600.217312	2546.674977
600.568060	2547.554658
600.918753	2548.958619
601.269392	2547.879812
601.619978	2545.817980
601.970510	2547.206818
602.320988	2545.578526
602.671412	2545.926365
603.021783	2544.986190
603.372100	2550.324772
603.722363	2546.052394
604.072572	2545.429812
604.422728	2545.994421
604.772830	2541.908566
605.122878	2541.298586
605.472872	2543.625078
605.822813	2543.173895
606.172701	2545.918803
606.522534	2547.970553
606.872314	2546.377548
607.222041	2544.812270
607.571714	2546.397713
607.921333	2544.567774
608.270899	2546.599359
608.620411	2546.211190
608.969870	2551.091027
609.319276	2550.297046
609.668627	2551.839639
610.017926	2553.472973
610.367171	2554.284598
610.716362	2553.709907
611.065500	2552.943651
611.414585	2549.951727
611.763616	2550.511295
612.112594	2551.247303
612.461518	2553.329300
612.810389	2551.552293
613.159207	2547.637837
613.507971	2548.333516
613.856682	2549.717313
614.205340	2546.246478
614.553945	2545.477702
614.902496	2549.520708
615.250994	2545.631458
615.599439	2547.945347
615.947830	2548.094061
616.296169	2547.078269
616.644454	2549.689587
616.992686	2543.511653
617.340864	2546.052394
617.688990	2545.795295
618.037063	2548.474668
618.385082	2548.545245
618.733048	2544.618186
619.080961	2546.521221
619.428821	2546.375028
619.776628	2549.601366
620.124382	2547.370656
620.472083	2545.235727
620.819731	2546.059956
621.167326	2543.695655
621.514868	2548.973743
621.862357	2546.609442
622.209793	2545.760007
622.557176	2548.273022
622.904506	2545.470141
623.251783	2543.783875
623.599007	2542.884029
623.946179	2543.216745
624.293297	2543.307486
624.640363	2545.853268
624.987376	2546.647250
625.334336	2545.825542
625.681243	2545.326468
626.028097	2545.845707
626.374899	2547.887374
626.721647	2547.998279
627.068343	2545.709596
627.414987	2546.193546
627.761577	2544.509801
628.108115	2547.007693
628.454600	2544.141797
628.801032	2546.221273
629.147412	2545.386962
629.493739	2547.088351
629.840014	2545.598690
630.186236	2544.890408
630.532405	2545.455017
630.878521	2544.744215
631.224585	2546.553989
631.570597	2546.599359
631.916556	2544.368649
632.262462	2543.579708
632.608316	2544.247661
632.954117	2544.212373
633.299866	2542.579039
633.645562	2543.332692
633.991206	2544.129194
634.336797	2541.538041
634.682336	2546.130532
635.027823	2541.164995
635.373257	2542.117773
635.718639	2543.521735
636.063968	2543.171375
636.409245	2543.133566
636.754470	2543.562064
637.099642	2542.775644
637.444762	2544.686241
637.789829	2542.357228
638.134845	2543.927548
638.479808	2541.026364
638.824719	2544.033412
639.169577	2544.668597
639.514383	2544.575336
639.859137	2543.196580
640.203839	2542.669780
640.548489	2541.210366
640.893086	2543.884698
641.237632	2538.404964
641.582125	2539.393030
641.926566	2538.687268
642.270955	2543.080634
642.615292	2541.245654
642.959576	2544.774462
643.303809	2542.624409
643.647990	2544.058618
643.992118	2542.800850
644.336195	2541.175078
644.680219	2540.572660
645.024192	2542.269008
645.368112	2542.904193
645.711981	2543.108360
646.055797	2541.336395
646.399562	2542.039636
646.743274	2539.057793
647.086935	2544.421581
647.430544	2541.432177
647.774101	2543.330171
648.117606	2542.125335
648.461059	2544.756817
648.804460	2542.032074
649.147810	2542.165664
649.491108	2542.571477
649.834354	2543.456200
650.177548	2541.409491
650.520690	2542.508463
650.863781	2541.238092
651.206820	2544.184647
651.549807	2541.601055
651.892742	2541.858154
652.235626	2542.604245
652.578458	2545.139945
652.921238	2542.475695
653.263967	2540.746580
653.606644	2540.665921
653.949269	2544.620706
654.291843	2543.965356
654.634365	2543.408309
654.976836	2545.039122
655.319255	2541.621220
655.661622	2540.330684
656.003938	2540.996117
656.346203	2540.597866
656.688416	2541.855633
657.030577	2543.486447
657.372687	2540.839841
657.714746	2540.781868
658.056753	2542.644574
658.398708	2535.886907
658.740612	2539.443441
659.082465	2536.496887
659.424266	2538.321785
659.766016	2538.087371
660.107715	2541.462423
660.449362	2541.454862
660.790958	2545.780172
661.132503	2542.054759
661.473996	2540.371014
661.815438	2541.646426
662.156829	2540.837320
662.498168	2540.842362
662.839456	2540.640715
663.180693	2540.159285
663.521879	2541.885880
663.863013	2542.379913
664.204097	2541.046528
664.545129	2541.805222
664.886110	2544.713968
665.227040	2542.047197
665.567918	2543.115922
665.908746	2542.911755
666.249522	2542.634492
666.590248	2543.037784
666.930922	2541.240613
667.271545	2542.077444
667.612118	2542.692465
667.952639	2542.024512
668.293109	2541.921168
668.633528	2541.384286
668.973896	2541.296065
669.314213	2541.144831
669.654480	2540.492001
669.994695	2541.923689
670.334859	2541.883360
670.674973	2541.560726
671.015035	2540.635674
671.355047	2542.329502
671.695008	2544.729091
672.034918	2541.563247
672.374777	2539.057793
672.714585	2539.912269
673.054342	2544.083823
673.394049	2540.461754
673.733705	2541.485109
674.073310	2543.315048
674.412864	2542.079965
674.752368	2541.303627
675.091820	2542.916796
675.431223	2540.134079
675.770574	2541.855633
676.109875	2536.605272
676.449125	2538.909079
676.788324	2536.537216
677.127473	2538.982176
677.466571	2536.101156
677.805619	2540.628112
678.144616	2539.319933
678.483562	2538.682227
678.822458	2538.561239
679.161303	2539.665252
679.500098	2539.945036
679.838842	2541.815304
680.177535	2539.942516
680.516179	2542.027033
680.854771	2539.544264
681.193314	2542.062321
681.531805	2540.290355
681.870247	2540.595345
682.208638	2542.657177
682.546978	2539.803884
682.885268	2541.069213
683.223508	2538.883873
683.561697	2541.956457
683.899836	2543.735984
684.237925	2538.599048
684.575963	2540.930582
684.913951	2538.962011
685.251889	2539.095602
685.589776	2540.232382
685.927614	2539.471168
686.265401	2542.016950
686.603137	2541.222969
686.940824	2539.640046
687.278460	2539.967721
687.616046	2540.912938
687.953582	2540.670962
688.291068	2539.418236
688.628504	2542.281611
688.965889	2540.844882
689.303224	2541.787578
689.640510	2541.185160
689.977745	2541.233051
690.314930	2539.496373
690.652065	2542.765562
690.989150	2540.035777
691.326185	2539.778678
691.663170	2539.362783
692.000105	2541.515356
692.336990	2539.335057
692.673825	2537.321116
693.010610	2539.372865
693.347345	2538.473019
693.684030	2534.387164
694.020665	2536.877494
694.357251	2533.268028
694.693786	2537.991589
695.030272	2540.799512
695.366707	2540.653318
695.703093	2539.637526
696.039429	2538.450334
696.375716	2537.134593
696.711952	2538.412525
697.048139	2540.426466
697.384276	2538.609130
697.720363	2538.460416
698.056400	2539.140972
698.392388	2536.086033
698.728326	2540.761703
699.064214	2538.145344
699.400053	2538.772968
699.735842	2538.135262
700.071581	2540.434028
700.407270	2537.797505
700.742910	2538.785571
701.078501	2539.571991
701.414042	2538.926723
701.749533	2538.495704
702.084974	2538.709953
702.420366	2537.121990
702.755709	2538.357073
703.091002	2536.882535
703.426246	2540.786909
703.761440	2536.214582
704.096584	2538.795653
704.431679	2536.718698
704.766725	2537.578214
705.101721	2537.764737
705.436668	2538.664583
705.771565	2536.958153
706.106413	2535.808769
706.441212	2537.043852
706.775961	2540.010571
707.110661	2538.528472
707.445311	2539.052752
707.779913	2537.381609
708.114465	2540.020653
708.448967	2539.657690
708.783421	2539.748431
709.117825	2538.384799
709.452180	2538.160468
709.786485	2536.632998
710.120742	2537.250539
710.454949	2540.708771
710.789107	2537.091743
711.123216	2536.214582
711.457275	2539.559388
711.791286	2532.791639
712.125247	2538.077289
712.459159	2537.684079
712.793023	2539.687937
713.126837	2539.733308
713.460602	2538.967052
713.794318	2537.981507
714.127985	2542.604245
714.461602	2537.457227
714.795171	2539.045190
715.128691	2537.719367
715.462162	2537.873122
715.795584	2536.375899
716.128957	2540.749100
716.462281	2536.993441
716.795556	2535.518903
717.128782	2536.738862
717.461960	2538.886394
717.795088	2537.235416
718.128167	2537.661393
718.461198	2535.788605
718.794180	2540.005530
719.127113	2535.332380
719.459997	2539.705581
719.792833	2536.779192
720.125619	2537.308513
720.458357	2537.033770
720.791046	2537.684079
721.123686	2539.519059
721.456278	2535.425642
721.788821	2536.131403
722.121315	2540.998637
722.453761	2536.073430
722.786158	2538.979655
723.118506	2538.248688
723.450805	2539.138452
723.783056	2536.086033
724.115259	2536.774150
724.447412	2536.070909
724.779518	2538.601569
725.111574	2539.887063
725.443582	2536.123842
725.775542	2537.875643
726.107453	2537.547968
726.439315	2537.086702
726.771129	2541.270860
727.102895	2537.822710
727.434612	2539.844213
727.766281	2537.116949
728.097901	2536.680889
728.429473	2532.678213
728.760996	2537.106867
729.092471	2533.290713
729.423897	2537.588297
729.755276	2538.410005
730.086606	2538.841023
730.417887	2535.778523
730.749120	2534.540919
731.080305	2535.216434
731.411442	2538.536034
731.742530	2538.657021
732.073570	2537.812628
732.404562	2539.236754
732.735506	2539.902186
733.066401	2539.062834
733.397249	2538.609130
733.728048	2535.478574
734.058798	2538.657021
734.389501	2536.731301
734.720156	2540.091230
735.050762	2537.787422
735.381320	2534.563604
735.711831	2540.184491
736.042293	2533.875487
736.372707	2536.383461
736.703073	2536.002854
737.033391	2536.358255
737.363661	2538.745242
737.693883	2535.891948
738.024056	2537.285828
738.354182	2535.982689
738.684260	2537.671476
739.014290	2538.107536
739.344272	2533.673841
739.674207	2538.856147
740.004093	2538.195756
740.333931	2536.733821
740.663722	2536.640560
740.993464	2535.329860
741.323159	2534.246012
741.652806	2537.709284
741.982405	2535.115611
742.311956	2537.794984
742.641460	2536.869932
742.970915	2535.652494
743.300323	2536.033101
743.629683	2535.181146
743.958996	2534.866074
744.288260	2536.086033
744.617477	2533.565456
744.946647	2532.393388
745.275768	2535.649973
745.604842	2535.166022
745.933869	2530.613860
746.262847	2533.305837
746.591778	2535.670138
746.920662	2536.249870
747.249498	2535.511341
747.578286	2536.204500
747.907027	2534.971938
748.235720	2536.932947
748.564365	2537.295910
748.892963	2537.772299
749.221514	2539.135931
749.550017	2531.974972
749.878473	2536.459078
750.206881	2536.186856
750.535242	2535.758358
750.863555	2536.829603
751.191821	2538.266332
751.520039	2536.393543
751.848210	2537.921013
752.176334	2537.341280
752.504411	2533.520086
752.832440	2536.252391
753.160421	2534.772812
753.488356	2536.159130
753.816243	2537.731970
754.144082	2531.778367
754.471875	2535.566794
754.799620	2535.649973
755.127318	2532.511855
755.454969	2535.488656
755.782572	2535.965045
756.110129	2536.363296
756.437638	2534.293903
756.765100	2535.002185
757.092515	2533.792308
757.419882	2534.934129
757.747203	2535.970086
758.074477	2538.117618
758.401703	2535.425642
758.728882	2534.263656
759.056014	2537.326157
759.383099	2536.201979
759.710138	2539.471168
760.037129	2533.754499
760.364073	2536.282638
760.690970	2536.973276
761.017820	2537.311033
761.344623	2534.747607
761.671379	2534.997144
761.998088	2535.110570
762.324751	2533.237781
762.651366	2533.096629
762.977935	2538.263811
763.304456	2531.808614
763.630931	2538.916641
763.957359	2539.214069
764.283740	2537.031249
764.610074	2536.995961
764.936362	2536.990920
765.262602	2539.088040
765.588796	2537.658873
765.914943	2532.199303
766.241044	2537.797505
766.567097	2534.954294
766.893104	2536.784233
767.219064	2532.915147
767.544978	2535.655014
767.870845	2535.919675
768.196665	2534.951773
768.522438	2535.395395
768.848165	2534.767771
769.173846	2534.649304
769.499479	2536.932947
769.825066	2533.880528
770.150607	2534.795497
770.476101	2534.114942
770.801548	2537.134593
771.126949	2531.417924
771.452303	2532.857174
771.777611	2532.403470
772.102872	2535.528985
772.428087	2533.704088
772.753256	2533.751979
773.078378	2532.279962
773.403453	2534.369520
773.728482	2534.674510
774.053465	2534.583769
774.378401	2532.264838
774.703291	2534.228368
775.028135	2531.841381
775.352932	2534.505631
775.677683	2536.922864
776.002388	2531.982534
776.327046	2536.441434
776.651658	2534.924047
776.976224	2534.581248
777.300743	2534.581248
777.625216	2536.612833
777.949643	2534.684592
778.274024	2533.386495
778.598359	2532.506814
778.922647	2532.400949
779.246889	2530.581093
779.571086	2530.583613
779.895236	2533.283151
780.219339	2529.441792
780.543397	2531.622091
780.867409	2533.522606
781.191374	2535.624767
781.515294	2534.235929
781.839167	2534.608975
782.162995	2531.586803
782.486776	2533.998995
782.810511	2533.988913
783.134201	2533.164684
783.457844	2534.616537
783.781441	2535.037473
784.104993	2534.452699
784.428498	2533.396577
784.751958	2531.254087
785.075372	2533.081505
785.398739	2534.067051
785.722061	2534.019160
786.045337	2532.494211
786.368568	2535.037473
786.691752	2532.678213
787.014891	2533.925898
787.337983	2533.668800
787.661030	2532.101001
787.984031	2533.948584
788.306987	2534.714839
788.629897	2533.872966
788.952760	2535.929757
789.275579	2533.300795
789.598351	2536.098636
789.921078	2531.037317
790.243759	2534.712318
790.566395	2532.557225
790.888984	2533.668800
791.211529	2533.923378
791.534027	2535.347504
791.856480	2533.469674
792.178888	2534.087215
792.501249	2532.211906
792.823566	2534.498069
793.145836	2533.000847
793.468062	2535.405477
793.790241	2531.385157
794.112375	2531.677544
794.434464	2533.227699
794.756507	2533.439427
795.078505	2533.499921
795.400457	2528.978006
795.722364	2527.551359
796.044226	2531.753161
796.366042	2529.068747
796.687812	2532.209386
797.009538	2534.830786
797.331218	2532.655528
797.652852	2532.703419
797.974442	2533.688964
798.295986	2535.037473
798.617484	2534.780374
798.938938	2532.995806
799.260346	2533.449509
799.581709	2534.510672
799.903026	2533.623429
800.224299	2533.817514
800.545526	2530.969262
800.866708	2534.588810
801.187845	2535.158461
801.508936	2533.673841
801.829983	2533.333563
802.150984	2533.903213
802.471940	2532.862215
802.792851	2533.825075
803.113717	2534.740045
803.434538	2532.726104
803.755314	2535.755837
804.076045	2531.604447
804.396731	2533.464633
804.717372	2533.063861
805.037967	2529.386339
805.358518	2534.165353
805.679024	2532.852133
805.999485	2531.584282
806.319901	2534.929088
806.640272	2531.170908
806.960598	2531.574200
807.280879	2532.539581
807.601115	2533.721732
807.921306	2534.185518
808.241453	2535.539068
808.561554	2533.389016
808.881611	2532.242153
809.201623	2531.732997
809.521590	2533.003367
809.841513	2533.545291
810.161390	2533.714170
810.481223	2533.628470
810.801011	2531.904396
811.120755	2530.971782
811.440453	2533.827596
811.760107	2530.719725
812.079716	2532.005219
812.399281	2529.827440
812.718801	2530.180321
813.038276	2526.676719
813.357707	2532.118645
813.677093	2534.266176
813.996434	2531.541433
814.315731	2531.168387
814.634983	2531.974972
814.954191	2532.690816
815.273354	2534.097298
815.592473	2529.933305
815.911547	2532.552184
816.230577	2532.373223
816.549562	2532.980682
816.868502	2534.119983
817.187399	2531.808614
817.506250	2532.499252
817.825058	2531.266690
818.143821	2533.724252
818.462539	2532.446320
818.781213	2532.136289
819.099843	2533.240302
819.418429	2531.337266
819.736970	2532.534540
820.055466	2531.622091
820.373919	2534.044366
820.692327	2533.983872
821.010691	2535.221475
821.329011	2537.729449
821.647286	2545.392003
821.965517	2549.109854
822.283704	2549.513146
822.601847	2551.882488
822.919945	2548.709082
823.237999	2545.394523
823.556010	2541.984183
823.873976	2537.963863
824.191897	2540.731456
824.509775	2539.897145
824.827609	2534.556043
825.145398	2535.690302
825.463144	2535.919675
825.780845	2536.343132
826.098502	2540.514687
826.416116	2538.478060
826.733685	2537.222813
827.051210	2540.484440
827.368692	2540.222300
827.686129	2537.663914
828.003522	2534.818183
828.320872	2531.102852
828.638177	2533.769623
828.955439	2531.062523
829.272656	2530.586134
829.589830	2528.015146
829.906960	2533.983872
830.224046	2531.571680
830.541088	2534.397246
830.858086	2529.214940
831.175041	2530.578572
831.491952	2532.398429
831.808819	2534.803059
832.125642	2535.518903
832.442421	2533.144520
832.759157	2535.244160
833.075849	2533.199972
833.392497	2535.657535
833.709101	2536.877494
834.025662	2534.666948
834.342179	2535.080323
834.658653	2534.956814
834.975083	2534.228368
835.291469	2536.501928
835.607811	2532.486649
835.924110	2532.353058
836.240366	2532.869777
836.556578	2530.939015
836.872746	2533.076464
837.188871	2534.361958
837.504952	2532.680733
837.820990	2533.341125
838.136984	2530.966741
838.452935	2532.773995
838.768842	2529.835002
839.084706	2531.254087
839.400526	2530.780218
839.716303	2532.668131
840.032037	2534.490508
840.347727	2535.859181
840.663373	2534.162833
840.978977	2532.317770
841.294537	2532.279962
841.610054	2530.855836
841.925527	2531.425486
842.240957	2529.862728
842.556344	2533.215096
842.871687	2529.151926
843.186987	2531.690147
843.502244	2527.639580
843.817458	2533.283151
844.132629	2531.586803
844.447756	2531.780887
844.762840	2524.904754
845.077881	2528.756195
845.392879	2530.157636
845.707833	2530.203006
846.022745	2528.299971
846.337613	2531.377595
846.652438	2528.960362
846.967221	2530.568490
847.281960	2529.638397
847.596656	2532.703419
847.911309	2531.637215
848.225919	2530.976823
848.540485	2528.904909
848.855009	2532.418593
849.169490	2529.940866
849.483928	2531.798532
849.798323	2529.817358
850.112675	2532.723583
850.426984	2528.622605
850.741251	2532.254756
851.055474	2529.346010
851.369654	2531.629653
851.683792	2532.589993
851.997887	2529.124199
852.311938	2530.634025
852.625947	2531.430527
852.939914	2531.659900
853.253837	2533.583100
853.567718	2528.645290
853.881555	2529.504807
854.195350	2530.387008
854.509103	2532.446320
854.822812	2527.311905
855.136479	2533.056299
855.450103	2531.019673
855.763685	2527.256452
856.077224	2530.061854
856.390720	2532.267359
856.704173	2529.671165
857.017584	2531.833820
857.330953	2529.363654
857.644278	2532.123686
857.957561	2534.944212
858.270802	2530.727286
858.584000	2533.212575
858.897155	2532.156453
859.210268	2529.497245
859.523339	2531.364992
859.836367	2529.474560
860.149352	2532.564787
860.462295	2532.350538
860.775195	2530.419776
861.088054	2529.257790
861.400869	2529.701412
861.713642	2528.224353
862.026373	2529.325846
862.339062	2528.693181
862.651708	2532.388347
862.964312	2530.306350
863.276873	2530.132430
863.589392	2531.581762
863.901869	2530.177801
864.214303	2529.101514
864.526696	2529.381298
864.839045	2532.741227
865.151353	2532.229550
865.463619	2530.225692
865.775842	2532.242153
866.088023	2530.190403
866.400162	2530.717204
866.712258	2530.916330
867.024313	2532.385826
867.336325	2532.073274
867.648296	2531.387678
867.960224	2530.543284
868.272110	2531.271731
868.583954	2530.530681
868.895755	2532.148892
869.207515	2531.491021
869.519233	2532.166536
869.830909	2529.184693
870.142542	2531.972451
870.454134	2532.055630
870.765684	2533.247863
871.077191	2531.165867
871.388657	2531.236443
871.700081	2529.441792
872.011463	2530.611340
872.322803	2530.898686
872.634101	2529.993798
872.945357	2529.598068
873.256571	2529.719056
873.567744	2530.250897
873.878874	2530.868439
874.189963	2531.183511
874.501010	2532.773995
874.812015	2528.655372
875.122979	2530.654190
875.433900	2528.305012
875.744780	2534.230888
876.055618	2531.261649
876.366415	2531.201155
876.677169	2530.901206
876.987882	2523.916688
877.298554	2523.934332
877.609183	2531.349869
877.919771	2525.119003
878.230317	2524.385515
878.540822	2535.090405
878.851285	2530.780218
879.161707	2531.566638
879.472087	2529.885414
879.782425	2530.951618
880.092722	2533.053779
880.402977	2534.051927
880.713191	2535.912113
881.023363	2536.474202
881.333494	2538.762886
881.643583	2542.954605
881.953631	2538.810777
882.263637	2540.139121
882.573602	2538.473019
882.883526	2532.905065
883.193408	2539.045190
883.503248	2533.605785
883.813048	2531.813655
884.122806	2535.576876
884.432522	2529.908099
884.742197	2534.745086
885.051831	2532.279962
885.361424	2532.479087
885.670975	2533.845240
885.980485	2530.238294
886.289954	2528.821730
886.599382	2531.183511
886.908768	2532.700898
887.218113	2531.906916
887.527417	2530.543284
887.836680	2530.505476
888.145901	2529.638397
888.455082	2529.499765
888.764221	2530.349200
889.073319	2530.886083
889.382376	2531.107893
889.691392	2531.584283
890.000366	2530.482790
890.309300	2528.786442
890.618193	2528.247039
890.927044	2529.277955
891.235855	2531.740558
891.544625	2531.468336
891.853353	2531.722914
892.162041	2529.222502
892.470687	2530.883562
892.779293	2531.158305
893.087858	2527.768129
893.396381	2527.866432
893.704864	2527.087573
894.013306	2526.792666
894.321707	2529.716535
894.630068	2530.268541
894.938387	2536.007895
895.246665	2531.415404
895.554903	2531.430527
895.863100	2530.883562
896.171256	2532.514375
896.479371	2532.322812
896.787446	2533.210055
897.095480	2532.819365
897.403473	2529.782070
897.711425	2528.849457
898.019336	2532.216947
898.327207	2528.940197
898.635038	2529.751823
898.942827	2528.615043
899.250576	2529.524971
899.558284	2530.089580
899.865952	2529.149405
900.173579	2528.937677
900.481165	2527.924405
900.788711	2528.025228
901.096216	2529.489683
901.403681	2530.613860
901.711105	2528.859539
902.018489	2528.486493
902.325832	2533.404139
902.633135	2528.907430
902.940397	2527.528674
903.247619	2527.185876
903.554800	2528.176463
903.861941	2535.274407
904.169041	2533.426824
904.476101	2532.559746
904.783121	2532.073274
905.090100	2529.565300
905.397039	2532.171577
905.703938	2530.248377
906.010796	2527.866432
906.317614	2532.242153
906.624391	2529.610671
906.931129	2533.298275
907.237826	2529.144364
907.544483	2529.449354
907.851099	2528.226874
908.157675	2532.179139
908.464211	2528.443644
908.770707	2525.965917
909.077163	2527.269055
909.383578	2526.255783
909.689954	2526.843077
909.996289	2523.558766
910.302584	2528.143695
910.608839	2526.941380
910.915054	2528.824251
911.221229	2529.809796
911.527363	2528.395753
911.833458	2527.185876
912.139513	2529.499765
912.445527	2530.916330
912.751502	2527.841226
913.057436	2530.200486
913.363331	2528.806607
913.669186	2527.475742
913.975000	2529.633356
914.280775	2530.286185
914.586510	2530.472708
914.892205	2531.349869
915.197859	2533.691485
915.503475	2532.118645
915.809050	2532.574869
916.114585	2536.209541
916.420081	2532.635363
916.725536	2533.366330
917.030952	2533.293234
917.336328	2530.964221
917.641665	2531.473377
917.946961	2531.952287
918.252218	2528.146216
918.557435	2531.753161
918.862612	2533.177287
919.167750	2532.211906
919.472848	2529.494724
919.777906	2528.657893
920.082925	2527.016997
920.387904	2531.216278
920.692843	2529.966072
920.997743	2531.317101
921.302603	2528.685619
921.607423	2531.614529
921.912204	2527.707635
922.216946	2530.056813
922.521647	2529.373737
922.826310	2530.807945
923.130932	2531.428007
923.435516	2524.362830
923.740059	2530.142512
924.044564	2529.940866
924.349028	2529.124199
924.653454	2525.537418
924.957840	2527.624456
925.262186	2525.676050
925.566493	2527.352234
925.870761	2525.388704
926.174989	2525.522295
926.479178	2526.260824
926.783328	2527.964734
927.087438	2528.509179
927.391509	2531.039838
927.695541	2530.195445
927.999533	2529.459436
928.303486	2527.876514
928.607400	2529.509848
928.911275	2525.960875
929.215110	2528.857018
929.518906	2530.634025
929.822663	2526.414579
930.126381	2528.365506
930.430060	2528.209230
930.733699	2526.868283
931.037299	2528.468849
931.340861	2528.292409
931.644383	2526.270906
931.947866	2527.599250
932.251309	2527.029600
932.554714	2526.946421
932.858080	2528.882224
933.161407	2527.158149
933.464694	2525.562624
933.767943	2528.483973
934.071153	2527.064888
934.374323	2529.119158
934.677455	2526.235618
934.980548	2530.278624
935.283602	2525.885258
935.586617	2528.335259
935.889593	2527.611853
936.192530	2527.120341
936.495428	2526.313756
936.798287	2526.754857
937.101108	2527.937008
937.403890	2531.783408
937.706632	2530.329035
938.009336	2526.976668
938.312002	2529.179652
938.614628	2527.828623
938.917216	2529.950949
939.219765	2525.789476
939.522275	2526.648993
939.824747	2529.502286
940.127179	2524.148581
940.429573	2524.645134
940.731929	2526.986750
941.034246	2523.084897
941.336524	2526.515402
941.638763	2524.703108
941.940964	2528.655372
942.243126	2525.529857
942.545250	2529.096473
942.847335	2528.940197
943.149381	2526.666637
943.451389	2526.172604
943.753359	2527.649662
944.055290	2529.106555
944.357182	2528.506658
944.659036	2529.093952
944.960851	2529.189734
945.262628	2529.046062
945.564367	2529.131761
945.866067	2526.860721
946.167729	2530.543284
946.469352	2526.863242
946.770937	2529.769467
947.072484	2528.736031
947.373992	2527.503468
947.675462	2527.397604
947.976893	2528.068078
948.278286	2526.691843
948.579641	2527.397604
948.880958	2526.598581
949.182236	2529.734179
949.483476	2527.420289
949.784678	2530.026566
950.085841	2528.400794
950.386967	2529.056144
950.688054	2527.034641
950.989103	2528.345341
951.290114	2527.400125
951.591087	2525.706297
951.892021	2528.148736
952.192917	2526.971627
952.493776	2528.743592
952.794596	2527.760567
953.095378	2529.257790
953.396122	2528.254600
953.696828	2528.186545
953.997496	2527.387522
954.298126	2524.703108
954.598718	2528.327697
954.899272	2526.122192
955.199788	2527.856349
955.500266	2529.028418
955.800706	2524.209074
956.101108	2522.147243
956.401472	2527.674868
956.701798	2524.425844
957.002087	2526.417100
957.302337	2527.430372
957.602550	2526.389373
957.902724	2528.599919
958.202861	2526.442306
958.502960	2526.737213
958.803022	2529.086391
959.103045	2525.711338
959.403031	2527.246370
959.702979	2528.221833
960.002889	2528.436082
960.302762	2527.052285
960.602596	2528.804086
960.902393	2527.687471
961.202153	2524.085566
961.501875	2527.337110
961.801559	2525.227388
962.101205	2525.350896
962.400814	2527.833664
962.700385	2527.148067
962.999918	2527.581606
963.299414	2526.389373
963.598873	2527.468180
963.898293	2525.912984
964.197677	2527.400125
964.497022	2527.402645
964.796331	2526.354085
965.095601	2527.236287
965.394835	2530.107224
965.694030	2527.871473
965.993189	2527.886596
966.292309	2526.467511
966.591393	2527.248890
966.890439	2527.092614
967.189447	2523.271420
967.488419	2526.371729
967.787353	2528.161339
968.086249	2528.027748
968.385108	2527.115300
968.683930	2527.498427
968.982714	2530.011443
969.281462	2523.757891
969.580172	2527.571524
969.878844	2525.832326
970.177480	2526.039013
970.476078	2527.538757
970.774639	2526.286030
971.073162	2529.066226
971.371649	2524.798889
971.670098	2521.073477
971.968510	2527.546318
972.266885	2522.109434
972.565223	2526.999353
972.863524	2526.132275
973.161788	2529.835002
973.460014	2524.083046
973.758204	2526.243180
974.056356	2528.017666
974.354471	2526.928777
974.652550	2527.642100
974.950591	2525.439116
975.248595	2526.517923
975.546563	2526.386853
975.844493	2529.096473
976.142386	2529.043541
976.440243	2526.096987
976.738062	2530.450023
977.035845	2530.036648
977.333590	2527.982378
977.631299	2528.045392
977.928971	2526.507841
978.226606	2528.546987
978.524204	2525.328211
978.821765	2528.151257
979.119290	2528.615043
979.416777	2527.274096
979.714228	2530.258459
980.011642	2527.460619
980.309020	2530.079498
980.606360	2528.020187
980.903664	2525.363499
981.200931	2529.850126
981.498162	2525.686133
981.795356	2525.655886
982.092513	2524.534229
982.389633	2525.388704
982.686717	2526.918695
982.983764	2527.521112
983.280775	2527.657224
983.577749	2526.298633
983.874686	2526.591020
984.171587	2527.034641
984.468451	2524.831657
984.765279	2525.633200
985.062070	2526.414579
985.358824	2526.202851
985.655543	2524.723272
985.952224	2528.531864
986.248869	2527.044723
986.545478	2523.591533
986.842050	2521.945596
987.138586	2523.470545
987.435086	2521.640607
987.731549	2522.081708
988.027975	2526.918695
988.324366	2523.445340
988.620719	2525.197141
988.917037	2524.871986
989.213318	2526.427182
989.509563	2525.958355
989.805772	2529.358613
990.101944	2525.330731
990.398080	2528.710825
990.694180	2524.345186
990.990244	2526.555732
991.286271	2526.308715
991.582262	2527.004394
991.878217	2527.558921
992.174136	2525.524816
992.470019	2525.431554
992.765865	2525.113962
993.061676	2522.938704
993.357450	2527.490866
993.653188	2525.219826
993.948890	2528.219312
994.244556	2526.606143
994.540186	2528.002543
994.835780	2524.322500
995.131337	2526.132275
995.426859	2527.629497
995.722345	2524.446009
996.017795	2525.033303
996.313208	2526.737213
996.608586	2527.168232
996.903928	2527.679909
997.199234	2528.070598
997.494504	2524.498941
997.789738	2525.474404
998.084936	2528.453726
998.380099	2526.268386
998.675225	2524.264527
998.970316	2526.349044
999.265371	2526.550690
999.560390	2527.195958
999.855373	2527.616894
1000.150320	2527.574045
1000.445232	2529.315763
1000.740108	2525.630680
1001.034948	2526.676719
1001.329752	2527.992460
1001.624521	2526.278468
1001.919254	2521.464166
1002.213951	2520.957530
1002.508613	2520.224042
1002.803239	2523.773015
1003.097829	2521.927952
1003.392384	2527.579086
1003.686903	2528.922553
1003.981386	2527.879034
1004.275834	2528.826771
1004.570246	2528.904909
1004.864623	2525.870135
1005.158964	2527.316946
1005.453270	2523.941893
1005.747540	2530.825589
1006.041775	2525.161853
1006.335974	2523.805782
1006.630138	2523.853673
1006.924266	2526.084384
1007.218359	2525.744106
1007.512416	2526.701925
1007.806438	2526.422141
1008.100425	2527.485824
1008.394376	2525.028262
1008.688292	2526.875845
1008.982172	2525.779394
1009.276017	2524.473735
1009.569827	2525.610515
1009.863602	2527.553880
1010.157341	2527.914323
1010.451045	2523.926770
1010.744714	2523.210926
1011.038347	2528.438602
1011.331945	2527.112779
1011.625508	2527.541277
1011.919036	2526.119672
1012.212528	2526.333921
1012.505986	2525.444157
1012.799408	2527.090094
1013.092795	2523.137829
1013.386147	2525.567665
1013.679464	2524.975330
1013.972745	2525.330731
1014.265992	2524.685463
1014.559204	2528.070598
1014.852380	2524.191430
1015.145521	2526.732172
1015.438628	2526.033972
1015.731699	2525.900382
1016.024736	2526.762419
1016.317737	2525.597912
1016.610703	2524.415762
1016.903635	2525.698735
1017.196531	2518.699093
1017.489393	2522.553055
1017.782219	2518.016017
1018.075011	2524.856863
1018.367768	2529.162008
1018.660490	2528.302491
1018.953177	2528.302491
1019.245829	2528.302491
