Dividing Wavelength (nm)	Counts (n)	Blue Motor Position (mm): 0.000000	Red Motor Position (mm): 9.000000	
326.493990	2128.498662
326.888308	2128.498662
327.282561	2128.498662
327.676750	2100.081678
328.070874	2094.359968
328.464933	2098.670155
328.858929	2102.302306
329.252859	2113.881837
329.646726	2124.221243
330.040528	2138.858233
330.434265	2154.274082
330.827938	2171.749242
331.221547	2191.477797
331.615091	2208.741228
332.008571	2227.252345
332.401986	2249.453587
332.795338	2268.027718
333.188625	2285.946500
333.581847	2305.720426
333.975006	2323.724907
334.368100	2343.818946
334.761129	2360.404342
335.154095	2376.178112
335.546996	2393.827192
335.939833	2407.634912
336.332606	2420.721748
336.725315	2436.188008
337.117960	2444.528597
337.510540	2452.286932
337.903056	2464.975517
338.295508	2469.623461
338.687896	2481.298773
339.080220	2490.967706
339.472480	2496.268479
339.864676	2500.099756
340.256807	2501.770899
340.648875	2506.280211
341.040879	2509.287259
341.432818	2510.214831
341.824694	2513.932682
342.216506	2513.385717
342.608253	2515.104751
342.999937	2514.971160
343.391557	2514.338495
343.783113	2512.984945
344.174605	2510.504698
344.566033	2510.504698
344.957397	2507.343894
345.348697	2504.334325
345.739934	2504.437669
346.131106	2503.641167
346.522215	2504.286434
346.913260	2499.212513
347.304241	2498.698315
347.695159	2496.868377
348.086012	2493.221102
348.476802	2491.396204
348.867528	2490.531646
349.258191	2490.874445
349.648789	2487.262458
350.039324	2484.552838
350.429796	2487.728765
350.820203	2483.741212
351.210548	2484.472179
351.600828	2484.003352
351.991045	2481.361787
352.381198	2481.354226
352.771288	2482.299442
353.161314	2479.262147
353.551276	2479.572178
353.941175	2482.884216
354.331010	2479.831797
354.720782	2481.525625
355.110490	2480.658546
355.500135	2479.801550
355.889717	2481.510501
356.279235	2480.426653
356.668689	2483.673156
357.058080	2483.521922
357.447408	2480.151910
357.836672	2479.594863
358.225873	2480.000676
358.615010	2480.172075
359.004084	2483.907570
359.393095	2481.177785
359.782043	2485.944196
360.170927	2486.060143
360.559748	2484.951089
360.948505	2485.891264
361.337199	2486.962509
361.725830	2488.613487
362.114398	2485.230873
362.502903	2490.813951
362.891344	2487.340596
363.279722	2488.053919
363.668037	2489.984681
364.056289	2490.687922
364.444478	2490.486276
364.832603	2490.672798
365.220665	2490.929897
365.608665	2490.864362
365.996601	2496.139930
366.384474	2494.307470
366.772284	2496.084477
367.160031	2497.614467
367.547715	2499.104128
367.935336	2502.194356
368.322893	2499.575476
368.710388	2506.648215
369.097820	2513.284894
369.485189	2516.607014
369.872495	2521.670853
370.259738	2528.489014
370.646918	2533.275590
371.034035	2539.531662
371.421090	2551.975750
371.808081	2564.082081
372.195010	2569.967628
372.581875	2584.559248
372.968678	2597.784715
373.355418	2607.574636
373.742096	2627.751854
374.128710	2638.439100
374.515262	2653.126502
374.901751	2670.122752
375.288177	2680.565502
375.674540	2704.737835
376.060841	2722.906153
376.447079	2738.672362
376.833254	2757.617018
377.219367	2769.052876
377.605417	2802.735345
377.991404	2809.130049
378.377329	2824.825681
378.763191	2837.559636
379.148991	2868.761858
379.534727	2883.469424
379.920402	2902.313257
380.306013	2908.312230
380.691563	2939.711057
381.077049	2948.321348
381.462474	2954.345526
381.847835	2977.733960
382.233134	2982.235710
382.618371	2970.714153
383.003545	3011.408867
383.388657	3004.084071
383.773706	3012.787623
384.158693	3008.132117
384.543618	3007.902745
384.928480	3018.690814
385.313280	3028.677340
385.698017	3005.848475
386.082692	3021.284488
386.467305	3003.582476
386.851856	2998.380005
387.236344	2992.191989
387.620770	2984.973057
388.005133	2974.200111
388.389435	2963.190231
388.773674	2947.802109
389.157851	2936.383895
389.541965	2922.147677
389.926018	2887.272974
390.310008	2887.066287
390.693936	2870.627084
391.077802	2861.893285
391.461606	2834.045952
391.845348	2826.937925
392.229027	2808.880512
392.612645	2788.826802
392.996200	2784.342695
393.379694	2771.676796
393.763125	2762.080960
394.146494	2734.752865
394.529801	2725.209961
394.913047	2712.594473
395.296230	2690.229394
395.679351	2678.642302
396.062410	2665.411794
396.445408	2650.016110
396.828343	2634.980868
397.211217	2622.375463
397.594028	2604.161774
397.976778	2592.894796
398.359466	2586.752150
398.742092	2578.948443
399.124656	2569.163564
399.507158	2564.286247
399.889598	2558.418344
400.271977	2553.725030
400.654294	2548.479710
401.036549	2542.203473
401.418742	2535.934798
401.800874	2536.743903
402.182944	2532.164015
402.564952	2528.945238
402.946898	2527.485824
403.328783	2526.633869
403.710606	2521.852335
404.092367	2521.890144
404.474067	2520.554238
404.855705	2521.010462
405.237282	2521.151615
405.618797	2519.810668
406.000250	2522.588343
406.381642	2517.564834
406.762972	2519.107427
407.144240	2518.048784
407.525447	2519.419978
407.906593	2520.282016
408.287677	2520.266892
408.668700	2518.366377
409.049661	2516.738084
409.430560	2518.331089
409.811399	2520.828981
410.192176	2516.957375
410.572891	2518.623476
410.953545	2517.610204
411.334138	2521.139012
411.714669	2520.017355
412.095139	2517.280008
412.475547	2521.136491
412.855894	2519.684639
413.236180	2518.389062
413.616405	2520.725637
413.996568	2518.502488
414.376670	2520.687828
414.756711	2518.472241
415.136691	2518.527694
415.516609	2518.205060
415.896466	2516.811181
416.276262	2523.838550
416.655997	2517.234638
417.035670	2516.483506
417.415283	2521.050792
417.794834	2515.651716
418.174324	2520.367715
418.553753	2521.305370
418.933121	2519.982067
419.312428	2520.982736
419.691674	2521.426358
420.070859	2523.886441
420.449983	2521.058353
420.829045	2524.249404
421.208047	2522.583302
421.586988	2520.425688
421.965867	2522.782428
422.344686	2523.841070
422.723444	2521.680936
423.102141	2520.219001
423.480777	2521.706142
423.859352	2523.901564
424.237866	2521.522139
424.616319	2522.333765
424.994712	2525.136647
425.373044	2523.838550
425.751314	2525.154291
426.129524	2523.097500
426.507673	2522.338806
426.885762	2526.533046
427.263789	2525.930628
427.641756	2523.107582
428.019662	2526.041534
428.397508	2524.687984
428.775292	2524.287212
429.153016	2523.778056
429.530679	2526.830474
429.908282	2524.471214
430.285824	2523.818385
430.663305	2524.924918
431.040726	2522.941224
431.418086	2524.128416
431.795385	2526.916174
432.172624	2525.514733
432.549802	2526.769981
432.926920	2525.872655
433.303977	2526.298633
433.680974	2524.395597
434.057910	2526.946421
434.434786	2525.045906
434.811601	2528.983047
435.188355	2525.726462
435.565050	2526.152439
435.941683	2525.983561
436.318257	2526.613705
436.694770	2522.197654
437.071222	2525.335772
437.447614	2524.307377
437.823946	2522.411903
438.200218	2527.132944
438.576429	2530.346679
438.952580	2528.617563
439.328670	2530.762574
439.704700	2526.875845
440.080670	2528.632687
440.456580	2526.860721
440.832429	2531.435568
441.208218	2526.742254
441.583947	2527.233767
441.959616	2529.035979
442.335224	2526.525485
442.710773	2524.914836
443.086261	2528.410876
443.461689	2527.488345
443.837057	2531.130579
444.212365	2527.715197
444.587612	2530.336597
444.962800	2528.000022
445.337927	2530.208048
445.712995	2527.742923
446.088002	2531.730476
446.462949	2529.346010
446.837837	2530.936494
447.212664	2531.289375
447.587431	2529.782070
447.962139	2528.166380
448.336786	2534.858512
448.711374	2534.465302
449.085901	2532.723583
449.460369	2532.126207
449.834776	2531.027235
450.209124	2527.901720
450.583412	2530.593696
450.957640	2530.024045
451.331808	2532.201824
451.705917	2530.739889
452.079965	2530.578572
452.453954	2531.218799
452.827883	2532.589993
453.201752	2532.811803
453.575562	2532.451361
453.949311	2530.686957
454.323001	2530.835671
454.696632	2531.339787
455.070202	2537.003523
455.443713	2532.234591
455.817164	2529.436751
456.190556	2528.781401
456.563888	2531.909437
456.937160	2532.615198
457.310373	2533.063861
457.683526	2533.008408
458.056619	2531.380116
458.429653	2534.054448
458.802628	2532.917668
459.175542	2530.815507
459.548398	2537.121990
459.921194	2532.332894
460.293930	2532.408511
460.666607	2532.605116
461.039224	2536.925385
461.411782	2537.157278
461.784280	2534.588810
462.156719	2535.728111
462.529099	2535.367668
462.901419	2536.464119
463.273680	2537.298430
463.645882	2532.204344
464.018024	2536.630477
464.390106	2538.215920
464.762130	2535.455889
465.134094	2536.035621
465.505999	2538.964532
465.877845	2540.882691
466.249631	2539.929913
466.621358	2540.582742
466.993026	2541.628782
467.364634	2543.942671
467.736184	2538.904038
468.107674	2538.175591
468.479105	2537.374048
468.850477	2537.500077
469.221790	2538.190715
469.593043	2536.728780
469.964238	2538.808256
470.335373	2536.872453
470.706449	2537.091743
471.077467	2538.558719
471.448425	2541.848072
471.819324	2537.038811
472.190164	2539.108205
472.560945	2538.417567
472.931667	2538.825900
473.302330	2536.396064
473.672934	2536.670807
474.043479	2538.425128
474.413965	2538.515869
474.784393	2532.232071
475.154761	2536.869932
475.525070	2532.957997
475.895321	2534.949253
476.265513	2534.561084
476.635645	2535.851619
477.005719	2538.273894
477.375734	2536.320447
477.745691	2536.970755
478.115588	2537.371527
478.485427	2539.231713
478.855207	2540.202135
479.224928	2540.471837
479.594591	2539.335057
479.964194	2538.596527
480.333739	2541.724563
480.703226	2538.112577
481.072653	2542.180788
481.442022	2539.864378
481.811333	2538.031918
482.180584	2539.322454
482.549777	2540.945705
482.918912	2539.675334
483.287988	2543.582229
483.657005	2538.762886
484.025964	2541.003678
484.394864	2538.578883
484.763706	2540.323123
485.132489	2538.203317
485.501213	2539.607279
485.869879	2540.529810
486.238487	2537.121990
486.607036	2540.658359
486.975527	2540.973432
487.343959	2540.681045
487.712333	2539.927392
488.080648	2539.715664
488.448905	2542.029553
488.817104	2541.827907
489.185244	2541.769934
489.553326	2542.979811
489.921350	2541.769934
490.289315	2542.702547
490.657222	2542.800850
491.025070	2543.983000
491.392861	2544.552651
491.760593	2543.025181
492.128267	2541.283462
492.495883	2544.605583
492.863440	2540.295396
493.230939	2543.773792
493.598380	2541.774975
493.965763	2536.643080
494.333088	2538.944367
494.700354	2537.946219
495.067563	2540.040818
495.434713	2535.957483
495.801805	2543.352856
496.168839	2540.285314
496.535815	2541.101981
496.902733	2542.289173
497.269593	2542.029553
497.636395	2541.112063
498.003139	2543.436035
498.369825	2541.094419
498.736453	2540.003009
499.103023	2541.583411
499.469535	2541.855633
499.835989	2542.609286
500.202385	2537.800025
500.568723	2543.889739
500.935003	2540.633154
501.301226	2540.595345
501.667390	2543.002496
502.033497	2543.733463
502.399546	2540.822197
502.765537	2539.735828
503.131470	2543.367980
503.497345	2540.401261
503.863163	2542.503422
504.228923	2540.547454
504.594625	2541.505273
504.960269	2542.309337
505.325856	2543.277239
505.691385	2541.850592
506.056856	2543.037784
506.422270	2543.798998
506.787625	2541.628782
507.152924	2541.500232
507.518164	2543.186498
507.883347	2541.593493
508.248472	2538.707433
508.613540	2545.291180
508.978550	2543.715819
509.343503	2543.078113
509.708398	2541.880839
510.073236	2543.287321
510.438016	2543.297403
510.802738	2543.201622
511.167403	2545.916283
511.532010	2543.390665
511.896561	2542.490819
512.261053	2544.771941
512.625488	2538.432690
512.989866	2539.206507
513.354186	2541.081816
513.718449	2536.590148
514.082655	2541.888401
514.446803	2543.128525
514.810894	2541.790098
515.174927	2546.226314
515.538904	2543.713299
515.902822	2545.157589
516.266684	2544.981149
516.630488	2543.930068
516.994235	2543.322609
517.357925	2544.043494
517.721558	2547.463917
518.085133	2544.103988
518.448651	2546.158258
518.812112	2543.746066
519.175516	2545.210521
519.538863	2543.294883
519.902152	2543.433515
520.265385	2544.265305
520.628560	2544.822353
520.991678	2546.516180
521.354739	2545.747404
521.717743	2544.787064
522.080690	2544.829914
522.443580	2541.946374
522.806413	2545.785213
523.169189	2545.860830
523.531908	2543.599873
523.894569	2546.836293
524.257174	2544.068700
524.619722	2545.747404
524.982213	2545.414688
525.344647	2544.804708
525.707025	2541.996786
526.069345	2545.192877
526.431608	2546.496016
526.793815	2543.602393
527.155964	2545.265974
527.518057	2544.991231
527.880093	2547.330327
528.242072	2546.183464
528.603995	2545.636499
528.965860	2545.427291
529.327669	2544.098947
529.689421	2543.448638
530.051117	2544.771941
530.412755	2544.174564
530.774337	2544.850079
531.135862	2543.320089
531.497331	2544.421581
531.858743	2539.609799
532.220098	2544.252702
532.581396	2540.393699
532.942638	2542.314378
533.303824	2542.672300
533.664953	2546.821170
534.026025	2543.367980
534.387040	2545.104657
534.747999	2547.383259
535.108902	2547.428629
535.469748	2544.701365
535.830537	2547.448794
536.191270	2546.085162
536.551947	2548.409133
536.912567	2543.365459
537.273131	2546.606921
537.633638	2544.406457
537.994089	2544.814791
538.354483	2544.592980
538.714821	2544.915614
539.075103	2543.554502
539.435328	2544.678680
539.795497	2542.130376
540.155609	2547.199257
540.515665	2544.235058
540.875665	2546.793444
541.235609	2543.254554
541.595496	2545.066848
541.955328	2550.778476
542.315102	2544.766900
542.674821	2546.818649
543.034483	2543.738504
543.394090	2543.599873
543.753640	2545.666746
544.113134	2547.584905
544.472571	2548.562889
544.831953	2547.582384
545.191278	2546.269164
545.550548	2546.135573
545.909761	2549.041798
546.268918	2545.966694
546.628019	2546.306972
546.987064	2546.286808
547.346053	2545.208001
547.704986	2544.172044
548.063863	2544.532486
548.422684	2546.246478
548.781449	2543.297403
549.140158	2544.368649
549.498811	2549.422405
549.857408	2544.282949
550.215949	2544.724050
550.574434	2544.444266
550.932864	2541.369162
551.291237	2540.728936
551.649555	2545.840666
552.007817	2544.335881
552.366022	2546.354863
552.724173	2544.719009
553.082267	2546.332178
553.440305	2546.536345
553.798288	2546.425439
554.156215	2547.758825
554.514086	2545.172713
554.871902	2547.458876
555.229661	2546.420398
555.587365	2545.669266
555.945014	2547.032898
556.302606	2546.775800
556.660143	2547.983156
557.017625	2542.952084
557.375050	2544.230017
557.732421	2547.151366
558.089735	2548.925852
558.446994	2545.089534
558.804197	2546.301931
559.161345	2544.504760
559.518437	2545.873433
559.875474	2545.240768
560.232455	2546.241437
560.589381	2546.082641
560.946251	2547.758825
561.303065	2546.932075
561.659825	2547.852086
562.016528	2545.490305
562.373177	2547.262271
562.729770	2545.379400
563.086307	2545.175233
563.442789	2545.850748
563.799216	2547.947868
564.155587	2544.514842
564.511904	2544.774462
564.868164	2545.064328
565.224370	2544.466951
565.580520	2545.465100
565.936615	2550.234031
566.292654	2545.694472
566.648638	2546.405275
567.004567	2547.768907
567.360441	2545.139945
567.716260	2544.943340
568.072023	2547.166489
568.427732	2541.787578
568.783385	2542.957126
569.138982	2539.682896
569.494525	2543.120963
569.850013	2543.257074
570.205445	2548.184802
570.560823	2545.089534
570.916145	2546.460728
571.271412	2546.483413
571.626625	2546.944678
571.981782	2545.702034
572.336884	2546.359904
572.691931	2546.901828
573.046923	2542.483257
573.401860	2547.486602
573.756743	2546.193546
574.111570	2547.660522
574.466342	2546.869061
574.821059	2546.337219
575.175722	2547.148845
575.530330	2544.386293
575.884882	2547.282436
576.239380	2544.809750
576.593823	2545.570964
576.948211	2543.209183
577.302544	2545.886036
577.656823	2546.843855
578.011047	2545.356715
578.365216	2544.696324
578.719330	2544.867723
579.073389	2546.082641
579.427394	2545.570964
579.781344	2543.446118
580.135239	2542.755479
580.489080	2543.078113
580.842866	2542.906714
581.196597	2549.828218
581.550273	2544.091385
581.903895	2541.845551
582.257463	2546.823691
582.610975	2546.264123
582.964434	2547.539534
583.317837	2547.211859
583.671186	2547.715975
584.024481	2545.328988
584.377721	2547.048022
584.730906	2544.224976
585.084037	2545.971736
585.437113	2543.430994
585.790135	2546.095244
586.143103	2543.801519
586.496016	2544.804708
586.848874	2540.434028
587.201679	2543.052907
587.554428	2541.462423
587.907124	2542.344625
588.259765	2538.016795
588.612352	2544.587939
588.964884	2546.967363
589.317362	2544.981149
589.669786	2543.995603
590.022155	2542.833617
590.374470	2541.820345
590.726731	2546.889226
591.078937	2544.920655
591.431090	2545.399565
591.783188	2545.134904
592.135232	2545.724719
592.487222	2545.074410
592.839157	2545.240768
593.191038	2543.491488
593.542866	2545.470141
593.894639	2544.560213
594.246358	2543.062990
594.598022	2544.764379
594.949633	2546.001982
595.301190	2543.816642
595.652692	2544.905532
596.004141	2546.564071
596.355535	2546.564071
596.706876	2543.806560
597.058162	2543.481406
597.409395	2543.970398
597.760573	2544.451828
598.111698	2543.136087
598.462768	2547.345450
598.813785	2545.081972
599.164748	2543.433515
599.515657	2543.796478
599.866511	2543.763710
600.217312	2545.260933
600.568060	2543.136087
600.918753	2546.866540
601.269392	2542.493339
601.619978	2545.475182
601.970510	2541.986703
602.320988	2543.005017
602.671412	2544.361087
603.021783	2542.573998
603.372100	2547.652960
603.722363	2540.779347
604.072572	2544.688762
604.422728	2545.449976
604.772830	2540.552495
605.122878	2541.570808
605.472872	2544.315717
605.822813	2539.503935
606.172701	2541.807742
606.522534	2544.088865
606.872314	2545.616334
607.222041	2542.173226
607.571714	2544.212373
607.921333	2544.560213
608.270899	2544.471992
608.620411	2545.003834
608.969870	2542.858823
609.319276	2545.369318
609.668627	2552.184958
610.017926	2551.143959
610.367171	2554.297201
610.716362	2552.767211
611.065500	2550.365101
611.414585	2549.172868
611.763616	2548.492313
612.112594	2547.476520
612.461518	2546.770758
612.810389	2545.724719
613.159207	2547.259750
613.507971	2546.417878
613.856682	2543.741025
614.205340	2545.228165
614.553945	2545.286139
614.902496	2541.843031
615.250994	2545.059287
615.599439	2541.903524
615.947830	2545.218083
616.296169	2545.772610
616.644454	2546.269164
616.992686	2544.053577
617.340864	2545.124822
617.688990	2542.967208
618.037063	2546.014585
618.385082	2546.193546
618.733048	2542.508463
619.080961	2544.126673
619.428821	2546.685059
619.776628	2543.428473
620.124382	2545.870912
620.472083	2542.253885
620.819731	2544.996272
621.167326	2545.349153
621.514868	2543.758669
621.862357	2544.996272
622.209793	2543.148689
622.557176	2542.669780
622.904506	2543.168854
623.251783	2541.028884
623.599007	2542.024512
623.946179	2539.755993
624.293297	2538.795653
624.640363	2543.090716
624.987376	2542.634492
625.334336	2543.347815
625.681243	2543.640202
626.028097	2542.823535
626.374899	2543.564585
626.721647	2544.368649
627.068343	2542.332022
627.414987	2543.637681
627.761577	2544.507280
628.108115	2541.069213
628.454600	2544.265305
628.801032	2542.125335
629.147412	2541.500232
629.493739	2544.492157
629.840014	2543.738504
630.186236	2543.609955
630.532405	2543.335212
630.878521	2542.412681
631.224585	2544.356046
631.570597	2542.949564
631.916556	2544.708927
632.262462	2542.604245
632.608316	2542.440407
632.954117	2539.082999
633.299866	2542.178267
633.645562	2543.047866
633.991206	2542.747918
634.336797	2540.638195
634.682336	2542.876467
635.027823	2539.146013
635.373257	2541.520397
635.718639	2541.454862
636.063968	2541.434697
636.409245	2542.528628
636.754470	2543.304965
637.099642	2542.833617
637.444762	2541.790098
637.789829	2540.234902
638.134845	2541.207845
638.479808	2540.444110
638.824719	2540.055942
639.169577	2540.093750
639.514383	2543.783875
639.859137	2540.784388
640.203839	2541.296065
640.548489	2541.618699
640.893086	2536.675848
641.237632	2537.759696
641.582125	2538.397402
641.926566	2534.850950
642.270955	2540.741538
642.615292	2539.826569
642.959576	2540.287835
643.303809	2541.285983
643.647990	2541.230530
643.992118	2540.665921
644.336195	2542.203473
644.680219	2541.374203
645.024192	2541.404450
645.368112	2541.074255
645.711981	2542.024512
646.055797	2541.502753
646.399562	2541.671631
646.743274	2541.724563
647.086935	2542.286652
647.430544	2539.977804
647.774101	2542.074924
648.117606	2541.606096
648.461059	2540.575180
648.804460	2545.628937
649.147810	2539.385468
649.491108	2541.749769
649.834354	2538.546116
650.177548	2541.333874
650.520690	2541.969059
650.863781	2541.442259
651.206820	2541.646426
651.549807	2541.840510
651.892742	2540.872608
652.235626	2540.431508
652.578458	2540.456713
652.921238	2541.079296
653.263967	2542.450490
653.606644	2540.285314
653.949269	2542.972249
654.291843	2539.135931
654.634365	2542.886549
654.976836	2540.434028
655.319255	2542.039636
655.661622	2540.176929
656.003938	2538.808256
656.346203	2540.192053
656.688416	2541.137269
657.030577	2540.025695
657.372687	2538.891435
657.714746	2541.348997
658.056753	2540.522248
658.398708	2535.818852
658.740612	2537.787422
659.082465	2533.575538
659.424266	2539.335057
659.766016	2537.278266
660.107715	2540.784388
660.449362	2539.597197
660.790958	2540.829759
661.132503	2538.306661
661.473996	2543.108360
661.815438	2542.256405
662.156829	2538.594007
662.498168	2539.403112
662.839456	2537.943698
663.180693	2540.038298
663.521879	2541.908566
663.863013	2540.376055
664.204097	2539.302289
664.545129	2542.483257
664.886110	2540.660880
665.227040	2537.041332
665.567918	2539.947557
665.908746	2540.038297
666.249522	2538.621733
666.590248	2538.437731
666.930922	2539.009902
667.271545	2539.566950
667.612118	2540.887732
667.952639	2539.380427
668.293109	2539.735828
668.633528	2540.658359
668.973896	2535.118131
669.314213	2539.214069
669.654480	2540.605427
669.994695	2540.459234
670.334859	2539.110725
670.674973	2537.941178
671.015035	2541.548123
671.355047	2539.650129
671.695008	2539.420756
672.034918	2540.963349
672.374777	2538.626774
672.714585	2541.076775
673.054342	2539.319933
673.394049	2539.806404
673.733705	2540.975952
674.073310	2537.991589
674.412864	2543.307486
674.752368	2540.028215
675.091820	2540.287835
675.431223	2540.340767
675.770574	2540.446631
676.109875	2536.086033
676.449125	2536.796836
676.788324	2535.118131
677.127473	2538.425128
677.466571	2534.336753
677.805619	2540.713812
678.144616	2541.469985
678.483562	2538.629295
678.822458	2538.099974
679.161303	2540.073586
679.500098	2537.958822
679.838842	2540.796991
680.177535	2537.729449
680.516179	2540.549975
680.854771	2539.536703
681.193314	2540.484440
681.531805	2536.716177
681.870247	2541.490150
682.208638	2536.451517
682.546978	2542.090047
682.885268	2538.898997
683.223508	2539.335057
683.561697	2539.115766
683.899836	2540.781868
684.237925	2538.533513
684.575963	2539.385468
684.913951	2536.764068
685.251889	2541.507794
685.589776	2537.394212
685.927614	2540.048380
686.265401	2540.270191
686.603137	2539.209028
686.940824	2540.464275
687.278460	2537.464788
687.616046	2537.938657
687.953582	2540.277752
688.291068	2539.350180
688.628504	2539.140972
688.965889	2538.742721
689.303224	2543.441076
689.640510	2539.632485
689.977745	2540.353370
690.314930	2541.810263
690.652065	2538.135262
690.989150	2540.847403
691.326185	2540.577701
691.663170	2539.203987
692.000105	2540.340767
692.336990	2541.109543
692.673825	2539.123328
693.010610	2539.677855
693.347345	2533.036135
693.684030	2532.703419
694.020665	2535.392874
694.357251	2534.508152
694.693786	2537.699202
695.030272	2539.214069
695.366707	2539.249357
695.703093	2538.805735
696.039429	2539.876981
696.375716	2539.025026
696.711952	2541.187681
697.048139	2537.129552
697.384276	2541.046528
697.720363	2537.547968
698.056400	2539.067875
698.392388	2536.814480
698.728326	2540.890252
699.064214	2535.735673
699.400053	2539.146013
699.735842	2536.564942
700.071581	2538.226003
700.407270	2538.258770
700.742910	2537.084181
701.078501	2540.769265
701.414042	2536.370858
701.749533	2537.389171
702.084974	2539.541744
702.420366	2538.689789
702.755709	2539.246836
703.091002	2539.720705
703.426246	2535.990251
703.761440	2537.351363
704.096584	2538.460416
704.431679	2536.925385
704.766725	2538.089892
705.101721	2537.227854
705.436668	2538.964532
705.771565	2539.811446
706.106413	2538.175591
706.441212	2535.513862
706.775961	2537.432021
707.110661	2536.789274
707.445311	2536.572504
707.779913	2542.878988
708.114465	2537.681558
708.448967	2537.845396
708.783421	2536.302803
709.117825	2538.959491
709.452180	2535.551671
709.786485	2540.867567
710.120742	2537.895807
710.454949	2537.245498
710.789107	2538.127700
711.123216	2534.803059
711.457275	2535.644932
711.791286	2535.057638
712.125247	2533.595703
712.459159	2537.149716
712.793023	2537.936136
713.126837	2536.953111
713.460602	2537.565612
713.794318	2536.413708
714.127985	2537.500077
714.461602	2536.774150
714.795171	2538.251208
715.128691	2539.549306
715.462162	2539.834131
715.795584	2538.863709
716.128957	2537.361445
716.462281	2538.727597
716.795556	2537.681558
717.128782	2536.670807
717.461960	2536.370858
717.795088	2536.033101
718.128167	2536.040663
718.461198	2535.975127
718.794180	2537.285828
719.127113	2536.396064
719.459997	2538.833462
719.792833	2535.118131
720.125619	2537.303472
720.458357	2534.419932
720.791046	2535.521424
721.123686	2536.627957
721.456278	2539.025026
721.788821	2536.461599
722.121315	2537.800025
722.453761	2537.991589
722.786158	2537.399253
723.118506	2536.605272
723.450805	2534.868594
723.783056	2537.613503
724.115259	2536.201979
724.447412	2535.977648
724.779518	2535.249201
725.111574	2536.411187
725.443582	2537.379089
725.775542	2536.766589
726.107453	2538.641898
726.439315	2535.707946
726.771129	2541.114584
727.102895	2536.874973
727.434612	2537.036290
727.766281	2535.521424
728.097901	2535.760878
728.429473	2532.398429
728.760996	2534.871115
729.092471	2532.063192
729.423897	2537.154757
729.755276	2535.448327
730.086606	2539.662732
730.417887	2535.312216
730.749120	2536.101156
731.080305	2538.410005
731.411442	2535.271887
731.742530	2538.362114
732.073570	2537.928575
732.404562	2537.205169
732.735506	2538.634336
733.066401	2537.474871
733.397249	2537.583256
733.728048	2539.387989
734.058798	2539.110725
734.389501	2534.704757
734.720156	2538.404964
735.050762	2533.852802
735.381320	2535.574356
735.711831	2536.753986
736.042293	2536.774150
736.372707	2535.304654
736.703073	2537.064017
737.033391	2536.585107
737.363661	2538.626774
737.693883	2537.900848
738.024056	2537.966383
738.354182	2538.011754
738.684260	2535.402957
739.014290	2538.011754
739.344272	2537.174922
739.674207	2535.491177
740.004093	2538.372196
740.333931	2534.500590
740.663722	2537.792463
740.993464	2536.998482
741.323159	2537.280786
741.652806	2535.115611
741.982405	2537.253060
742.311956	2536.426311
742.641460	2536.015457
742.970915	2536.943029
743.300323	2536.897659
743.629683	2534.074613
743.958996	2537.996630
744.288260	2536.166691
744.617477	2535.216434
744.946647	2532.000178
745.275768	2533.467153
745.604842	2533.270548
745.933869	2531.947246
746.262847	2531.223840
746.591778	2539.103163
746.920662	2536.257432
747.249498	2536.045704
747.578286	2536.191897
747.907027	2536.685930
748.235720	2534.760209
748.564365	2536.307844
748.892963	2535.181146
749.221514	2535.662576
749.550017	2534.447658
749.878473	2536.161650
750.206881	2536.227185
750.535242	2534.810621
750.863555	2537.459747
751.191821	2535.155940
751.520039	2536.738862
751.848210	2537.457227
752.176334	2536.146527
752.504411	2533.262987
752.832440	2535.085364
753.160421	2534.513193
753.488356	2532.292565
753.816243	2537.484953
754.144082	2535.715508
754.471875	2534.805580
754.799620	2537.341280
755.127318	2535.186187
755.454969	2536.411187
755.782572	2535.539068
756.110129	2536.333049
756.437638	2536.612833
756.765100	2534.858512
757.092515	2538.072248
757.419882	2536.053265
757.747203	2536.930426
758.074477	2533.847761
758.401703	2537.058976
758.728882	2534.800539
759.056014	2535.017308
759.383099	2533.797349
759.710138	2535.481094
760.037129	2535.682741
760.364073	2540.197094
760.690970	2536.504449
761.017820	2532.121165
761.344623	2534.805580
761.671379	2537.134593
761.998088	2533.721732
762.324751	2531.637215
762.651366	2535.839016
762.977935	2534.130065
763.304456	2532.854653
763.630931	2537.550488
763.957359	2538.326826
764.283740	2534.692154
764.610074	2535.856660
764.936362	2535.871784
765.262602	2537.076620
765.588796	2534.427493
765.914943	2535.334901
766.241044	2533.946063
766.567097	2536.098636
766.893104	2533.517565
767.219064	2533.331042
767.544978	2533.333563
767.870845	2534.344314
768.196665	2537.270704
768.522438	2533.232740
768.848165	2537.253060
769.173846	2532.668131
769.499479	2533.510003
769.825066	2534.440096
770.150607	2532.867256
770.476101	2534.351876
770.801548	2539.347659
771.126949	2534.286341
771.452303	2532.562266
771.777611	2534.283820
772.102872	2535.382792
772.428087	2533.391536
772.753256	2534.372041
773.078378	2535.239119
773.403453	2533.542771
773.728482	2533.036135
774.053465	2535.652494
774.378401	2535.811290
774.703291	2534.114942
775.028135	2536.814480
775.352932	2534.896321
775.677683	2533.719211
776.002388	2535.523944
776.327046	2534.137627
776.651658	2535.211393
776.976224	2536.038142
777.300743	2536.736342
777.625216	2534.969417
777.949643	2536.706095
778.274024	2534.019160
778.598359	2531.879190
778.922647	2530.409694
779.246889	2532.738707
779.571086	2528.534384
779.895236	2533.197452
780.219339	2533.031094
780.543397	2536.663245
780.867409	2537.248019
781.191374	2534.873635
781.515294	2536.693492
781.839167	2531.521268
782.162995	2535.849099
782.486776	2533.666279
782.810511	2533.096629
783.134201	2534.046886
783.457844	2534.543440
783.781441	2533.346166
784.104993	2532.726104
784.428498	2534.432534
784.751958	2534.586290
785.075372	2535.647452
785.398739	2535.735673
785.722061	2531.682585
786.045337	2532.247194
786.368568	2534.117462
786.691752	2535.254242
787.014891	2534.102339
787.337983	2534.687113
787.661030	2535.002185
787.984031	2530.964221
788.306987	2534.382123
788.629897	2531.969931
788.952760	2537.671476
789.275579	2532.718542
789.598351	2533.172246
789.921078	2530.823068
790.243759	2537.336239
790.566395	2533.270548
790.888984	2534.311547
791.211529	2532.272400
791.534027	2534.974458
791.856480	2530.160157
792.178888	2535.178625
792.501249	2534.719880
792.823566	2531.077647
793.145836	2533.958666
793.468062	2533.739376
793.790241	2534.014119
794.112375	2534.722401
794.434464	2533.210055
794.756507	2532.025383
795.078505	2534.533357
795.400457	2532.027904
795.722364	2526.860721
796.044226	2530.439941
796.366042	2528.667975
796.687812	2534.079654
797.009538	2531.473377
797.331218	2530.593696
797.652852	2533.721732
797.974442	2535.342463
798.295986	2532.426155
798.617484	2535.140817
798.938938	2532.345497
799.260346	2533.862884
799.581709	2532.118645
799.903026	2534.863553
800.224299	2533.991433
800.545526	2531.327184
800.866708	2533.903213
801.187845	2534.331711
801.508936	2534.077133
801.829983	2532.824406
802.150984	2537.704243
802.471940	2532.300126
802.792851	2534.402288
803.113717	2531.259128
803.434538	2533.968748
803.755314	2534.369520
804.076045	2532.569828
804.396731	2535.619726
804.717372	2530.795342
805.037967	2535.733152
805.358518	2533.872966
805.679024	2534.195600
805.999485	2532.552184
806.319901	2535.196269
806.640272	2535.143337
806.960598	2532.300126
807.280879	2531.327184
807.601115	2532.902544
807.921306	2534.372041
808.241453	2531.997657
808.561554	2530.928932
808.881611	2538.533513
809.201623	2532.625281
809.521590	2532.794159
809.841513	2532.549663
810.161390	2531.493542
810.481223	2532.116124
810.801011	2532.688295
811.120755	2531.123017
811.440453	2535.506300
811.760107	2532.680733
812.079716	2530.334076
812.399281	2528.519261
812.718801	2528.771319
813.038276	2526.984230
813.357707	2535.481094
813.677093	2531.627132
813.996434	2534.389685
814.315731	2533.041176
814.634983	2533.212575
814.954191	2531.717873
815.273354	2534.641742
815.592473	2533.444468
815.911547	2533.993954
816.230577	2532.703419
816.549562	2533.588141
816.868502	2532.816845
817.187399	2532.567307
817.506250	2532.859694
817.825058	2534.462781
818.143821	2530.308871
818.462539	2534.901362
818.781213	2532.955476
819.099843	2533.565456
819.418429	2533.789787
819.736970	2533.978831
820.055466	2532.466484
820.373919	2534.964376
820.692327	2530.702081
821.010691	2536.678368
821.329011	2535.453368
821.647286	2541.207845
821.965517	2541.936292
822.283704	2548.099102
822.601847	2546.226314
822.919945	2545.170192
823.237999	2542.730274
823.556010	2542.906714
823.873976	2534.861032
824.191897	2536.698533
824.509775	2533.434386
824.827609	2535.854140
825.145398	2533.497400
825.463144	2536.653163
825.780845	2534.087215
826.098502	2535.665097
826.416116	2533.696526
826.733685	2537.263142
827.051210	2540.580222
827.368692	2535.191228
827.686129	2534.077133
828.003522	2535.546629
828.320872	2530.800383
828.638177	2531.642256
828.955439	2528.945238
829.272656	2533.167205
829.589830	2528.957841
829.906960	2529.819879
830.224046	2530.160157
830.541088	2531.080167
830.858086	2533.507483
831.175041	2536.514531
831.491952	2534.258615
831.808819	2532.337935
832.125642	2535.634850
832.442421	2532.572349
832.759157	2533.489839
833.075849	2531.425486
833.392497	2535.269366
833.709101	2536.204500
834.025662	2533.199972
834.342179	2534.240971
834.658653	2532.579910
834.975083	2534.467822
835.291469	2537.263142
835.607811	2534.389685
835.924110	2531.685106
836.240366	2534.679551
836.556578	2533.343645
836.872746	2533.938501
837.188871	2529.945908
837.504952	2534.828265
837.820990	2533.051258
838.136984	2531.957328
838.452935	2531.392719
838.768842	2532.005219
839.084706	2532.784077
839.400526	2531.851464
839.716303	2532.763913
840.032037	2532.862215
840.347727	2532.292565
840.663373	2535.415559
840.978977	2531.561597
841.294537	2533.603265
841.610054	2529.565300
841.925527	2530.581093
842.240957	2532.007739
842.556344	2533.366330
842.871687	2532.685775
843.186987	2532.804242
843.502244	2530.424817
843.817458	2532.564787
844.132629	2528.264683
844.447756	2531.775846
844.762840	2526.560773
845.077881	2527.105217
845.392879	2526.472553
845.707833	2530.268541
846.022745	2526.671678
846.337613	2529.908099
846.652438	2529.628315
846.967221	2530.369364
847.281960	2530.011442
847.596656	2531.077647
847.911309	2530.271062
848.225919	2531.475898
848.540485	2532.768954
848.855009	2530.893644
849.169490	2529.542615
849.483928	2532.731145
849.798323	2532.698378
850.112675	2530.397091
850.426984	2531.281813
850.741251	2532.106042
851.055474	2531.291896
851.369654	2530.160157
851.683792	2531.475898
851.997887	2530.029087
852.311938	2528.521782
852.625947	2531.266690
852.939914	2531.773326
853.253837	2533.157123
853.567718	2531.707791
853.881555	2529.643438
854.195350	2531.927081
854.509103	2530.288706
854.822812	2528.700742
855.136479	2533.051258
855.450103	2530.051772
855.763685	2532.678213
856.077224	2529.310722
856.390720	2531.548994
856.704173	2532.438758
857.017584	2530.732328
857.330953	2532.511855
857.644278	2532.582431
857.957561	2534.805580
858.270802	2533.131917
858.584000	2530.618902
858.897155	2531.685106
859.210268	2531.299457
859.523339	2530.923891
859.836367	2532.040507
860.149352	2531.775846
860.462295	2533.237781
860.775195	2528.685619
861.088054	2527.261493
861.400869	2527.062367
861.713642	2527.987419
862.026373	2531.697708
862.339062	2530.996988
862.651708	2534.949253
862.964312	2532.327853
863.276873	2530.790301
863.589392	2531.165867
863.901869	2532.206865
864.214303	2531.440610
864.526696	2529.325846
864.839045	2532.469005
865.151353	2530.518078
865.463619	2534.669469
865.775842	2532.831968
866.088023	2531.397760
866.400162	2533.303316
866.712258	2529.340969
867.024313	2533.494880
867.336325	2530.795342
867.648296	2529.593027
867.960224	2531.508665
868.272110	2531.254087
868.583954	2531.659900
868.895755	2530.805424
869.207515	2529.582944
869.519233	2532.574869
869.830909	2530.815507
870.142542	2529.928263
870.454134	2530.203006
870.765684	2530.054292
871.077191	2531.395239
871.388657	2533.164684
871.700081	2529.761905
872.011463	2530.538243
872.322803	2527.256452
872.634101	2531.798532
872.945357	2527.702594
873.256571	2530.210568
873.567744	2531.811134
873.878874	2532.262318
874.189963	2530.248377
874.501010	2532.000178
874.812015	2531.117976
875.122979	2530.467667
875.433900	2531.561597
875.744780	2530.480270
876.055618	2530.712163
876.366415	2528.489014
876.677169	2530.533202
876.987882	2528.428520
877.298554	2526.971627
877.609183	2526.475073
877.919771	2529.182173
878.230317	2528.292409
878.540822	2531.889272
878.851285	2532.600075
879.161707	2531.364992
879.472087	2530.462626
879.782425	2528.272244
880.092722	2532.257277
880.402977	2532.597554
880.713191	2535.072761
881.023363	2534.820703
881.333494	2537.215251
881.643583	2535.503780
881.953631	2535.289531
882.263637	2538.896476
882.573602	2537.084181
882.883526	2534.608975
883.193408	2534.276259
883.503248	2533.454551
883.813048	2533.724252
884.122806	2533.240302
884.432522	2532.952956
884.742197	2530.838192
885.051831	2530.407173
885.361424	2531.617050
885.670975	2533.134437
885.980485	2531.090249
886.289954	2531.813655
886.599382	2529.850126
886.908768	2532.726104
887.218113	2530.142512
887.527417	2532.539581
887.836680	2531.967410
888.145901	2532.600075
888.455082	2531.180990
888.764221	2532.191742
889.073319	2530.384488
889.382376	2531.357431
889.691392	2529.368695
890.000366	2529.169570
890.309300	2529.076308
890.618193	2529.497245
890.927044	2529.971113
891.235855	2532.552184
891.544625	2530.611340
891.853353	2533.426824
892.162041	2531.637215
892.470687	2531.180990
892.779293	2529.492204
893.087858	2527.659744
893.396381	2525.736544
893.704864	2528.075639
894.013306	2525.151770
894.321707	2528.998171
894.630068	2530.399611
894.938387	2532.330373
895.246665	2532.985723
895.554903	2529.492204
895.863100	2535.324819
896.171256	2529.903058
896.479371	2531.521268
896.787446	2531.289375
897.095480	2531.770805
897.403473	2529.703932
897.711425	2528.723428
898.019336	2526.507841
898.327207	2530.306350
898.635038	2529.784591
898.942827	2528.105886
899.250576	2531.193593
899.558284	2529.708973
899.865952	2531.788449
900.173579	2531.541433
900.481165	2529.202337
900.788711	2530.545805
901.096216	2528.042872
901.403681	2529.489683
901.711105	2531.652338
902.018489	2528.521782
902.325832	2532.912627
902.633135	2531.944725
902.940397	2530.399611
903.247619	2531.916999
903.554800	2530.999509
903.861941	2531.619571
904.169041	2535.077802
904.476101	2531.748120
904.783121	2531.072605
905.090100	2531.861546
905.397039	2532.290044
905.703938	2532.665610
906.010796	2533.013450
906.317614	2531.526309
906.624391	2531.523789
906.931129	2531.173428
907.237826	2531.680064
907.544483	2528.650331
907.851099	2530.916330
908.157675	2530.805424
908.464211	2530.697039
908.770707	2527.407687
909.077163	2527.150588
909.383578	2524.564476
909.689954	2525.827285
909.996289	2525.983561
910.302584	2529.104035
910.608839	2527.085053
910.915054	2530.986906
911.221229	2531.130579
911.527363	2531.498583
911.833458	2529.736700
912.139513	2533.182328
912.445527	2529.091432
912.751502	2529.058664
913.057436	2529.754344
913.363331	2530.308871
913.669186	2530.714683
913.975000	2529.638397
914.280775	2531.092770
914.586510	2529.383819
914.892205	2531.952287
915.197859	2530.487832
915.503475	2530.986906
915.809050	2533.688964
916.114585	2533.298275
916.420081	2533.983872
916.725536	2530.843233
917.030952	2532.683254
917.336328	2530.308871
917.641665	2531.095291
917.946961	2529.771988
918.252218	2529.870290
918.557435	2526.369209
918.862612	2531.632173
919.167750	2529.865249
919.472848	2532.773995
919.777906	2526.550690
920.082925	2530.117307
920.387904	2531.261649
920.692843	2531.279293
920.997743	2530.399611
921.302603	2529.207378
921.607423	2531.012112
921.912204	2533.008408
922.216946	2527.352234
922.521647	2530.999509
922.826310	2527.677388
923.130932	2531.599406
923.435516	2527.581606
923.740059	2529.661082
924.044564	2531.027235
924.349028	2529.308202
924.653454	2524.234280
924.957840	2526.727131
925.262186	2523.911646
925.566493	2527.090094
925.870761	2526.197810
926.174989	2525.519774
926.479178	2530.800383
926.783328	2528.980527
927.087438	2527.947090
927.391509	2528.839374
927.695541	2527.493386
927.999533	2528.998171
928.303486	2528.501617
928.607400	2531.060003
928.911275	2528.587317
929.215110	2530.470187
929.518906	2527.596730
929.822663	2529.991278
930.126381	2529.277955
930.430060	2528.206709
930.733699	2528.216792
931.037299	2526.845598
931.340861	2528.433561
931.644383	2528.073119
931.947866	2530.702081
932.251309	2531.811134
932.554714	2527.684950
932.858080	2531.385157
933.161407	2527.624456
933.464694	2529.151926
933.767943	2529.386339
934.071153	2529.121679
934.374323	2528.748633
934.677455	2529.139323
934.980548	2527.054806
935.283602	2530.011442
935.586617	2527.258973
935.889593	2531.130579
936.192530	2526.061698
936.495428	2527.102697
936.798287	2530.560928
937.101108	2532.630322
937.403890	2525.955834
937.706632	2529.134282
938.009336	2528.637728
938.312002	2530.369364
938.614628	2527.064888
938.917216	2529.358613
939.219765	2528.506658
939.522275	2530.565969
939.824747	2531.120496
940.127179	2524.977850
940.429573	2524.536749
940.731929	2524.977850
941.034246	2522.905936
941.336524	2526.096987
941.638763	2528.289888
941.940964	2531.054961
942.243126	2527.407687
942.545250	2526.412059
942.847335	2527.763088
943.149381	2530.573531
943.451389	2528.204189
943.753359	2531.244005
944.055290	2527.148067
944.357182	2527.256452
944.659036	2531.632173
944.960851	2527.909281
945.262628	2526.775022
945.564367	2531.062523
945.866067	2528.252080
946.167729	2527.823582
946.469352	2529.950949
946.770937	2529.560259
947.072484	2527.558921
947.373992	2525.575227
947.675462	2523.894002
947.976893	2526.810310
948.278286	2526.802748
948.579641	2527.546318
948.880958	2527.085053
949.182236	2529.008253
949.483476	2527.669827
949.784678	2531.233922
950.085841	2527.440454
950.386967	2531.014632
950.688054	2526.689322
950.989103	2526.485155
951.290114	2529.645959
951.591087	2528.310053
951.892021	2525.918026
952.192917	2530.024045
952.493776	2526.379291
952.794596	2530.291227
953.095378	2528.559590
953.396122	2529.214940
953.696828	2528.161339
953.997496	2530.044210
954.298126	2529.010773
954.598718	2529.098994
954.899272	2526.880886
955.199788	2528.398273
955.500266	2529.441792
955.800706	2527.702594
956.101108	2524.788807
956.401472	2523.389887
956.701798	2522.754702
957.002087	2524.481297
957.302337	2526.654034
957.602550	2531.044879
957.902724	2527.339631
958.202861	2528.045393
958.502960	2526.623787
958.803022	2527.357275
959.103045	2527.321987
959.403031	2531.049920
959.702979	2531.478418
960.002889	2527.944569
960.302762	2526.492717
960.602596	2527.223684
960.902393	2527.390043
961.202153	2530.175280
961.501875	2530.056813
961.801559	2526.860721
962.101205	2527.468180
962.400814	2528.173942
962.700385	2527.836185
962.999918	2531.155784
963.299414	2526.739734
963.598873	2526.843077
963.898293	2530.676875
964.197677	2529.088911
964.497022	2527.200999
964.796331	2527.437933
965.095601	2527.014477
965.394835	2529.441792
965.694030	2524.793848
965.993189	2531.838861
966.292309	2526.528005
966.591393	2526.654034
966.890439	2529.025897
967.189447	2529.035979
967.488419	2527.901720
967.787353	2530.636546
968.086249	2530.069416
968.385108	2528.849457
968.683930	2527.684950
968.982714	2526.608664
969.281462	2526.346524
969.580172	2525.600433
969.878844	2527.511030
970.177480	2527.538757
970.476078	2527.674868
970.774639	2528.612522
971.073162	2528.617563
971.371649	2527.042203
971.670098	2523.866276
971.968510	2524.647655
972.266885	2523.049609
972.565223	2526.611184
972.863524	2526.681760
973.161788	2529.106555
973.460014	2525.154291
973.758204	2528.105886
974.056356	2527.339631
974.354471	2532.395908
974.652550	2527.029600
974.950591	2526.938859
975.248595	2524.874507
975.546563	2528.448685
975.844493	2527.369878
976.142386	2529.940866
976.440243	2526.873324
976.738062	2526.976668
977.035845	2528.267203
977.333590	2525.731503
977.631299	2527.211082
977.928971	2529.466998
978.226606	2525.751667
978.524204	2527.455578
978.821765	2527.130423
979.119290	2525.590351
979.416777	2527.122861
979.714228	2528.206709
980.011642	2528.874662
980.309020	2531.261649
980.606360	2525.207223
980.903664	2526.401976
981.200931	2523.982223
981.498162	2526.205371
981.795356	2526.318797
982.092513	2528.055475
982.389633	2525.504651
982.686717	2526.379291
982.983764	2526.356606
983.280775	2527.881555
983.577749	2527.190917
983.874686	2530.439941
984.171587	2526.840557
984.468451	2529.010773
984.765279	2527.730320
985.062070	2528.806607
985.358824	2525.131606
985.655543	2529.293078
985.952224	2525.003056
986.248869	2527.097656
986.545478	2521.970802
986.842050	2525.643283
987.138586	2521.922911
987.435086	2524.299815
987.731549	2524.307377
988.027975	2525.008097
988.324366	2529.638397
988.620719	2526.389373
988.917037	2527.301822
989.213318	2527.120341
989.509563	2526.364168
989.805772	2527.621936
990.101944	2525.371060
990.398080	2526.832995
990.694180	2524.319980
990.990244	2527.921884
991.286271	2527.979858
991.582262	2525.658406
991.878217	2527.904240
992.174136	2527.316946
992.470019	2526.664116
992.765865	2528.738551
993.061676	2526.588499
993.357450	2527.906761
993.653188	2527.768129
993.948890	2530.991947
994.244556	2528.899868
994.540186	2526.752337
994.835780	2524.478776
995.131337	2526.737213
995.426859	2527.599250
995.722345	2525.776873
996.017795	2528.133613
996.313208	2529.154446
996.608586	2526.349044
996.903928	2528.501617
997.199234	2524.776204
997.494504	2528.244518
997.789738	2526.608664
998.084936	2525.192099
998.380099	2525.812161
998.675225	2525.292923
998.970316	2528.141174
999.265371	2528.236956
999.560390	2525.030782
999.855373	2528.544467
1000.150320	2526.956503
1000.445232	2527.712676
1000.740108	2524.786287
1001.034948	2528.176462
1001.329752	2526.822913
1001.624521	2527.533715
1001.919254	2525.154291
1002.213951	2524.375433
1002.508613	2523.788138
1002.803239	2526.961544
1003.097829	2520.614732
1003.392384	2525.739065
1003.686903	2527.284178
1003.981386	2528.849457
1004.275834	2524.022552
1004.570246	2528.640249
1004.864623	2525.580268
1005.158964	2524.856863
1005.453270	2525.315608
1005.747540	2528.884745
1006.041775	2529.217461
1006.335974	2526.182686
1006.630138	2525.925587
1006.924266	2525.189579
1007.218359	2526.165042
1007.512416	2524.564476
1007.806438	2526.850639
1008.100425	2524.171266
1008.394376	2525.867614
1008.688292	2526.865762
1008.982172	2526.888448
1009.276017	2527.732841
1009.569827	2524.534229
1009.863602	2530.240815
1010.157341	2527.180835
1010.451045	2529.194776
1010.744714	2523.957017
1011.038347	2526.964065
1011.331945	2527.243849
1011.625508	2525.791997
1011.919036	2524.052799
1012.212528	2528.297450
1012.505986	2525.411390
1012.799408	2525.406348
1013.092795	2527.034641
1013.386147	2526.646472
1013.679464	2527.238808
1013.972745	2524.725793
1014.265992	2522.444671
1014.559204	2526.709487
1014.852380	2526.074301
1015.145521	2528.229395
1015.438628	2526.041534
1015.731699	2525.436595
1016.024736	2525.786956
1016.317737	2526.671678
1016.610703	2526.018849
1016.903635	2523.422654
1017.196531	2523.488189
1017.489393	2524.357788
1017.782219	2523.601615
1018.075011	2526.318797
1018.367768	2525.988602
1018.660490	2526.606143
1018.953177	2526.606143
1019.245829	2526.606143
