Dividing Wavelength (nm)	Counts (n)	Blue Motor Position (mm): 0.000000	Red Motor Position (mm): 44.300000	
326.493990	2128.899434
326.888308	2128.899434
327.282561	2128.899434
327.676750	2095.078333
328.070874	2093.097159
328.464933	2097.200658
328.858929	2103.527307
329.252859	2114.985849
329.646726	2126.036058
330.040528	2138.069293
330.434265	2156.250214
330.827938	2171.787050
331.221547	2189.917560
331.615091	2207.400282
332.008571	2231.045814
332.401986	2248.810840
332.795338	2268.143665
333.188625	2288.381377
333.581847	2307.439459
333.975006	2324.539053
334.368100	2341.263081
334.761129	2361.037007
335.154095	2379.285984
335.546996	2398.371792
335.939833	2421.596388
336.332606	2437.508790
336.725315	2449.970522
337.117960	2457.466718
337.510540	2465.310753
337.903056	2478.831128
338.295508	2483.257261
338.687896	2494.620022
339.080220	2501.478512
339.472480	2508.989831
339.864676	2512.904287
340.256807	2518.678929
340.648875	2520.733199
341.040879	2523.125226
341.432818	2525.943231
341.824694	2522.787469
342.216506	2523.919208
342.608253	2523.369722
342.999937	2524.761081
343.391557	2524.413241
343.783113	2525.844929
344.174605	2523.014321
344.566033	2522.865607
344.957397	2523.135309
345.348697	2519.505678
345.739934	2519.742612
346.131106	2515.046777
346.522215	2513.988135
346.913260	2509.577125
347.304241	2510.771879
347.695159	2509.332629
348.086012	2507.800119
348.476802	2505.569408
348.867528	2503.225272
349.258191	2504.846003
349.648789	2503.217710
350.039324	2499.882987
350.429796	2500.737462
350.820203	2498.731083
351.210548	2494.592296
351.600828	2498.035404
351.991045	2496.132368
352.381198	2495.925681
352.771288	2498.075733
353.161314	2494.005001
353.551276	2494.975423
353.941175	2493.571462
354.331010	2496.795280
354.720782	2493.488283
355.110490	2493.911740
355.500135	2492.994250
355.889717	2495.255207
356.279235	2495.061123
356.668689	2495.721514
357.058080	2496.984323
357.447408	2491.986019
357.836672	2494.403252
358.225873	2494.667913
358.615010	2493.374857
359.004084	2499.162102
359.393095	2497.548932
359.782043	2499.315857
360.170927	2499.625888
360.559748	2499.441886
360.948505	2501.140754
361.337199	2502.569922
361.725830	2499.641011
362.114398	2505.461023
362.502903	2504.346928
362.891344	2503.005981
363.279722	2504.858605
363.668037	2509.322547
364.056289	2506.774244
364.444478	2509.866992
364.832603	2509.254492
365.220665	2510.126611
365.608665	2511.039060
365.996601	2511.553258
366.384474	2507.472444
366.772284	2511.530573
367.160031	2514.807323
367.547715	2512.763135
367.935336	2520.745802
368.322893	2522.676564
368.710388	2522.966430
369.097820	2530.117307
369.485189	2531.314581
369.872495	2540.131559
370.259738	2547.070707
370.646918	2554.009855
371.034035	2560.782646
371.421090	2570.038204
371.808081	2581.839545
372.195010	2589.862542
372.581875	2604.736466
372.968678	2612.383896
373.355418	2628.152626
373.742096	2648.687766
374.128710	2658.943993
374.515262	2673.863288
374.901751	2691.575382
375.288177	2701.148533
375.674540	2725.693911
376.060841	2742.233937
376.447079	2764.281423
376.833254	2784.304887
377.219367	2794.104890
377.605417	2836.203565
377.991404	2840.924606
378.377329	2864.071064
378.763191	2882.309958
379.148991	2920.320258
379.534727	2944.570729
379.920402	2972.818835
380.306013	2982.848210
380.691563	3035.508103
381.077049	3059.929973
381.462474	3074.398085
381.847835	3112.390741
382.233134	3135.963176
382.618371	3136.822693
383.003545	3200.832744
383.388657	3210.935216
383.773706	3245.772110
384.158693	3263.045623
384.543618	3284.215949
384.928480	3321.623831
385.313280	3370.880945
385.698017	3366.364071
386.082692	3421.642844
386.467305	3428.516457
386.851856	3457.656847
387.236344	3481.259529
387.620770	3511.997965
388.005133	3538.469064
388.389435	3565.048547
388.773674	3575.350145
389.157851	3616.518728
389.541965	3632.065647
389.926018	3599.517437
390.310008	3669.980165
390.693936	3689.169317
391.077802	3730.408476
391.461606	3714.392730
391.845348	3781.051907
392.229027	3779.151392
392.612645	3795.540183
392.996200	3870.665979
393.379694	3912.936054
393.763125	3974.218840
394.146494	3942.462092
394.529801	4005.289992
394.913047	4052.109708
395.296230	4019.606869
395.679351	4072.964962
396.062410	4096.628138
396.445408	4082.091971
396.828343	4111.197073
397.211217	4136.997698
397.594028	4056.230852
397.976778	4117.715285
398.359466	4145.325684
398.742092	4176.459850
399.124656	4099.488993
399.507158	4180.959080
399.889598	4203.218295
400.271977	4269.799334
400.654294	4238.087956
401.036549	4246.899893
401.418742	4213.161971
401.800874	4315.900686
402.182944	4341.693750
402.564952	4405.902927
402.946898	4390.774424
403.328783	4385.032550
403.710606	4300.079025
404.092367	4497.538501
404.474067	4456.500988
404.855705	4466.820230
405.237282	4394.020927
405.618797	4501.669726
406.000250	4539.397722
406.381642	4615.897231
406.762972	4582.277776
407.144240	4593.048201
407.525447	4590.905711
407.906593	4652.367459
408.287677	4696.217935
408.668700	4619.829331
409.049661	4674.059544
409.430560	4717.017736
409.811399	4643.361437
410.192176	4806.722548
410.572891	4739.854163
410.953545	4844.127910
411.334138	4722.691555
411.714669	4792.927431
412.095139	4687.532027
412.475547	4830.915046
412.855894	4809.628773
413.236180	4820.149662
413.616405	4773.103093
413.996568	4859.087534
414.376670	4802.359430
414.756711	4759.066000
415.136691	4786.888128
415.516609	4864.554665
415.896466	4901.113113
416.276262	4938.785656
416.655997	4918.782357
417.035670	5100.999904
417.415283	5190.608934
417.794834	5136.945852
418.174324	5087.124128
418.553753	4990.928830
418.933121	5183.248850
419.312428	5249.058593
419.691674	5190.593811
420.070859	5312.861956
420.449983	5225.339964
420.829045	5340.447150
421.208047	5244.761009
421.586988	5321.991486
421.965867	5327.370397
422.344686	5458.495850
422.723444	5315.982430
423.102141	5135.158763
423.480777	5439.556235
423.859352	5203.037899
424.237866	5461.558351
424.616319	5455.730777
424.994712	5561.884874
425.373044	5438.855514
425.751314	5579.667544
426.129524	5386.177977
426.507673	5581.431948
426.885762	5666.120812
427.263789	5595.791675
427.641756	5472.658971
428.019662	5598.866778
428.397508	5604.195278
428.775292	5556.006888
429.153016	5653.457433
429.530679	5579.705353
429.908282	5667.197098
430.285824	5529.369432
430.663305	5807.439478
431.040726	5542.264703
431.418086	5538.440988
431.795385	5645.426875
432.172624	5658.264174
432.549802	5653.124717
432.926920	5668.044012
433.303977	5673.538870
433.680974	5715.214089
434.057910	5733.843673
434.434786	5736.528087
434.811601	5703.942069
435.188355	5944.223626
435.565050	5813.319984
435.941683	5799.948323
436.318257	6010.214850
436.694770	5994.501573
437.071222	6027.740421
437.447614	5961.013188
437.823946	5872.117482
438.200218	6027.236306
438.576429	5894.283435
438.952580	5989.495708
439.328670	6038.089910
439.704700	5941.889571
440.080670	5927.539927
440.456580	6204.548810
440.832429	6084.186221
441.208218	5928.475061
441.583947	6083.825778
441.959616	6091.289207
442.335224	6017.905130
442.710773	6153.459237
443.086261	6181.709863
443.461689	5976.920549
443.837057	6122.466223
444.212365	6278.003463
444.587612	6172.824829
444.962800	6322.698333
445.337927	6306.022196
445.712995	5915.970479
446.088002	6492.209652
446.462949	6322.610113
446.837837	6254.720894
447.212664	6423.644918
447.587431	6569.616569
447.962139	7114.063705
448.336786	8039.501084
448.711374	7779.276722
449.085901	6855.455033
449.460369	6768.643843
449.834776	6706.410799
450.209124	7097.863957
450.583412	7253.902792
450.957640	7401.507777
451.331808	7159.474419
451.705917	6712.780297
452.079965	6637.420088
452.453954	6852.695001
452.827883	6721.637604
453.201752	6817.916081
453.575562	6617.361337
453.949311	6814.840977
454.323001	6714.159053
454.696632	6783.958869
455.070202	6922.986330
455.443713	7078.102634
455.817164	7181.264806
456.190556	7264.073320
456.563888	7335.473702
456.937160	7376.362501
457.310373	7030.592279
457.683526	7057.668317
458.056619	6952.827440
458.429653	6933.844975
458.802628	6876.857252
459.175542	6981.562017
459.548398	7337.341450
459.921194	7499.165009
460.293930	7502.517376
460.666607	8032.403139
461.039224	8336.253646
461.411782	8465.072771
461.784280	8488.559507
462.156719	8374.820994
462.529099	8254.662571
462.901419	7841.789551
463.273680	7734.397850
463.645882	7751.008452
464.018024	7608.248016
464.390106	7778.770086
464.762130	8165.172008
465.134094	8638.596848
465.505999	9654.994287
465.877845	10874.950997
466.249631	11526.157168
466.621358	11149.799746
466.993026	10515.650318
467.364634	10257.059290
467.736184	9895.061594
468.107674	9570.875073
468.479105	9593.484648
468.850477	9359.575109
469.221790	9133.446592
469.593043	8805.653125
469.964238	8667.863267
470.335373	8679.548661
470.706449	8741.600224
471.077467	8720.248417
471.448425	10027.943889
471.819324	11103.189237
472.190164	11133.448763
472.560945	9879.184480
472.931667	9092.242721
473.302330	8954.967061
473.672934	8598.885159
474.043479	8958.364798
474.413965	8893.016321
474.784393	8778.743446
475.154761	8936.198845
475.525070	9020.290332
475.895321	8850.239610
476.265513	9029.707207
476.635645	9195.823309
477.005719	9196.360192
477.375734	9313.141041
477.745691	9540.222337
478.115588	9681.409933
478.485427	9919.470861
478.855207	10460.459766
479.224928	11267.949268
479.594591	11905.060374
479.964194	11715.485263
480.333739	11654.779688
480.703226	11571.308263
481.072653	11672.766525
481.442022	11901.319838
481.811333	12091.895617
482.180584	11896.255998
482.549777	11601.156935
482.918912	11431.441449
483.287988	11452.140427
483.657005	11460.654936
484.025964	11141.854887
484.394864	11275.579055
484.763706	11249.138203
485.132489	11003.034113
485.501213	10965.870727
485.869879	11039.373271
486.238487	10880.246729
486.607036	10991.711682
486.975527	10777.331573
487.343959	10964.360901
487.712333	11012.481235
488.080648	10940.654875
488.448905	10976.741975
488.817104	10923.139386
489.185244	11190.287773
489.553326	11344.892399
489.921350	11878.659851
490.289315	12941.125874
490.657222	13283.452988
491.025070	13196.351931
491.392861	13072.952047
491.760593	12689.012729
492.128267	12334.561640
492.495883	12015.822085
492.863440	11675.695435
493.230939	11339.528612
493.598380	11267.881213
493.965763	11141.063426
494.333088	11040.686491
494.700354	10962.170520
495.067563	11026.452793
495.434713	10849.745228
495.801805	10971.204268
496.168839	10902.342106
496.535815	10832.491878
496.902733	10836.592857
497.269593	10773.379308
497.636395	10877.211954
498.003139	10858.912566
498.369825	10727.600590
498.736453	10885.897862
499.103023	10809.811727
499.469535	10836.902888
499.835989	10830.089769
500.202385	10793.725405
500.568723	10639.481221
500.935003	10862.068328
501.301226	10668.629173
501.667390	10933.209091
502.033497	11025.106805
502.399546	10883.188242
502.765537	10793.528800
503.131470	10869.095697
503.497345	11039.927798
503.863163	10654.781123
504.228923	10962.904008
504.594625	11032.345902
504.960269	10779.970617
505.325856	10994.988432
505.691385	10794.784048
506.056856	10945.290216
506.422270	10967.690583
506.787625	10853.316885
507.152924	10978.085443
507.518164	10959.549120
507.883347	10877.889989
508.248472	10794.002669
508.613540	11025.890705
508.978550	10908.716645
509.343503	10889.386341
509.708398	11003.487817
510.073236	11114.461257
510.438016	11122.416198
510.802738	11068.846377
511.167403	11121.039963
511.532010	11021.978769
511.896561	11244.439847
512.261053	11318.567494
512.625488	11192.999913
512.989866	11166.909422
513.354186	11164.726602
513.718449	11065.995604
514.082655	11258.499625
514.446803	11156.748976
514.810894	11277.177100
515.174927	11141.365895
515.538904	11173.374702
515.902822	11318.774181
516.266684	11204.554238
516.630488	11149.898048
516.994235	11210.679240
517.357925	11266.767118
517.721558	11356.434121
518.085133	11372.691842
518.448651	11380.256094
518.812112	11270.900864
519.175516	11277.877821
519.538863	11401.348281
519.902152	11320.263842
520.265385	11475.506175
520.628560	11391.449976
520.991678	11363.408558
521.354739	11433.180647
521.717743	11365.334278
522.080690	11333.549803
522.443580	11471.773201
522.806413	11436.349013
523.169189	11466.792541
523.531908	11514.983451
523.894569	11333.106182
524.257174	11343.652276
524.619722	11460.644853
524.982213	11407.624518
525.344647	11458.930861
525.707025	11410.177862
526.069345	11505.193530
526.431608	11418.568863
526.793815	11533.923066
527.155964	11318.333080
527.518057	11372.359126
527.880093	11328.188536
528.242072	11394.409133
528.603995	11301.462859
528.965860	11223.713143
529.327669	11268.758373
529.689421	11219.770961
530.051117	11189.506394
530.412755	11296.124277
530.774337	11183.890548
531.135862	11169.931593
531.497331	11187.532782
531.858743	11037.258507
532.220098	11203.787983
532.581396	11080.481360
532.942638	11062.076107
533.303824	11022.419870
533.664953	11038.619618
534.026025	10949.842378
534.387040	11046.985413
534.747999	11052.346680
535.108902	11109.639393
535.469748	10870.171983
535.830537	10971.778959
536.191270	10950.686772
536.551947	10968.540018
536.912567	10968.192178
537.273131	10895.813812
537.633638	10873.037879
537.994089	10862.217042
538.354483	10809.360544
538.714821	10960.101126
539.075103	10967.075563
539.435328	10928.858575
539.795497	10750.784857
540.155609	10915.247460
540.515665	11001.952786
540.875665	10742.250183
541.235609	10806.512292
541.595496	10800.919132
541.955328	10958.099788
542.315102	10841.041675
542.674821	10796.185488
543.034483	10791.751794
543.394090	10793.942175
543.753640	10717.422501
544.113134	10950.570825
544.472571	10803.031375
544.831953	10947.276431
545.191278	10748.097922
545.550548	10771.592219
545.909761	10912.192521
546.268918	10890.709644
546.628019	10969.376849
546.987064	10839.879689
547.346053	10754.336350
547.704986	10854.458706
548.063863	10843.915133
548.422684	10832.968268
548.781449	10744.705225
549.140158	10852.089364
549.498811	10727.421629
549.857408	10583.799156
550.215949	10814.598303
550.574434	10667.686477
550.932864	10765.631055
551.291237	10825.388893
551.649555	10761.114181
552.007817	10782.521441
552.366022	10748.007181
552.724173	10737.014945
553.082267	10725.105219
553.440305	10859.726712
553.798288	10660.172637
554.156215	10814.789867
554.514086	10789.677359
554.871902	10640.859977
555.229661	10678.580410
555.587365	10653.540999
555.945014	10548.753055
556.302606	10675.233084
556.660143	10571.453371
557.017625	10724.522966
557.375050	10622.568150
557.732421	10756.201577
558.089735	10669.697897
558.446994	10671.358957
558.804197	10701.021107
559.161345	10711.053003
559.518437	10560.012472
559.875474	10646.914402
560.232455	10675.656541
560.589381	10628.534356
560.946251	10625.736515
561.303065	10724.336443
561.659825	10663.305714
562.016528	10599.099058
562.373177	10476.059616
562.729770	10588.137069
563.086307	10504.390901
563.442789	10598.269788
563.799216	10473.304626
564.155587	10519.335402
564.511904	10480.702519
564.868164	10468.893616
565.224370	10473.728083
565.580520	10405.238967
565.936615	10404.404656
566.292654	10277.826324
566.648638	10415.427138
567.004567	10366.641372
567.360441	10349.748466
567.716260	10259.524415
568.072023	10351.175112
568.427732	10308.496704
568.783385	10220.233662
569.138982	10285.292272
569.494525	10306.702053
569.850013	10176.915027
570.205445	10265.946845
570.560823	10156.972222
570.916145	10078.446168
571.271412	10150.935440
571.626625	10089.037633
571.981782	10071.607843
572.336884	10052.048166
572.691931	10043.606754
573.046923	9992.474331
573.401860	9954.698444
573.756743	9887.842662
574.111570	9936.898130
574.466342	9918.046735
574.821059	9945.193349
575.175722	9831.459877
575.530330	9850.147434
575.884882	9834.605557
576.239380	9765.506461
576.593823	9742.997709
576.948211	9758.524463
577.302544	9640.253953
577.656823	9653.829780
578.011047	9652.844234
578.365216	9629.785997
578.719330	9551.343122
579.073389	9564.649248
579.427394	9511.397019
579.781344	9488.280808
580.135239	9440.175598
580.489080	9444.470661
580.842866	9347.073048
581.196597	9348.194705
581.550273	9391.611642
581.903895	9364.293629
582.257463	9424.792517
582.610975	9299.938259
582.964434	9326.182506
583.317837	9251.414633
583.671186	9236.649093
584.024481	9233.780677
584.377721	9147.642481
584.730906	9124.735478
585.084037	9161.742588
585.437113	9090.843801
585.790135	9111.852809
586.143103	9016.020475
586.496016	8986.940579
586.848874	9045.125577
587.201679	9036.064102
587.554428	8915.520032
587.907124	8965.014080
588.259765	8935.414945
588.612352	8938.999206
588.964884	8808.186305
589.317362	8833.697064
589.669786	8835.499276
590.022155	8884.108602
590.374470	8897.752485
590.726731	8834.869132
591.078937	8685.724075
591.431090	8793.448491
591.783188	8674.709154
592.135232	8657.687698
592.487222	8660.919077
592.839157	8717.531235
593.191038	8647.393662
593.542866	8592.341741
593.894639	8493.867842
594.246358	8541.146303
594.598022	8558.465187
594.949633	8460.250907
595.301190	8431.891896
595.652692	8461.090259
596.004141	8574.949760
596.355535	8346.378804
596.706876	8324.157398
597.058162	8256.162314
597.409395	8343.341508
597.760573	8397.904437
598.111698	8311.751118
598.462768	8287.908981
598.813785	8261.226153
599.164748	8232.105928
599.515657	8215.157569
599.866511	8128.056513
600.217312	8258.471163
600.568060	8111.944985
600.918753	8217.978095
601.269392	8188.444495
601.619978	8097.083664
601.970510	8167.062441
602.320988	8158.169845
602.671412	8209.521559
603.021783	8153.872262
603.372100	8127.383519
603.722363	8119.733568
604.072572	8099.979807
604.422728	8113.258206
604.772830	8045.424440
605.122878	8047.846714
605.472872	8047.264461
605.822813	8079.220335
606.172701	8020.334617
606.522534	8099.261442
606.872314	8093.325483
607.222041	8062.264414
607.571714	8119.410934
607.921333	8076.084737
608.270899	8081.584636
608.620411	8174.112494
608.969870	8077.763442
609.319276	8070.912513
609.668627	8084.594205
610.017926	8123.035524
610.367171	8167.390116
610.716362	8139.847772
611.065500	8129.152964
611.414585	8162.611102
611.763616	8149.022672
612.112594	8135.247719
612.461518	8148.100141
612.810389	8211.699338
613.159207	8144.709965
613.507971	8093.154084
613.856682	8211.321251
614.205340	8171.758276
614.553945	8246.526149
614.902496	8146.305490
615.250994	8197.107718
615.599439	8179.125922
615.947830	8190.092952
616.296169	8165.358531
616.644454	8175.834048
616.992686	8175.990324
617.340864	8232.801608
617.688990	8136.208059
618.037063	8229.522337
618.385082	8174.460334
618.733048	8260.598530
619.080961	8196.583438
619.428821	8220.377684
619.776628	8219.167807
620.124382	8175.776075
620.472083	8155.205647
620.819731	8180.849997
621.167326	8079.505160
621.514868	8083.974143
621.862357	7977.416754
622.209793	7989.447467
622.557176	7928.363806
622.904506	7899.001606
623.251783	7829.678178
623.599007	7786.097403
623.946179	7795.640308
624.293297	7746.428564
624.640363	7657.908423
624.987376	7648.889799
625.334336	7594.248732
625.681243	7546.960188
626.028097	7527.219030
626.374899	7504.211204
626.721647	7497.471181
627.068343	7429.397960
627.414987	7405.210504
627.761577	7353.528595
628.108115	7395.418063
628.454600	7289.901672
628.801032	7336.789443
629.147412	7299.752086
629.493739	7287.761702
629.840014	7221.384829
630.186236	7283.781711
630.532405	7157.546177
630.878521	7210.221194
631.224585	7168.803074
631.570597	7088.414314
631.916556	7125.590303
632.262462	7121.307843
632.608316	7075.735812
632.954117	7054.598254
633.299866	7041.980246
633.645562	7038.143928
633.991206	6955.983203
634.336797	6899.600417
634.682336	6855.044179
635.027823	6820.058571
635.373257	6813.676471
635.718639	6746.281285
636.063968	6754.826041
636.409245	6647.293188
636.754470	6646.105996
637.099642	6608.259534
637.444762	6553.855401
637.789829	6559.277162
638.134845	6505.732547
638.479808	6487.917109
638.824719	6493.611092
639.169577	6423.365134
639.514383	6441.430109
639.859137	6372.424274
640.203839	6374.549121
640.548489	6357.754517
640.893086	6338.535118
641.237632	6308.409182
641.582125	6333.771227
641.926566	6297.195136
642.270955	6311.287681
642.615292	6308.545293
642.959576	6316.028886
643.303809	6307.602598
643.647990	6312.910933
643.992118	6308.872968
644.336195	6252.903558
644.680219	6271.770076
645.024192	6263.840341
645.368112	6358.170412
645.711981	6377.624225
646.055797	6453.886800
646.399562	6406.590695
646.743274	6529.695672
647.086935	6583.265493
647.430544	6573.223514
647.774101	6595.762513
648.117606	6603.788030
648.461059	6593.730928
648.804460	6554.301543
649.147810	6461.924920
649.491108	6431.506597
649.834354	6406.933493
650.177548	6322.771430
650.520690	6234.888995
650.863781	6217.577672
651.206820	6231.511422
651.549807	6150.961345
651.892742	6090.775009
652.235626	6102.483089
652.578458	6082.293268
652.921238	5993.153065
653.263967	6027.440473
653.606644	5970.798068
653.949269	5969.774714
654.291843	5907.723151
654.634365	5955.445234
654.976836	5907.090486
655.319255	5907.403038
655.661622	5885.703391
656.003938	5877.012442
656.346203	5838.288819
656.688416	5866.138673
657.030577	5820.778371
657.372687	5787.748731
657.714746	5775.556700
658.056753	5814.207227
658.398708	5755.722280
658.740612	5743.648717
659.082465	5788.083968
659.424266	5779.100631
659.766016	5780.534840
660.107715	5749.559470
660.449362	5759.140183
660.790958	5756.327219
661.132503	5741.612091
661.473996	5777.537874
661.815438	5758.842755
662.156829	5752.538792
662.498168	5743.414303
662.839456	5722.735490
663.180693	5752.316981
663.521879	5757.907621
663.863013	5740.694601
664.204097	5752.465695
664.545129	5791.040604
664.886110	5786.203617
665.227040	5810.718748
665.567918	5779.725734
665.908746	5798.083096
666.249522	5805.032327
666.590248	5788.071365
666.930922	5811.691691
667.271545	5818.605633
667.612118	5818.792156
667.952639	5793.331809
668.293109	5808.906453
668.633528	5765.166882
668.973896	5773.545280
669.314213	5758.298310
669.654480	5730.513991
669.994695	5729.049535
670.334859	5717.679213
670.674973	5704.463828
671.015035	5712.091094
671.355047	5697.721285
671.695008	5679.608419
672.034918	5658.002034
672.374777	5665.236089
672.714585	5642.999560
673.054342	5638.870855
673.394049	5635.266430
673.733705	5659.063197
674.073310	5640.267254
674.412864	5607.595536
674.752368	5592.376293
675.091820	5596.865440
675.431223	5531.995873
675.770574	5529.384555
676.109875	5484.495601
676.449125	5482.557277
676.788324	5444.536895
677.127473	5395.229369
677.466571	5385.986413
677.805619	5372.168611
678.144616	5351.363769
678.483562	5334.624617
678.822458	5302.794772
679.161303	5293.355211
679.500098	5278.045227
679.838842	5262.394965
680.177535	5263.241879
680.516179	5278.123365
680.854771	5283.714005
681.193314	5360.916755
681.531805	5449.169715
681.870247	5573.126647
682.208638	5660.043701
682.546978	5675.071381
682.885268	5647.627339
683.223508	5566.822684
683.561697	5515.130692
683.899836	5487.089274
684.237925	5438.018683
684.575963	5400.807406
684.913951	5367.566037
685.251889	5407.814609
685.589776	5378.853181
685.927614	5355.482391
686.265401	5402.894443
686.603137	5389.321137
686.940824	5452.479232
687.278460	5463.995748
687.616046	5462.853927
687.953582	5521.311147
688.291068	5502.076625
688.628504	5543.900557
688.965889	5516.272514
689.303224	5465.336695
689.640510	5417.289458
689.977745	5341.372202
690.314930	5250.984313
690.652065	5204.749371
690.989150	5127.962515
691.326185	5050.976534
691.663170	4998.709851
692.000105	4930.218215
692.336990	4863.622052
692.673825	4830.723482
693.010610	4774.118886
693.347345	4719.598807
693.684030	4690.874312
694.020665	4650.497191
694.357251	4577.503803
694.693786	4582.935647
695.030272	4548.449113
695.366707	4516.208414
695.703093	4484.111387
696.039429	4500.399355
696.375716	4475.372547
696.711952	4452.594093
697.048139	4445.866674
697.384276	4420.514711
697.720363	4426.463273
698.056400	4423.970422
698.392388	4378.113566
698.728326	4365.261144
699.064214	4343.506045
699.400053	4333.401052
699.735842	4297.850835
700.071581	4279.919451
700.407270	4255.293414
700.742910	4237.036876
701.078501	4189.846634
701.414042	4180.712064
701.749533	4154.833300
702.084974	4104.857822
702.420366	4142.679078
702.755709	4093.563117
703.091002	4048.800191
703.426246	4072.544026
703.761440	4046.874470
704.096584	4018.001262
704.431679	4023.125594
704.766725	4009.517000
705.101721	3991.880523
705.436668	4010.356352
705.771565	3972.988799
706.106413	3996.336903
706.441212	4011.072196
706.775961	4013.360879
707.110661	4003.870907
707.445311	4026.210781
707.779913	4029.726985
708.114465	4043.900189
708.448967	4061.816450
708.783421	4101.843212
709.117825	4130.320690
709.452180	4131.966627
709.786485	4169.334179
710.120742	4231.605032
710.454949	4221.310996
710.789107	4266.507461
711.123216	4319.525276
711.457275	4316.263649
711.791286	4363.658057
712.125247	4367.965723
712.459159	4307.038338
712.793023	4372.742217
713.126837	4308.734686
713.460602	4300.638593
713.794318	4252.238475
714.127985	4252.931634
714.461602	4170.720497
714.795171	4162.505937
715.128691	4104.454529
715.462162	4051.119122
715.795584	4003.593644
716.128957	3988.840707
716.462281	3962.664516
716.795556	3932.112603
717.128782	3896.353178
717.461960	3841.250846
717.795088	3843.899972
718.128167	3812.614572
718.461198	3771.647635
718.794180	3765.941049
719.127113	3738.663365
719.459997	3719.781723
719.792833	3691.742826
720.125619	3685.028009
720.458357	3650.307062
720.791046	3646.742966
721.123686	3631.143115
721.456278	3597.299329
721.788821	3605.087912
722.121315	3584.870364
722.453761	3567.004515
722.786158	3562.815316
723.118506	3582.652257
723.450805	3556.700397
723.783056	3570.228333
724.115259	3569.114238
724.447412	3567.062488
724.779518	3571.932243
725.111574	3566.064340
725.443582	3587.350612
725.775542	3573.235381
726.107453	3605.919702
726.439315	3601.286882
726.771129	3621.764049
727.102895	3646.914365
727.434612	3671.726924
727.766281	3676.768078
728.097901	3685.907690
728.429473	3683.485416
728.760996	3680.737987
729.092471	3682.542720
729.423897	3662.836850
729.755276	3661.891633
730.086606	3664.402128
730.417887	3694.984288
730.749120	3735.091708
731.080305	3762.593723
731.411442	3783.605252
731.742530	3770.412552
732.073570	3770.969600
732.404562	3797.909526
732.735506	3788.101961
733.066401	3764.927777
733.397249	3716.469685
733.728048	3663.656037
734.058798	3589.767845
734.389501	3538.108621
734.720156	3506.520751
735.050762	3466.292343
735.381320	3451.562092
735.711831	3424.382711
736.042293	3400.512848
736.372707	3408.165319
736.703073	3391.053122
737.033391	3387.562123
737.363661	3397.357085
737.693883	3408.329157
738.024056	3415.898449
738.354182	3415.164961
738.684260	3454.453194
739.014290	3468.311326
739.344272	3467.282930
739.674207	3489.564830
740.004093	3495.914163
740.333931	3490.210098
740.663722	3484.758090
740.993464	3482.318172
741.323159	3466.761171
741.652806	3441.938529
741.982405	3416.150507
742.311956	3395.532188
742.641460	3390.009603
742.970915	3366.011191
743.300323	3338.390709
743.629683	3317.616114
743.958996	3306.752427
744.288260	3288.415230
744.617477	3261.283740
744.946647	3250.904004
745.275768	3231.656879
745.604842	3223.996846
745.933869	3203.847354
746.262847	3194.599357
746.591778	3201.664534
746.920662	3187.939993
747.249498	3179.664939
747.578286	3191.897298
747.907027	3211.988817
748.235720	3217.460990
748.564365	3225.342834
748.892963	3213.317161
749.221514	3207.401367
749.550017	3196.608257
749.878473	3193.913760
750.206881	3170.013650
750.535242	3165.416117
750.863555	3162.862773
751.191821	3156.074859
751.520039	3150.658139
751.848210	3139.769247
752.176334	3147.391472
752.504411	3147.852737
752.832440	3129.202989
753.160421	3125.291053
753.488356	3121.527832
753.816243	3122.626803
754.144082	3103.735079
754.471875	3093.471290
754.799620	3099.626539
755.127318	3095.538163
755.454969	3093.980447
755.782572	3094.998760
756.110129	3084.130032
756.437638	3078.115936
756.765100	3080.921338
757.092515	3083.517532
757.419882	3083.822522
757.747203	3074.486305
758.074477	3078.730956
758.401703	3085.281936
758.728882	3094.424068
759.056014	3095.959100
759.383099	3099.082094
759.710138	3102.893207
760.037129	3113.482150
760.364073	3118.659415
760.690970	3109.837396
761.017820	3101.602671
761.344623	3110.154989
761.671379	3130.044861
761.998088	3154.832215
762.324751	3225.864593
762.651366	3380.325547
762.977935	3678.358562
763.304456	3928.581275
763.630931	3956.368115
763.957359	3750.525200
764.283740	3545.491391
764.610074	3419.863317
764.936362	3299.180614
765.262602	3217.256823
765.588796	3151.928510
765.914943	3098.333483
766.241044	3052.406051
766.567097	3032.498534
766.893104	3005.389730
767.219064	2984.973057
767.544978	2967.749954
767.870845	2941.853547
768.196665	2932.169491
768.522438	2927.327462
768.848165	2921.951072
769.173846	2904.233937
769.499479	2897.619943
769.825066	2888.397152
770.150607	2875.819473
770.476101	2875.927858
770.801548	2874.521376
771.126949	2854.923890
771.452303	2846.565657
771.777611	2841.169102
772.102872	2840.569205
772.428087	2832.231136
772.753256	2824.727379
773.078378	2818.476348
773.403453	2801.686785
773.728482	2796.070940
774.053465	2802.377423
774.378401	2793.517595
774.703291	2784.551903
775.028135	2780.924793
775.352932	2781.832201
775.677683	2771.971704
776.002388	2767.376692
776.327046	2768.856271
776.651658	2762.390991
776.976224	2755.101482
777.300743	2756.646596
777.625216	2751.214753
777.949643	2749.200812
778.274024	2749.899012
778.598359	2743.136304
778.922647	2743.794174
779.246889	2741.291241
779.571086	2734.798235
779.895236	2735.589696
780.219339	2740.398957
780.543397	2743.017837
780.867409	2745.858527
781.191374	2745.354411
781.515294	2739.284862
781.839167	2739.509193
782.162995	2735.216651
782.486776	2738.223699
782.810511	2737.475088
783.134201	2729.494941
783.457844	2729.240363
783.781441	2726.853377
784.104993	2716.486244
784.428498	2715.931717
784.751958	2722.086966
785.075372	2719.387428
785.398739	2712.339895
785.722061	2718.550596
786.045337	2717.028168
786.368568	2722.336503
786.691752	2714.162272
787.014891	2733.467371
787.337983	2744.696541
787.661030	2770.575304
787.984031	2802.503452
788.306987	2820.439877
788.629897	2815.446614
788.952760	2804.335911
789.275579	2788.100875
789.598351	2764.682195
789.921078	2741.215624
790.243759	2734.442834
790.566395	2722.092007
790.888984	2714.494988
791.211529	2709.607589
791.534027	2699.971424
791.856480	2696.399766
792.178888	2693.032276
792.501249	2687.436595
792.823566	2683.272602
793.145836	2686.244362
793.468062	2681.964422
793.790241	2678.765810
794.112375	2683.728826
794.434464	2687.340813
794.756507	2690.859538
795.078505	2694.216947
795.400457	2702.008050
795.722364	2717.474310
796.044226	2729.071484
796.366042	2729.598285
796.687812	2723.886658
797.009538	2728.574931
797.331218	2724.123592
797.652852	2714.265616
797.974442	2709.733618
798.295986	2706.265304
798.617484	2700.470498
798.938938	2693.803572
799.260346	2689.984898
799.581709	2684.825277
799.903026	2683.527180
800.224299	2679.602642
800.545526	2672.187104
800.866708	2671.408246
801.187845	2666.135199
801.508936	2662.034221
801.829983	2665.232833
802.150984	2659.720331
802.471940	2656.246976
802.792851	2656.413334
803.113717	2655.563900
803.434538	2657.192192
803.755314	2652.856800
804.076045	2651.780514
804.396731	2651.722540
804.717372	2650.157262
805.037967	2652.324958
805.358518	2653.620535
805.679024	2659.196051
805.999485	2654.338899
806.319901	2656.554486
806.640272	2656.514157
806.960598	2658.081956
807.280879	2659.362409
807.601115	2661.305774
807.921306	2658.548263
808.241453	2658.671771
808.561554	2655.236225
808.881611	2657.343427
809.201623	2656.892244
809.521590	2652.493837
809.841513	2652.950061
810.161390	2653.887716
810.481223	2647.646768
810.801011	2645.358084
811.120755	2641.925058
811.440453	2644.755666
811.760107	2641.804070
812.079716	2639.104532
812.399281	2636.198307
812.718801	2633.992802
813.038276	2629.710342
813.357707	2633.503810
813.677093	2633.352576
813.996434	2630.905096
814.315731	2630.690847
814.634983	2631.237812
814.954191	2629.604478
815.273354	2632.656897
815.592473	2634.083543
815.911547	2636.271404
816.230577	2639.215438
816.549562	2642.724081
816.868502	2641.491519
817.187399	2645.169040
817.506250	2650.096768
817.825058	2644.569143
818.143821	2649.927890
818.462539	2656.136071
818.781213	2663.327277
819.099843	2675.846982
819.418429	2698.839685
819.736970	2725.492265
820.055466	2748.167375
820.373919	2777.164092
820.692327	2819.134218
821.010691	2884.563354
821.329011	3084.409816
821.647286	3530.947662
821.965517	4202.981361
822.283704	4567.250097
822.601847	4526.615876
822.919945	4161.278416
823.237999	3836.434023
823.556010	3554.512536
823.873976	3324.709017
824.191897	3159.391938
824.509775	3043.674772
824.827609	2946.219186
825.145398	2903.215623
825.463144	2895.779922
825.780845	2926.904005
826.098502	2976.854278
826.416116	3094.577823
826.733685	3223.835529
827.051210	3249.043818
827.368692	3185.646268
827.686129	3063.098338
828.003522	2946.183898
828.320872	2851.611852
828.638177	2788.668005
828.955439	2740.225037
829.272656	2711.132538
829.589830	2688.971626
829.906960	2672.131652
830.224046	2659.102790
830.541088	2648.050060
830.858086	2644.165851
831.175041	2636.982207
831.491952	2634.721249
831.808819	2635.621095
832.125642	2643.671818
832.442421	2659.236380
832.759157	2689.150587
833.075849	2755.592995
833.392497	2848.065400
833.709101	2912.473703
834.025662	2893.937380
834.342179	2838.129286
834.658653	2774.993875
834.975083	2725.230125
835.291469	2694.257276
835.607811	2663.105466
835.924110	2644.828762
836.240366	2633.828965
836.556578	2621.069804
836.872746	2613.533279
837.188871	2606.347115
837.504952	2598.193048
837.820990	2599.397884
838.136984	2594.596185
838.452935	2591.193406
838.768842	2593.537543
839.084706	2594.576020
839.400526	2622.806482
839.716303	2670.851199
840.032037	2697.166022
840.347727	2690.501616
840.663373	2664.280055
840.978977	2640.798360
841.294537	2614.407920
841.610054	2601.333687
841.925527	2594.243304
842.240957	2585.272571
842.556344	2582.618403
842.871687	2577.879719
843.186987	2574.532393
843.502244	2570.491908
843.817458	2569.506362
844.132629	2569.468554
844.447756	2566.436300
844.762840	2561.188458
845.077881	2560.462532
845.392879	2559.073694
845.707833	2560.868345
846.022745	2557.377346
846.337613	2562.473953
846.652438	2561.468243
846.967221	2560.162584
847.281960	2560.424724
847.596656	2561.291802
847.911309	2558.136040
848.225919	2556.815258
848.540485	2556.684188
848.855009	2556.580844
849.169490	2555.050854
849.483928	2558.292316
849.798323	2557.604198
850.112675	2558.730896
850.426984	2553.856100
850.741251	2559.353478
851.055474	2557.001780
851.369654	2558.312480
851.683792	2556.328786
851.997887	2557.672254
852.311938	2556.245607
852.625947	2558.725855
852.939914	2558.315001
853.253837	2558.146122
853.567718	2555.910370
853.881555	2557.717624
854.195350	2556.159908
854.509103	2557.155535
854.822812	2555.310473
855.136479	2557.705021
855.450103	2557.422717
855.763685	2558.201575
856.077224	2554.609753
856.390720	2554.826522
856.704173	2556.500185
857.017584	2557.074877
857.330953	2558.007490
857.644278	2557.831050
857.957561	2562.080743
858.270802	2559.101421
858.584000	2556.898437
858.897155	2559.025803
859.210268	2557.710062
859.523339	2557.919270
859.836367	2552.752088
860.149352	2555.154197
860.462295	2557.253838
860.775195	2551.149001
861.088054	2553.979608
861.400869	2553.167983
861.713642	2551.703527
862.026373	2551.829556
862.339062	2553.465411
862.651708	2556.850546
862.964312	2556.994218
863.276873	2553.581357
863.589392	2558.070505
863.901869	2557.765515
864.214303	2557.896585
864.526696	2560.744837
864.839045	2558.073025
865.151353	2558.254507
865.463619	2560.976730
865.775842	2559.116544
866.088023	2558.642676
866.400162	2557.268961
866.712258	2558.897254
867.024313	2558.798952
867.336325	2556.152346
867.648296	2559.897923
867.960224	2560.951524
868.272110	2561.448078
868.583954	2559.776935
868.895755	2560.112172
869.207515	2558.511606
869.519233	2561.511092
869.830909	2556.744681
870.142542	2557.170659
870.454134	2561.188458
870.765684	2563.835064
871.077191	2563.769529
871.388657	2562.496638
871.700081	2563.068809
872.011463	2562.650393
872.322803	2562.297512
872.634101	2561.697615
872.945357	2565.211299
873.256571	2567.547874
873.567744	2569.276990
873.878874	2567.883111
874.189963	2569.110632
874.501010	2568.445199
874.812015	2566.375806
875.122979	2569.503842
875.433900	2567.021073
875.744780	2568.908986
876.055618	2567.351269
876.366415	2567.837740
876.677169	2568.941753
876.987882	2562.912533
877.298554	2565.619633
877.609183	2564.865980
877.919771	2565.044941
878.230317	2567.961249
878.540822	2572.379820
878.851285	2578.424163
879.161707	2579.959195
879.472087	2591.717686
879.782425	2604.623040
880.092722	2633.097997
880.402977	2686.332582
880.713191	2778.421860
881.023363	2912.420770
881.333494	2999.047958
881.643583	3032.279244
881.953631	3008.837879
882.263637	2939.030501
882.573602	2873.621530
882.883526	2818.045329
883.193408	2775.739966
883.503248	2738.543812
883.813048	2704.546271
884.122806	2677.709688
884.432522	2655.702531
884.742197	2637.410705
885.051831	2625.349744
885.361424	2611.884822
885.670975	2607.647732
885.980485	2596.411000
886.289954	2589.423961
886.599382	2585.416244
886.908768	2584.655030
887.218113	2580.488516
887.527417	2575.555747
887.836680	2574.630695
888.145901	2573.924934
888.455082	2568.160374
888.764221	2567.928481
889.073319	2562.859601
889.382376	2564.200548
889.691392	2564.475291
890.000366	2562.975547
890.309300	2565.806155
890.618193	2564.780281
890.927044	2569.249263
891.235855	2565.715415
891.544625	2568.591393
891.853353	2569.332442
892.162041	2567.711712
892.470687	2571.618606
892.779293	2577.005079
893.087858	2580.634709
893.396381	2585.174268
893.704864	2594.878490
894.013306	2613.865996
894.321707	2637.577063
894.630068	2657.371153
894.938387	2661.043634
895.246665	2653.784372
895.554903	2642.177116
895.863100	2629.213788
896.171256	2615.443877
896.479371	2601.502566
896.787446	2592.176431
897.095480	2586.759711
897.403473	2585.055801
897.711425	2577.095819
898.019336	2574.749162
898.327207	2571.921075
898.635038	2573.904769
898.942827	2570.338153
899.250576	2570.965776
899.558284	2565.554098
899.865952	2565.894376
900.173579	2564.460167
900.481165	2563.651062
900.788711	2559.867676
901.096216	2559.827347
901.403681	2564.034190
901.711105	2561.211144
902.018489	2559.252655
902.325832	2561.969837
902.633135	2560.780125
902.940397	2564.755075
903.247619	2573.773699
903.554800	2593.270362
903.861941	2630.484159
904.169041	2668.355827
904.476101	2685.072294
904.783121	2683.953157
905.090100	2665.356341
905.397039	2642.083854
905.703938	2621.631893
906.010796	2604.454161
906.317614	2590.001173
906.624391	2581.572364
906.931129	2573.758576
907.237826	2569.045097
907.544483	2565.521330
907.851099	2557.331976
908.157675	2555.103786
908.464211	2554.899619
908.770707	2549.931562
909.077163	2547.801674
909.383578	2550.039947
909.689954	2544.993752
909.996289	2544.827394
910.302584	2548.883002
910.608839	2550.075235
910.915054	2549.724875
911.221229	2550.649926
911.527363	2549.460214
911.833458	2548.711603
912.139513	2551.794268
912.445527	2549.934083
912.751502	2552.058929
913.057436	2551.925338
913.363331	2553.503219
913.669186	2557.165618
913.975000	2559.298026
914.280775	2564.974365
914.586510	2572.508369
914.892205	2584.113106
915.197859	2600.191866
915.503475	2623.108951
915.809050	2641.990593
916.114585	2649.816984
916.420081	2658.475166
916.725536	2658.639003
917.030952	2644.672487
917.336328	2626.773870
917.641665	2617.253651
917.946961	2604.887701
918.252218	2595.715321
918.557435	2589.328179
918.862612	2582.557910
919.167750	2577.058011
919.472848	2573.362845
919.777906	2567.787329
920.082925	2565.044941
920.387904	2560.638973
920.692843	2557.576472
920.997743	2556.583364
921.302603	2558.070505
921.607423	2555.277706
921.912204	2556.207798
922.216946	2551.592622
922.521647	2552.855431
922.826310	2550.571788
923.130932	2548.678835
923.435516	2547.221942
923.740059	2546.601880
924.044564	2547.191695
924.349028	2545.790254
924.653454	2543.045346
924.957840	2543.786395
925.262186	2538.072247
925.566493	2542.805891
925.870761	2539.592155
926.174989	2542.606765
926.479178	2544.013247
926.783328	2543.403268
927.087438	2542.263967
927.391509	2543.123484
927.695541	2539.690458
927.999533	2541.107022
928.303486	2539.939995
928.607400	2539.675334
928.911275	2541.366642
929.215110	2539.256919
929.518906	2540.655839
929.822663	2538.936805
930.126381	2538.339429
930.430060	2539.786240
930.733699	2542.087527
931.037299	2540.076106
931.340861	2540.008051
931.644383	2544.439225
931.947866	2539.551826
932.251309	2538.727597
932.554714	2537.560570
932.858080	2542.226158
933.161407	2539.040149
933.464694	2540.166847
933.767943	2542.289173
934.071153	2540.093750
934.374323	2536.368338
934.677455	2538.349511
934.980548	2541.263298
935.283602	2539.516538
935.586617	2538.823379
935.889593	2538.949408
936.192530	2540.189532
936.495428	2539.708102
936.798287	2541.643905
937.101108	2540.865047
937.403890	2541.069213
937.706632	2540.088709
938.009336	2542.384955
938.312002	2544.600542
938.614628	2545.208001
938.917216	2544.466951
939.219765	2543.909904
939.522275	2547.917621
939.824747	2545.021478
940.127179	2540.872608
940.429573	2540.996117
940.731929	2545.026519
941.034246	2536.650642
941.336524	2541.298586
941.638763	2541.890922
941.940964	2541.732125
942.243126	2542.087527
942.545250	2541.543082
942.847335	2540.129038
943.149381	2541.253216
943.451389	2539.629964
943.753359	2541.744728
944.055290	2540.121477
944.357182	2540.013092
944.659036	2541.878319
944.960851	2540.219779
945.262628	2541.812784
945.564367	2541.643905
945.866067	2539.919830
946.167729	2539.458565
946.469352	2540.494522
946.770937	2540.582742
947.072484	2541.563247
947.373992	2542.097609
947.675462	2538.324305
947.976893	2540.232382
948.278286	2539.380427
948.579641	2541.548123
948.880958	2536.030580
949.182236	2537.207690
949.483476	2538.901517
949.784678	2538.510828
950.085841	2540.718853
950.386967	2540.108874
950.688054	2538.122659
950.989103	2539.889583
951.290114	2536.474202
951.591087	2538.823379
951.892021	2541.805222
952.192917	2540.739018
952.493776	2540.401261
952.794596	2540.318082
953.095378	2541.820345
953.396122	2542.896632
953.696828	2542.543751
953.997496	2537.938657
954.298126	2539.239275
954.598718	2540.751621
954.899272	2539.244316
955.199788	2539.267001
955.500266	2536.575025
955.800706	2535.755837
956.101108	2534.601413
956.401472	2533.769623
956.701798	2533.807431
957.002087	2534.866074
957.302337	2536.789274
957.602550	2534.709798
957.902724	2531.128058
958.202861	2536.980838
958.502960	2535.241640
958.803022	2537.782381
959.103045	2534.934129
959.403031	2535.841537
959.702979	2535.970086
960.002889	2537.832793
960.302762	2533.303316
960.602596	2535.655014
960.902393	2537.628626
961.202153	2534.906403
961.501875	2536.123842
961.801559	2533.429345
962.101205	2530.530681
962.400814	2532.816845
962.700385	2535.652494
962.999918	2535.637370
963.299414	2536.655683
963.598873	2533.978831
963.898293	2531.506145
964.197677	2534.843388
964.497022	2534.659386
964.796331	2533.396577
965.095601	2533.484797
965.394835	2534.803059
965.694030	2535.322298
965.993189	2532.887421
966.292309	2531.473377
966.591393	2533.588141
966.890439	2532.274921
967.189447	2532.330373
967.488419	2534.235929
967.787353	2534.540919
968.086249	2533.497400
968.385108	2534.913965
968.683930	2534.127545
968.982714	2534.505631
969.281462	2532.307688
969.580172	2532.655528
969.878844	2534.079654
970.177480	2532.272400
970.476078	2532.345497
970.774639	2533.575538
971.073162	2531.435568
971.371649	2534.208203
971.670098	2529.436751
971.968510	2530.455064
972.266885	2527.448016
972.565223	2534.286341
972.863524	2533.676361
973.161788	2533.754499
973.460014	2530.051772
973.758204	2533.094108
974.056356	2532.723583
974.354471	2533.283151
974.652550	2530.772657
974.950591	2535.491177
975.248595	2532.519417
975.546563	2533.376413
975.844493	2531.435568
976.142386	2536.552340
976.440243	2533.908254
976.738062	2531.027235
977.035845	2535.037473
977.333590	2533.341125
977.631299	2532.196783
977.928971	2534.341794
978.226606	2533.053779
978.524204	2533.444468
978.821765	2529.146885
979.119290	2531.153264
979.416777	2531.561597
979.714228	2531.148223
980.011642	2532.337935
980.309020	2535.844058
980.606360	2533.474715
980.903664	2531.198634
981.200931	2533.893131
981.498162	2532.191742
981.795356	2533.600744
982.092513	2536.353214
982.389633	2534.392205
982.686717	2537.323636
982.983764	2533.903213
983.280775	2537.495035
983.577749	2537.805066
983.874686	2538.858667
984.171587	2536.431352
984.468451	2535.221475
984.765279	2536.617875
985.062070	2531.770805
985.358824	2535.339942
985.655543	2531.909437
985.952224	2532.526978
986.248869	2531.652338
986.545478	2529.696370
986.842050	2530.147554
987.138586	2525.887779
987.435086	2529.741741
987.731549	2522.774866
988.027975	2530.510517
988.324366	2529.603109
988.620719	2533.935981
988.917037	2530.596216
989.213318	2529.517409
989.509563	2530.502955
989.805772	2529.729138
990.101944	2530.686957
990.398080	2530.881042
990.694180	2531.067564
990.990244	2531.528830
991.286271	2529.068747
991.582262	2531.922040
991.878217	2528.690660
992.174136	2531.939684
992.470019	2529.988757
992.765865	2530.959179
993.061676	2530.744930
993.357450	2531.390198
993.653188	2528.952800
993.948890	2531.990095
994.244556	2530.334076
994.540186	2532.373223
994.835780	2530.621422
995.131337	2530.245856
995.426859	2527.901720
995.722345	2528.002543
996.017795	2530.876000
996.313208	2534.515713
996.608586	2534.999664
996.903928	2532.554705
997.199234	2529.759385
997.494504	2530.114786
997.789738	2530.112266
998.084936	2530.828109
998.380099	2529.812317
998.675225	2532.950435
998.970316	2532.572349
999.265371	2531.087729
999.560390	2529.595547
999.855373	2530.175280
1000.150320	2529.625794
1000.445232	2531.480939
1000.740108	2528.594878
1001.034948	2529.391381
1001.329752	2527.944569
1001.624521	2530.984385
1001.919254	2522.905936
1002.213951	2528.569673
1002.508613	2526.928777
1002.803239	2525.875176
1003.097829	2523.652027
1003.392384	2528.662934
1003.686903	2528.241997
1003.981386	2530.034128
1004.275834	2527.838705
1004.570246	2532.257277
1004.864623	2530.291227
1005.158964	2530.069416
1005.453270	2525.754188
1005.747540	2530.437420
1006.041775	2529.814838
1006.335974	2530.303829
1006.630138	2526.943900
1006.924266	2530.538243
1007.218359	2529.850126
1007.512416	2531.458254
1007.806438	2527.364837
1008.100425	2532.080836
1008.394376	2529.426669
1008.688292	2531.934643
1008.982172	2528.105886
1009.276017	2529.414066
1009.569827	2529.779549
1009.863602	2531.465815
1010.157341	2527.868952
1010.451045	2529.696370
1010.744714	2530.046731
1011.038347	2529.209899
1011.331945	2527.957172
1011.625508	2528.554549
1011.919036	2530.165198
1012.212528	2528.758716
1012.505986	2527.798376
1012.799408	2527.934487
1013.092795	2528.773839
1013.386147	2528.463808
1013.679464	2526.384332
1013.972745	2530.908768
1014.265992	2529.895496
1014.559204	2529.371216
1014.852380	2530.457585
1015.145521	2529.552698
1015.438628	2529.361134
1015.731699	2529.865249
1016.024736	2531.180990
1016.317737	2528.615043
1016.610703	2528.751154
1016.903635	2528.604961
1017.196531	2525.943231
1017.489393	2528.511699
1017.782219	2523.833508
1018.075011	2525.426513
1018.367768	2528.322656
1018.660490	2526.560773
1018.953177	2526.560773
1019.245829	2526.560773
