Dividing Wavelength (nm)	Counts (n)	Blue Motor Position (mm): 0.000000	Red Motor Position (mm): 20.100000	
326.493990	2129.141409
326.888308	2129.141409
327.282561	2129.141409
327.676750	2093.939032
328.070874	2092.696388
328.464933	2096.734352
328.858929	2104.134766
329.252859	2112.651795
329.646726	2123.989350
330.040528	2137.953346
330.434265	2155.249545
330.827938	2171.532472
331.221547	2189.352951
331.615091	2209.179809
332.008571	2227.988354
332.401986	2247.850500
332.795338	2267.024529
333.188625	2283.357867
333.581847	2306.915179
333.975006	2327.919147
334.368100	2341.903307
334.761129	2360.648838
335.154095	2375.820190
335.546996	2396.418345
335.939833	2406.898904
336.332606	2424.694177
336.725315	2436.346804
337.117960	2446.277877
337.510540	2453.854731
337.903056	2463.347224
338.295508	2470.974490
338.687896	2481.626448
339.080220	2490.617346
339.472480	2496.954076
339.864676	2503.270642
340.256807	2504.702330
340.648875	2507.268277
341.040879	2509.703154
341.432818	2511.485202
341.824694	2513.804133
342.216506	2513.799092
342.608253	2515.129956
342.999937	2514.424195
343.391557	2512.309431
343.783113	2515.036695
344.174605	2512.329595
344.566033	2513.184071
344.957397	2506.749038
345.348697	2508.168123
345.739934	2504.125118
346.131106	2502.592607
346.522215	2503.971362
346.913260	2500.135044
347.304241	2500.417349
347.695159	2497.057420
348.086012	2497.455671
348.476802	2493.538694
348.867528	2496.848212
349.258191	2494.554487
349.648789	2488.207674
350.039324	2487.035606
350.429796	2487.842191
350.820203	2486.249186
351.210548	2486.065184
351.600828	2483.403455
351.991045	2485.331696
352.381198	2485.044350
352.771288	2483.915132
353.161314	2483.547127
353.551276	2484.265492
353.941175	2480.522435
354.331010	2482.909422
354.720782	2482.821201
355.110490	2480.910604
355.500135	2479.599904
355.889717	2482.911942
356.279235	2481.555872
356.668689	2481.923876
357.058080	2485.674494
357.447408	2481.923876
357.836672	2481.626448
358.225873	2481.409678
358.615010	2480.179637
359.004084	2485.392190
359.393095	2484.716675
359.782043	2488.300936
360.170927	2487.393528
360.559748	2490.803868
360.948505	2489.798158
361.337199	2493.422748
361.725830	2490.345123
362.114398	2492.958962
362.502903	2493.334528
362.891344	2490.897130
363.279722	2492.253200
363.668037	2493.374857
364.056289	2495.363592
364.444478	2495.809734
364.832603	2496.414673
365.220665	2493.072388
365.608665	2494.428458
365.996601	2496.213027
366.384474	2496.480208
366.772284	2498.879797
367.160031	2500.724859
367.547715	2502.963132
367.935336	2502.141423
368.322893	2508.725170
368.710388	2510.035870
369.097820	2519.556089
369.485189	2521.015503
369.872495	2529.535053
370.259738	2534.424973
370.646918	2541.633823
371.034035	2547.443752
371.421090	2560.399518
371.808081	2572.072310
372.195010	2578.323340
372.581875	2586.953796
372.968678	2602.115066
373.355418	2613.873557
373.742096	2632.755199
374.128710	2648.949906
374.515262	2662.621515
374.901751	2677.603824
375.288177	2691.603108
375.674540	2714.777293
376.060841	2730.944273
376.447079	2751.184506
376.833254	2771.873401
377.219367	2784.970319
377.605417	2821.233859
377.991404	2834.212310
378.377329	2853.550176
378.763191	2872.164636
379.148991	2907.883732
379.534727	2934.579162
379.920402	2962.118986
380.306013	2975.490646
380.691563	3023.530322
381.077049	3045.368600
381.462474	3062.019531
381.847835	3101.524533
382.233134	3123.123357
382.618371	3125.497741
383.003545	3190.319417
383.388657	3195.479038
383.773706	3234.338773
384.158693	3247.365114
384.543618	3274.209258
384.928480	3307.238898
385.313280	3357.942824
385.698017	3352.342102
386.082692	3407.540216
386.467305	3413.103129
386.851856	3441.691513
387.236344	3465.687405
387.620770	3497.396263
388.005133	3523.199409
388.389435	3550.938358
388.773674	3562.769946
389.157851	3602.625308
389.541965	3621.988380
389.926018	3583.269798
390.310008	3656.800068
390.693936	3675.782533
391.077802	3717.689645
391.461606	3705.580793
391.845348	3767.450874
392.229027	3767.070267
392.612645	3779.136269
392.996200	3856.157538
393.379694	3893.877972
393.763125	3959.090338
394.146494	3931.414403
394.529801	3990.675687
394.913047	4038.876680
395.296230	4008.110518
395.679351	4059.089186
396.062410	4082.356632
396.445408	4061.997932
396.828343	4097.631328
397.211217	4119.015902
397.594028	4042.372720
397.976778	4107.506948
398.359466	4135.805465
398.742092	4159.503929
399.124656	4082.200356
399.507158	4165.462573
399.889598	4189.670194
400.271977	4250.877363
400.654294	4220.784196
401.036549	4228.928180
401.418742	4199.782749
401.800874	4300.752019
402.182944	4320.263805
402.564952	4385.776120
402.946898	4377.881673
403.328783	4370.151063
403.710606	4281.204945
404.092367	4475.848936
404.474067	4439.698822
404.855705	4450.076037
405.237282	4377.624574
405.618797	4488.834948
406.000250	4519.414588
406.381642	4595.041978
406.762972	4561.041916
407.144240	4572.659255
407.525447	4567.532401
407.906593	4629.861227
408.287677	4672.211961
408.668700	4595.924180
409.049661	4650.348477
409.430560	4685.714691
409.811399	4614.442858
410.192176	4771.038741
410.572891	4711.714442
410.953545	4806.110048
411.334138	4687.814332
411.714669	4747.274742
412.095139	4638.524450
412.475547	4774.524699
412.855894	4747.345318
413.236180	4749.838168
413.616405	4702.259758
413.996568	4775.076705
414.376670	4707.961303
414.756711	4662.535466
415.136691	4678.515924
415.516609	4738.568669
415.896466	4762.241927
416.276262	4783.155154
416.655997	4746.836161
417.035670	4900.908946
417.415283	4971.323783
417.794834	4902.479266
418.174324	4842.101366
418.553753	4740.917847
418.933121	4880.701481
419.312428	4919.084826
419.691674	4845.274772
420.070859	4928.685704
420.449983	4824.280887
420.829045	4895.935848
421.208047	4797.661074
421.586988	4818.128159
421.965867	4800.398421
422.344686	4869.028689
422.723444	4724.443356
423.102141	4550.886511
423.480777	4749.560905
423.859352	4534.858163
424.237866	4684.051111
424.616319	4646.068537
424.994712	4686.347356
425.373044	4551.642684
425.751314	4609.946149
426.129524	4431.121299
426.507673	4511.754554
426.885762	4528.392883
427.263789	4426.309517
427.641756	4316.533351
428.019662	4335.770394
428.397508	4296.330927
428.775292	4211.001837
429.153016	4218.233372
429.530679	4134.048623
429.908282	4127.265751
430.285824	4016.088144
430.663305	4092.040688
431.040726	3915.963267
431.418086	3874.751834
431.795385	3871.563304
432.172624	3829.580575
432.549802	3779.340436
432.926920	3735.845360
433.303977	3689.945654
433.680974	3657.415089
434.057910	3618.729274
434.434786	3571.428127
434.811601	3519.811753
435.188355	3543.479971
435.565050	3461.112558
435.941683	3416.573964
436.318257	3424.228956
436.694770	3376.537120
437.071222	3342.295082
437.447614	3280.578756
437.823946	3226.567834
438.200218	3217.564333
438.576429	3160.425375
438.952580	3136.540388
439.328670	3111.256481
439.704700	3063.103379
440.080670	3029.841846
440.456580	3033.899975
440.832429	2987.213849
441.208218	2941.538475
441.583947	2929.631270
441.959616	2903.205541
442.335224	2871.405943
442.710773	2860.814478
443.086261	2836.526199
443.461689	2801.233081
443.837057	2787.606842
444.212365	2781.703651
444.587612	2755.542583
444.962800	2745.563619
445.337927	2728.002760
445.712995	2693.102852
446.088002	2706.585418
446.462949	2686.020031
446.837837	2671.541837
447.212664	2664.101094
447.587431	2659.783345
447.962139	2665.371464
448.336786	2680.605831
448.711374	2662.717297
449.085901	2631.250415
449.460369	2619.552417
449.834776	2610.196036
450.209124	2612.701489
450.583412	2609.996910
450.957640	2606.422732
451.331808	2595.478387
451.705917	2586.731985
452.079965	2582.961202
452.453954	2581.978177
452.827883	2577.589852
453.201752	2573.705643
453.575562	2570.900241
453.949311	2572.883935
454.323001	2568.528378
454.696632	2568.200703
455.070202	2568.866136
455.443713	2568.732545
455.817164	2564.936556
456.190556	2560.396997
456.563888	2560.558314
456.937160	2558.824157
457.310373	2561.538819
457.683526	2560.119734
458.056619	2557.142933
458.429653	2558.448591
458.802628	2555.741492
459.175542	2556.532953
459.548398	2559.764332
459.921194	2560.190310
460.293930	2559.832388
460.666607	2561.581668
461.039224	2561.412790
461.411782	2563.431772
461.784280	2561.014539
462.156719	2563.202399
462.529099	2562.529405
462.901419	2558.806513
463.273680	2560.603685
463.645882	2557.062274
464.018024	2557.243756
464.390106	2561.314487
464.762130	2560.061761
465.134094	2565.576783
465.505999	2569.786146
465.877845	2576.125397
466.249631	2577.746128
466.621358	2576.100192
466.993026	2576.516087
467.364634	2574.829821
467.736184	2571.099367
468.107674	2567.799932
468.479105	2567.855384
468.850477	2567.915878
469.221790	2570.204562
469.593043	2564.440003
469.964238	2564.366906
470.335373	2562.282389
470.706449	2563.567883
471.077467	2564.767678
471.448425	2569.125755
471.819324	2578.099009
472.190164	2579.124884
472.560945	2573.751014
472.931667	2565.851526
473.302330	2567.106773
473.672934	2565.299519
474.043479	2566.322874
474.413965	2570.086095
474.784393	2564.926474
475.154761	2566.620302
475.525070	2563.071329
475.895321	2563.678788
476.265513	2563.875393
476.635645	2569.332442
477.005719	2568.480487
477.375734	2567.721794
477.745691	2571.429563
478.115588	2572.112639
478.485427	2573.612382
478.855207	2580.259143
479.224928	2583.225862
479.594591	2582.908270
479.964194	2583.573702
480.333739	2585.068404
480.703226	2582.636048
481.072653	2582.817529
481.442022	2583.747622
481.811333	2586.416913
482.180584	2588.922366
482.549777	2582.134453
482.918912	2582.462128
483.287988	2585.794330
483.657005	2580.392734
484.025964	2578.416602
484.394864	2581.133784
484.763706	2579.986921
485.132489	2579.298804
485.501213	2580.667477
485.869879	2580.596901
486.238487	2577.121025
486.607036	2580.115471
486.975527	2578.829976
487.343959	2579.061869
487.712333	2578.514904
488.080648	2578.598083
488.448905	2577.544482
488.817104	2578.842579
489.185244	2578.156982
489.553326	2581.741243
489.921350	2584.629824
490.289315	2588.496389
490.657222	2590.084352
491.025070	2588.569486
491.392861	2588.297263
491.760593	2587.082345
492.128267	2584.833991
492.495883	2580.276787
492.863440	2581.088413
493.230939	2579.376942
493.598380	2581.073290
493.965763	2571.981569
494.333088	2573.700602
494.700354	2575.114646
495.067563	2574.852506
495.434713	2569.390416
495.801805	2573.380489
496.168839	2572.934347
496.535815	2577.436097
496.902733	2575.666652
497.269593	2578.199832
497.636395	2575.225551
498.003139	2575.243195
498.369825	2573.927454
498.736453	2571.880746
499.103023	2574.303020
499.469535	2573.037691
499.835989	2573.642629
500.202385	2574.229923
500.568723	2572.294120
500.935003	2577.904925
501.301226	2574.464337
501.667390	2572.702454
502.033497	2574.439131
502.399546	2574.481981
502.765537	2571.583318
503.131470	2574.348391
503.497345	2574.149265
503.863163	2575.056673
504.228923	2572.644481
504.594625	2576.503484
504.960269	2572.689851
505.325856	2575.759914
505.691385	2573.985427
506.056856	2574.769327
506.422270	2576.571539
506.787625	2574.565160
507.152924	2575.245716
507.518164	2574.222362
507.883347	2573.400654
508.248472	2576.062383
508.613540	2574.358473
508.978550	2575.291086
509.343503	2576.521128
509.708398	2575.621282
510.073236	2575.800243
510.438016	2579.288721
510.802738	2574.340829
511.167403	2576.695048
511.532010	2574.224882
511.896561	2577.178998
512.261053	2577.481468
512.625488	2575.394430
512.989866	2572.069789
513.354186	2576.185891
513.718449	2570.975859
514.082655	2577.473906
514.446803	2577.990624
514.810894	2579.321489
515.174927	2576.677404
515.538904	2579.250913
515.902822	2580.198650
516.266684	2575.681776
516.630488	2577.037846
516.994235	2579.003896
517.357925	2579.195460
517.721558	2581.285018
518.085133	2579.175295
518.448651	2578.398958
518.812112	2578.469534
519.175516	2581.693352
519.538863	2580.191088
519.902152	2579.805440
520.265385	2581.211922
520.628560	2580.722930
520.991678	2581.501788
521.354739	2581.579926
521.717743	2577.277301
522.080690	2579.533217
522.443580	2578.489698
522.806413	2579.576067
523.169189	2581.771490
523.531908	2581.151428
523.894569	2582.406675
524.257174	2580.675039
524.619722	2578.792168
524.982213	2579.870975
525.344647	2580.571695
525.707025	2579.182857
526.069345	2578.172106
526.431608	2578.792168
526.793815	2583.987077
527.155964	2579.868454
527.518057	2582.751994
527.880093	2583.450194
528.242072	2580.160841
528.603995	2582.207549
528.965860	2578.472054
529.327669	2580.465831
529.689421	2579.197981
530.051117	2582.701583
530.412755	2577.673032
530.774337	2581.509350
531.135862	2579.245872
531.497331	2578.328382
531.858743	2573.667835
532.220098	2578.351067
532.581396	2575.505335
532.942638	2576.659760
533.303824	2579.656726
533.664953	2577.559606
534.026025	2580.909452
534.387040	2578.398958
534.747999	2577.678073
535.108902	2580.952302
535.469748	2579.888619
535.830537	2579.510532
536.191270	2581.988259
536.551947	2581.947930
536.912567	2580.962384
537.273131	2579.344174
537.633638	2581.665625
537.994089	2581.655543
538.354483	2581.595049
538.714821	2578.860223
539.075103	2579.772672
539.435328	2579.840728
539.795497	2579.702096
540.155609	2578.461972
540.515665	2581.771490
540.875665	2580.281829
541.235609	2581.816860
541.595496	2578.860223
541.955328	2581.665625
542.315102	2582.263002
542.674821	2580.428022
543.034483	2578.976170
543.394090	2580.120512
543.753640	2581.088413
544.113134	2577.630182
544.472571	2579.828125
544.831953	2579.119843
545.191278	2579.424832
545.550548	2577.279822
545.909761	2581.784093
546.268918	2582.968764
546.628019	2580.160841
546.987064	2579.444997
547.346053	2580.465831
547.704986	2580.531366
548.063863	2580.924576
548.422684	2580.107909
548.781449	2578.555233
549.140158	2580.700244
549.498811	2579.918866
549.857408	2576.904256
550.215949	2578.799729
550.574434	2576.664801
550.932864	2579.571026
551.291237	2576.473237
551.649555	2580.440625
552.007817	2579.689493
552.366022	2580.128073
552.724173	2581.900039
553.082267	2576.967270
553.440305	2581.027919
553.798288	2579.137487
554.156215	2578.494740
554.514086	2580.644792
554.871902	2577.799060
555.229661	2577.907445
555.587365	2580.100347
555.945014	2578.724112
556.302606	2581.544638
556.660143	2579.049267
557.017625	2583.099834
557.375050	2580.266705
557.732421	2580.881726
558.089735	2579.346695
558.446994	2578.537589
558.804197	2580.334761
559.161345	2579.107240
559.518437	2578.383834
559.875474	2577.907445
560.232455	2582.285687
560.589381	2579.293762
560.946251	2578.540110
561.303065	2579.571026
561.659825	2578.570357
562.016528	2578.721592
562.373177	2576.518607
562.729770	2580.286870
563.086307	2579.515573
563.442789	2581.736202
563.799216	2577.761252
564.155587	2578.013309
564.511904	2578.673701
564.868164	2579.780234
565.224370	2579.515573
565.580520	2578.260326
565.936615	2577.937692
566.292654	2576.332085
566.648638	2579.132446
567.004567	2576.914338
567.360441	2579.107240
567.716260	2577.902404
568.072023	2578.295614
568.427732	2573.894687
568.783385	2574.686148
569.138982	2574.333267
569.494525	2575.381827
569.850013	2574.164388
570.205445	2576.611869
570.560823	2578.497260
570.916145	2576.566498
571.271412	2577.587332
571.626625	2577.153793
571.981782	2577.017682
572.336884	2576.521128
572.691931	2577.988104
573.046923	2576.140521
573.401860	2574.340829
573.756743	2576.939544
574.111570	2575.467527
574.466342	2576.720253
574.821059	2573.740932
575.175722	2576.148083
575.530330	2573.377968
575.884882	2576.100192
576.239380	2573.433421
576.593823	2578.121694
576.948211	2574.088771
577.302544	2573.841755
577.656823	2573.924934
578.011047	2577.995665
578.365216	2573.231775
578.719330	2576.480799
579.073389	2571.802608
579.427394	2571.399316
579.781344	2573.642629
580.135239	2573.713205
580.489080	2575.830490
580.842866	2573.004923
581.196597	2577.897363
581.550273	2571.558112
581.903895	2571.217834
582.257463	2572.979717
582.610975	2574.671024
582.964434	2571.684141
583.317837	2571.124573
583.671186	2573.539285
584.024481	2570.970817
584.377721	2572.843606
584.730906	2574.199677
585.084037	2572.435273
585.437113	2570.063410
585.790135	2571.815211
586.143103	2571.437124
586.496016	2571.144737
586.848874	2567.205076
587.201679	2569.014850
587.554428	2566.905127
587.907124	2568.059551
588.259765	2568.271280
588.612352	2571.298492
588.964884	2568.331773
589.317362	2572.059707
589.669786	2569.907134
590.022155	2571.530386
590.374470	2569.347566
590.726731	2571.187587
591.078937	2570.610375
591.431090	2568.929150
591.783188	2572.508369
592.135232	2569.647515
592.487222	2568.286403
592.839157	2570.265056
593.191038	2569.841599
593.542866	2569.410580
593.894639	2567.893193
594.246358	2569.458471
594.598022	2569.508883
594.949633	2567.305899
595.301190	2568.346897
595.652692	2567.880590
596.004141	2569.221537
596.355535	2569.609706
596.706876	2569.158523
597.058162	2568.031825
597.409395	2568.926630
597.760573	2570.275138
598.111698	2566.864798
598.462768	2568.276321
598.813785	2569.191290
599.164748	2567.005950
599.515657	2567.857905
599.866511	2565.085270
600.217312	2566.690878
600.568060	2568.493090
600.918753	2568.067113
601.269392	2566.461505
601.619978	2567.371434
601.970510	2566.123748
602.320988	2569.781105
602.671412	2564.624005
603.021783	2567.709191
603.372100	2568.150292
603.722363	2565.412945
604.072572	2568.828327
604.422728	2565.491083
604.772830	2560.180228
605.122878	2562.153839
605.472872	2563.020918
605.822813	2558.821637
606.172701	2564.500497
606.522534	2566.254818
606.872314	2567.767164
607.222041	2565.947308
607.571714	2565.657441
607.921333	2566.257339
608.270899	2564.056875
608.620411	2564.467729
608.969870	2567.053841
609.319276	2569.115673
609.668627	2569.327401
610.017926	2571.167422
610.367171	2574.693710
610.716362	2574.827300
611.065500	2572.357135
611.414585	2567.633574
611.763616	2572.490725
612.112594	2571.187587
612.461518	2570.333112
612.810389	2566.910168
613.159207	2570.307906
613.507971	2567.855384
613.856682	2566.025446
614.205340	2566.287586
614.553945	2566.912689
614.902496	2566.033007
615.250994	2566.791701
615.599439	2567.447051
615.947830	2567.918399
616.296169	2568.296485
616.644454	2566.527040
616.992686	2566.055693
617.340864	2566.905127
617.688990	2566.340518
618.037063	2565.501166
618.385082	2568.034345
618.733048	2566.330435
619.080961	2567.850343
619.428821	2569.140879
619.776628	2563.124262
620.124382	2567.709191
620.472083	2566.612740
620.819731	2568.293965
621.167326	2565.002091
621.514868	2565.496124
621.862357	2566.433779
622.209793	2561.616957
622.557176	2566.111145
622.904506	2560.361709
623.251783	2563.386402
623.599007	2562.705846
623.946179	2561.866494
624.293297	2560.127296
624.640363	2563.338511
624.987376	2564.082081
625.334336	2563.184755
625.681243	2561.213664
626.028097	2562.181566
626.374899	2562.514282
626.721647	2559.489590
627.068343	2560.903633
627.414987	2561.294323
627.761577	2561.737944
628.108115	2562.718449
628.454600	2562.133675
628.801032	2561.183417
629.147412	2561.271637
629.493739	2563.265414
629.840014	2557.737789
630.186236	2563.411607
630.532405	2562.854560
630.878521	2562.826833
631.224585	2559.023283
631.570597	2563.020918
631.916556	2560.177707
632.262462	2564.674416
632.608316	2560.051678
632.954117	2559.855073
633.299866	2560.575958
633.645562	2561.344734
633.991206	2559.867676
634.336797	2560.013870
634.682336	2562.703325
635.027823	2558.415824
635.373257	2560.467573
635.718639	2557.387428
636.063968	2560.379353
636.409245	2559.464384
636.754470	2556.969013
637.099642	2555.736451
637.444762	2560.817934
637.789829	2555.867521
638.134845	2558.216698
638.479808	2557.687377
638.824719	2555.580175
639.169577	2556.026317
639.514383	2556.240566
639.859137	2554.186296
640.203839	2556.454815
640.548489	2556.520350
640.893086	2553.929197
641.237632	2552.540359
641.582125	2555.882644
641.926566	2550.564227
642.270955	2555.141594
642.615292	2556.086811
642.959576	2558.758622
643.303809	2554.703014
643.647990	2553.714948
643.992118	2556.127140
644.336195	2555.996070
644.680219	2556.046482
645.024192	2557.621842
645.368112	2554.496327
645.711981	2555.169321
646.055797	2557.362223
646.399562	2556.001111
646.743274	2556.180072
647.086935	2560.175187
647.430544	2556.921122
647.774101	2556.056564
648.117606	2555.640669
648.461059	2558.118396
648.804460	2558.625032
649.147810	2557.173179
649.491108	2556.749722
649.834354	2557.957079
650.177548	2556.658982
650.520690	2554.627397
650.863781	2554.897098
651.206820	2556.457336
651.549807	2555.365926
651.892742	2555.403734
652.235626	2555.081101
652.578458	2554.723179
652.921238	2553.014228
653.263967	2553.566234
653.606644	2554.813919
653.949269	2556.225442
654.291843	2553.377191
654.634365	2553.001625
654.976836	2552.096737
655.319255	2553.397355
655.661622	2552.686553
656.003938	2553.820812
656.346203	2555.227294
656.688416	2552.079093
657.030577	2555.176883
657.372687	2552.545400
657.714746	2554.534135
658.056753	2553.162942
658.398708	2549.800492
658.740612	2553.062118
659.082465	2551.617828
659.424266	2551.537169
659.766016	2550.934752
660.107715	2551.980791
660.449362	2553.520863
660.790958	2553.155380
661.132503	2551.509443
661.473996	2555.416337
661.815438	2554.032541
662.156829	2551.758980
662.498168	2552.447098
662.839456	2555.809547
663.180693	2550.700338
663.521879	2552.633620
663.863013	2556.842984
664.204097	2553.029351
664.545129	2552.336192
664.886110	2554.166131
665.227040	2553.692263
665.567918	2557.021945
665.908746	2556.144784
666.249522	2553.818292
666.590248	2551.597663
666.930922	2555.630586
667.271545	2556.212840
667.612118	2554.090514
667.952639	2553.815771
668.293109	2555.539846
668.633528	2554.486244
668.973896	2553.188147
669.314213	2555.008004
669.654480	2551.234700
669.994695	2553.556152
670.334859	2554.254351
670.674973	2554.594629
671.015035	2555.653272
671.355047	2549.997097
671.695008	2552.099258
672.034918	2551.887530
672.374777	2552.437015
672.714585	2553.004145
673.054342	2551.743857
673.394049	2554.365257
673.733705	2553.193188
674.073310	2551.267468
674.412864	2554.766028
674.752368	2554.307283
675.091820	2551.264947
675.431223	2552.880637
675.770574	2550.770914
676.109875	2549.097251
676.449125	2547.423588
676.788324	2550.392827
677.127473	2550.324772
677.466571	2550.435677
677.805619	2550.841490
678.144616	2551.557334
678.483562	2549.251006
678.822458	2553.024310
679.161303	2553.077242
679.500098	2552.744526
679.838842	2549.850903
680.177535	2551.859803
680.516179	2550.004659
680.854771	2549.379556
681.193314	2551.123795
681.531805	2550.665050
681.870247	2554.269475
682.208638	2551.625390
682.546978	2553.775442
682.885268	2552.865513
683.223508	2551.562375
683.561697	2550.254196
683.899836	2553.251162
684.237925	2555.108827
684.575963	2550.372663
684.913951	2550.145811
685.251889	2553.813250
685.589776	2552.449618
685.927614	2553.057077
686.265401	2551.378373
686.603137	2551.648075
686.940824	2555.668395
687.278460	2552.379042
687.616046	2551.557334
687.953582	2553.029351
688.291068	2551.229659
688.628504	2554.271995
688.965889	2552.437015
689.303224	2555.370967
689.640510	2553.034392
689.977745	2551.222097
690.314930	2551.557334
690.652065	2552.898281
690.989150	2552.363919
691.326185	2551.285112
691.663170	2549.465255
692.000105	2550.004659
692.336990	2548.152035
692.673825	2549.341747
693.010610	2550.838970
693.347345	2547.509287
693.684030	2547.375697
694.020665	2549.215718
694.357251	2544.048535
694.693786	2547.700851
695.030272	2546.402754
695.366707	2549.056922
695.703093	2547.905018
696.039429	2550.337375
696.375716	2550.181099
696.711952	2547.216901
697.048139	2546.536345
697.384276	2547.486602
697.720363	2547.418547
698.056400	2548.857796
698.392388	2547.957950
698.728326	2546.906870
699.064214	2545.132383
699.400053	2547.718495
699.735842	2546.243958
700.071581	2546.773279
700.407270	2549.379556
700.742910	2547.383259
701.078501	2546.145655
701.414042	2545.959133
701.749533	2546.460727
702.084974	2545.941489
702.420366	2546.246478
702.755709	2544.716488
703.091002	2545.553320
703.426246	2544.373690
703.761440	2544.572815
704.096584	2545.386962
704.431679	2542.616848
704.766725	2548.094061
705.101721	2544.245140
705.436668	2545.467620
705.771565	2546.712785
706.106413	2545.931406
706.441212	2545.782692
706.775961	2544.923176
707.110661	2544.615665
707.445311	2547.050542
707.779913	2548.804864
708.114465	2546.599359
708.448967	2546.985008
708.783421	2544.081303
709.117825	2547.879812
709.452180	2547.247148
709.786485	2547.642878
710.120742	2546.221273
710.454949	2548.252858
710.789107	2546.712785
711.123216	2545.089534
711.457275	2548.857796
711.791286	2543.002496
712.125247	2545.487785
712.459159	2545.906201
712.793023	2548.225131
713.126837	2545.727240
713.460602	2550.634803
713.794318	2546.808567
714.127985	2548.157076
714.461602	2546.372507
714.795171	2549.752601
715.128691	2547.073228
715.462162	2546.128011
715.795584	2543.650284
716.128957	2547.214380
716.462281	2545.167672
716.795556	2546.150697
717.128782	2546.264123
717.461960	2547.784030
717.795088	2545.361756
718.128167	2545.467620
718.461198	2544.988711
718.794180	2545.555840
719.127113	2544.814791
719.459997	2543.504091
719.792833	2543.854451
720.125619	2544.098947
720.458357	2541.147351
720.791046	2546.700182
721.123686	2543.665408
721.456278	2546.458207
721.788821	2544.469472
722.121315	2544.224976
722.453761	2540.670962
722.786158	2542.241282
723.118506	2540.885211
723.450805	2545.419729
723.783056	2544.998793
724.115259	2544.739173
724.447412	2544.434184
724.779518	2545.233207
725.111574	2540.890253
725.443582	2543.080634
725.775542	2543.814122
726.107453	2542.876467
726.439315	2543.325130
726.771129	2548.865358
727.102895	2546.203629
727.434612	2545.732281
727.766281	2543.365459
728.097901	2545.023999
728.429473	2539.939995
728.760996	2541.661549
729.092471	2539.377906
729.423897	2540.756662
729.755276	2542.959646
730.086606	2546.644730
730.417887	2544.358566
730.749120	2545.812939
731.080305	2543.640202
731.411442	2546.339740
731.742530	2546.632127
732.073570	2547.322765
732.404562	2546.057435
732.735506	2549.576161
733.066401	2546.435522
733.397249	2545.606252
733.728048	2547.665563
734.058798	2544.552651
734.389501	2546.821170
734.720156	2544.988711
735.050762	2543.075593
735.381320	2543.448638
735.711831	2544.235058
736.042293	2542.863864
736.372707	2544.421581
736.703073	2546.095244
737.033391	2542.705068
737.363661	2542.790768
737.693883	2543.093237
738.024056	2545.994421
738.354182	2545.001313
738.684260	2545.752445
739.014290	2543.239430
739.344272	2540.960829
739.674207	2543.499050
740.004093	2543.307486
740.333931	2543.499050
740.663722	2546.823691
740.993464	2543.176416
741.323159	2544.620706
741.652806	2543.120963
741.982405	2543.962836
742.311956	2545.197918
742.641460	2544.290511
742.970915	2541.500232
743.300323	2543.564585
743.629683	2544.839997
743.958996	2542.707588
744.288260	2541.656508
744.617477	2542.815973
744.946647	2539.922351
745.275768	2539.922351
745.604842	2538.551157
745.933869	2539.771116
746.262847	2538.087371
746.591778	2541.288504
746.920662	2541.497712
747.249498	2541.550644
747.578286	2539.030067
747.907027	2541.359080
748.235720	2542.813453
748.564365	2540.829759
748.892963	2541.570808
749.221514	2542.027033
749.550017	2543.441076
749.878473	2542.778165
750.206881	2540.411343
750.535242	2540.565098
750.863555	2540.388658
751.191821	2540.184491
751.520039	2540.355890
751.848210	2542.357228
752.176334	2539.040149
752.504411	2541.991745
752.832440	2540.948226
753.160421	2542.102650
753.488356	2541.835469
753.816243	2540.917979
754.144082	2544.681200
754.471875	2541.800181
754.799620	2545.177754
755.127318	2539.186342
755.454969	2538.878832
755.782572	2542.783206
756.110129	2538.397402
756.437638	2540.877650
756.765100	2539.007382
757.092515	2539.992927
757.419882	2540.391178
757.747203	2542.795809
758.074477	2541.275901
758.401703	2542.616848
758.728882	2538.949408
759.056014	2540.476878
759.383099	2540.474357
759.710138	2542.301776
760.037129	2542.014430
760.364073	2543.728422
760.690970	2542.621889
761.017820	2541.669111
761.344623	2542.906714
761.671379	2542.591642
761.998088	2537.363965
762.324751	2541.406971
762.651366	2542.881508
762.977935	2544.935778
763.304456	2547.458876
763.630931	2553.800648
763.957359	2552.094217
764.283740	2547.902498
764.610074	2545.276056
764.936362	2543.259595
765.262602	2544.227496
765.588796	2546.133052
765.914943	2539.324974
766.241044	2542.498381
766.567097	2541.321271
766.893104	2540.434028
767.219064	2539.551826
767.544978	2542.790767
767.870845	2540.718853
768.196665	2538.132741
768.522438	2539.153575
768.848165	2539.793802
769.173846	2538.281455
769.499479	2538.435211
769.825066	2538.495704
770.150607	2539.284645
770.476101	2538.662062
770.801548	2538.493184
771.126949	2537.857998
771.452303	2540.681045
771.777611	2537.610982
772.102872	2539.524100
772.428087	2538.967052
772.753256	2539.708102
773.078378	2535.828934
773.403453	2538.306661
773.728482	2535.385313
774.053465	2536.451517
774.378401	2538.455375
774.703291	2537.502597
775.028135	2540.239944
775.352932	2538.314223
775.677683	2536.766589
776.002388	2539.231713
776.327046	2535.163502
776.651658	2536.287679
776.976224	2537.260622
777.300743	2538.160468
777.625216	2538.316743
777.949643	2537.966383
778.274024	2542.001827
778.598359	2535.324819
778.922647	2534.263656
779.246889	2536.423790
779.571086	2534.944212
779.895236	2535.972607
780.219339	2536.164171
780.543397	2538.084850
780.867409	2536.237267
781.191374	2537.921013
781.515294	2536.186856
781.839167	2540.791950
782.162995	2536.373379
782.486776	2534.687113
782.810511	2538.367155
783.134201	2537.500077
783.457844	2535.907072
783.781441	2535.231557
784.104993	2536.113759
784.428498	2537.684079
784.751958	2535.511341
785.075372	2538.352032
785.398739	2537.671476
785.722061	2536.000333
786.045337	2538.621733
786.368568	2537.905889
786.691752	2534.619057
787.014891	2539.834131
787.337983	2536.993441
787.661030	2536.496887
787.984031	2538.823379
788.306987	2539.246836
788.629897	2537.497556
788.952760	2540.315561
789.275579	2537.535365
789.598351	2538.475540
789.921078	2538.024357
790.243759	2539.403112
790.566395	2534.505631
790.888984	2538.019315
791.211529	2535.342463
791.534027	2538.909079
791.856480	2538.530992
792.178888	2536.411187
792.501249	2534.810621
792.823566	2537.621064
793.145836	2533.641073
793.468062	2539.191384
793.790241	2537.999151
794.112375	2538.581404
794.434464	2536.753986
794.756507	2536.605272
795.078505	2539.493853
795.400457	2536.743903
795.722364	2532.416073
796.044226	2535.438245
796.366042	2533.197452
796.687812	2536.159130
797.009538	2537.185004
797.331218	2537.452186
797.652852	2536.186856
797.974442	2536.748945
798.295986	2534.961856
798.617484	2536.489325
798.938938	2535.692823
799.260346	2536.310364
799.581709	2535.186187
799.903026	2537.618544
800.224299	2538.611651
800.545526	2534.934129
800.866708	2536.809438
801.187845	2537.928575
801.508936	2535.571835
801.829983	2534.588810
802.150984	2536.542257
802.471940	2534.888759
802.792851	2534.586290
803.113717	2537.462268
803.434538	2533.822555
803.755314	2536.156609
804.076045	2535.592000
804.396731	2535.912113
804.717372	2535.148378
805.037967	2536.448996
805.358518	2534.172915
805.679024	2540.005530
805.999485	2533.283151
806.319901	2534.563604
806.640272	2534.543440
806.960598	2536.769109
807.280879	2535.324819
807.601115	2535.377751
807.921306	2535.511341
808.241453	2536.045704
808.561554	2537.699202
808.881611	2537.800025
809.201623	2536.703574
809.521590	2536.262473
809.841513	2536.585107
810.161390	2535.501259
810.481223	2536.771630
810.801011	2534.271217
811.120755	2537.202648
811.440453	2534.714839
811.760107	2537.207690
812.079716	2533.043697
812.399281	2531.637215
812.718801	2534.377082
813.038276	2530.815507
813.357707	2534.614016
813.677093	2534.160312
813.996434	2534.850950
814.315731	2533.850281
814.634983	2535.027391
814.954191	2535.370189
815.273354	2535.523944
815.592473	2532.673172
815.911547	2536.673327
816.230577	2536.438914
816.549562	2537.202648
816.868502	2536.249870
817.187399	2538.440252
817.506250	2536.355735
817.825058	2537.580735
818.143821	2536.640560
818.462539	2536.708615
818.781213	2538.097453
819.099843	2536.486805
819.418429	2539.710622
819.736970	2540.839841
820.055466	2541.356559
820.373919	2544.358566
820.692327	2545.455017
821.010691	2547.544576
821.329011	2554.768549
821.647286	2573.241857
821.965517	2586.631162
822.283704	2597.262955
822.601847	2601.215220
822.919945	2591.054774
823.237999	2582.530183
823.556010	2575.800243
823.873976	2563.663665
824.191897	2556.459856
824.509775	2554.408107
824.827609	2550.793599
825.145398	2549.492982
825.463144	2551.126315
825.780845	2547.589946
826.098502	2551.733774
826.416116	2554.637479
826.733685	2559.187120
827.051210	2561.662327
827.368692	2560.906154
827.686129	2552.227807
828.003522	2551.058260
828.320872	2544.703885
828.638177	2544.154400
828.955439	2539.927392
829.272656	2539.806404
829.589830	2535.544109
829.906960	2539.866898
830.224046	2536.050745
830.541088	2537.381609
830.858086	2538.203318
831.175041	2537.542926
831.491952	2538.142824
831.808819	2537.419418
832.125642	2536.375899
832.442421	2539.224151
832.759157	2540.416384
833.075849	2540.497042
833.392497	2545.820501
833.709101	2548.966181
834.025662	2548.512477
834.342179	2545.205480
834.658653	2544.474513
834.975083	2543.647764
835.291469	2547.557178
835.607811	2540.164326
835.924110	2537.308513
836.240366	2538.924203
836.556578	2535.927237
836.872746	2537.369007
837.188871	2538.649460
837.504952	2536.448996
837.820990	2534.001516
838.136984	2534.677030
838.452935	2535.796167
838.768842	2535.884387
839.084706	2537.421939
839.400526	2537.774819
839.716303	2536.958153
840.032037	2540.350849
840.347727	2542.831097
840.663373	2537.711805
840.978977	2536.869932
841.294537	2538.886394
841.610054	2536.688451
841.925527	2533.058820
842.240957	2535.465971
842.556344	2536.194418
842.871687	2533.721732
843.186987	2536.806918
843.502244	2532.728624
843.817458	2534.515713
844.132629	2533.081505
844.447756	2535.168543
844.762840	2530.301309
845.077881	2531.168387
845.392879	2529.628315
845.707833	2532.466484
846.022745	2529.955990
846.337613	2535.617206
846.652438	2531.914478
846.967221	2531.934643
847.281960	2531.173428
847.596656	2535.813811
847.911309	2533.076464
848.225919	2532.249715
848.540485	2533.129396
848.855009	2532.519417
849.169490	2534.104859
849.483928	2534.379602
849.798323	2533.041176
850.112675	2533.789787
850.426984	2536.872453
850.741251	2534.467823
851.055474	2530.956659
851.369654	2533.512524
851.683792	2532.181659
851.997887	2533.353728
852.311938	2532.015301
852.625947	2530.752492
852.939914	2531.160826
853.253837	2532.756351
853.567718	2534.714839
853.881555	2532.995806
854.195350	2533.026053
854.509103	2531.433048
854.822812	2533.691485
855.136479	2532.471526
855.450103	2532.794159
855.763685	2534.336753
856.077224	2532.090918
856.390720	2533.598223
856.704173	2531.543953
857.017584	2531.720394
857.330953	2530.011442
857.644278	2532.741227
857.957561	2534.218285
858.270802	2534.881197
858.584000	2530.802904
858.897155	2535.017308
859.210268	2531.727955
859.523339	2534.997144
859.836367	2533.961187
860.149352	2533.441948
860.462295	2532.620240
860.775195	2529.429189
861.088054	2529.270393
861.400869	2526.676719
861.713642	2527.049765
862.026373	2531.072605
862.339062	2530.870959
862.651708	2534.747607
862.964312	2532.698378
863.276873	2532.900024
863.589392	2531.788449
863.901869	2533.842719
864.214303	2531.271731
864.526696	2533.510003
864.839045	2530.258459
865.151353	2534.188038
865.463619	2533.157123
865.775842	2532.481608
866.088023	2529.900537
866.400162	2534.515713
866.712258	2533.908254
867.024313	2533.789787
867.336325	2534.351876
867.648296	2532.831968
867.960224	2532.224509
868.272110	2531.349869
868.583954	2532.816845
868.895755	2532.905065
869.207515	2532.373223
869.519233	2534.808100
869.830909	2532.451361
870.142542	2532.794159
870.454134	2532.463964
870.765684	2533.653676
871.077191	2531.138140
871.388657	2532.723583
871.700081	2536.355735
872.011463	2534.876156
872.322803	2531.420445
872.634101	2532.262318
872.945357	2533.661238
873.256571	2534.130065
873.567744	2533.336083
873.878874	2535.476053
874.189963	2535.067720
874.501010	2534.407329
874.812015	2532.622760
875.122979	2534.170394
875.433900	2534.036804
875.744780	2534.732483
876.055618	2535.806249
876.366415	2531.894313
876.677169	2533.492359
876.987882	2531.594365
877.298554	2530.145033
877.609183	2532.738707
877.919771	2528.766278
878.230317	2533.852802
878.540822	2534.309026
878.851285	2536.645601
879.161707	2537.709284
879.472087	2537.394212
879.782425	2540.519728
880.092722	2542.049718
880.402977	2546.942158
880.713191	2555.350802
881.023363	2565.186093
881.333494	2575.205387
881.643583	2572.011816
881.953631	2569.597103
882.263637	2568.616599
882.573602	2565.803635
882.883526	2561.100238
883.193408	2553.692263
883.503248	2554.080432
883.813048	2550.503733
884.122806	2546.700182
884.432522	2547.050542
884.742197	2542.309337
885.051831	2540.451672
885.361424	2535.874304
885.670975	2538.644418
885.980485	2537.520241
886.289954	2536.512010
886.599382	2534.094777
886.908768	2537.716846
887.218113	2533.628470
887.527417	2536.275076
887.836680	2534.014119
888.145901	2534.261135
888.455082	2535.266845
888.764221	2536.159130
889.073319	2534.198121
889.382376	2532.325332
889.691392	2533.343645
890.000366	2534.820703
890.309300	2534.346835
890.618193	2534.208203
890.927044	2535.841537
891.235855	2533.903213
891.544625	2534.724921
891.853353	2534.261135
892.162041	2534.208203
892.470687	2532.519417
892.779293	2534.845909
893.087858	2535.471012
893.396381	2532.577390
893.704864	2534.838347
894.013306	2536.587628
894.321707	2543.909904
894.630068	2542.936961
894.938387	2548.744370
895.246665	2543.569626
895.554903	2544.933258
895.863100	2543.632640
896.171256	2540.582742
896.479371	2540.371014
896.787446	2536.796836
897.095480	2537.560570
897.403473	2536.393543
897.711425	2535.355066
898.019336	2537.338760
898.327207	2534.755168
898.635038	2537.245498
898.942827	2533.126876
899.250576	2534.341794
899.558284	2533.552853
899.865952	2535.208872
900.173579	2531.594365
900.481165	2532.199303
900.788711	2537.048893
901.096216	2532.383305
901.403681	2533.807431
901.711105	2535.108049
902.018489	2533.812472
902.325832	2536.154088
902.633135	2531.985054
902.940397	2535.329860
903.247619	2532.383305
903.554800	2536.759027
903.861941	2540.476878
904.169041	2550.143290
904.476101	2552.109340
904.783121	2550.657488
905.090100	2548.278063
905.397039	2546.473330
905.703938	2542.533669
906.010796	2543.206663
906.317614	2540.043339
906.624391	2539.007382
906.931129	2534.994623
907.237826	2533.565456
907.544483	2533.643594
907.851099	2533.121834
908.157675	2531.667462
908.464211	2531.244005
908.770707	2528.080681
909.077163	2532.073274
909.383578	2530.893644
909.689954	2529.464477
909.996289	2528.415917
910.302584	2531.879190
910.608839	2532.171577
910.915054	2532.549663
911.221229	2530.704601
911.527363	2532.229550
911.833458	2531.586803
912.139513	2532.186700
912.445527	2530.697039
912.751502	2534.082174
913.057436	2532.058151
913.363331	2536.086033
913.669186	2533.169725
913.975000	2534.430014
914.280775	2534.339273
914.586510	2536.645601
914.892205	2537.578214
915.197859	2539.163657
915.503475	2542.677342
915.809050	2545.326468
916.114585	2549.440049
916.420081	2550.292004
916.725536	2546.743032
917.030952	2547.020296
917.336328	2544.325799
917.641665	2541.825387
917.946961	2541.432177
918.252218	2537.371527
918.557435	2538.946888
918.862612	2536.658204
919.167750	2536.466640
919.472848	2535.423121
919.777906	2533.338604
920.082925	2536.239788
920.387904	2535.060158
920.692843	2535.471012
920.997743	2534.246012
921.302603	2533.726773
921.607423	2530.419776
921.912204	2531.864067
922.216946	2534.155271
922.521647	2533.527647
922.826310	2530.727286
923.130932	2532.506814
923.435516	2531.627132
923.740059	2531.284334
924.044564	2530.908768
924.349028	2533.106711
924.653454	2521.501975
924.957840	2529.406504
925.262186	2525.476925
925.566493	2530.019004
925.870761	2526.679240
926.174989	2529.081350
926.479178	2527.253931
926.783328	2527.448016
927.087438	2528.471370
927.391509	2530.618902
927.695541	2527.153108
927.999533	2529.456916
928.303486	2527.861390
928.607400	2526.674199
928.911275	2528.199148
929.215110	2530.959179
929.518906	2529.466998
929.822663	2527.997502
930.126381	2528.052954
930.430060	2529.477080
930.733699	2527.226205
931.037299	2531.785929
931.340861	2529.598068
931.644383	2530.225692
931.947866	2531.438089
932.251309	2530.656710
932.554714	2530.094622
932.858080	2530.835671
933.161407	2529.376257
933.464694	2531.644776
933.767943	2529.010773
934.071153	2528.080681
934.374323	2529.749302
934.677455	2529.920702
934.980548	2529.847605
935.283602	2529.928263
935.586617	2530.565969
935.889593	2529.683768
936.192530	2527.614374
936.495428	2527.251411
936.798287	2529.618233
937.101108	2528.073119
937.403890	2526.671678
937.706632	2531.584282
938.009336	2528.869621
938.312002	2530.099663
938.614628	2527.563962
938.917216	2531.717873
939.219765	2527.790814
939.522275	2532.647966
939.824747	2531.843902
940.127179	2528.110928
940.429573	2527.362316
940.731929	2530.003881
941.034246	2524.569517
941.336524	2530.465146
941.638763	2530.480270
941.940964	2532.965559
942.243126	2527.679909
942.545250	2531.967410
942.847335	2531.697708
943.149381	2528.413397
943.451389	2527.594209
943.753359	2528.849457
944.055290	2530.013963
944.357182	2526.812830
944.659036	2529.237625
944.960851	2531.647297
945.262628	2530.344159
945.564367	2526.727131
945.866067	2529.101514
946.167729	2530.918850
946.469352	2529.242667
946.770937	2527.626977
947.072484	2528.317615
947.373992	2528.874662
947.675462	2528.670496
947.976893	2527.954652
948.278286	2530.203006
948.579641	2529.845084
948.880958	2528.630166
949.182236	2528.400794
949.483476	2530.329035
949.784678	2532.325332
950.085841	2530.323994
950.386967	2530.129910
950.688054	2527.526154
950.989103	2529.903058
951.290114	2527.049765
951.591087	2527.816020
951.892021	2529.104035
952.192917	2530.064375
952.493776	2529.101514
952.794596	2530.291227
953.095378	2529.620753
953.396122	2528.942718
953.696828	2528.491535
953.997496	2529.469518
954.298126	2527.090094
954.598718	2528.728469
954.899272	2529.502286
955.199788	2529.651000
955.500266	2529.605630
955.800706	2528.620084
956.101108	2525.129085
956.401472	2526.621267
956.701798	2525.953314
957.002087	2527.208561
957.302337	2528.249559
957.602550	2526.699404
957.902724	2528.723428
958.202861	2529.663603
958.502960	2527.823582
958.803022	2528.708304
959.103045	2528.839374
959.403031	2530.097142
959.702979	2527.780732
960.002889	2530.192924
960.302762	2526.197810
960.602596	2527.861390
960.902393	2529.945907
961.202153	2528.930115
961.501875	2528.151257
961.801559	2524.584640
962.101205	2526.117151
962.400814	2527.473222
962.700385	2527.009435
962.999918	2526.550690
963.299414	2525.078673
963.598873	2528.312574
963.898293	2530.044210
964.197677	2529.131761
964.497022	2528.231915
964.796331	2529.774508
965.095601	2527.982378
965.394835	2529.156967
965.694030	2525.388704
965.993189	2526.626308
966.292309	2526.429703
966.591393	2528.136133
966.890439	2527.072450
967.189447	2528.642769
967.488419	2526.575896
967.787353	2527.190917
968.086249	2528.625125
968.385108	2527.379960
968.683930	2529.978675
968.982714	2527.808458
969.281462	2527.538757
969.580172	2528.667975
969.878844	2525.592871
970.177480	2527.632018
970.476078	2526.979188
970.774639	2530.432379
971.073162	2527.463139
971.371649	2525.429034
971.670098	2524.614887
971.968510	2523.689836
972.266885	2523.168076
972.565223	2528.688140
972.863524	2526.328880
973.161788	2527.755526
973.460014	2527.873993
973.758204	2527.821061
974.056356	2528.277286
974.354471	2526.472553
974.652550	2527.753006
974.950591	2528.836854
975.248595	2529.096473
975.546563	2527.957172
975.844493	2528.312574
976.142386	2527.397604
976.440243	2527.904240
976.738062	2529.109076
977.035845	2527.962213
977.333590	2526.288550
977.631299	2529.008253
977.928971	2528.115969
978.226606	2524.347706
978.524204	2527.364837
978.821765	2526.981709
979.119290	2525.224867
979.416777	2528.337779
979.714228	2528.693181
980.011642	2524.914836
980.309020	2529.565300
980.606360	2530.268541
980.903664	2526.112110
981.200931	2528.499096
981.498162	2528.577234
981.795356	2528.115969
982.092513	2527.672347
982.389633	2527.170752
982.686717	2529.555218
982.983764	2528.378109
983.280775	2528.486493
983.577749	2527.644621
983.874686	2528.090763
984.171587	2527.947090
984.468451	2530.565969
984.765279	2528.027748
985.062070	2527.589168
985.358824	2530.170239
985.655543	2529.540095
985.952224	2526.585978
986.248869	2527.516071
986.545478	2519.349402
986.842050	2526.896009
987.138586	2524.375432
987.435086	2520.871831
987.731549	2520.362674
988.027975	2527.228726
988.324366	2526.568334
988.620719	2528.345341
988.917037	2523.208405
989.213318	2527.344672
989.509563	2529.756864
989.805772	2527.836185
990.101944	2526.112110
990.398080	2526.147398
990.694180	2528.274765
990.990244	2526.094466
991.286271	2527.183355
991.582262	2523.762932
991.878217	2525.842408
992.174136	2525.824764
992.470019	2525.295443
992.765865	2525.469363
993.061676	2527.571524
993.357450	2526.744775
993.653188	2527.110258
993.948890	2530.019004
994.244556	2525.582789
994.540186	2528.652852
994.835780	2526.616225
995.131337	2525.756709
995.426859	2527.339631
995.722345	2527.155629
996.017795	2527.377440
996.313208	2529.313243
996.608586	2526.775022
996.903928	2527.866432
997.199234	2527.836185
997.494504	2525.050947
997.789738	2525.681091
998.084936	2528.158818
998.380099	2527.710156
998.675225	2525.625639
998.970316	2527.952131
999.265371	2529.247708
999.560390	2524.672861
999.855373	2525.736544
1000.150320	2527.112779
1000.445232	2528.418438
1000.740108	2523.982222
1001.034948	2528.289888
1001.329752	2524.811492
1001.624521	2526.210413
1001.919254	2523.397449
1002.213951	2521.217150
1002.508613	2521.759074
1002.803239	2528.408356
1003.097829	2518.875534
1003.392384	2529.303160
1003.686903	2530.245856
1003.981386	2526.454908
1004.275834	2526.200330
1004.570246	2529.167049
1004.864623	2525.247552
1005.158964	2525.481966
1005.453270	2526.727131
1005.747540	2524.322500
1006.041775	2527.080012
1006.335974	2527.500948
1006.630138	2527.516071
1006.924266	2525.945752
1007.218359	2529.293078
1007.512416	2529.603109
1007.806438	2527.526154
1008.100425	2527.347193
1008.394376	2527.420289
1008.688292	2525.970958
1008.982172	2528.935156
1009.276017	2526.470032
1009.569827	2525.257634
1009.863602	2525.484486
1010.157341	2526.265865
1010.451045	2525.943231
1010.744714	2524.481297
1011.038347	2526.323838
1011.331945	2525.035824
1011.625508	2528.252080
1011.919036	2527.175793
1012.212528	2525.010618
1012.505986	2522.492562
1012.799408	2528.504138
1013.092795	2529.537574
1013.386147	2523.964578
1013.679464	2526.311236
1013.972745	2524.695546
1014.265992	2528.418438
1014.559204	2528.763757
1014.852380	2526.943900
1015.145521	2525.857532
1015.438628	2529.298119
1015.731699	2525.323169
1016.024736	2526.094466
1016.317737	2525.020700
1016.610703	2526.815351
1016.903635	2521.307890
1017.196531	2523.284023
1017.489393	2521.018024
1017.782219	2522.200175
1018.075011	2525.497089
1018.367768	2527.029600
1018.660490	2527.185876
1018.953177	2527.185876
1019.245829	2527.185876
