Dividing Wavelength (nm)	Counts (n)	Blue Motor Position (mm): 0.000000	Red Motor Position (mm): 10.500000	
326.493990	2130.580659
326.888308	2130.580659
327.282561	2130.580659
327.676750	2095.622777
328.070874	2096.366348
328.464933	2096.661255
328.858929	2103.537389
329.252859	2115.149687
329.646726	2126.290637
330.040528	2138.041566
330.434265	2156.562766
330.827938	2174.383244
331.221547	2190.484690
331.615091	2209.983873
332.008571	2229.031873
332.401986	2247.424523
332.795338	2267.758017
333.188625	2286.571603
333.581847	2304.477781
333.975006	2321.274906
334.368100	2342.997238
334.761129	2358.047603
335.154095	2377.476209
335.546996	2396.040258
335.939833	2407.541651
336.332606	2422.503796
336.725315	2436.372010
337.117960	2446.802157
337.510540	2452.284412
337.903056	2465.714046
338.295508	2473.026239
338.687896	2483.945379
339.080220	2488.202633
339.472480	2496.470125
339.864676	2500.472802
340.256807	2502.942967
340.648875	2506.040756
341.040879	2510.363545
341.432818	2512.211128
341.824694	2512.944616
342.216506	2512.695079
342.608253	2514.638444
342.999937	2512.279184
343.391557	2511.959071
343.783113	2514.530059
344.174605	2509.778772
344.566033	2509.985459
344.957397	2510.171982
345.348697	2505.264418
345.739934	2504.626712
346.131106	2503.736949
346.522215	2503.298368
346.913260	2500.402225
347.304241	2497.052379
347.695159	2495.960969
348.086012	2492.661534
348.476802	2491.754126
348.867528	2490.723210
349.258191	2490.105669
349.648789	2490.304794
350.039324	2487.166676
350.429796	2489.420072
350.820203	2483.925214
351.210548	2483.360605
351.600828	2483.670636
351.991045	2483.811788
352.381198	2480.396406
352.771288	2481.815491
353.161314	2479.725933
353.551276	2482.669967
353.941175	2481.213073
354.331010	2483.902529
354.720782	2481.177785
355.110490	2479.738536
355.500135	2482.939668
355.889717	2482.586788
356.279235	2481.036633
356.668689	2485.130050
357.058080	2479.673001
357.447408	2482.475882
357.836672	2479.748618
358.225873	2482.720378
358.615010	2478.611838
359.004084	2486.458394
359.393095	2483.476551
359.782043	2483.413537
360.170927	2485.084679
360.559748	2486.602067
360.948505	2485.268682
361.337199	2484.966212
361.725830	2490.266986
362.114398	2490.582058
362.502903	2488.139619
362.891344	2492.006184
363.279722	2488.590802
363.668037	2490.166163
364.056289	2489.599033
364.444478	2494.299909
364.832603	2493.120279
365.220665	2490.256903
365.608665	2493.102635
365.996601	2493.810917
366.384474	2495.035917
366.772284	2495.973572
367.160031	2497.793428
367.547715	2497.407780
367.935336	2502.595127
368.322893	2504.800632
368.710388	2507.033863
369.097820	2514.547703
369.485189	2518.152128
369.872495	2525.676050
370.259738	2529.595547
370.646918	2534.036804
371.034035	2540.975952
371.421090	2555.527243
371.808081	2561.465722
372.195010	2571.941240
372.581875	2584.738209
372.968678	2601.973914
373.355418	2611.514297
373.742096	2627.885444
374.128710	2641.708288
374.515262	2655.316883
374.901751	2669.215344
375.288177	2683.363342
375.674540	2708.753114
376.060841	2725.401524
376.447079	2745.782909
376.833254	2765.022473
377.219367	2778.021088
377.605417	2812.550472
377.991404	2822.297542
378.377329	2843.362004
378.763191	2860.572503
379.148991	2897.463667
379.534727	2922.830753
379.920402	2949.115329
380.306013	2959.152267
380.691563	3007.065913
381.077049	3024.281454
381.462474	3038.154709
381.847835	3071.020512
382.233134	3086.446442
382.618371	3083.386462
383.003545	3142.715802
383.388657	3139.623054
383.773706	3161.363030
384.158693	3167.004081
384.543618	3179.060000
384.928480	3199.232177
385.313280	3227.442474
385.698017	3212.238354
386.082692	3242.326481
386.467305	3232.526478
386.851856	3242.921337
387.236344	3242.570977
387.620770	3245.961153
388.005133	3245.635998
388.389435	3247.939806
388.773674	3230.447002
389.157851	3237.497056
389.541965	3226.976167
389.926018	3180.431194
390.310008	3202.057744
390.693936	3185.855476
391.077802	3185.482430
391.461606	3151.124446
391.845348	3158.950837
392.229027	3128.020838
392.612645	3108.531737
392.996200	3117.303345
393.379694	3102.663834
393.763125	3101.322887
394.146494	3057.956361
394.529801	3052.113664
394.913047	3035.886190
395.296230	2992.224756
395.679351	2982.349136
396.062410	2957.458439
396.445408	2923.997780
396.828343	2903.452558
397.211217	2876.026160
397.594028	2835.616271
397.976778	2819.731595
398.359466	2802.178297
398.742092	2781.829680
399.124656	2751.552510
399.507158	2742.352404
399.889598	2727.226422
400.271977	2714.847869
400.654294	2695.830116
401.036549	2678.450738
401.418742	2659.841319
401.800874	2650.931079
402.182944	2637.763585
402.564952	2630.340486
402.946898	2615.519494
403.328783	2602.825869
403.710606	2588.627459
404.092367	2586.600915
404.474067	2581.426171
404.855705	2569.133317
405.237282	2561.584189
405.618797	2557.384908
406.000250	2554.014897
406.381642	2551.179247
406.762972	2543.977959
407.144240	2539.524100
407.525447	2541.737166
407.906593	2538.515869
408.287677	2533.847761
408.668700	2532.090918
409.049661	2533.368851
409.430560	2529.582944
409.811399	2528.539426
410.192176	2527.994981
410.572891	2527.130423
410.953545	2524.912315
411.334138	2526.326359
411.714669	2521.970802
412.095139	2522.001049
412.475547	2523.120185
412.855894	2522.916018
413.236180	2523.531039
413.616405	2523.810823
413.996568	2522.053981
414.376670	2524.655217
414.756711	2522.905936
415.136691	2522.464835
415.516609	2523.347037
415.896466	2523.026924
416.276262	2525.297964
416.655997	2519.427540
417.035670	2518.245389
417.415283	2523.636903
417.794834	2519.785462
418.174324	2522.172448
418.553753	2519.941738
418.933121	2524.067922
419.312428	2525.207223
419.691674	2522.850483
420.070859	2522.550535
420.449983	2524.758560
420.829045	2525.693694
421.208047	2523.659589
421.586988	2524.980371
421.965867	2524.307377
422.344686	2523.268899
422.723444	2524.791328
423.102141	2525.766791
423.480777	2524.909795
423.859352	2523.326873
424.237866	2523.117665
424.616319	2526.611184
424.994712	2525.081194
425.373044	2525.882738
425.751314	2526.845598
426.129524	2523.067253
426.507673	2526.722090
426.885762	2527.876514
427.263789	2525.136647
427.641756	2524.871986
428.019662	2526.490197
428.397508	2525.950793
428.775292	2528.955321
429.153016	2526.434744
429.530679	2525.885258
429.908282	2526.122192
430.285824	2526.076822
430.663305	2526.719569
431.040726	2527.909281
431.418086	2525.076153
431.795385	2526.487676
432.172624	2526.255783
432.549802	2527.526154
432.926920	2529.219981
433.303977	2526.404497
433.680974	2528.579755
434.057910	2528.826771
434.434786	2527.032121
434.811601	2529.466998
435.188355	2529.230064
435.565050	2527.732841
435.941683	2530.462626
436.318257	2525.759229
436.694770	2523.160514
437.071222	2526.706966
437.447614	2521.847294
437.823946	2524.524147
438.200218	2530.709642
438.576429	2529.777029
438.952580	2527.299302
439.328670	2529.144364
439.704700	2526.351565
440.080670	2527.735362
440.456580	2529.524971
440.832429	2529.167049
441.208218	2527.926925
441.583947	2534.064530
441.959616	2528.068078
442.335224	2528.718387
442.710773	2531.039838
443.086261	2531.329704
443.461689	2528.788963
443.837057	2530.996988
444.212365	2531.115455
444.587612	2529.809796
444.962800	2532.897503
445.337927	2531.833820
445.712995	2531.158305
446.088002	2532.506814
446.462949	2532.584952
446.837837	2533.502442
447.212664	2535.672658
447.587431	2532.395908
447.962139	2534.719880
448.336786	2535.385313
448.711374	2532.390867
449.085901	2532.894982
449.460369	2532.605116
449.834776	2533.464633
450.209124	2529.409025
450.583412	2536.804397
450.957640	2531.496062
451.331808	2533.205013
451.705917	2532.529499
452.079965	2535.032432
452.453954	2533.555374
452.827883	2532.048069
453.201752	2535.685261
453.575562	2535.405477
453.949311	2535.849099
454.323001	2533.893131
454.696632	2530.129910
455.070202	2535.609644
455.443713	2535.831455
455.817164	2533.404139
456.190556	2528.509179
456.563888	2533.003367
456.937160	2531.879190
457.310373	2534.808100
457.683526	2535.218954
458.056619	2534.072092
458.429653	2534.750127
458.802628	2534.964376
459.175542	2533.696526
459.548398	2535.488656
459.921194	2537.358924
460.293930	2536.398584
460.666607	2536.862371
461.039224	2537.628626
461.411782	2536.776671
461.784280	2539.158616
462.156719	2538.099974
462.529099	2538.868750
462.901419	2537.608461
463.273680	2538.092412
463.645882	2535.677699
464.018024	2539.105684
464.390106	2540.234902
464.762130	2538.452855
465.134094	2537.870601
465.505999	2542.326981
465.877845	2543.884698
466.249631	2543.816642
466.621358	2544.167003
466.993026	2544.172044
467.364634	2547.408464
467.736184	2543.274718
468.107674	2543.599873
468.479105	2540.242464
468.850477	2543.919986
469.221790	2539.635005
469.593043	2537.737011
469.964238	2541.893442
470.335373	2540.345808
470.706449	2542.843700
471.077467	2539.987886
471.448425	2541.490150
471.819324	2544.950902
472.190164	2544.073741
472.560945	2541.664070
472.931667	2542.841179
473.302330	2541.739687
473.672934	2540.701209
474.043479	2538.752803
474.413965	2540.522248
474.784393	2536.708615
475.154761	2537.721887
475.525070	2537.058976
475.895321	2536.683410
476.265513	2536.615354
476.635645	2540.900335
477.005719	2540.600386
477.375734	2540.471837
477.745691	2542.823535
478.115588	2540.766744
478.485427	2540.978473
478.855207	2543.045346
479.224928	2545.424770
479.594591	2545.470141
479.964194	2544.451828
480.333739	2543.536858
480.703226	2544.706406
481.072653	2545.830583
481.442022	2547.486602
481.811333	2546.790923
482.180584	2543.907383
482.549777	2543.995603
482.918912	2545.802857
483.287988	2544.257743
483.657005	2543.917465
484.025964	2546.579195
484.394864	2544.096426
484.763706	2546.911911
485.132489	2545.328988
485.501213	2545.026519
485.869879	2545.109698
486.238487	2541.805222
486.607036	2544.509801
486.975527	2540.721374
487.343959	2542.838658
487.712333	2543.826725
488.080648	2544.764379
488.448905	2545.018957
488.817104	2544.212373
489.185244	2543.869574
489.553326	2546.112888
489.921350	2545.891077
490.289315	2545.845707
490.657222	2550.014741
491.025070	2547.174051
491.392861	2547.756304
491.760593	2546.425439
492.128267	2551.101110
492.495883	2548.772097
492.863440	2546.433001
493.230939	2546.191026
493.598380	2545.649102
493.965763	2540.602907
494.333088	2543.589790
494.700354	2542.906714
495.067563	2544.298072
495.434713	2539.032587
495.801805	2546.248999
496.168839	2545.455017
496.535815	2544.892929
496.902733	2543.461241
497.269593	2546.949719
497.636395	2544.945861
498.003139	2545.560882
498.369825	2548.489792
498.736453	2540.439069
499.103023	2543.602393
499.469535	2546.054915
499.835989	2545.999462
500.202385	2546.795964
500.568723	2545.472661
500.935003	2545.185316
501.301226	2543.181457
501.667390	2543.849410
502.033497	2545.306303
502.399546	2547.078269
502.765537	2545.641540
503.131470	2544.845038
503.497345	2546.937117
503.863163	2544.809750
504.228923	2546.107847
504.594625	2547.559699
504.960269	2545.102137
505.325856	2547.796633
505.691385	2543.824204
506.056856	2547.453835
506.422270	2543.637681
506.787625	2546.493495
507.152924	2545.865871
507.518164	2543.468803
507.883347	2546.246478
508.248472	2547.811757
508.613540	2547.988197
508.978550	2547.418547
509.343503	2547.032898
509.708398	2544.986190
510.073236	2546.246478
510.438016	2545.394523
510.802738	2545.442414
511.167403	2546.606921
511.532010	2547.320244
511.896561	2548.469627
512.261053	2548.547765
512.625488	2544.141797
512.989866	2543.710778
513.354186	2545.873433
513.718449	2543.569626
514.082655	2546.894267
514.446803	2544.688762
514.810894	2548.099102
515.174927	2548.101623
515.538904	2547.781510
515.902822	2545.681869
516.266684	2547.143804
516.630488	2547.337888
516.994235	2547.105995
517.357925	2547.368135
517.721558	2548.507436
518.085133	2549.646737
518.448651	2548.464586
518.812112	2549.974412
519.175516	2547.156407
519.538863	2550.294525
519.902152	2547.806716
520.265385	2548.197405
520.628560	2546.304452
520.991678	2548.162117
521.354739	2550.145811
521.717743	2548.915769
522.080690	2545.588608
522.443580	2548.575492
522.806413	2548.794782
523.169189	2545.029040
523.531908	2548.310831
523.894569	2547.226983
524.257174	2548.494833
524.619722	2547.753783
524.982213	2549.308979
525.344647	2546.909390
525.707025	2548.494833
526.069345	2546.921993
526.431608	2551.743857
526.793815	2548.590615
527.155964	2549.014072
527.518057	2548.928372
527.880093	2550.617159
528.242072	2547.902498
528.603995	2550.271840
528.965860	2548.724206
529.327669	2548.169679
529.689421	2548.938455
530.051117	2547.650440
530.412755	2549.419885
530.774337	2549.770245
531.135862	2549.543393
531.497331	2546.128011
531.858743	2546.942158
532.220098	2547.216901
532.581396	2544.802188
532.942638	2543.090716
533.303824	2549.182951
533.664953	2548.031047
534.026025	2548.991387
534.387040	2549.538352
534.747999	2547.562220
535.108902	2548.893084
535.469748	2551.890050
535.830537	2548.862837
536.191270	2546.314534
536.551947	2548.996428
536.912567	2551.078424
537.273131	2550.390307
537.633638	2547.988197
537.994089	2549.165307
538.354483	2548.247817
538.714821	2551.080945
539.075103	2548.915769
539.435328	2547.985677
539.795497	2551.620348
540.155609	2547.660522
540.515665	2549.941644
540.875665	2550.329813
541.235609	2550.657488
541.595496	2549.707231
541.955328	2548.910728
542.315102	2548.920811
542.674821	2546.191026
543.034483	2547.665563
543.394090	2546.773279
543.753640	2549.780327
544.113134	2550.034906
544.472571	2549.240924
544.831953	2549.676984
545.191278	2551.643034
545.550548	2548.020965
545.909761	2551.824515
546.268918	2548.726726
546.628019	2549.949206
546.987064	2548.668753
547.346053	2550.763352
547.704986	2547.274874
548.063863	2548.953578
548.422684	2548.998948
548.781449	2550.360060
549.140158	2548.562889
549.498811	2548.043650
549.857408	2550.468445
550.215949	2546.627086
550.574434	2544.817311
550.932864	2545.732281
551.291237	2545.777651
551.649555	2550.607077
552.007817	2551.695966
552.366022	2549.419885
552.724173	2550.392827
553.082267	2548.504915
553.440305	2548.399051
553.798288	2551.549772
554.156215	2548.628424
554.514086	2548.124308
554.871902	2550.304607
555.229661	2550.833928
555.587365	2548.961140
555.945014	2548.179761
556.302606	2550.511295
556.660143	2549.442570
557.017625	2548.784699
557.375050	2548.910728
557.732421	2551.199412
558.089735	2549.513146
558.446994	2549.704710
558.804197	2550.397869
559.161345	2550.423074
559.518437	2549.228321
559.875474	2550.128167
560.232455	2553.326779
560.589381	2547.690769
560.946251	2551.564896
561.303065	2547.710934
561.659825	2548.240255
562.016528	2548.774617
562.373177	2550.786037
562.729770	2550.092879
563.086307	2549.873589
563.442789	2549.452652
563.799216	2550.392827
564.155587	2550.707900
564.511904	2550.821326
564.868164	2547.652960
565.224370	2550.690256
565.580520	2547.136242
565.936615	2549.455173
566.292654	2547.816798
566.648638	2550.788558
567.004567	2548.507436
567.360441	2547.186654
567.716260	2549.419885
568.072023	2547.320244
568.427732	2545.041643
568.783385	2547.330327
569.138982	2546.407795
569.494525	2543.448638
569.850013	2542.145500
570.205445	2549.114895
570.560823	2548.401572
570.916145	2548.414175
571.271412	2550.735626
571.626625	2552.807540
571.981782	2550.312169
572.336884	2548.260419
572.691931	2552.258054
573.046923	2546.228834
573.401860	2548.031047
573.756743	2547.211859
574.111570	2549.024154
574.466342	2548.567930
574.821059	2547.965512
575.175722	2549.946685
575.530330	2549.868548
575.884882	2548.895605
576.239380	2550.407951
576.593823	2548.280584
576.948211	2546.967363
577.302544	2550.889381
577.656823	2553.851059
578.011047	2549.326623
578.365216	2548.552806
578.719330	2547.307641
579.073389	2546.939637
579.427394	2547.410985
579.781344	2549.293856
580.135239	2548.877961
580.489080	2549.387117
580.842866	2549.029195
581.196597	2547.050543
581.550273	2548.792261
581.903895	2550.670091
582.257463	2549.208156
582.610975	2550.786037
582.964434	2548.187323
583.317837	2549.049360
583.671186	2548.139432
584.024481	2548.235214
584.377721	2549.760163
584.730906	2547.630275
585.084037	2548.779658
585.437113	2548.600697
585.790135	2546.312013
586.143103	2548.578012
586.496016	2547.537014
586.848874	2544.439225
587.201679	2546.012065
587.554428	2543.635161
587.907124	2544.918134
588.259765	2543.569626
588.612352	2550.327293
588.964884	2545.694472
589.317362	2548.963660
589.669786	2548.996428
590.022155	2551.267468
590.374470	2548.497354
590.726731	2546.203629
591.078937	2547.862168
591.431090	2548.343598
591.783188	2546.990049
592.135232	2548.172199
592.487222	2550.521377
592.839157	2550.062632
593.191038	2549.901315
593.542866	2546.279246
593.894639	2547.663043
594.246358	2543.317568
594.598022	2547.448794
594.949633	2548.419216
595.301190	2548.570450
595.652692	2548.262940
596.004141	2546.248999
596.355535	2549.409803
596.706876	2550.072714
597.058162	2548.177240
597.409395	2546.685059
597.760573	2548.109185
598.111698	2547.700851
598.462768	2548.872920
598.813785	2547.161448
599.164748	2545.633978
599.515657	2546.196067
599.866511	2546.218752
600.217312	2545.515511
600.568060	2549.253527
600.918753	2550.183620
601.269392	2547.015254
601.619978	2544.103988
601.970510	2549.049360
602.320988	2548.802343
602.671412	2545.954092
603.021783	2542.919317
603.372100	2547.232024
603.722363	2548.038609
604.072572	2550.055070
604.422728	2548.469627
604.772830	2545.618855
605.122878	2541.999306
605.472872	2544.529966
605.822813	2539.992927
606.172701	2542.712630
606.522534	2548.146993
606.872314	2545.787733
607.222041	2545.873433
607.571714	2546.034750
607.921333	2547.579864
608.270899	2546.586756
608.620411	2546.153217
608.969870	2549.535831
609.319276	2548.925852
609.668627	2552.840308
610.017926	2554.511450
610.367171	2552.467262
610.716362	2554.372818
611.065500	2553.049516
611.414585	2551.547252
611.763616	2550.720502
612.112594	2549.384597
612.461518	2551.937941
612.810389	2550.783517
613.159207	2549.137580
613.507971	2547.753783
613.856682	2547.887374
614.205340	2547.307641
614.553945	2547.252189
614.902496	2546.266643
615.250994	2548.923331
615.599439	2548.487271
615.947830	2548.421736
616.296169	2548.865358
616.644454	2546.528783
616.992686	2548.575492
617.340864	2549.828218
617.688990	2545.696993
618.037063	2548.472148
618.385082	2546.831252
618.733048	2548.797302
619.080961	2547.584905
619.428821	2549.687066
619.776628	2548.504915
620.124382	2551.890050
620.472083	2549.162786
620.819731	2547.607590
621.167326	2549.734957
621.514868	2546.238917
621.862357	2546.246478
622.209793	2548.078938
622.557176	2545.875954
622.904506	2544.782023
623.251783	2542.808412
623.599007	2543.950233
623.946179	2542.760521
624.293297	2542.604245
624.640363	2546.087682
624.987376	2547.582384
625.334336	2544.915614
625.681243	2546.042312
626.028097	2545.165151
626.374899	2545.414688
626.721647	2543.715819
627.068343	2547.584905
627.414987	2545.011396
627.761577	2545.550799
628.108115	2547.189174
628.454600	2546.705223
628.801032	2544.605583
629.147412	2545.288659
629.493739	2545.767569
629.840014	2545.039122
630.186236	2546.942158
630.532405	2547.070707
630.878521	2543.093237
631.224585	2544.587939
631.570597	2545.999462
631.916556	2546.783361
632.262462	2544.189688
632.608316	2546.969884
632.954117	2543.632640
633.299866	2544.865202
633.645562	2545.119781
633.991206	2546.024668
634.336797	2541.147351
634.682336	2544.330840
635.027823	2543.700696
635.373257	2545.994421
635.718639	2544.686241
636.063968	2544.789585
636.409245	2544.771941
636.754470	2542.526107
637.099642	2546.090203
637.444762	2544.376210
637.789829	2542.793288
638.134845	2540.239944
638.479808	2544.517363
638.824719	2546.105326
639.169577	2542.478216
639.514383	2543.095757
639.859137	2542.974770
640.203839	2545.583567
640.548489	2542.248843
640.893086	2542.642053
641.237632	2539.829090
641.582125	2540.209697
641.926566	2539.876981
642.270955	2543.849410
642.615292	2541.417053
642.959576	2539.806404
643.303809	2545.765048
643.647990	2542.647095
643.992118	2544.363607
644.336195	2542.039636
644.680219	2541.351518
645.024192	2544.802188
645.368112	2542.132897
645.711981	2544.827394
646.055797	2543.045346
646.399562	2542.909235
646.743274	2542.445448
647.086935	2543.015099
647.430544	2542.778165
647.774101	2543.539379
648.117606	2544.068700
648.461059	2542.490819
648.804460	2546.072559
649.147810	2542.241282
649.491108	2543.007537
649.834354	2543.405788
650.177548	2543.672969
650.520690	2544.063659
650.863781	2545.298742
651.206820	2545.838145
651.549807	2543.730943
651.892742	2542.631971
652.235626	2539.597197
652.578458	2541.774975
652.921238	2543.461241
653.263967	2543.062990
653.606644	2546.238917
653.949269	2541.659028
654.291843	2542.473175
654.634365	2543.060469
654.976836	2543.897301
655.319255	2545.399565
655.661622	2542.500901
656.003938	2543.393185
656.346203	2541.439738
656.688416	2543.461241
657.030577	2541.233051
657.372687	2538.523431
657.714746	2542.974770
658.056753	2541.243133
658.398708	2535.682741
658.740612	2538.278935
659.082465	2540.287835
659.424266	2539.385468
659.766016	2537.454706
660.107715	2542.994934
660.449362	2540.078627
660.790958	2542.805891
661.132503	2541.147351
661.473996	2541.122146
661.815438	2540.549975
662.156829	2541.953936
662.498168	2541.190201
662.839456	2541.812784
663.180693	2539.128369
663.521879	2541.563247
663.863013	2541.006199
664.204097	2542.145500
664.545129	2540.164326
664.886110	2539.503935
665.227040	2543.753628
665.567918	2544.174564
665.908746	2541.711961
666.249522	2541.545602
666.590248	2542.392516
666.930922	2544.161961
667.271545	2542.720191
667.612118	2541.961498
667.952639	2541.303627
668.293109	2542.599204
668.633528	2542.921838
668.973896	2540.776827
669.314213	2544.363607
669.654480	2543.443597
669.994695	2539.161137
670.334859	2541.832948
670.674973	2539.675334
671.015035	2541.301107
671.355047	2538.493184
671.695008	2541.288504
672.034918	2541.706919
672.374777	2544.149358
672.714585	2539.652649
673.054342	2544.403937
673.394049	2542.697506
673.733705	2542.279090
674.073310	2542.362269
674.412864	2542.642053
674.752368	2542.420243
675.091820	2540.723894
675.431223	2541.573329
675.770574	2540.086188
676.109875	2535.909593
676.449125	2538.530993
676.788324	2537.106867
677.127473	2538.606610
677.466571	2537.583256
677.805619	2542.354708
678.144616	2538.006713
678.483562	2544.262784
678.822458	2540.013092
679.161303	2541.341436
679.500098	2540.653318
679.838842	2540.681045
680.177535	2538.646939
680.516179	2538.977135
680.854771	2539.501415
681.193314	2541.341436
681.531805	2542.354708
681.870247	2541.714481
682.208638	2543.156251
682.546978	2541.507794
682.885268	2543.786395
683.223508	2542.939482
683.561697	2540.247505
683.899836	2539.660211
684.237925	2541.144831
684.575963	2542.833617
684.913951	2539.224151
685.251889	2543.438556
685.589776	2539.340098
685.927614	2540.827238
686.265401	2537.532844
686.603137	2543.168854
686.940824	2540.756662
687.278460	2540.088709
687.616046	2539.060314
687.953582	2541.273380
688.291068	2540.928061
688.628504	2540.910417
688.965889	2539.627443
689.303224	2542.042156
689.640510	2538.578883
689.977745	2540.222300
690.314930	2540.615510
690.652065	2538.896476
690.989150	2539.859337
691.326185	2544.056097
691.663170	2540.459234
692.000105	2538.624254
692.336990	2540.789429
692.673825	2541.749769
693.010610	2543.494008
693.347345	2536.159130
693.684030	2535.904551
694.020665	2537.573173
694.357251	2535.544109
694.693786	2540.096271
695.030272	2543.463762
695.366707	2540.532331
695.703093	2538.944367
696.039429	2540.736497
696.375716	2538.853626
696.711952	2540.086188
697.048139	2539.806404
697.384276	2539.597197
697.720363	2541.885880
698.056400	2541.548123
698.392388	2538.941847
698.728326	2538.309182
699.064214	2539.889583
699.400053	2539.178781
699.735842	2541.633823
700.071581	2538.714995
700.407270	2538.805735
700.742910	2541.233051
701.078501	2540.759182
701.414042	2536.398584
701.749533	2536.517052
702.084974	2539.942516
702.420366	2539.322454
702.755709	2539.423277
703.091002	2538.248688
703.426246	2538.916641
703.761440	2537.298430
704.096584	2537.200128
704.431679	2538.339429
704.766725	2539.045190
705.101721	2541.462423
705.436668	2539.463606
705.771565	2537.288348
706.106413	2537.210210
706.441212	2536.310364
706.775961	2535.942360
707.110661	2538.208359
707.445311	2540.227341
707.779913	2535.201310
708.114465	2541.505273
708.448967	2535.768440
708.783421	2541.273380
709.117825	2537.815149
709.452180	2540.645757
709.786485	2541.769934
710.120742	2538.914120
710.454949	2540.907897
710.789107	2537.129552
711.123216	2533.993954
711.457275	2536.713657
711.791286	2535.707946
712.125247	2535.022349
712.459159	2539.241795
712.793023	2539.496373
713.126837	2539.251877
713.460602	2539.816487
713.794318	2538.304141
714.127985	2538.770447
714.461602	2541.598535
714.795171	2539.637526
715.128691	2537.404295
715.462162	2539.703061
715.795584	2540.023174
716.128957	2538.687268
716.462281	2541.018802
716.795556	2541.036446
717.128782	2537.744573
717.461960	2539.899666
717.795088	2537.747093
718.128167	2538.904038
718.461198	2538.205838
718.794180	2539.516538
719.127113	2537.943698
719.459997	2541.049049
719.792833	2538.868750
720.125619	2540.265149
720.458357	2535.781043
720.791046	2536.834644
721.123686	2539.055273
721.456278	2539.216589
721.788821	2537.835313
722.121315	2538.228523
722.453761	2538.473019
722.786158	2537.580735
723.118506	2539.503935
723.450805	2537.507638
723.783056	2539.002340
724.115259	2536.748945
724.447412	2539.214069
724.779518	2538.820859
725.111574	2537.366486
725.443582	2535.710467
725.775542	2535.478574
726.107453	2538.558719
726.439315	2538.747762
726.771129	2539.622402
727.102895	2535.798687
727.434612	2535.677699
727.766281	2537.721887
728.097901	2534.745086
728.429473	2534.762730
728.760996	2535.082843
729.092471	2537.104346
729.423897	2536.446475
729.755276	2537.381609
730.086606	2538.132741
730.417887	2538.518390
730.749120	2538.657021
731.080305	2538.241126
731.411442	2538.873791
731.742530	2537.941178
732.073570	2538.594007
732.404562	2537.941178
732.735506	2538.689789
733.066401	2536.668286
733.397249	2538.914120
733.728048	2535.365148
734.058798	2538.629295
734.389501	2538.082330
734.720156	2537.595858
735.050762	2537.374048
735.381320	2535.725590
735.711831	2535.813811
736.042293	2536.121321
736.372707	2535.710467
736.703073	2536.859850
737.033391	2536.491846
737.363661	2536.829603
737.693883	2535.907072
738.024056	2539.022505
738.354182	2536.726259
738.684260	2535.768440
739.014290	2538.079809
739.344272	2537.676517
739.674207	2535.846578
740.004093	2539.730787
740.333931	2536.350693
740.663722	2537.404295
740.993464	2538.112577
741.323159	2536.975797
741.652806	2537.893287
741.982405	2536.595189
742.311956	2538.311702
742.641460	2536.474202
742.970915	2533.711649
743.300323	2538.238606
743.629683	2535.428162
743.958996	2536.151568
744.288260	2533.353727
744.617477	2538.745242
744.946647	2533.381454
745.275768	2536.290200
745.604842	2532.779036
745.933869	2530.233253
746.262847	2532.388347
746.591778	2536.166691
746.920662	2537.094264
747.249498	2537.951260
747.578286	2536.915303
747.907027	2537.696682
748.235720	2536.093595
748.564365	2534.737524
748.892963	2537.051414
749.221514	2535.856660
749.550017	2533.910775
749.878473	2534.785415
750.206881	2539.481250
750.535242	2536.615354
750.863555	2539.937474
751.191821	2534.762730
751.520039	2535.760878
751.848210	2538.180632
752.176334	2536.585107
752.504411	2539.025026
752.832440	2537.260622
753.160421	2536.983358
753.488356	2538.367155
753.816243	2537.323636
754.144082	2534.677030
754.471875	2537.159799
754.799620	2536.585107
755.127318	2536.832124
755.454969	2538.157947
755.782572	2534.646783
756.110129	2535.347504
756.437638	2533.764582
756.765100	2535.564273
757.092515	2538.757844
757.419882	2536.441434
757.747203	2534.755168
758.074477	2534.147709
758.401703	2536.885056
758.728882	2534.049407
759.056014	2535.360107
759.383099	2538.964532
759.710138	2538.808256
760.037129	2536.045704
760.364073	2534.777853
760.690970	2533.978831
761.017820	2534.694674
761.344623	2535.995292
761.671379	2536.217103
761.998088	2532.647966
762.324751	2534.785415
762.651366	2532.146371
762.977935	2535.279448
763.304456	2534.760209
763.630931	2537.643749
763.957359	2537.479912
764.283740	2537.053934
764.610074	2534.727442
764.936362	2538.939326
765.262602	2537.275745
765.588796	2535.599562
765.914943	2534.717360
766.241044	2537.038811
766.567097	2534.765251
766.893104	2535.443286
767.219064	2536.844727
767.544978	2536.534696
767.870845	2536.880015
768.196665	2536.617875
768.522438	2535.672658
768.848165	2536.512010
769.173846	2534.626619
769.499479	2536.138965
769.825066	2537.064017
770.150607	2536.305323
770.476101	2534.551002
770.801548	2536.761548
771.126949	2534.951773
771.452303	2534.440096
771.777611	2532.713501
772.102872	2533.666279
772.428087	2534.848430
772.753256	2535.534027
773.078378	2533.288193
773.403453	2535.907072
773.728482	2534.729963
774.053465	2535.781043
774.378401	2532.506814
774.703291	2534.949253
775.028135	2534.636701
775.352932	2535.332380
775.677683	2532.111083
776.002388	2535.397915
776.327046	2532.660569
776.651658	2534.755168
776.976224	2534.518234
777.300743	2537.943698
777.625216	2532.564787
777.949643	2533.719211
778.274024	2534.155271
778.598359	2529.212420
778.922647	2529.817358
779.246889	2530.311391
779.571086	2528.229395
779.895236	2533.288192
780.219339	2533.184849
780.543397	2534.561084
780.867409	2534.543440
781.191374	2534.472864
781.515294	2532.728624
781.839167	2531.428007
782.162995	2533.754499
782.486776	2536.509490
782.810511	2535.160981
783.134201	2536.416228
783.457844	2532.902544
783.781441	2533.625950
784.104993	2535.289531
784.428498	2539.405633
784.751958	2534.346835
785.075372	2532.930271
785.398739	2534.104859
785.722061	2533.623429
786.045337	2533.482277
786.368568	2534.382123
786.691752	2535.145858
787.014891	2535.123172
787.337983	2534.001516
787.661030	2536.209541
787.984031	2535.468492
788.306987	2534.437576
788.629897	2534.755168
788.952760	2535.957483
789.275579	2535.420601
789.598351	2535.135775
789.921078	2532.829448
790.243759	2535.206352
790.566395	2532.300126
790.888984	2532.486649
791.211529	2535.380271
791.534027	2536.864891
791.856480	2532.806762
792.178888	2534.924047
792.501249	2532.960518
792.823566	2536.398584
793.145836	2533.837678
793.468062	2536.345652
793.790241	2533.739376
794.112375	2534.629139
794.434464	2535.516382
794.756507	2534.021680
795.078505	2532.229550
795.400457	2530.253418
795.722364	2530.485311
796.044226	2530.548325
796.366042	2527.866432
796.687812	2529.925743
797.009538	2533.303316
797.331218	2532.864736
797.652852	2532.481608
797.974442	2534.409849
798.295986	2531.044879
798.617484	2536.549819
798.938938	2533.857843
799.260346	2535.279448
799.581709	2534.790456
799.903026	2535.123172
800.224299	2532.390867
800.545526	2534.760209
800.866708	2534.185518
801.187845	2534.954294
801.508936	2537.946219
801.829983	2532.433717
802.150984	2533.406660
802.471940	2533.809952
802.792851	2536.872453
803.113717	2532.431196
803.434538	2534.256094
803.755314	2533.850281
804.076045	2532.143851
804.396731	2535.682741
804.717372	2531.541433
805.037967	2537.724408
805.358518	2530.986906
805.679024	2534.127545
805.999485	2531.256608
806.319901	2535.196269
806.640272	2532.474046
806.960598	2535.115611
807.280879	2532.710980
807.601115	2535.488656
807.921306	2532.600075
808.241453	2534.034283
808.561554	2533.255425
808.881611	2534.906403
809.201623	2535.145858
809.521590	2536.101156
809.841513	2535.092926
810.161390	2535.637370
810.481223	2532.794159
810.801011	2534.407329
811.120755	2533.890610
811.440453	2535.100487
811.760107	2534.430014
812.079716	2531.304498
812.399281	2529.991278
812.718801	2529.923222
813.038276	2529.222502
813.357707	2533.467153
813.677093	2533.845240
813.996434	2533.444468
814.315731	2533.003367
814.634983	2534.208203
814.954191	2533.472195
815.273354	2531.175949
815.592473	2534.450178
815.911547	2533.928419
816.230577	2532.325332
816.549562	2535.118131
816.868502	2533.678882
817.187399	2533.545291
817.506250	2532.690816
817.825058	2533.683923
818.143821	2533.701567
818.462539	2535.874304
818.781213	2531.639735
819.099843	2534.818183
819.418429	2532.894982
819.736970	2536.799356
820.055466	2535.488656
820.373919	2535.027391
820.692327	2533.694005
821.010691	2537.769778
821.329011	2540.217258
821.647286	2543.413350
821.965517	2547.700851
822.283704	2549.581202
822.601847	2552.437015
822.919945	2548.552806
823.237999	2542.964687
823.556010	2543.355377
823.873976	2541.601055
824.191897	2538.039480
824.509775	2538.359593
824.827609	2537.429500
825.145398	2536.491846
825.463144	2538.586445
825.780845	2538.742721
826.098502	2538.687268
826.416116	2540.469316
826.733685	2541.117104
827.051210	2539.496373
827.368692	2536.844727
827.686129	2538.714995
828.003522	2535.476053
828.320872	2530.636546
828.638177	2532.549663
828.955439	2529.499765
829.272656	2532.794159
829.589830	2530.704601
829.906960	2532.489170
830.224046	2536.277597
830.541088	2532.461443
830.858086	2530.129910
831.175041	2534.177956
831.491952	2531.158305
831.808819	2533.913296
832.125642	2536.375899
832.442421	2532.675692
832.759157	2532.794159
833.075849	2534.921526
833.392497	2534.694674
833.709101	2538.704912
834.025662	2534.780374
834.342179	2534.298944
834.658653	2536.464119
834.975083	2533.822555
835.291469	2538.309182
835.607811	2534.263656
835.924110	2534.780374
836.240366	2532.993285
836.556578	2533.305837
836.872746	2531.198634
837.188871	2533.028573
837.504952	2533.812473
837.820990	2532.332894
838.136984	2530.812986
838.452935	2532.189221
838.768842	2533.605785
839.084706	2530.906247
839.400526	2532.917668
839.716303	2530.835671
840.032037	2534.956814
840.347727	2531.196114
840.663373	2534.044366
840.978977	2530.266021
841.294537	2532.647966
841.610054	2532.380785
841.925527	2533.598223
842.240957	2533.303316
842.556344	2536.524613
842.871687	2532.106042
843.186987	2534.059489
843.502244	2530.341638
843.817458	2531.483459
844.132629	2532.095960
844.447756	2531.982534
844.762840	2528.461288
845.077881	2531.967410
845.392879	2528.491535
845.707833	2530.530681
846.022745	2528.448685
846.337613	2533.565456
846.652438	2528.988088
846.967221	2531.281813
847.281960	2533.656197
847.596656	2533.343645
847.911309	2530.651669
848.225919	2531.642256
848.540485	2532.912627
848.855009	2531.450692
849.169490	2530.548325
849.483928	2530.104704
849.798323	2533.542771
850.112675	2532.030425
850.426984	2531.155784
850.741251	2532.441279
851.055474	2532.355579
851.369654	2531.594365
851.683792	2530.243336
851.997887	2531.448171
852.311938	2532.658048
852.625947	2532.789118
852.939914	2529.630835
853.253837	2530.611340
853.567718	2529.504807
853.881555	2533.073943
854.195350	2529.645959
854.509103	2533.976310
854.822812	2529.721576
855.136479	2529.708973
855.450103	2530.858356
855.763685	2530.298788
856.077224	2529.953469
856.390720	2532.539581
856.704173	2532.146371
857.017584	2529.615712
857.330953	2531.327184
857.644278	2533.515044
857.957561	2535.370189
858.270802	2533.588141
858.584000	2531.596885
858.897155	2531.485980
859.210268	2532.342976
859.523339	2533.794828
859.836367	2532.400949
860.149352	2532.095960
860.462295	2532.476567
860.775195	2529.872811
861.088054	2526.240659
861.400869	2530.296268
861.713642	2525.411390
862.026373	2529.845084
862.339062	2531.135620
862.651708	2530.933974
862.964312	2529.330887
863.276873	2533.212575
863.589392	2530.419776
863.901869	2529.590506
864.214303	2531.856505
864.526696	2531.871628
864.839045	2529.945907
865.151353	2532.441279
865.463619	2531.085208
865.775842	2531.518748
866.088023	2533.648635
866.400162	2533.391536
866.712258	2531.357431
867.024313	2528.824251
867.336325	2530.777698
867.648296	2533.691485
867.960224	2531.916999
868.272110	2533.015970
868.583954	2529.358613
868.895755	2531.944725
869.207515	2530.026566
869.519233	2531.826258
869.830909	2530.911288
870.142542	2529.998840
870.454134	2532.650487
870.765684	2530.505476
871.077191	2528.461288
871.388657	2530.528161
871.700081	2528.206709
872.011463	2531.667462
872.322803	2529.993798
872.634101	2530.407173
872.945357	2531.916999
873.256571	2534.094777
873.567744	2528.834333
873.878874	2530.850795
874.189963	2533.782226
874.501010	2531.944725
874.812015	2530.369364
875.122979	2530.245856
875.433900	2531.861546
875.744780	2530.263500
876.055618	2529.933305
876.366415	2532.637884
876.677169	2531.959848
876.987882	2527.758047
877.298554	2526.800228
877.609183	2529.930784
877.919771	2527.453057
878.230317	2527.543798
878.540822	2534.404808
878.851285	2532.529499
879.161707	2532.141330
879.472087	2532.708460
879.782425	2530.510517
880.092722	2532.784077
880.402977	2535.463450
880.713191	2535.561753
881.023363	2539.551826
881.333494	2539.582073
881.643583	2541.424615
881.953631	2542.579039
882.263637	2539.992927
882.573602	2539.854295
882.883526	2537.328677
883.193408	2538.069727
883.503248	2534.619057
883.813048	2535.571835
884.122806	2533.875487
884.432522	2535.657535
884.742197	2533.293234
885.051831	2531.574200
885.361424	2531.876669
885.670975	2531.178470
885.980485	2531.803573
886.289954	2529.431710
886.599382	2534.926568
886.908768	2530.873480
887.218113	2530.303829
887.527417	2531.037317
887.836680	2533.711649
888.145901	2529.202337
888.455082	2530.220650
888.764221	2532.012781
889.073319	2529.925743
889.382376	2531.307019
889.691392	2531.720394
890.000366	2530.797863
890.309300	2531.428007
890.618193	2533.262987
890.927044	2532.458923
891.235855	2532.529499
891.544625	2529.721576
891.853353	2528.741072
892.162041	2531.249046
892.470687	2529.406504
892.779293	2534.301464
893.087858	2526.969106
893.396381	2529.875331
893.704864	2528.458767
894.013306	2529.272913
894.321707	2532.108563
894.630068	2532.993285
894.938387	2534.034283
895.246665	2531.521268
895.554903	2532.640404
895.863100	2532.158974
896.171256	2534.205683
896.479371	2531.828778
896.787446	2533.678882
897.095480	2532.272400
897.403473	2531.092770
897.711425	2532.224509
898.019336	2532.421114
898.327207	2531.972451
898.635038	2531.891793
898.942827	2532.166536
899.250576	2530.384488
899.558284	2529.222502
899.865952	2532.988244
900.173579	2533.497400
900.481165	2528.446164
900.788711	2529.645959
901.096216	2529.686288
901.403681	2528.741072
901.711105	2527.742923
902.018489	2527.334590
902.325832	2532.842050
902.633135	2527.488345
902.940397	2532.204344
903.247619	2529.812317
903.554800	2529.688809
903.861941	2531.972451
904.169041	2535.090405
904.476101	2535.682741
904.783121	2536.817000
905.090100	2532.547143
905.397039	2531.758202
905.703938	2532.587472
906.010796	2531.390198
906.317614	2532.002698
906.624391	2531.743079
906.931129	2528.141174
907.237826	2532.312729
907.544483	2532.252235
907.851099	2530.336597
908.157675	2528.665454
908.464211	2527.919364
908.770707	2526.230577
909.077163	2530.031607
909.383578	2523.049609
909.689954	2525.497089
909.996289	2526.858201
910.302584	2532.476567
910.608839	2531.778367
910.915054	2530.044210
911.221229	2527.881555
911.527363	2532.716022
911.833458	2529.658562
912.139513	2531.211237
912.445527	2531.491021
912.751502	2531.866587
913.057436	2528.211751
913.363331	2532.204344
913.669186	2528.468849
913.975000	2530.918850
914.280775	2530.392050
914.586510	2531.690147
914.892205	2532.723583
915.197859	2533.111752
915.503475	2529.688809
915.809050	2535.125693
916.114585	2532.892462
916.420081	2535.632329
916.725536	2534.503111
917.030952	2532.398429
917.336328	2532.413552
917.641665	2535.609644
917.946961	2532.103521
918.252218	2533.865405
918.557435	2531.937163
918.862612	2531.846422
919.167750	2527.750485
919.472848	2530.744930
919.777906	2529.610671
920.082925	2531.125537
920.387904	2529.378778
920.692843	2530.366844
920.997743	2528.478932
921.302603	2531.687626
921.607423	2528.879703
921.912204	2531.952287
922.216946	2526.863242
922.521647	2532.723583
922.826310	2531.664941
923.130932	2529.807276
923.435516	2528.816689
923.740059	2528.940197
924.044564	2528.857018
924.349028	2527.828623
924.653454	2526.412059
924.957840	2528.683098
925.262186	2522.797551
925.566493	2526.822913
925.870761	2527.044723
926.174989	2531.599406
926.479178	2530.767616
926.783328	2529.129241
927.087438	2530.770136
927.391509	2531.123017
927.695541	2527.266534
927.999533	2529.898017
928.303486	2529.988757
928.607400	2530.432379
928.911275	2530.351720
929.215110	2529.351051
929.518906	2528.027748
929.822663	2528.426000
930.126381	2528.647810
930.430060	2529.608150
930.733699	2527.415248
931.037299	2528.123530
931.340861	2528.362985
931.644383	2530.656710
931.947866	2528.466329
932.251309	2530.712163
932.554714	2527.664785
932.858080	2529.887934
933.161407	2528.574714
933.464694	2530.777698
933.767943	2531.851464
934.071153	2528.362985
934.374323	2527.677388
934.677455	2527.150588
934.980548	2525.154291
935.283602	2527.891637
935.586617	2525.804600
935.889593	2531.649818
936.192530	2525.487007
936.495428	2530.376926
936.798287	2526.467511
937.101108	2528.161339
937.403890	2527.490866
937.706632	2527.548839
938.009336	2530.876000
938.312002	2531.002029
938.614628	2529.252749
938.917216	2527.967255
939.219765	2528.665454
939.522275	2530.427338
939.824747	2531.203675
940.127179	2526.175124
940.429573	2526.170083
940.731929	2525.219826
941.034246	2524.831657
941.336524	2525.388704
941.638763	2532.950435
941.940964	2526.437264
942.243126	2528.244518
942.545250	2526.870804
942.847335	2529.620753
943.149381	2528.042872
943.451389	2528.390712
943.753359	2527.868952
944.055290	2526.175124
944.357182	2530.702081
944.659036	2530.208048
944.960851	2528.907430
945.262628	2529.817358
945.564367	2529.081350
945.866067	2530.712163
946.167729	2526.974147
946.469352	2528.390712
946.770937	2530.452543
947.072484	2528.236956
947.373992	2529.298119
947.675462	2526.492717
947.976893	2528.244518
948.278286	2527.642100
948.579641	2527.964734
948.880958	2528.932636
949.182236	2528.799045
949.483476	2529.749302
949.784678	2529.272913
950.085841	2529.955990
950.386967	2530.777698
950.688054	2528.700742
950.989103	2528.206709
951.290114	2528.431041
951.591087	2529.126720
951.892021	2526.840557
952.192917	2526.185207
952.493776	2527.372398
952.794596	2528.960362
953.095378	2526.964065
953.396122	2527.894158
953.696828	2527.551359
953.997496	2531.405322
954.298126	2527.082532
954.598718	2530.001360
954.899272	2525.928108
955.199788	2526.021369
955.500266	2528.811648
955.800706	2524.259486
956.101108	2524.831657
956.401472	2527.944569
956.701798	2525.005577
957.002087	2525.734023
957.302337	2529.169570
957.602550	2527.861390
957.902724	2526.291071
958.202861	2528.720907
958.502960	2526.722090
958.803022	2527.969775
959.103045	2530.966741
959.403031	2529.340969
959.702979	2527.707635
960.002889	2529.038500
960.302762	2528.892306
960.602596	2528.884745
960.902393	2528.325177
961.202153	2530.124868
961.501875	2528.136133
961.801559	2527.848788
962.101205	2529.262831
962.400814	2525.633200
962.700385	2526.459950
962.999918	2527.952131
963.299414	2526.223015
963.598873	2528.405835
963.898293	2528.178983
964.197677	2527.460619
964.497022	2525.242511
964.796331	2528.365506
965.095601	2526.429703
965.394835	2526.091945
965.694030	2528.408356
965.993189	2529.794673
966.292309	2528.158818
966.591393	2527.828623
966.890439	2528.516740
967.189447	2527.022038
967.488419	2526.916174
967.787353	2528.267203
968.086249	2526.699404
968.385108	2529.204858
968.683930	2527.710156
968.982714	2530.379447
969.281462	2528.186545
969.580172	2527.836185
969.878844	2528.436082
970.177480	2526.349044
970.476078	2526.389373
970.774639	2528.257121
971.073162	2527.238808
971.371649	2526.747295
971.670098	2525.146729
971.968510	2525.524816
972.266885	2524.022552
972.565223	2529.829961
972.863524	2527.821061
973.161788	2528.289888
973.460014	2527.022038
973.758204	2527.621936
974.056356	2529.222502
974.354471	2527.102697
974.652550	2524.327542
974.950591	2528.103366
975.248595	2528.277286
975.546563	2527.155629
975.844493	2527.029600
976.142386	2526.399456
976.440243	2529.003212
976.738062	2526.114631
977.035845	2525.648324
977.333590	2525.837367
977.631299	2528.362985
977.928971	2528.683098
978.226606	2525.834847
978.524204	2528.471370
978.821765	2526.608664
979.119290	2526.943900
979.416777	2529.436751
979.714228	2525.766791
980.011642	2524.438447
980.309020	2531.806093
980.606360	2528.173942
980.903664	2528.330218
981.200931	2528.383150
981.498162	2525.804600
981.795356	2526.732172
982.092513	2525.547501
982.389633	2528.118489
982.686717	2526.064219
982.983764	2530.434899
983.280775	2527.137985
983.577749	2525.945752
983.874686	2526.948942
984.171587	2526.918695
984.468451	2529.832482
984.765279	2525.131606
985.062070	2524.551873
985.358824	2527.390043
985.655543	2530.613860
985.952224	2526.931298
986.248869	2528.839374
986.545478	2521.060874
986.842050	2526.948942
987.138586	2523.977181
987.435086	2525.915505
987.731549	2522.457273
988.027975	2527.871473
988.324366	2526.449867
988.620719	2528.786442
988.917037	2527.397604
989.213318	2524.864424
989.509563	2528.035310
989.805772	2526.896009
990.101944	2529.396422
990.398080	2528.761236
990.694180	2525.640762
990.990244	2529.106555
991.286271	2527.188396
991.582262	2529.083870
991.878217	2528.897348
992.174136	2529.547656
992.470019	2526.243180
992.765865	2528.705784
993.061676	2528.380629
993.357450	2528.867101
993.653188	2526.916174
993.948890	2526.454908
994.244556	2527.589168
994.540186	2527.470701
994.835780	2528.017666
995.131337	2526.296112
995.426859	2526.933818
995.722345	2526.684281
996.017795	2527.397604
996.313208	2526.911133
996.608586	2526.802748
996.903928	2532.045548
997.199234	2526.212933
997.494504	2528.131092
997.789738	2524.630011
998.084936	2527.503468
998.380099	2525.237470
998.675225	2529.348531
998.970316	2527.576565
999.265371	2528.093283
999.560390	2528.998171
999.855373	2528.942718
1000.150320	2526.041534
1000.445232	2527.911802
1000.740108	2525.852491
1001.034948	2528.592358
1001.329752	2525.265196
1001.624521	2527.480783
1001.919254	2523.185720
1002.213951	2523.775535
1002.508613	2522.404341
1002.803239	2527.652182
1003.097829	2523.261337
1003.392384	2524.791328
1003.686903	2526.346524
1003.981386	2526.528005
1004.275834	2526.540608
1004.570246	2527.609333
1004.864623	2526.772501
1005.158964	2529.540095
1005.453270	2529.557739
1005.747540	2526.401976
1006.041775	2525.988602
1006.335974	2527.614374
1006.630138	2527.649662
1006.924266	2528.332738
1007.218359	2527.231246
1007.512416	2527.069929
1007.806438	2527.710156
1008.100425	2528.642769
1008.394376	2521.547345
1008.688292	2527.107738
1008.982172	2524.987933
1009.276017	2527.579086
1009.569827	2524.428365
1009.863602	2525.923067
1010.157341	2526.454908
1010.451045	2528.335259
1010.744714	2529.822399
1011.038347	2527.107738
1011.331945	2527.984899
1011.625508	2528.567152
1011.919036	2527.269055
1012.212528	2526.210413
1012.505986	2527.591689
1012.799408	2524.446009
1013.092795	2527.178314
1013.386147	2524.342665
1013.679464	2526.646472
1013.972745	2528.103366
1014.265992	2525.681091
1014.559204	2526.631349
1014.852380	2526.568334
1015.145521	2528.655372
1015.438628	2524.377953
1015.731699	2526.548170
1016.024736	2526.860721
1016.317737	2525.933149
1016.610703	2528.980527
1016.903635	2524.836698
1017.196531	2523.468025
1017.489393	2521.552386
1017.782219	2521.365864
1018.075011	2524.201513
1018.367768	2525.224867
1018.660490	2526.278468
1018.953177	2526.278468
1019.245829	2526.278468
