Dividing Wavelength (nm)	Counts (n)	Blue Motor Position (mm): 0.000000	Red Motor Position (mm): 19.100000	
326.493990	2127.233333
326.888308	2127.233333
327.282561	2127.233333
327.676750	2096.774681
328.070874	2094.740575
328.464933	2097.051944
328.858929	2105.465630
329.252859	2112.732453
329.646726	2122.729062
330.040528	2137.809673
330.434265	2154.213588
330.827938	2171.986176
331.221547	2190.943435
331.615091	2207.417926
332.008571	2228.081615
332.401986	2246.968298
332.795338	2265.330701
333.188625	2285.076901
333.581847	2304.455096
333.975006	2324.206337
334.368100	2341.411795
334.761129	2358.871831
335.154095	2377.735829
335.546996	2392.216543
335.939833	2407.476116
336.332606	2425.299115
336.725315	2436.266146
337.117960	2446.330809
337.510540	2453.499330
337.903056	2465.986268
338.295508	2471.186218
338.687896	2479.914976
339.080220	2489.495689
339.472480	2495.598006
339.864676	2500.084633
340.256807	2505.312309
340.648875	2507.185098
341.040879	2511.086951
341.432818	2509.869512
341.824694	2512.087620
342.216506	2514.701458
342.608253	2515.480317
342.999937	2515.707168
343.391557	2514.061232
343.783113	2509.166271
344.174605	2509.486385
344.566033	2509.307424
344.957397	2510.812208
345.348697	2506.345746
345.739934	2505.758451
346.131106	2502.796773
346.522215	2504.241064
346.913260	2499.462050
347.304241	2501.249139
347.695159	2494.990547
348.086012	2495.585403
348.476802	2493.233705
348.867528	2492.782521
349.258191	2490.055257
349.648789	2489.374701
350.039324	2486.665081
350.429796	2487.973261
350.820203	2485.263640
351.210548	2481.850779
351.600828	2485.384628
351.991045	2485.500575
352.381198	2480.663588
352.771288	2483.252220
353.161314	2481.069400
353.551276	2482.503609
353.941175	2481.654174
354.331010	2479.804071
354.720782	2481.397075
355.110490	2483.002683
355.500135	2480.535038
355.889717	2484.724237
356.279235	2482.470841
356.668689	2483.716006
357.058080	2482.153248
357.447408	2480.852631
357.836672	2479.037815
358.225873	2483.436222
358.615010	2481.248361
359.004084	2485.319093
359.393095	2485.583754
359.782043	2485.384628
360.170927	2485.200626
360.559748	2486.357571
360.948505	2489.898981
361.337199	2486.932262
361.725830	2489.825885
362.114398	2491.842346
362.502903	2491.968375
362.891344	2493.142964
363.279722	2491.335710
363.668037	2494.350320
364.056289	2492.845536
364.444478	2494.781339
364.832603	2494.304950
365.220665	2494.771257
365.608665	2494.231853
365.996601	2498.466422
366.384474	2500.971876
366.772284	2499.068840
367.160031	2500.218223
367.547715	2501.274345
367.935336	2507.182577
368.322893	2507.190139
368.710388	2509.998062
369.097820	2517.882426
369.485189	2520.836543
369.872495	2526.512882
370.259738	2533.910775
370.646918	2538.606610
371.034035	2548.051212
371.421090	2555.779300
371.808081	2569.776064
372.195010	2572.815880
372.581875	2590.094435
372.968678	2601.137082
373.355418	2612.819956
373.742096	2631.880559
374.128710	2644.009575
374.515262	2660.526916
374.901751	2677.316478
375.288177	2688.712007
375.674540	2712.138249
376.060841	2729.658779
376.447079	2748.253075
376.833254	2769.892228
377.219367	2782.386727
377.605417	2819.166986
377.991404	2827.840291
378.377329	2850.696883
378.763191	2869.099615
379.148991	2904.133113
379.534727	2928.791918
379.920402	2960.417596
380.306013	2970.973772
380.691563	3022.325486
381.077049	3042.331305
381.462474	3059.022565
381.847835	3098.784666
382.233134	3120.494395
382.618371	3121.842904
383.003545	3187.589632
383.388657	3194.811085
383.773706	3231.548494
384.158693	3246.044332
384.543618	3271.416459
384.928480	3305.978610
385.313280	3350.282791
385.698017	3351.507791
386.082692	3402.763723
386.467305	3411.207655
386.851856	3440.988272
387.236344	3464.144812
387.620770	3493.438957
388.005133	3521.787886
388.389435	3548.188408
388.773674	3562.764905
389.157851	3601.717900
389.541965	3616.392699
389.926018	3581.109663
390.310008	3653.692197
390.693936	3671.563087
391.077802	3713.311403
391.461606	3702.404866
391.845348	3762.782766
392.229027	3761.774535
392.612645	3774.667286
392.996200	3853.543700
393.379694	3892.897467
393.763125	3957.066314
394.146494	3924.601284
394.529801	3988.213083
394.913047	4034.337121
395.296230	4001.698170
395.679351	4056.707241
396.062410	4078.111980
396.445408	4060.699835
396.828343	4093.212756
397.211217	4116.288638
397.594028	4037.901216
397.976778	4101.712142
398.359466	4131.185248
398.742092	4156.527128
399.124656	4077.123914
399.507158	4162.150535
399.889598	4184.147610
400.271977	4246.148761
400.654294	4215.924523
401.036549	4223.128332
401.418742	4191.820246
401.800874	4292.892860
402.182944	4315.671314
402.564952	4379.192373
402.946898	4367.920353
403.328783	4364.091597
403.710606	4279.518679
404.092367	4464.062718
404.474067	4431.413686
404.855705	4438.640180
405.237282	4365.243500
405.618797	4471.952124
406.000250	4504.545704
406.381642	4586.219958
406.762972	4546.626736
407.144240	4551.781316
407.525447	4548.590266
407.906593	4601.275364
408.287677	4640.225840
408.668700	4569.342175
409.049661	4611.879432
409.430560	4641.806241
409.811399	4562.697935
410.192176	4707.787383
410.572891	4644.054596
410.953545	4724.390424
411.334138	4605.930870
411.714669	4655.939116
412.095139	4548.073547
412.475547	4659.541021
412.855894	4627.630517
413.236180	4619.363024
413.616405	4557.054363
413.996568	4621.954177
414.376670	4550.561357
414.756711	4489.008868
415.136691	4499.708717
415.516609	4547.624885
415.896466	4556.605700
416.276262	4558.838931
416.655997	4517.607334
417.035670	4638.741220
417.415283	4687.136297
417.794834	4607.924646
418.174324	4542.210685
418.553753	4438.393163
418.933121	4545.926016
419.312428	4564.817740
419.691674	4484.101305
420.070859	4533.940672
420.449983	4433.505764
420.829045	4471.374912
421.208047	4368.031258
421.586988	4370.743399
421.965867	4335.306608
422.344686	4368.331207
422.723444	4239.731372
423.102141	4086.979370
423.480777	4215.894276
423.859352	4033.989281
424.237866	4130.217346
424.616319	4078.850509
424.994712	4094.830967
425.373044	3978.786126
425.751314	3992.886233
426.129524	3853.715099
426.507673	3890.926376
426.885762	3889.272877
427.263789	3798.774084
427.641756	3710.221175
428.019662	3707.067933
428.397508	3664.729803
428.775292	3591.665840
429.153016	3579.524221
429.530679	3510.321781
429.908282	3492.077845
430.285824	3414.567584
430.663305	3442.989610
431.040726	3328.298319
431.418086	3286.061011
431.795385	3274.998199
432.172624	3239.851274
432.549802	3201.601520
432.926920	3166.676406
433.303977	3132.073926
433.680974	3102.638628
434.057910	3070.166036
434.434786	3037.786705
434.811601	3003.446365
435.188355	3007.242354
435.565050	2959.366516
435.941683	2931.446085
436.318257	2923.216401
436.694770	2892.281361
437.071222	2871.327805
437.447614	2836.508555
437.823946	2807.436221
438.200218	2801.777526
438.576429	2771.439862
438.952580	2755.875299
439.328670	2743.292579
439.704700	2720.093189
440.080670	2706.071220
440.456580	2701.771116
440.832429	2683.345698
441.208218	2665.910868
441.583947	2658.722182
441.959616	2647.513177
442.335224	2637.675365
442.710773	2630.169087
443.086261	2620.177520
443.461689	2610.944647
443.837057	2605.429625
444.212365	2602.069696
444.587612	2594.444950
444.962800	2590.167531
445.337927	2584.607139
445.712995	2576.362332
446.088002	2578.658577
446.462949	2572.785633
446.837837	2569.755899
447.212664	2568.351938
447.587431	2565.274314
447.962139	2571.379151
448.336786	2578.356108
448.711374	2572.684810
449.085901	2564.553429
449.460369	2559.724003
449.834776	2557.747871
450.209124	2557.548745
450.583412	2560.830537
450.957640	2564.223233
451.331808	2559.108983
451.705917	2555.252500
452.079965	2555.882644
452.453954	2553.167983
452.827883	2552.739485
453.201752	2552.091696
453.575562	2551.050698
453.949311	2551.852242
454.323001	2551.373332
454.696632	2549.215718
455.070202	2553.205791
455.443713	2548.406613
455.817164	2546.725388
456.190556	2547.511808
456.563888	2549.011551
456.937160	2548.646068
457.310373	2552.200081
457.683526	2550.712941
458.056619	2551.655637
458.429653	2550.191181
458.802628	2552.792417
459.175542	2549.732436
459.548398	2552.192519
459.921194	2550.362581
460.293930	2553.538508
460.666607	2554.461039
461.039224	2555.106306
461.411782	2557.442881
461.784280	2556.651420
462.156719	2555.330638
462.529099	2557.042109
462.901419	2556.565720
463.273680	2552.621017
463.645882	2555.247459
464.018024	2556.893395
464.390106	2555.161759
464.762130	2557.765515
465.134094	2559.015721
465.505999	2564.485373
465.877845	2567.305899
466.249631	2571.684141
466.621358	2571.646332
466.993026	2571.227916
467.364634	2570.713719
467.736184	2565.291958
468.107674	2563.739282
468.479105	2563.678788
468.850477	2561.369940
469.221790	2562.846998
469.593043	2558.378015
469.964238	2559.406411
470.335373	2562.789025
470.706449	2563.212482
471.077467	2561.259035
471.448425	2567.976372
471.819324	2572.949470
472.190164	2574.371076
472.560945	2567.842782
472.931667	2565.662482
473.302330	2560.734755
473.672934	2561.402708
474.043479	2563.343552
474.413965	2563.643500
474.784393	2559.426575
475.154761	2561.223747
475.525070	2560.157542
475.895321	2562.809189
476.265513	2561.105279
476.635645	2566.403532
477.005719	2565.150805
477.375734	2569.345045
477.745691	2568.631722
478.115588	2568.339335
478.485427	2570.628019
478.855207	2572.021898
479.224928	2577.231931
479.594591	2580.244020
479.964194	2578.759400
480.333739	2577.693196
480.703226	2578.003227
481.072653	2581.521952
481.442022	2581.171592
481.811333	2581.002714
482.180584	2580.591860
482.549777	2578.807291
482.918912	2579.795357
483.287988	2578.164544
483.657005	2579.475244
484.025964	2577.965418
484.394864	2575.275963
484.763706	2578.328382
485.132489	2576.843762
485.501213	2577.186560
485.869879	2577.683114
486.238487	2576.495922
486.607036	2573.420818
486.975527	2574.902917
487.343959	2571.825293
487.712333	2575.064234
488.080648	2575.528021
488.448905	2572.246229
488.817104	2576.228741
489.185244	2575.570870
489.553326	2575.167578
489.921350	2578.968608
490.289315	2582.676377
490.657222	2582.971284
491.025070	2583.709813
491.392861	2582.535224
491.760593	2580.760738
492.128267	2578.519945
492.495883	2579.336612
492.863440	2576.682445
493.230939	2573.718246
493.598380	2571.613565
493.965763	2568.891342
494.333088	2569.879408
494.700354	2570.086095
495.067563	2571.177505
495.434713	2567.149623
495.801805	2570.101218
496.168839	2571.487536
496.535815	2571.142217
496.902733	2571.905952
497.269593	2574.489543
497.636395	2572.321847
498.003139	2569.221537
498.369825	2572.205900
498.736453	2573.297310
499.103023	2571.565674
499.469535	2572.677248
499.835989	2568.888821
500.202385	2570.859912
500.568723	2570.254974
500.935003	2571.442165
501.301226	2567.870508
501.667390	2573.065417
502.033497	2572.336970
502.399546	2572.508369
502.765537	2570.701116
503.131470	2568.636763
503.497345	2572.977197
503.863163	2572.959553
504.228923	2569.201373
504.594625	2570.938050
504.960269	2572.495767
505.325856	2573.718246
505.691385	2568.220868
506.056856	2573.884604
506.422270	2572.883935
506.787625	2573.597259
507.152924	2570.963256
507.518164	2572.160530
507.883347	2571.545509
508.248472	2573.962742
508.613540	2574.509707
508.978550	2571.147258
509.343503	2571.810170
509.708398	2572.573904
510.073236	2573.451065
510.438016	2575.263360
510.802738	2575.490212
511.167403	2576.987435
511.532010	2572.092474
511.896561	2575.616241
512.261053	2578.000707
512.625488	2571.364027
512.989866	2572.505849
513.354186	2573.287228
513.718449	2568.785477
514.082655	2575.901066
514.446803	2575.936354
514.810894	2572.710016
515.174927	2577.816704
515.538904	2574.650860
515.902822	2575.167578
516.266684	2573.443503
516.630488	2572.213462
516.994235	2575.132290
517.357925	2577.970460
517.721558	2577.899883
518.085133	2572.878894
518.448651	2576.720253
518.812112	2574.958370
519.175516	2576.531210
519.538863	2575.621282
519.902152	2577.219328
520.265385	2579.578588
520.628560	2578.194791
520.991678	2578.368711
521.354739	2576.145562
521.717743	2577.998186
522.080690	2577.196642
522.443580	2576.475758
522.806413	2578.986252
523.169189	2578.318299
523.531908	2575.782599
523.894569	2573.985427
524.257174	2577.448700
524.619722	2576.369893
524.982213	2578.600604
525.344647	2574.658422
525.707025	2578.565316
526.069345	2576.498443
526.431608	2577.194122
526.793815	2574.474419
527.155964	2578.346026
527.518057	2578.303176
527.880093	2576.954667
528.242072	2576.385017
528.603995	2576.521128
528.965860	2576.160685
529.327669	2578.681262
529.689421	2576.085068
530.051117	2577.115984
530.412755	2576.102712
530.774337	2575.364183
531.135862	2576.909297
531.497331	2575.336457
531.858743	2571.729511
532.220098	2576.435428
532.581396	2569.498801
532.942638	2571.323698
533.303824	2576.601786
533.664953	2576.112794
534.026025	2576.785788
534.387040	2576.528690
534.747999	2578.744277
535.108902	2577.186560
535.469748	2575.953998
535.830537	2575.797722
536.191270	2576.226220
536.551947	2576.692527
536.912567	2575.643967
537.273131	2574.247567
537.633638	2572.306723
537.994089	2576.621951
538.354483	2574.691189
538.714821	2576.639595
539.075103	2577.395768
539.435328	2576.841241
539.795497	2574.557598
540.155609	2577.178998
540.515665	2576.296797
540.875665	2577.292424
541.235609	2575.681776
541.595496	2576.392578
541.955328	2573.990469
542.315102	2576.465675
542.674821	2576.684965
543.034483	2578.169585
543.394090	2575.646488
543.753640	2576.309399
544.113134	2575.386868
544.472571	2575.170099
544.831953	2578.598083
545.191278	2578.351067
545.550548	2575.671693
545.909761	2575.041549
546.268918	2575.026426
546.628019	2576.637074
546.987064	2571.379151
547.346053	2575.729667
547.704986	2573.403174
548.063863	2574.613051
548.422684	2574.950808
548.781449	2574.398802
549.140158	2576.780747
549.498811	2576.372414
549.857408	2573.619944
550.215949	2571.298492
550.574434	2569.949984
550.932864	2572.581466
551.291237	2571.142217
551.649555	2577.302507
552.007817	2574.809656
552.366022	2576.102712
552.724173	2574.769327
553.082267	2577.390727
553.440305	2574.943247
553.798288	2573.476271
554.156215	2577.509194
554.514086	2577.700758
554.871902	2576.727815
555.229661	2575.119687
555.587365	2574.751683
555.945014	2574.882753
556.302606	2574.514749
556.660143	2574.600448
557.017625	2577.234451
557.375050	2574.723957
557.732421	2573.173802
558.089735	2575.291086
558.446994	2575.011302
558.804197	2575.757393
559.161345	2575.152455
559.518437	2576.768144
559.875474	2570.701116
560.232455	2576.538772
560.589381	2576.042218
560.946251	2577.315110
561.303065	2576.377455
561.659825	2574.595407
562.016528	2575.477609
562.373177	2575.369224
562.729770	2574.426528
563.086307	2573.982907
563.442789	2577.219328
563.799216	2574.522310
564.155587	2575.086920
564.511904	2573.115828
564.868164	2575.870819
565.224370	2575.361662
565.580520	2574.532393
565.936615	2576.269070
566.292654	2571.669017
566.648638	2575.059193
567.004567	2575.689338
567.360441	2573.178843
567.716260	2572.258832
568.072023	2572.193297
568.427732	2568.372103
568.783385	2570.484346
569.138982	2570.136507
569.494525	2571.986610
569.850013	2569.145920
570.205445	2573.710685
570.560823	2570.350756
570.916145	2573.183884
571.271412	2571.623647
571.626625	2574.366035
571.981782	2573.317475
572.336884	2571.638770
572.691931	2572.679769
573.046923	2572.301682
573.401860	2572.011816
573.756743	2570.469223
574.111570	2569.201372
574.466342	2572.886456
574.821059	2571.537947
575.175722	2572.518452
575.530330	2569.292113
575.884882	2570.950653
576.239380	2569.246743
576.593823	2573.030129
576.948211	2568.563667
577.302544	2571.507700
577.656823	2570.123904
578.011047	2571.870663
578.365216	2570.622978
578.719330	2571.754717
579.073389	2571.285890
579.427394	2568.677093
579.781344	2569.276990
580.135239	2569.521486
580.489080	2570.345714
580.842866	2571.313616
581.196597	2571.043914
581.550273	2569.680282
581.903895	2570.302865
582.257463	2572.629357
582.610975	2568.351938
582.964434	2571.875705
583.317837	2567.983934
583.671186	2569.841599
584.024481	2568.336815
584.377721	2569.579459
584.730906	2566.090981
585.084037	2569.755899
585.437113	2567.381516
585.790135	2567.368913
586.143103	2566.741289
586.496016	2568.944274
586.848874	2564.243398
587.201679	2564.681978
587.554428	2563.656103
587.907124	2566.516958
588.259765	2562.358006
588.612352	2566.718604
588.964884	2565.574262
589.317362	2564.066957
589.669786	2563.736762
590.022155	2569.055179
590.374470	2565.470919
590.726731	2570.721280
591.078937	2565.823799
591.431090	2567.220199
591.783188	2565.241546
592.135232	2567.270611
592.487222	2569.289593
592.839157	2567.416804
593.191038	2568.225909
593.542866	2565.501166
593.894639	2565.801114
594.246358	2566.552246
594.598022	2567.111814
594.949633	2564.064437
595.301190	2565.493604
595.652692	2564.918912
596.004141	2568.326732
596.355535	2565.344890
596.706876	2565.720456
597.058162	2564.082081
597.409395	2565.546536
597.760573	2562.244580
598.111698	2561.937070
598.462768	2564.301371
598.813785	2564.258521
599.164748	2564.409756
599.515657	2564.414797
599.866511	2563.703994
600.217312	2565.274314
600.568060	2563.661144
600.918753	2567.205076
601.269392	2564.639128
601.619978	2561.730382
601.970510	2564.424879
602.320988	2564.578634
602.671412	2564.523182
603.021783	2562.766340
603.372100	2562.781463
603.722363	2559.855073
604.072572	2564.361865
604.422728	2563.416648
604.772830	2560.215516
605.122878	2558.073025
605.472872	2557.163097
605.822813	2558.655279
606.172701	2560.341545
606.522534	2560.359189
606.872314	2563.575445
607.222041	2561.710218
607.571714	2563.850188
607.921333	2561.437996
608.270899	2562.289951
608.620411	2562.118551
608.969870	2564.712225
609.319276	2564.344221
609.668627	2567.426886
610.017926	2570.529717
610.367171	2571.109449
610.716362	2570.847309
611.065500	2567.603327
611.414585	2567.736917
611.763616	2567.295816
612.112594	2563.043603
612.461518	2565.198696
612.810389	2565.163408
613.159207	2563.469581
613.507971	2563.172152
613.856682	2564.122410
614.205340	2566.461505
614.553945	2565.760785
614.902496	2565.944787
615.250994	2563.978737
615.599439	2563.406566
615.947830	2564.147616
616.296169	2563.061247
616.644454	2563.998902
616.992686	2565.622153
617.340864	2567.318502
617.688990	2564.157698
618.037063	2563.875393
618.385082	2563.867832
618.733048	2560.747357
619.080961	2564.208110
619.428821	2567.643656
619.776628	2563.419169
620.124382	2564.538305
620.472083	2562.242060
620.819731	2562.688202
621.167326	2561.833726
621.514868	2562.809189
621.862357	2557.904147
622.209793	2559.915567
622.557176	2561.075032
622.904506	2561.145609
623.251783	2558.214178
623.599007	2560.258366
623.946179	2557.246276
624.293297	2559.502192
624.640363	2559.209806
624.987376	2562.224416
625.334336	2559.996226
625.681243	2559.814744
626.028097	2557.515978
626.374899	2560.606205
626.721647	2561.253993
627.068343	2561.450598
627.414987	2559.993705
627.761577	2559.396328
628.108115	2560.470094
628.454600	2557.286605
628.801032	2558.463715
629.147412	2559.310629
629.493739	2559.832388
629.840014	2558.816596
630.186236	2559.429096
630.532405	2557.291647
630.878521	2558.640155
631.224585	2560.402038
631.570597	2558.579661
631.916556	2558.841801
632.262462	2558.466235
632.608316	2558.297357
632.954117	2558.138560
633.299866	2558.773746
633.645562	2558.511606
633.991206	2557.241235
634.336797	2558.282233
634.682336	2557.873900
635.027823	2556.704352
635.373257	2556.265772
635.718639	2555.640669
636.063968	2557.397511
636.409245	2555.754095
636.754470	2553.742674
637.099642	2555.537325
637.444762	2557.538663
637.789829	2553.583878
638.134845	2554.322407
638.479808	2555.612942
638.824719	2554.035061
639.169577	2553.447767
639.514383	2556.106975
639.859137	2553.127653
640.203839	2552.457180
640.548489	2551.501881
640.893086	2550.118085
641.237632	2550.236552
641.582125	2551.121274
641.926566	2549.450132
642.270955	2551.930379
642.615292	2553.573796
642.959576	2554.256872
643.303809	2552.618497
643.647990	2555.554969
643.992118	2553.321738
644.336195	2555.504558
644.680219	2554.594629
645.024192	2552.986501
645.368112	2555.882644
645.711981	2555.668395
646.055797	2555.602860
646.399562	2554.219063
646.743274	2555.953220
647.086935	2555.154197
647.430544	2555.053374
647.774101	2554.173693
648.117606	2554.713096
648.461059	2555.265103
648.804460	2554.304763
649.147810	2553.740154
649.491108	2554.289639
649.834354	2552.038764
650.177548	2555.570092
650.520690	2552.918446
650.863781	2553.961964
651.206820	2558.708211
651.549807	2552.953734
651.892742	2554.919784
652.235626	2553.735112
652.578458	2550.362581
652.921238	2552.885678
653.263967	2551.443908
653.606644	2550.102961
653.949269	2552.421892
654.291843	2555.383570
654.634365	2552.411810
654.976836	2552.363919
655.319255	2552.552962
655.661622	2552.661347
656.003938	2552.084135
656.346203	2550.964998
656.688416	2549.427447
657.030577	2551.794268
657.372687	2553.886347
657.714746	2550.939793
658.056753	2552.038764
658.398708	2546.117929
658.740612	2548.230172
659.082465	2549.205636
659.424266	2549.392158
659.766016	2547.494164
660.107715	2554.700493
660.449362	2550.554144
660.790958	2549.258568
661.132503	2549.550955
661.473996	2550.596994
661.815438	2551.632951
662.156829	2551.816953
662.498168	2550.816284
662.839456	2551.491799
663.180693	2550.690256
663.521879	2554.350133
663.863013	2553.127653
664.204097	2553.145297
664.545129	2552.187478
664.886110	2553.921635
665.227040	2551.544731
665.567918	2553.452808
665.908746	2550.380225
666.249522	2552.459701
666.590248	2550.279402
666.930922	2552.111861
667.271545	2554.539177
667.612118	2550.072714
667.952639	2552.242931
668.293109	2553.374670
668.633528	2551.562375
668.973896	2550.201264
669.314213	2550.405430
669.654480	2553.543549
669.994695	2551.910215
670.334859	2551.716130
670.674973	2551.995914
671.015035	2549.840821
671.355047	2549.833259
671.695008	2550.990204
672.034918	2550.697817
672.374777	2550.846531
672.714585	2552.817623
673.054342	2550.077755
673.394049	2554.244269
673.733705	2551.506922
674.073310	2551.960626
674.412864	2552.953734
674.752368	2551.264947
675.091820	2551.327962
675.431223	2549.911397
675.770574	2549.654298
676.109875	2545.704554
676.449125	2547.436191
676.788324	2549.175389
677.127473	2546.886705
677.466571	2545.949050
677.805619	2549.195553
678.144616	2550.052550
678.483562	2550.750749
678.822458	2550.014741
679.161303	2550.619679
679.500098	2548.893084
679.838842	2549.624052
680.177535	2548.048691
680.516179	2549.054401
680.854771	2549.508105
681.193314	2550.097920
681.531805	2548.431819
681.870247	2552.951213
682.208638	2554.534135
682.546978	2551.804351
682.885268	2549.107333
683.223508	2552.000956
683.561697	2550.654967
683.899836	2549.533311
684.237925	2552.220246
684.575963	2553.881306
684.913951	2550.682694
685.251889	2553.490617
685.589776	2551.852242
685.927614	2552.948692
686.265401	2547.988197
686.603137	2551.224618
686.940824	2550.453321
687.278460	2552.525236
687.616046	2552.200081
687.953582	2551.237221
688.291068	2550.985163
688.628504	2552.056408
688.965889	2552.016079
689.303224	2551.912735
689.640510	2550.506253
689.977745	2552.784855
690.314930	2549.671942
690.652065	2551.693445
690.989150	2550.501212
691.326185	2550.549103
691.663170	2548.819987
692.000105	2549.674463
692.336990	2548.590615
692.673825	2548.832590
693.010610	2549.414844
693.347345	2545.316386
693.684030	2548.194884
694.020665	2543.385624
694.357251	2544.623227
694.693786	2545.671787
695.030272	2546.138094
695.366707	2548.129349
695.703093	2545.286139
696.039429	2546.455686
696.375716	2545.291180
696.711952	2543.544420
697.048139	2548.940975
697.384276	2549.399720
697.720363	2544.035932
698.056400	2545.185316
698.392388	2543.665408
698.728326	2546.851417
699.064214	2545.349153
699.400053	2546.932075
699.735842	2545.134904
700.071581	2547.852086
700.407270	2545.235727
700.742910	2547.473999
701.078501	2544.605583
701.414042	2544.386293
701.749533	2545.240768
702.084974	2543.062990
702.420366	2548.036088
702.755709	2544.650953
703.091002	2542.871426
703.426246	2547.400903
703.761440	2546.433001
704.096584	2544.156920
704.431679	2544.966025
704.766725	2543.680531
705.101721	2545.886036
705.436668	2546.745553
705.771565	2543.032743
706.106413	2546.042312
706.441212	2542.911755
706.775961	2543.841848
707.110661	2545.528114
707.445311	2547.741181
707.779913	2545.971736
708.114465	2546.987528
708.448967	2543.937630
708.783421	2543.158772
709.117825	2545.712116
709.452180	2544.093906
709.786485	2545.137425
710.120742	2543.983000
710.454949	2546.317055
710.789107	2544.446787
711.123216	2544.716488
711.457275	2546.463248
711.791286	2543.176416
712.125247	2541.336395
712.459159	2547.078269
712.793023	2548.303269
713.126837	2548.598177
713.460602	2547.254709
713.794318	2547.020296
714.127985	2547.075748
714.461602	2548.126829
714.795171	2545.661705
715.128691	2545.497867
715.462162	2546.107847
715.795584	2545.205480
716.128957	2544.466951
716.462281	2544.839997
716.795556	2543.872095
717.128782	2545.034081
717.461960	2547.617672
717.795088	2542.047197
718.128167	2545.938968
718.461198	2543.042825
718.794180	2545.545758
719.127113	2542.032074
719.459997	2545.754966
719.792833	2544.361087
720.125619	2543.947712
720.458357	2540.829759
720.791046	2544.592980
721.123686	2540.900335
721.456278	2542.616848
721.788821	2542.974770
722.121315	2543.178936
722.453761	2541.618699
722.786158	2541.439738
723.118506	2542.795809
723.450805	2544.444266
723.783056	2542.246323
724.115259	2541.843031
724.447412	2542.049718
724.779518	2542.697506
725.111574	2542.435366
725.443582	2541.651467
725.775542	2542.326981
726.107453	2545.071890
726.439315	2544.744215
726.771129	2544.068700
727.102895	2544.340922
727.434612	2546.790923
727.766281	2543.131045
728.097901	2541.336395
728.429473	2537.976466
728.760996	2541.011240
729.092471	2539.002340
729.423897	2543.292362
729.755276	2541.785057
730.086606	2543.360418
730.417887	2545.414688
730.749120	2544.131714
731.080305	2544.003165
731.411442	2543.730943
731.742530	2541.694317
732.073570	2546.758156
732.404562	2547.065666
732.735506	2546.402754
733.066401	2545.129863
733.397249	2547.441232
733.728048	2545.119781
734.058798	2543.698175
734.389501	2542.894111
734.720156	2542.601724
735.050762	2545.354194
735.381320	2542.556354
735.711831	2539.559388
736.042293	2542.074924
736.372707	2543.483926
736.703073	2542.841179
737.033391	2542.200952
737.363661	2542.140459
737.693883	2541.074255
738.024056	2543.259595
738.354182	2542.871426
738.684260	2544.043494
739.014290	2539.750952
739.344272	2541.596014
739.674207	2541.999306
740.004093	2544.653474
740.333931	2545.218083
740.663722	2538.924202
740.993464	2545.039122
741.323159	2544.502239
741.652806	2542.122815
741.982405	2544.509801
742.311956	2544.363608
742.641460	2543.952753
742.970915	2542.861344
743.300323	2543.360418
743.629683	2540.726415
743.958996	2541.709440
744.288260	2542.274049
744.617477	2541.177598
744.946647	2538.359593
745.275768	2541.175078
745.604842	2537.903369
745.933869	2539.415715
746.262847	2531.843902
746.591778	2540.439069
746.920662	2539.801363
747.249498	2543.194060
747.578286	2542.029553
747.907027	2540.817156
748.235720	2541.207845
748.564365	2541.164995
748.892963	2538.485622
749.221514	2539.269522
749.550017	2542.629451
749.878473	2540.882691
750.206881	2539.723225
750.535242	2540.670962
750.863555	2540.499563
751.191821	2539.151054
751.520039	2541.278421
751.848210	2542.145500
752.176334	2539.826569
752.504411	2540.212217
752.832440	2539.428318
753.160421	2539.715664
753.488356	2540.489481
753.816243	2539.587114
754.144082	2538.994779
754.471875	2541.742207
754.799620	2540.955788
755.127318	2536.443955
755.454969	2539.546785
755.782572	2541.046528
756.110129	2543.047866
756.437638	2538.848585
756.765100	2540.965870
757.092515	2540.597866
757.419882	2540.701209
757.747203	2540.562577
758.074477	2540.660880
758.401703	2541.162475
758.728882	2540.804553
759.056014	2539.498894
759.383099	2540.645757
759.710138	2543.194060
760.037129	2543.045346
760.364073	2542.702547
760.690970	2540.791950
761.017820	2540.118956
761.344623	2540.812115
761.671379	2540.340767
761.998088	2536.161650
762.324751	2538.906558
762.651366	2539.700540
762.977935	2545.550799
763.304456	2545.334030
763.630931	2548.603218
763.957359	2548.847714
764.283740	2547.577343
764.610074	2546.042312
764.936362	2544.658515
765.262602	2543.768751
765.588796	2541.071734
765.914943	2541.417053
766.241044	2541.812784
766.567097	2538.470499
766.893104	2538.669624
767.219064	2538.677186
767.544978	2538.820859
767.870845	2537.129552
768.196665	2537.805066
768.522438	2536.880015
768.848165	2537.043852
769.173846	2537.495035
769.499479	2538.094933
769.825066	2539.077958
770.150607	2537.426980
770.476101	2536.990920
770.801548	2538.805735
771.126949	2540.166847
771.452303	2537.454706
771.777611	2535.413039
772.102872	2539.894625
772.428087	2535.990251
772.753256	2537.384130
773.078378	2535.503780
773.403453	2538.609130
773.728482	2536.567463
774.053465	2536.461599
774.378401	2535.387833
774.703291	2538.616692
775.028135	2538.672145
775.352932	2535.836496
775.677683	2535.992772
776.002388	2538.226003
776.327046	2533.923378
776.651658	2536.058307
776.976224	2537.069058
777.300743	2534.987061
777.625216	2536.416228
777.949643	2534.389685
778.274024	2538.162988
778.598359	2534.127545
778.922647	2534.505631
779.246889	2534.525796
779.571086	2530.399611
779.895236	2535.579397
780.219339	2538.951929
780.543397	2538.132741
780.867409	2536.638039
781.191374	2537.510159
781.515294	2535.544109
781.839167	2537.774819
782.162995	2538.969573
782.486776	2538.170550
782.810511	2538.036959
783.134201	2538.848585
783.457844	2535.662576
783.781441	2539.400592
784.104993	2538.828421
784.428498	2538.256250
784.751958	2539.365303
785.075372	2536.922864
785.398739	2537.409336
785.722061	2533.628470
786.045337	2535.307175
786.368568	2535.808769
786.691752	2535.753317
787.014891	2535.599562
787.337983	2537.116949
787.661030	2537.973945
787.984031	2535.942360
788.306987	2536.900179
788.629897	2535.919675
788.952760	2539.640046
789.275579	2536.559901
789.598351	2538.382278
789.921078	2536.849768
790.243759	2538.926723
790.566395	2536.897659
790.888984	2535.960004
791.211529	2535.448327
791.534027	2534.311547
791.856480	2537.701723
792.178888	2535.781043
792.501249	2536.431352
792.823566	2537.338760
793.145836	2536.443955
793.468062	2535.904551
793.790241	2536.721218
794.112375	2537.847916
794.434464	2535.712987
794.756507	2537.331198
795.078505	2535.700385
795.400457	2531.173428
795.722364	2532.884900
796.044226	2534.689633
796.366042	2533.348686
796.687812	2534.558563
797.009538	2538.258770
797.331218	2538.399922
797.652852	2535.566794
797.974442	2538.762886
798.295986	2537.101825
798.617484	2537.595858
798.938938	2534.881197
799.260346	2536.093595
799.581709	2537.074099
799.903026	2538.452855
800.224299	2537.064017
800.545526	2536.171732
800.866708	2533.676361
801.187845	2537.633667
801.508936	2532.690816
801.829983	2538.508307
802.150984	2533.522606
802.471940	2535.571835
802.792851	2536.426311
803.113717	2538.389840
803.434538	2536.317926
803.755314	2533.814993
804.076045	2534.782895
804.396731	2537.313554
804.717372	2537.253060
805.037967	2535.987730
805.358518	2537.351362
805.679024	2535.531506
805.999485	2536.416228
806.319901	2533.971269
806.640272	2537.200128
806.960598	2534.745086
807.280879	2535.566794
807.601115	2533.038655
807.921306	2535.798687
808.241453	2535.251722
808.561554	2535.602082
808.881611	2534.281300
809.201623	2534.750127
809.521590	2537.104346
809.841513	2536.270035
810.161390	2534.493028
810.481223	2534.717360
810.801011	2537.031249
811.120755	2534.674510
811.440453	2538.112577
811.760107	2534.409849
812.079716	2532.902544
812.399281	2532.285003
812.718801	2533.878008
813.038276	2530.104704
813.357707	2534.548481
813.677093	2533.129396
813.996434	2535.521424
814.315731	2535.823893
814.634983	2535.607123
814.954191	2534.722401
815.273354	2534.387164
815.592473	2533.172246
815.911547	2536.602751
816.230577	2534.603934
816.549562	2537.222813
816.868502	2537.084181
817.187399	2536.799356
817.506250	2536.166691
817.825058	2538.190715
818.143821	2537.086702
818.462539	2537.018646
818.781213	2538.089892
819.099843	2539.277083
819.418429	2538.241126
819.736970	2539.524100
820.055466	2540.318082
820.373919	2542.415202
820.692327	2544.353525
821.010691	2546.289328
821.329011	2552.310987
821.647286	2567.089129
821.965517	2583.044381
822.283704	2594.288675
822.601847	2596.728593
822.919945	2589.560072
823.237999	2578.514904
823.556010	2570.254974
823.873976	2561.034703
824.191897	2558.267110
824.509775	2551.491799
824.827609	2554.128323
825.145398	2547.839483
825.463144	2546.775800
825.780845	2547.431150
826.098502	2551.028013
826.416116	2550.050029
826.733685	2558.695608
827.051210	2558.176369
827.368692	2556.858107
827.686129	2550.929710
828.003522	2549.722354
828.320872	2541.104502
828.638177	2540.736497
828.955439	2536.970755
829.272656	2539.299768
829.589830	2535.168543
829.906960	2540.406302
830.224046	2537.076620
830.541088	2535.934798
830.858086	2535.980169
831.175041	2537.689120
831.491952	2535.246681
831.808819	2535.221475
832.125642	2536.322967
832.442421	2540.179450
832.759157	2542.584080
833.075849	2544.030891
833.392497	2547.216901
833.709101	2544.903011
834.025662	2549.135060
834.342179	2545.018957
834.658653	2542.332023
834.975083	2540.383617
835.291469	2544.527445
835.607811	2537.187525
835.924110	2535.839016
836.240366	2536.809438
836.556578	2537.583256
836.872746	2535.027391
837.188871	2536.138965
837.504952	2534.359438
837.820990	2535.947401
838.136984	2531.060003
838.452935	2533.005888
838.768842	2537.583256
839.084706	2536.149047
839.400526	2537.149716
839.716303	2537.870601
840.032037	2540.645757
840.347727	2540.585263
840.663373	2538.644418
840.978977	2535.183666
841.294537	2534.646783
841.610054	2535.352545
841.925527	2533.356248
842.240957	2533.767102
842.556344	2534.800539
842.871687	2534.140148
843.186987	2534.913965
843.502244	2532.305167
843.817458	2532.897503
844.132629	2532.085877
844.447756	2531.806093
844.762840	2528.559590
845.077881	2531.811134
845.392879	2529.088911
845.707833	2530.646628
846.022745	2528.937677
846.337613	2532.206865
846.652438	2531.561597
846.967221	2531.788449
847.281960	2531.609488
847.596656	2534.684592
847.911309	2533.535209
848.225919	2528.481452
848.540485	2530.936494
848.855009	2533.116793
849.169490	2533.696526
849.483928	2529.275434
849.798323	2529.124199
850.112675	2528.499096
850.426984	2532.922709
850.741251	2531.735517
851.055474	2533.285672
851.369654	2531.193593
851.683792	2531.740558
851.997887	2532.849612
852.311938	2534.072092
852.625947	2532.393388
852.939914	2531.128058
853.253837	2532.779036
853.567718	2531.836340
853.881555	2530.878521
854.195350	2533.706608
854.509103	2532.784077
854.822812	2531.705270
855.136479	2535.274407
855.450103	2531.468336
855.763685	2530.230733
856.077224	2534.820703
856.390720	2531.216278
856.704173	2531.445651
857.017584	2533.527647
857.330953	2530.203006
857.644278	2530.850795
857.957561	2534.548481
858.270802	2532.670651
858.584000	2533.920857
858.897155	2532.133768
859.210268	2531.274252
859.523339	2531.296937
859.836367	2532.224509
860.149352	2534.891279
860.462295	2532.083357
860.775195	2529.381298
861.088054	2529.701412
861.400869	2529.056144
861.713642	2529.056144
862.026373	2532.257277
862.339062	2529.837523
862.651708	2532.879859
862.964312	2533.588141
863.276873	2532.993285
863.589392	2531.445651
863.901869	2531.251566
864.214303	2533.285672
864.526696	2531.995137
864.839045	2533.449509
865.151353	2533.615868
865.463619	2532.171577
865.775842	2530.225692
866.088023	2530.437420
866.400162	2530.576052
866.712258	2530.039169
867.024313	2533.333563
867.336325	2532.574869
867.648296	2534.162833
867.960224	2530.984385
868.272110	2530.661751
868.583954	2532.053110
868.895755	2534.263656
869.207515	2531.087729
869.519233	2534.709798
869.830909	2529.681247
870.142542	2533.280631
870.454134	2533.570497
870.765684	2532.582431
871.077191	2532.595034
871.388657	2533.205013
871.700081	2532.635363
872.011463	2533.056299
872.322803	2531.511186
872.634101	2532.164015
872.945357	2531.498583
873.256571	2532.668131
873.567744	2533.956145
873.878874	2534.629139
874.189963	2532.542102
874.501010	2535.443286
874.812015	2531.677544
875.122979	2533.172246
875.433900	2533.409180
875.744780	2533.005888
876.055618	2533.278110
876.366415	2533.880528
876.677169	2533.769623
876.987882	2533.446989
877.298554	2526.752337
877.609183	2533.565456
877.919771	2529.187214
878.230317	2527.253931
878.540822	2536.398584
878.851285	2536.610313
879.161707	2535.090405
879.472087	2537.447144
879.782425	2536.975797
880.092722	2541.848072
880.402977	2547.685728
880.713191	2553.606563
881.023363	2559.943293
881.333494	2567.807493
881.643583	2569.740776
881.953631	2570.418811
882.263637	2568.051989
882.573602	2563.429251
882.883526	2556.404403
883.193408	2554.193858
883.503248	2552.197561
883.813048	2546.909390
884.122806	2545.016437
884.432522	2544.237579
884.742197	2541.845551
885.051831	2540.723894
885.361424	2535.433203
885.670975	2537.542926
885.980485	2537.003523
886.289954	2535.034952
886.599382	2534.855991
886.908768	2535.072761
887.218113	2534.803059
887.527417	2533.830117
887.836680	2534.407329
888.145901	2533.812473
888.455082	2534.684592
888.764221	2532.922709
889.073319	2532.078316
889.382376	2534.263656
889.691392	2531.692667
890.000366	2533.699047
890.309300	2535.644932
890.618193	2534.508152
890.927044	2531.932122
891.235855	2533.416742
891.544625	2533.474715
891.853353	2534.261135
892.162041	2538.440252
892.470687	2535.899510
892.779293	2532.559746
893.087858	2532.463964
893.396381	2533.315919
893.704864	2537.973945
894.013306	2532.872297
894.321707	2539.962680
894.630068	2543.403268
894.938387	2542.059800
895.246665	2544.303114
895.554903	2541.666590
895.863100	2540.171888
896.171256	2539.902186
896.479371	2536.023018
896.787446	2537.744572
897.095480	2536.083512
897.403473	2534.694674
897.711425	2533.394057
898.019336	2534.944212
898.327207	2533.779705
898.635038	2535.120652
898.942827	2534.452699
899.250576	2532.978162
899.558284	2531.569159
899.865952	2534.735004
900.173579	2533.081505
900.481165	2531.425486
900.788711	2531.707791
901.096216	2532.380785
901.403681	2534.087215
901.711105	2534.372041
902.018489	2534.082174
902.325832	2535.823893
902.633135	2531.372554
902.940397	2535.987730
903.247619	2535.274407
903.554800	2536.010416
903.861941	2540.920499
904.169041	2546.173382
904.476101	2550.118085
904.783121	2547.658002
905.090100	2545.775131
905.397039	2544.262784
905.703938	2542.085006
906.010796	2537.021167
906.317614	2536.751465
906.624391	2536.753986
906.931129	2535.975128
907.237826	2534.881197
907.544483	2531.221319
907.851099	2532.191742
908.157675	2532.625281
908.464211	2532.930271
908.770707	2529.139323
909.077163	2530.334076
909.383578	2527.090094
909.689954	2526.979188
909.996289	2529.726617
910.302584	2530.886083
910.608839	2529.708973
910.915054	2535.039993
911.221229	2531.352389
911.527363	2531.221319
911.833458	2531.884231
912.139513	2530.722245
912.445527	2530.560928
912.751502	2530.727286
913.057436	2533.099149
913.363331	2529.366175
913.669186	2529.436751
913.975000	2531.813655
914.280775	2534.230888
914.586510	2535.143337
914.892205	2535.899510
915.197859	2536.663245
915.503475	2540.940664
915.809050	2548.492312
916.114585	2548.028526
916.420081	2549.258568
916.725536	2547.277394
917.030952	2545.591128
917.336328	2543.632640
917.641665	2541.432177
917.946961	2542.090047
918.252218	2535.463450
918.557435	2536.995961
918.862612	2536.794315
919.167750	2535.191228
919.472848	2534.694674
919.777906	2533.620909
920.082925	2533.663758
920.387904	2534.182997
920.692843	2531.894313
920.997743	2532.917668
921.302603	2532.474046
921.607423	2534.135106
921.912204	2533.041176
922.216946	2532.000178
922.521647	2533.623429
922.826310	2530.460105
923.130932	2530.755013
923.435516	2531.198634
923.740059	2529.300640
924.044564	2532.670651
924.349028	2530.762574
924.653454	2527.158149
924.957840	2528.423479
925.262186	2526.228057
925.566493	2528.685619
925.870761	2526.893489
926.174989	2528.877183
926.479178	2528.524302
926.783328	2528.920033
927.087438	2531.362472
927.391509	2528.730989
927.695541	2528.980527
927.999533	2528.557070
928.303486	2529.351051
928.607400	2529.920702
928.911275	2529.167049
929.215110	2531.301978
929.518906	2529.000691
929.822663	2529.444313
930.126381	2529.207378
930.430060	2527.387522
930.733699	2531.652338
931.037299	2529.870290
931.340861	2526.656555
931.644383	2528.811648
931.947866	2531.644776
932.251309	2529.973634
932.554714	2529.492204
932.858080	2531.952287
933.161407	2529.202337
933.464694	2527.417769
933.767943	2528.244518
934.071153	2532.242153
934.374323	2526.938859
934.677455	2532.259797
934.980548	2527.382481
935.283602	2528.665454
935.586617	2526.535567
935.889593	2529.746782
936.192530	2527.687471
936.495428	2527.256452
936.798287	2530.505476
937.101108	2528.597399
937.403890	2530.538243
937.706632	2532.295085
938.009336	2529.550177
938.312002	2530.455064
938.614628	2528.733510
938.917216	2529.983716
939.219765	2529.721576
939.522275	2530.533202
939.824747	2530.296268
940.127179	2527.566483
940.429573	2524.446009
940.731929	2526.021369
941.034246	2526.107069
941.336524	2528.171421
941.638763	2527.654703
941.940964	2530.404653
942.243126	2528.877183
942.545250	2529.812317
942.847335	2530.830630
943.149381	2529.499765
943.451389	2529.587986
943.753359	2530.011442
944.055290	2528.431041
944.357182	2527.523633
944.659036	2529.343490
944.960851	2530.636546
945.262628	2530.303829
945.564367	2527.684950
945.866067	2531.004550
946.167729	2530.190403
946.469352	2529.409025
946.770937	2527.813499
947.072484	2529.270393
947.373992	2531.848943
947.675462	2526.084384
947.976893	2530.402132
948.278286	2528.466329
948.579641	2529.940866
948.880958	2531.203675
949.182236	2528.536905
949.483476	2527.470701
949.784678	2529.542615
950.085841	2529.058664
950.386967	2527.067409
950.688054	2528.355423
950.989103	2530.702081
951.290114	2528.025228
951.591087	2529.507327
951.892021	2529.829961
952.192917	2530.084539
952.493776	2531.092770
952.794596	2530.238294
953.095378	2527.710156
953.396122	2527.407687
953.696828	2528.564631
953.997496	2528.310053
954.298126	2528.773839
954.598718	2528.327697
954.899272	2527.211082
955.199788	2529.288037
955.500266	2529.232584
955.800706	2526.419620
956.101108	2526.485155
956.401472	2525.474404
956.701798	2524.753519
957.002087	2524.418282
957.302337	2528.282327
957.602550	2528.163860
957.902724	2527.896678
958.202861	2526.160001
958.502960	2526.167563
958.803022	2527.284178
959.103045	2527.788294
959.403031	2527.508510
959.702979	2525.068591
960.002889	2528.194107
960.302762	2527.594209
960.602596	2527.216123
960.902393	2527.085053
961.202153	2528.940197
961.501875	2526.918695
961.801559	2527.054806
962.101205	2529.446833
962.400814	2529.086391
962.700385	2528.783922
962.999918	2527.364837
963.299414	2524.279651
963.598873	2528.143695
963.898293	2524.468694
964.197677	2525.625639
964.497022	2528.027748
964.796331	2527.634538
965.095601	2527.059847
965.394835	2527.742923
965.694030	2526.424662
965.993189	2529.978675
966.292309	2526.896009
966.591393	2527.561442
966.890439	2524.458612
967.189447	2527.145547
967.488419	2525.920546
967.787353	2528.859539
968.086249	2526.490197
968.385108	2528.884745
968.683930	2530.197965
968.982714	2527.695032
969.281462	2528.310053
969.580172	2526.137316
969.878844	2526.981709
970.177480	2526.505320
970.476078	2527.001874
970.774639	2528.269724
971.073162	2523.682274
971.371649	2526.096987
971.670098	2521.829650
971.968510	2522.701769
972.266885	2522.376615
972.565223	2528.557070
972.863524	2527.644621
973.161788	2525.534898
973.460014	2526.086904
973.758204	2527.092614
974.056356	2527.042203
974.354471	2526.953983
974.652550	2530.679395
974.950591	2529.257790
975.248595	2525.635721
975.546563	2530.321473
975.844493	2528.476411
976.142386	2527.238808
976.440243	2526.165042
976.738062	2530.286185
977.035845	2526.492717
977.333590	2526.870804
977.631299	2525.628159
977.928971	2527.652183
978.226606	2524.743437
978.524204	2527.848788
978.821765	2524.695546
979.119290	2527.087573
979.416777	2525.222346
979.714228	2528.675537
980.011642	2528.189065
980.309020	2527.248890
980.606360	2528.869621
980.903664	2528.083201
981.200931	2526.865762
981.498162	2529.285516
981.795356	2525.318128
982.092513	2527.296781
982.389633	2528.168901
982.686717	2529.968593
982.983764	2527.011956
983.280775	2527.276617
983.577749	2530.074457
983.874686	2530.770136
984.171587	2528.022707
984.468451	2525.421472
984.765279	2526.661596
985.062070	2528.181504
985.358824	2527.984899
985.655543	2528.940197
985.952224	2525.935670
986.248869	2526.598581
986.545478	2523.659589
986.842050	2525.718900
987.138586	2520.771007
987.435086	2523.641945
987.731549	2525.008097
988.027975	2526.800228
988.324366	2527.848788
988.620719	2525.807120
988.917037	2526.921215
989.213318	2525.227387
989.509563	2527.022038
989.805772	2525.975999
990.101944	2525.602953
990.398080	2528.685619
990.694180	2525.446678
990.990244	2525.280320
991.286271	2526.278468
991.582262	2527.561442
991.878217	2526.825433
992.174136	2525.048427
992.470019	2525.318128
992.765865	2528.733510
993.061676	2524.965248
993.357450	2524.801410
993.653188	2526.122192
993.948890	2525.116482
994.244556	2525.265196
994.540186	2528.894827
994.835780	2524.289733
995.131337	2525.035824
995.426859	2525.718900
995.722345	2525.194620
996.017795	2525.229908
996.313208	2529.219981
996.608586	2523.967099
996.903928	2527.563962
997.199234	2523.309228
997.494504	2528.078160
997.789738	2527.727800
998.084936	2526.013807
998.380099	2526.971627
998.675225	2524.297295
998.970316	2527.200999
999.265371	2526.734692
999.560390	2526.805269
999.855373	2527.838705
1000.150320	2524.750998
1000.445232	2526.409538
1000.740108	2523.737727
1001.034948	2523.888961
1001.329752	2523.374763
1001.624521	2526.180166
1001.919254	2522.805113
1002.213951	2523.659589
1002.508613	2524.113292
1002.803239	2525.776873
1003.097829	2523.684794
1003.392384	2524.952645
1003.686903	2527.299302
1003.981386	2527.747964
1004.275834	2525.126564
1004.570246	2529.230064
1004.864623	2524.662778
1005.158964	2525.101359
1005.453270	2527.662265
1005.747540	2524.796369
1006.041775	2528.267203
1006.335974	2524.113293
1006.630138	2524.395597
1006.924266	2527.132944
1007.218359	2525.045906
1007.512416	2527.795855
1007.806438	2524.725793
1008.100425	2524.556914
1008.394376	2525.728982
1008.688292	2527.742923
1008.982172	2524.851822
1009.276017	2525.948273
1009.569827	2527.029600
1009.863602	2526.709487
1010.157341	2525.638242
1010.451045	2526.555732
1010.744714	2526.477594
1011.038347	2526.928777
1011.331945	2524.342665
1011.625508	2526.984230
1011.919036	2525.113962
1012.212528	2527.858870
1012.505986	2522.709331
1012.799408	2526.616225
1013.092795	2527.783253
1013.386147	2526.812830
1013.679464	2523.823426
1013.972745	2524.385515
1014.265992	2524.078004
1014.559204	2526.883407
1014.852380	2526.959024
1015.145521	2530.092101
1015.438628	2522.434588
1015.731699	2526.870804
1016.024736	2524.819054
1016.317737	2524.012469
1016.610703	2524.940042
1016.903635	2524.075484
1017.196531	2523.904085
1017.489393	2523.379805
1017.782219	2521.484331
1018.075011	2522.716893
1018.367768	2527.790814
1018.660490	2524.864424
1018.953177	2524.864424
1019.245829	2524.864424
