Dividing Wavelength (nm)	Counts (n)	Blue Motor Position (mm): 0.000000	Red Motor Position (mm): 7.200000	
326.493990	2127.054372
326.888308	2127.054372
327.282561	2127.054372
327.676750	2095.897520
328.070874	2096.033631
328.464933	2095.474063
328.858929	2104.810280
329.252859	2114.428802
329.646726	2124.679988
330.040528	2141.156999
330.434265	2153.318783
330.827938	2171.802174
331.221547	2189.879751
331.615091	2209.391537
332.008571	2228.298385
332.401986	2247.989132
332.795338	2264.672830
333.188625	2288.134360
333.581847	2305.332257
333.975006	2324.448312
334.368100	2342.893894
334.761129	2358.133302
335.154095	2374.638040
335.546996	2392.103117
335.939833	2407.135838
336.332606	2423.481779
336.725315	2433.259097
337.117960	2443.772424
337.510540	2453.196861
337.903056	2461.459312
338.295508	2469.588172
338.687896	2481.200470
339.080220	2485.976964
339.472480	2495.081288
339.864676	2497.427945
340.256807	2503.628564
340.648875	2507.621158
341.040879	2510.736591
341.432818	2510.378669
341.824694	2511.555778
342.216506	2510.686179
342.608253	2510.713906
342.999937	2513.859586
343.391557	2512.400172
343.783113	2510.807167
344.174605	2506.943122
344.566033	2508.722650
344.957397	2505.730725
345.348697	2507.681652
345.739934	2504.442710
346.131106	2499.189828
346.522215	2499.832575
346.913260	2498.718480
347.304241	2495.552635
347.695159	2495.141781
348.086012	2494.584734
348.476802	2489.720020
348.867528	2492.545587
349.258191	2485.951758
349.648789	2488.545432
350.039324	2484.653661
350.429796	2486.965030
350.820203	2483.484113
351.210548	2481.581078
351.600828	2481.386993
351.991045	2481.981849
352.381198	2478.500932
352.771288	2480.353557
353.161314	2479.504122
353.551276	2479.441108
353.941175	2477.033957
354.331010	2482.445635
354.720782	2479.655357
355.110490	2480.414050
355.500135	2476.499594
355.889717	2479.998155
356.279235	2478.173258
356.668689	2482.788434
357.058080	2478.790799
357.447408	2479.763742
357.836672	2477.013792
358.225873	2478.861375
358.615010	2477.291056
359.004084	2481.598722
359.393095	2480.832466
359.782043	2481.762559
360.170927	2483.400934
360.559748	2483.615183
360.948505	2484.552838
361.337199	2483.060656
361.725830	2483.632827
362.114398	2484.086531
362.502903	2488.336224
362.891344	2486.435709
363.279722	2487.917808
363.668037	2490.423261
364.056289	2490.902171
364.444478	2488.434526
364.832603	2488.633652
365.220665	2489.364619
365.608665	2491.355875
365.996601	2488.643734
366.384474	2490.287150
366.772284	2494.342758
367.160031	2493.619353
367.547715	2493.236225
367.935336	2495.981133
368.322893	2503.537823
368.710388	2504.094871
369.097820	2514.300687
369.485189	2513.708351
369.872495	2520.992818
370.259738	2525.580268
370.646918	2532.058151
371.034035	2535.839016
371.421090	2551.035575
371.808081	2558.642676
372.195010	2570.015519
372.581875	2578.524987
372.968678	2591.029569
373.355418	2599.324787
373.742096	2615.733743
374.128710	2625.490896
374.515262	2639.517907
374.901751	2648.102992
375.288177	2655.551297
375.674540	2671.947650
376.060841	2682.776048
376.447079	2692.883562
376.833254	2705.983000
377.219367	2705.970397
377.605417	2727.501165
377.991404	2728.375805
378.377329	2735.451065
378.763191	2740.545151
379.148991	2758.620208
379.534727	2763.711773
379.920402	2772.768206
380.306013	2766.673451
380.691563	2785.920576
381.077049	2784.929990
381.462474	2782.931172
381.847835	2789.971143
382.233134	2787.742953
382.618371	2773.385747
383.003545	2788.650361
383.388657	2780.866820
383.773706	2776.511263
384.158693	2766.267638
384.543618	2756.956627
384.928480	2757.911926
385.313280	2758.627769
385.698017	2738.460633
386.082692	2739.771333
386.467305	2723.206102
386.851856	2716.022458
387.236344	2704.596682
387.620770	2695.865404
388.005133	2685.614218
388.389435	2676.207425
388.773674	2662.871052
389.157851	2654.129691
389.541965	2644.995121
389.926018	2628.941566
390.310008	2620.479989
390.693936	2612.023454
391.077802	2603.491301
391.461606	2593.456884
391.845348	2587.094948
392.229027	2577.501632
392.612645	2568.190621
392.996200	2566.290106
393.379694	2560.671740
393.763125	2554.203940
394.146494	2547.814277
394.529801	2541.696837
394.913047	2540.048380
395.296230	2537.232895
395.679351	2530.994467
396.062410	2527.657224
396.445408	2527.332069
396.828343	2522.101872
397.211217	2518.323527
397.594028	2517.383352
397.976778	2515.482837
398.359466	2515.860924
398.742092	2511.482682
399.124656	2512.216169
399.507158	2514.237672
399.889598	2513.476458
400.271977	2513.967970
400.654294	2514.882940
401.036549	2513.050480
401.418742	2513.640295
401.800874	2513.557116
402.182944	2513.365553
402.564952	2514.910666
402.946898	2512.954698
403.328783	2510.812208
403.710606	2517.169103
404.092367	2515.717251
404.474067	2514.804802
404.855705	2512.894205
405.237282	2514.290604
405.618797	2515.271109
406.000250	2513.294976
406.381642	2511.820439
406.762972	2513.022754
407.144240	2516.738084
407.525447	2515.228259
407.906593	2516.523835
408.287677	2517.680780
408.668700	2516.037364
409.049661	2516.458300
409.430560	2515.639113
409.811399	2517.325379
410.192176	2516.483506
410.572891	2517.358146
410.953545	2516.498630
411.334138	2516.233969
411.714669	2517.373270
412.095139	2515.071983
412.475547	2517.244720
412.855894	2519.301511
413.236180	2517.854700
413.616405	2516.135667
413.996568	2517.181706
414.376670	2518.447036
414.756711	2518.162210
415.136691	2517.335461
415.516609	2516.589370
415.896466	2519.004083
416.276262	2519.611542
416.655997	2513.791530
417.035670	2517.096006
417.415283	2517.305214
417.794834	2512.576612
418.174324	2520.186234
418.553753	2516.135667
418.933121	2518.585667
419.312428	2521.010462
419.691674	2520.750843
420.070859	2521.146573
420.449983	2517.824453
420.829045	2520.211439
421.208047	2519.939217
421.586988	2522.976512
421.965867	2519.054495
422.344686	2519.349402
422.723444	2519.561131
423.102141	2519.276305
423.480777	2523.115144
423.859352	2520.483662
424.237866	2522.905936
424.616319	2522.273271
424.994712	2522.880730
425.373044	2522.822757
425.751314	2521.436440
426.129524	2522.729496
426.507673	2522.331245
426.885762	2522.316121
427.263789	2521.983405
427.641756	2521.688497
428.019662	2524.753519
428.397508	2523.097500
428.775292	2523.611698
429.153016	2521.927952
429.530679	2523.115144
429.908282	2523.354599
430.285824	2523.886441
430.663305	2523.238652
431.040726	2526.865763
431.418086	2522.285874
431.795385	2524.619928
432.172624	2522.774866
432.549802	2526.268386
432.926920	2523.142870
433.303977	2526.316277
433.680974	2525.635721
434.057910	2522.013652
434.434786	2522.709331
434.811601	2525.136647
435.188355	2522.903416
435.565050	2523.959537
435.941683	2523.886441
436.318257	2525.025741
436.694770	2521.156656
437.071222	2521.890144
437.447614	2519.737571
437.823946	2521.895185
438.200218	2523.016842
438.576429	2526.462470
438.952580	2524.985412
439.328670	2527.591689
439.704700	2524.143539
440.080670	2527.251411
440.456580	2525.555062
440.832429	2527.266534
441.208218	2525.219826
441.583947	2528.186545
441.959616	2524.430885
442.335224	2526.570855
442.710773	2526.149919
443.086261	2527.513551
443.461689	2529.940866
443.837057	2527.049765
444.212365	2524.403159
444.587612	2526.943900
444.962800	2527.589168
445.337927	2527.508510
445.712995	2527.831143
446.088002	2526.306194
446.462949	2524.486338
446.837837	2526.495238
447.212664	2527.397604
447.587431	2527.606812
447.962139	2525.986081
448.336786	2530.812986
448.711374	2527.513551
449.085901	2530.006401
449.460369	2530.694519
449.834776	2529.222502
450.209124	2526.160001
450.583412	2528.022707
450.957640	2530.845753
451.331808	2531.145702
451.705917	2528.115969
452.079965	2527.808458
452.453954	2529.383819
452.827883	2528.468849
453.201752	2529.041020
453.575562	2528.854498
453.949311	2530.760054
454.323001	2531.715352
454.696632	2528.756195
455.070202	2532.952956
455.443713	2530.868439
455.817164	2527.937008
456.190556	2528.360465
456.563888	2525.998684
456.937160	2526.482635
457.310373	2529.456916
457.683526	2529.043541
458.056619	2529.429189
458.429653	2527.871473
458.802628	2529.686288
459.175542	2527.997502
459.548398	2529.887934
459.921194	2532.032945
460.293930	2531.589324
460.666607	2531.317101
461.039224	2531.359951
461.411782	2531.574200
461.784280	2531.808614
462.156719	2531.548994
462.529099	2529.895496
462.901419	2531.967410
463.273680	2531.153264
463.645882	2533.295754
464.018024	2531.362472
464.390106	2531.813655
464.762130	2532.675692
465.134094	2531.281813
465.505999	2532.073274
465.877845	2532.872297
466.249631	2538.944367
466.621358	2533.394057
466.993026	2536.151568
467.364634	2536.592669
467.736184	2536.209541
468.107674	2534.039324
468.479105	2534.114942
468.850477	2533.595703
469.221790	2534.876156
469.593043	2532.020342
469.964238	2533.419262
470.335373	2531.241484
470.706449	2533.084026
471.077467	2532.234591
471.448425	2533.590662
471.819324	2534.714839
472.190164	2535.382792
472.560945	2533.794828
472.931667	2530.487832
473.302330	2533.699047
473.672934	2536.882535
474.043479	2531.400280
474.413965	2533.260466
474.784393	2530.749972
475.154761	2531.433048
475.525070	2530.636546
475.895321	2531.443130
476.265513	2528.778880
476.635645	2535.178625
477.005719	2535.274407
477.375734	2534.041845
477.745691	2536.317926
478.115588	2535.090405
478.485427	2533.194931
478.855207	2533.421783
479.224928	2533.356248
479.594591	2536.002854
479.964194	2535.712988
480.333739	2535.168543
480.703226	2534.074612
481.072653	2535.793646
481.442022	2535.110570
481.811333	2536.706095
482.180584	2535.130734
482.549777	2537.893287
482.918912	2534.573687
483.287988	2535.823893
483.657005	2536.131403
484.025964	2538.737680
484.394864	2537.275745
484.763706	2537.641229
485.132489	2538.659542
485.501213	2537.434542
485.869879	2536.300282
486.238487	2536.862371
486.607036	2536.980838
486.975527	2535.430683
487.343959	2535.781043
487.712333	2537.721887
488.080648	2535.743234
488.448905	2536.474202
488.817104	2535.309695
489.185244	2536.547298
489.553326	2537.381609
489.921350	2535.181146
490.289315	2540.290355
490.657222	2538.452855
491.025070	2538.069727
491.392861	2540.219779
491.760593	2536.645601
492.128267	2540.746580
492.495883	2534.520755
492.863440	2539.251877
493.230939	2536.196938
493.598380	2537.936136
493.965763	2532.000178
494.333088	2534.109901
494.700354	2535.402957
495.067563	2538.283976
495.434713	2532.864736
495.801805	2537.565612
496.168839	2537.580735
496.535815	2537.058976
496.902733	2537.744572
497.269593	2537.623585
497.636395	2537.343801
498.003139	2539.161137
498.369825	2537.880684
498.736453	2537.311033
499.103023	2534.525796
499.469535	2536.002854
499.835989	2536.943029
500.202385	2538.150385
500.568723	2536.716177
500.935003	2537.479912
501.301226	2535.879346
501.667390	2540.310520
502.033497	2540.129038
502.399546	2539.945036
502.765537	2537.316074
503.131470	2534.891279
503.497345	2538.478060
503.863163	2539.667773
504.228923	2539.398071
504.594625	2540.504604
504.960269	2538.218441
505.325856	2539.997968
505.691385	2537.179963
506.056856	2538.044521
506.422270	2535.680220
506.787625	2536.353214
507.152924	2534.523275
507.518164	2539.645087
507.883347	2539.385468
508.248472	2536.391023
508.613540	2539.755993
508.978550	2538.712474
509.343503	2538.001671
509.708398	2540.146682
510.073236	2540.411343
510.438016	2540.234903
510.802738	2537.071578
511.167403	2538.977135
511.532010	2538.291538
511.896561	2538.273894
512.261053	2538.588966
512.625488	2538.649460
512.989866	2535.042514
513.354186	2534.571166
513.718449	2531.685106
514.082655	2537.074099
514.446803	2536.822041
514.810894	2536.164171
515.174927	2540.965870
515.538904	2539.554347
515.902822	2538.142824
516.266684	2539.236754
516.630488	2540.323123
516.994235	2539.493853
517.357925	2540.628113
517.721558	2539.120807
518.085133	2541.144831
518.448651	2539.279604
518.812112	2541.351518
519.175516	2539.574511
519.538863	2537.311033
519.902152	2537.568132
520.265385	2540.771785
520.628560	2538.392361
520.991678	2540.701209
521.354739	2541.154913
521.717743	2538.304141
522.080690	2541.482588
522.443580	2541.384286
522.806413	2538.994779
523.169189	2537.091743
523.531908	2539.173740
523.894569	2538.067206
524.257174	2538.321785
524.619722	2537.779861
524.982213	2537.590817
525.344647	2539.612320
525.707025	2541.606096
526.069345	2539.035108
526.431608	2540.421425
526.793815	2539.841693
527.155964	2541.021322
527.518057	2538.243647
527.880093	2539.559388
528.242072	2539.745911
528.603995	2542.679862
528.965860	2541.717002
529.327669	2538.851106
529.689421	2540.355890
530.051117	2541.759852
530.412755	2541.933771
530.774337	2541.507794
531.135862	2539.093081
531.497331	2539.171219
531.858743	2536.648122
532.220098	2538.306661
532.581396	2538.546116
532.942638	2537.432021
533.303824	2540.428987
533.664953	2540.197094
534.026025	2538.001671
534.387040	2541.817825
534.747999	2540.348328
535.108902	2542.047197
535.469748	2540.076106
535.830537	2540.973432
536.191270	2539.007382
536.551947	2539.425797
536.912567	2536.537216
537.273131	2542.311858
537.633638	2544.305634
537.994089	2542.629451
538.354483	2539.584594
538.714821	2541.843031
539.075103	2541.764893
539.435328	2542.183308
539.795497	2541.800181
540.155609	2540.439069
540.515665	2539.355221
540.875665	2540.184491
541.235609	2541.250695
541.595496	2545.049204
541.955328	2541.265818
542.315102	2541.636343
542.674821	2541.275901
543.034483	2541.656508
543.394090	2539.287166
543.753640	2542.137938
544.113134	2539.193904
544.472571	2541.412012
544.831953	2540.434028
545.191278	2544.903011
545.550548	2539.198945
545.909761	2543.209183
546.268918	2542.395037
546.628019	2540.290355
546.987064	2542.039636
547.346053	2542.468134
547.704986	2542.261446
548.063863	2542.435366
548.422684	2541.195242
548.781449	2542.085006
549.140158	2540.565098
549.498811	2542.947043
549.857408	2540.325643
550.215949	2538.193235
550.574434	2537.971424
550.932864	2540.174409
551.291237	2536.753986
551.649555	2543.025181
552.007817	2540.542413
552.366022	2540.698689
552.724173	2542.526107
553.082267	2541.076775
553.440305	2543.519214
553.798288	2544.197249
554.156215	2541.258257
554.514086	2538.727598
554.871902	2541.205325
555.229661	2543.950233
555.587365	2540.333205
555.945014	2540.330684
556.302606	2541.288504
556.660143	2542.294214
557.017625	2543.352856
557.375050	2543.183977
557.732421	2540.766744
558.089735	2540.169368
558.446994	2541.018802
558.804197	2542.571477
559.161345	2542.780685
559.518437	2541.283462
559.875474	2541.260777
560.232455	2545.477702
560.589381	2539.960160
560.946251	2543.040305
561.303065	2544.938299
561.659825	2542.528628
562.016528	2540.262629
562.373177	2541.268339
562.729770	2542.044677
563.086307	2542.344625
563.442789	2541.117104
563.799216	2541.822866
564.155587	2542.334543
564.511904	2542.843700
564.868164	2540.733977
565.224370	2543.685572
565.580520	2542.284132
565.936615	2542.871426
566.292654	2540.824718
566.648638	2541.936292
567.004567	2540.580222
567.360441	2542.664739
567.716260	2543.362938
568.072023	2539.395550
568.427732	2537.648791
568.783385	2540.469316
569.138982	2538.538554
569.494525	2540.648277
569.850013	2536.874973
570.205445	2541.059131
570.560823	2542.667259
570.916145	2544.295552
571.271412	2540.928061
571.626625	2542.833617
571.981782	2541.225489
572.336884	2544.293031
572.691931	2543.504091
573.046923	2541.119625
573.401860	2541.835469
573.756743	2542.606765
574.111570	2541.651467
574.466342	2539.501415
574.821059	2541.485109
575.175722	2542.470654
575.530330	2538.775488
575.884882	2539.556867
576.239380	2544.199770
576.593823	2545.097095
576.948211	2540.403781
577.302544	2542.818494
577.656823	2540.066024
578.011047	2542.389996
578.365216	2543.138607
578.719330	2544.280428
579.073389	2539.148534
579.427394	2540.146682
579.781344	2540.590304
580.135239	2541.031405
580.489080	2543.438556
580.842866	2543.060469
581.196597	2543.153731
581.550273	2542.057280
581.903895	2541.182639
582.257463	2542.631971
582.610975	2541.212886
582.964434	2541.258257
583.317837	2540.640715
583.671186	2542.931920
584.024481	2543.267157
584.377721	2543.201622
584.730906	2539.259439
585.084037	2543.448638
585.437113	2544.068700
585.790135	2538.921682
586.143103	2543.325130
586.496016	2541.412012
586.848874	2535.191228
587.201679	2540.320602
587.554428	2537.439583
587.907124	2540.129038
588.259765	2538.730118
588.612352	2539.990407
588.964884	2542.269008
589.317362	2541.190201
589.669786	2538.687268
590.022155	2541.807743
590.374470	2541.117104
590.726731	2540.555016
591.078937	2540.560057
591.431090	2539.541744
591.783188	2541.525438
592.135232	2537.812628
592.487222	2539.156096
592.839157	2538.059645
593.191038	2543.867054
593.542866	2539.798843
593.894639	2542.407640
594.246358	2543.841848
594.598022	2543.771272
594.949633	2542.112732
595.301190	2542.208514
595.652692	2542.231199
596.004141	2540.381096
596.355535	2543.040305
596.706876	2538.929244
597.058162	2541.134748
597.409395	2540.255067
597.760573	2542.503422
598.111698	2540.834800
598.462768	2540.476878
598.813785	2540.744059
599.164748	2539.856816
599.515657	2539.221631
599.866511	2541.386806
600.217312	2539.075437
600.568060	2539.357742
600.918753	2542.828576
601.269392	2539.524100
601.619978	2539.851775
601.970510	2538.785571
602.320988	2540.696168
602.671412	2542.074924
603.021783	2539.340098
603.372100	2542.755479
603.722363	2541.873278
604.072572	2539.007382
604.422728	2542.994934
604.772830	2538.853626
605.122878	2538.329346
605.472872	2538.377237
605.822813	2535.042514
606.172701	2539.430838
606.522534	2540.640715
606.872314	2542.954605
607.222041	2542.788247
607.571714	2541.142310
607.921333	2541.901004
608.270899	2539.647608
608.620411	2540.776827
608.969870	2541.669111
609.319276	2543.020140
609.668627	2547.753783
610.017926	2546.359904
610.367171	2548.131870
610.716362	2545.233207
611.065500	2548.814946
611.414585	2543.725902
611.763616	2545.152548
612.112594	2542.095088
612.461518	2544.381252
612.810389	2542.145500
613.159207	2541.598535
613.507971	2541.991745
613.856682	2539.584594
614.205340	2541.195242
614.553945	2543.375541
614.902496	2541.442259
615.250994	2539.912269
615.599439	2540.776827
615.947830	2541.659028
616.296169	2542.120294
616.644454	2541.815304
616.992686	2542.163144
617.340864	2540.751621
617.688990	2539.075437
618.037063	2541.462423
618.385082	2540.328164
618.733048	2544.038453
619.080961	2542.153062
619.428821	2543.156251
619.776628	2539.274563
620.124382	2540.035777
620.472083	2541.076775
620.819731	2541.036446
621.167326	2540.010571
621.514868	2540.156765
621.862357	2543.403268
622.209793	2541.288504
622.557176	2541.369162
622.904506	2538.616692
623.251783	2536.655683
623.599007	2536.834644
623.946179	2537.263142
624.293297	2541.190201
624.640363	2538.321785
624.987376	2539.851775
625.334336	2540.350849
625.681243	2541.280942
626.028097	2538.846065
626.374899	2539.629964
626.721647	2540.156765
627.068343	2541.235572
627.414987	2539.466127
627.761577	2540.408822
628.108115	2539.201466
628.454600	2539.640046
628.801032	2541.840510
629.147412	2539.882022
629.493739	2543.204142
629.840014	2540.860006
630.186236	2541.409491
630.532405	2542.059800
630.878521	2542.117773
631.224585	2541.096940
631.570597	2537.447144
631.916556	2540.507125
632.262462	2540.232382
632.608316	2539.317412
632.954117	2538.672145
633.299866	2540.706250
633.645562	2540.688606
633.991206	2542.168185
634.336797	2540.519728
634.682336	2538.689789
635.027823	2540.108874
635.373257	2541.422094
635.718639	2537.915972
636.063968	2535.642411
636.409245	2539.773637
636.754470	2538.099974
637.099642	2539.042670
637.444762	2539.564429
637.789829	2539.012423
638.134845	2537.802546
638.479808	2539.635005
638.824719	2538.946888
639.169577	2537.540406
639.514383	2538.873791
639.859137	2536.983358
640.203839	2540.232382
640.548489	2540.428987
640.893086	2539.713143
641.237632	2537.343801
641.582125	2536.575025
641.926566	2533.336083
642.270955	2539.201466
642.615292	2537.411856
642.959576	2537.399253
643.303809	2537.860519
643.647990	2538.629295
643.992118	2537.968904
644.336195	2535.143337
644.680219	2536.464119
645.024192	2538.949408
645.368112	2537.439583
645.711981	2540.403781
646.055797	2537.399253
646.399562	2537.474871
646.743274	2539.108205
647.086935	2538.039480
647.430544	2538.500746
647.774101	2538.921682
648.117606	2538.697351
648.461059	2539.468647
648.804460	2540.771785
649.147810	2538.243647
649.491108	2539.879501
649.834354	2541.570808
650.177548	2540.766744
650.520690	2538.846065
650.863781	2539.214069
651.206820	2540.149203
651.549807	2538.195756
651.892742	2539.743390
652.235626	2537.603420
652.578458	2538.183153
652.921238	2537.195087
653.263967	2539.035108
653.606644	2535.728111
653.949269	2539.612320
654.291843	2537.172402
654.634365	2539.360262
654.976836	2539.327495
655.319255	2540.015612
655.661622	2537.316074
656.003938	2536.270035
656.346203	2537.369007
656.688416	2538.296579
657.030577	2537.830272
657.372687	2538.778009
657.714746	2533.595703
658.056753	2539.012423
658.398708	2532.920188
658.740612	2535.949922
659.082465	2534.535878
659.424266	2536.864891
659.766016	2534.193080
660.107715	2538.057124
660.449362	2534.992102
660.790958	2539.607279
661.132503	2535.322298
661.473996	2538.092412
661.815438	2538.631816
662.156829	2539.483771
662.498168	2537.477391
662.839456	2538.185673
663.180693	2537.547967
663.521879	2537.699202
663.863013	2537.137113
664.204097	2539.161137
664.545129	2537.542926
664.886110	2537.159799
665.227040	2537.411856
665.567918	2538.485622
665.908746	2535.176105
666.249522	2538.256250
666.590248	2537.691640
666.930922	2538.490663
667.271545	2536.625436
667.612118	2541.313709
667.952639	2538.052083
668.293109	2540.822197
668.633528	2538.379758
668.973896	2535.206352
669.314213	2536.832124
669.654480	2538.082330
669.994695	2539.622402
670.334859	2537.921013
670.674973	2538.800694
671.015035	2541.533000
671.355047	2538.160468
671.695008	2537.863040
672.034918	2537.540406
672.374777	2541.374203
672.714585	2538.352032
673.054342	2538.583925
673.394049	2536.287679
673.733705	2538.147865
674.073310	2538.878832
674.412864	2539.967721
674.752368	2537.850437
675.091820	2539.519059
675.431223	2537.056455
675.770574	2537.064017
676.109875	2532.756351
676.449125	2534.906403
676.788324	2535.718029
677.127473	2536.517052
677.466571	2532.242153
677.805619	2536.990920
678.144616	2537.694161
678.483562	2536.340611
678.822458	2538.682227
679.161303	2536.975797
679.500098	2536.063348
679.838842	2537.709284
680.177535	2537.857998
680.516179	2536.355735
680.854771	2535.710467
681.193314	2535.990251
681.531805	2538.778009
681.870247	2538.503266
682.208638	2537.258101
682.546978	2537.212731
682.885268	2539.196425
683.223508	2537.832793
683.561697	2536.136444
683.899836	2538.253729
684.237925	2536.093595
684.575963	2537.374048
684.913951	2536.191897
685.251889	2537.719367
685.589776	2536.494366
685.927614	2540.055942
686.265401	2537.744573
686.603137	2539.755993
686.940824	2537.353883
687.278460	2539.773637
687.616046	2535.907072
687.953582	2537.747093
688.291068	2538.410005
688.628504	2535.728111
688.965889	2538.858667
689.303224	2537.454706
689.640510	2538.213400
689.977745	2537.265663
690.314930	2538.893956
690.652065	2537.928575
690.989150	2537.190046
691.326185	2536.915303
691.663170	2537.510159
692.000105	2537.386651
692.336990	2538.120138
692.673825	2537.038811
693.010610	2542.437887
693.347345	2536.640560
693.684030	2533.038655
694.020665	2535.458409
694.357251	2531.390198
694.693786	2536.272556
695.030272	2537.069058
695.366707	2536.900179
695.703093	2536.786753
696.039429	2535.980169
696.375716	2537.613502
696.711952	2537.069058
697.048139	2532.821886
697.384276	2535.483615
697.720363	2536.665766
698.056400	2538.556198
698.392388	2532.252235
698.728326	2535.949922
699.064214	2535.145858
699.400053	2534.298944
699.735842	2537.358924
700.071581	2534.644263
700.407270	2537.142155
700.742910	2537.447144
701.078501	2535.889428
701.414042	2539.009902
701.749533	2536.696012
702.084974	2537.553009
702.420366	2536.479243
702.755709	2537.429500
703.091002	2536.517052
703.426246	2534.929088
703.761440	2535.783564
704.096584	2536.869932
704.431679	2535.707946
704.766725	2537.890766
705.101721	2537.913451
705.436668	2535.072761
705.771565	2534.510672
706.106413	2539.178781
706.441212	2537.931095
706.775961	2536.154088
707.110661	2535.632329
707.445311	2537.563091
707.779913	2535.347504
708.114465	2538.541075
708.448967	2537.343801
708.783421	2537.643749
709.117825	2534.359438
709.452180	2538.583925
709.786485	2535.745755
710.120742	2534.230888
710.454949	2536.378420
710.789107	2534.246012
711.123216	2532.647966
711.457275	2535.801208
711.791286	2535.002185
712.125247	2534.989582
712.459159	2535.912113
712.793023	2535.468492
713.126837	2533.212575
713.460602	2539.259439
713.794318	2537.394212
714.127985	2534.016639
714.461602	2535.249201
714.795171	2537.444624
715.128691	2535.937319
715.462162	2537.207690
715.795584	2535.712987
716.128957	2536.378420
716.462281	2537.094264
716.795556	2535.478574
717.128782	2534.699716
717.461960	2537.089222
717.795088	2535.400436
718.128167	2535.420601
718.461198	2533.941022
718.794180	2536.015457
719.127113	2534.989582
719.459997	2535.319777
719.792833	2533.724252
720.125619	2537.074099
720.458357	2536.302802
720.791046	2536.839685
721.123686	2536.950591
721.456278	2536.716177
721.788821	2533.625950
722.121315	2536.905220
722.453761	2535.871784
722.786158	2535.733152
723.118506	2534.634181
723.450805	2536.398584
723.783056	2536.413708
724.115259	2534.719880
724.447412	2534.475384
724.779518	2534.934129
725.111574	2533.293234
725.443582	2537.263142
725.775542	2534.266176
726.107453	2535.564273
726.439315	2536.595189
726.771129	2541.001158
727.102895	2535.299613
727.434612	2534.644263
727.766281	2535.594520
728.097901	2534.717360
728.429473	2529.875331
728.760996	2534.919006
729.092471	2530.288706
729.423897	2534.298944
729.755276	2534.987061
730.086606	2538.009233
730.417887	2535.400436
730.749120	2534.361958
731.080305	2536.063348
731.411442	2538.674665
731.742530	2534.891279
732.073570	2536.781712
732.404562	2534.979500
732.735506	2536.406146
733.066401	2531.962369
733.397249	2535.672658
733.728048	2533.792308
734.058798	2536.023018
734.389501	2535.506300
734.720156	2535.831455
735.050762	2535.067720
735.381320	2536.726259
735.711831	2533.310878
736.042293	2536.179294
736.372707	2534.064530
736.703073	2535.007226
737.033391	2534.719880
737.363661	2536.070909
737.693883	2538.778009
738.024056	2536.547298
738.354182	2533.416742
738.684260	2538.016795
739.014290	2532.988244
739.344272	2535.733152
739.674207	2530.417255
740.004093	2536.131403
740.333931	2534.445137
740.663722	2537.003523
740.993464	2533.777184
741.323159	2533.867925
741.652806	2534.913965
741.982405	2533.136958
742.311956	2534.861032
742.641460	2537.626105
742.970915	2537.484953
743.300323	2536.640560
743.629683	2535.891948
743.958996	2533.504962
744.288260	2533.787267
744.617477	2535.801208
744.946647	2530.865918
745.275768	2535.501259
745.604842	2530.092101
745.933869	2532.322812
746.262847	2529.177132
746.591778	2532.395908
746.920662	2532.637884
747.249498	2534.437576
747.578286	2534.246012
747.907027	2536.806918
748.235720	2534.213244
748.564365	2533.903213
748.892963	2534.240971
749.221514	2536.718698
749.550017	2538.029398
749.878473	2536.517052
750.206881	2533.943543
750.535242	2533.416742
750.863555	2534.641742
751.191821	2534.437576
751.520039	2533.900693
751.848210	2533.709129
752.176334	2534.982020
752.504411	2535.886907
752.832440	2532.088398
753.160421	2532.111083
753.488356	2534.351876
753.816243	2534.394726
754.144082	2534.256094
754.471875	2535.032432
754.799620	2534.999664
755.127318	2532.942873
755.454969	2535.022349
755.782572	2533.366330
756.110129	2535.181146
756.437638	2535.362627
756.765100	2533.383974
757.092515	2535.803728
757.419882	2533.686444
757.747203	2535.140817
758.074477	2531.289375
758.401703	2536.229706
758.728882	2531.859025
759.056014	2532.695857
759.383099	2534.535878
759.710138	2535.629808
760.037129	2535.465971
760.364073	2535.773481
760.690970	2533.772143
761.017820	2533.081505
761.344623	2532.340456
761.671379	2537.676517
761.998088	2531.904396
762.324751	2533.288193
762.651366	2530.034128
762.977935	2533.704088
763.304456	2530.749972
763.630931	2534.608975
763.957359	2531.407842
764.283740	2537.366486
764.610074	2534.997144
764.936362	2536.065868
765.262602	2535.370189
765.588796	2534.114942
765.914943	2531.591844
766.241044	2532.877338
766.567097	2533.562935
766.893104	2535.085364
767.219064	2534.795498
767.544978	2534.649304
767.870845	2533.091588
768.196665	2532.902544
768.522438	2532.272400
768.848165	2532.496731
769.173846	2531.831299
769.499479	2535.962525
769.825066	2535.145858
770.150607	2533.240302
770.476101	2532.032945
770.801548	2534.452699
771.126949	2533.580579
771.452303	2534.145189
771.777611	2533.734335
772.102872	2535.070240
772.428087	2532.015301
772.753256	2533.089067
773.078378	2532.849612
773.403453	2534.286341
773.728482	2537.437062
774.053465	2532.998326
774.378401	2534.785415
774.703291	2532.849612
775.028135	2531.125538
775.352932	2533.066382
775.677683	2532.930271
776.002388	2536.769109
776.327046	2533.373892
776.651658	2533.033614
776.976224	2533.676361
777.300743	2534.251053
777.625216	2534.165353
777.949643	2531.982534
778.274024	2534.351876
778.598359	2531.954807
778.922647	2528.640249
779.246889	2531.105373
779.571086	2529.038500
779.895236	2532.348017
780.219339	2532.295085
780.543397	2535.007226
780.867409	2533.681403
781.191374	2531.251566
781.515294	2533.078985
781.839167	2533.623429
782.162995	2533.686444
782.486776	2532.408511
782.810511	2533.870446
783.134201	2533.943542
783.457844	2532.574869
783.781441	2535.954963
784.104993	2533.751979
784.428498	2534.808100
784.751958	2532.955476
785.075372	2533.225178
785.398739	2532.000178
785.722061	2534.457740
786.045337	2533.719211
786.368568	2536.128883
786.691752	2533.005888
787.014891	2532.839530
787.337983	2531.818696
787.661030	2530.760054
787.984031	2532.592513
788.306987	2532.574869
788.629897	2530.611340
788.952760	2533.489839
789.275579	2530.956659
789.598351	2532.675692
789.921078	2533.729293
790.243759	2533.946063
790.566395	2532.695857
790.888984	2532.128727
791.211529	2532.801721
791.534027	2533.885569
791.856480	2531.259128
792.178888	2536.086033
792.501249	2531.949766
792.823566	2534.939170
793.145836	2532.867256
793.468062	2534.092257
793.790241	2534.117462
794.112375	2534.387164
794.434464	2530.422297
794.756507	2532.768954
795.078505	2532.564787
795.400457	2530.084539
795.722364	2529.603109
796.044226	2530.936494
796.366042	2527.891637
796.687812	2530.192924
797.009538	2531.861546
797.331218	2529.686288
797.652852	2533.255425
797.974442	2533.318439
798.295986	2530.271062
798.617484	2535.251722
798.938938	2529.845084
799.260346	2533.857843
799.581709	2532.932791
799.903026	2532.262318
800.224299	2534.477905
800.545526	2533.043697
800.866708	2531.601927
801.187845	2531.095291
801.508936	2530.850795
801.829983	2532.436238
802.150984	2531.811134
802.471940	2533.310878
802.792851	2531.496062
803.113717	2535.967566
803.434538	2531.601927
803.755314	2533.169725
804.076045	2533.489839
804.396731	2532.988244
804.717372	2533.504962
805.037967	2530.346679
805.358518	2532.101001
805.679024	2533.356248
805.999485	2532.887421
806.319901	2532.622760
806.640272	2531.274252
806.960598	2534.735004
807.280879	2531.052441
807.601115	2531.329704
807.921306	2532.116124
808.241453	2533.583100
808.561554	2532.842050
808.881611	2533.499921
809.201623	2531.531350
809.521590	2533.240302
809.841513	2532.279962
810.161390	2531.186031
810.481223	2531.082688
810.801011	2531.929602
811.120755	2529.104035
811.440453	2534.107380
811.760107	2529.910619
812.079716	2531.916999
812.399281	2529.398942
812.718801	2530.369364
813.038276	2529.136802
813.357707	2533.661238
813.677093	2529.545136
813.996434	2532.385826
814.315731	2533.883049
814.634983	2532.463964
814.954191	2533.041176
815.273354	2532.095960
815.592473	2534.213244
815.911547	2533.736855
816.230577	2534.424973
816.549562	2531.687626
816.868502	2534.848430
817.187399	2532.506814
817.506250	2531.677544
817.825058	2531.493542
818.143821	2533.129396
818.462539	2531.470857
818.781213	2534.119983
819.099843	2532.514375
819.418429	2531.455733
819.736970	2532.302647
820.055466	2531.906916
820.373919	2534.351876
820.692327	2531.977493
821.010691	2533.237781
821.329011	2531.178470
821.647286	2538.558719
821.965517	2538.861188
822.283704	2542.316899
822.601847	2540.847403
822.919945	2537.046373
823.237999	2538.120138
823.556010	2536.431352
823.873976	2533.575538
824.191897	2534.639222
824.509775	2532.181659
824.827609	2536.126362
825.145398	2533.847761
825.463144	2536.219623
825.780845	2531.370033
826.098502	2533.648635
826.416116	2532.539581
826.733685	2532.804242
827.051210	2536.080992
827.368692	2533.928419
827.686129	2530.737369
828.003522	2534.818183
828.320872	2526.220495
828.638177	2530.666793
828.955439	2528.060516
829.272656	2529.961031
829.589830	2527.750485
829.906960	2532.020342
830.224046	2529.764426
830.541088	2531.939684
830.858086	2531.669982
831.175041	2532.113604
831.491952	2533.492359
831.808819	2529.151926
832.125642	2530.235774
832.442421	2530.578572
832.759157	2531.009591
833.075849	2533.373892
833.392497	2532.136289
833.709101	2534.387164
834.025662	2532.748789
834.342179	2533.782226
834.658653	2531.470857
834.975083	2530.092101
835.291469	2533.189890
835.607811	2532.781557
835.924110	2532.103521
836.240366	2531.032276
836.556578	2530.676875
836.872746	2530.676875
837.188871	2530.714683
837.504952	2533.472195
837.820990	2530.707122
838.136984	2528.365506
838.452935	2530.906247
838.768842	2531.049920
839.084706	2529.587986
839.400526	2532.151412
839.716303	2531.922040
840.032037	2533.721732
840.347727	2532.176618
840.663373	2532.393388
840.978977	2533.754499
841.294537	2528.413397
841.610054	2532.295085
841.925527	2530.003881
842.240957	2529.920702
842.556344	2531.329704
842.871687	2532.181659
843.186987	2532.257277
843.502244	2530.480270
843.817458	2530.059333
844.132629	2527.100176
844.447756	2532.174098
844.762840	2528.007584
845.077881	2526.827954
845.392879	2526.192768
845.707833	2527.695032
846.022745	2525.711338
846.337613	2530.129910
846.652438	2531.566638
846.967221	2534.233409
847.281960	2530.155115
847.596656	2533.096629
847.911309	2530.263500
848.225919	2530.616381
848.540485	2528.494055
848.855009	2530.013963
849.169490	2530.795342
849.483928	2530.066895
849.798323	2528.940197
850.112675	2530.208048
850.426984	2530.843233
850.741251	2532.978162
851.055474	2530.785260
851.369654	2531.037317
851.683792	2531.536392
851.997887	2530.639066
852.311938	2533.091588
852.625947	2528.839374
852.939914	2530.697039
853.253837	2533.104190
853.567718	2531.743079
853.881555	2528.655372
854.195350	2530.381967
854.509103	2531.145702
854.822812	2530.288706
855.136479	2529.608150
855.450103	2531.284334
855.763685	2530.152595
856.077224	2529.572862
856.390720	2530.573531
856.704173	2529.882893
857.017584	2530.046731
857.330953	2531.178470
857.644278	2530.215609
857.957561	2533.262987
858.270802	2531.226361
858.584000	2530.402132
858.897155	2530.094622
859.210268	2532.345497
859.523339	2531.380116
859.836367	2527.969775
860.149352	2530.939015
860.462295	2533.179808
860.775195	2528.612522
861.088054	2525.547501
861.400869	2527.102697
861.713642	2523.767973
862.026373	2528.937677
862.339062	2529.961031
862.651708	2533.174767
862.964312	2526.212933
863.276873	2529.787111
863.589392	2528.519261
863.901869	2526.878365
864.214303	2527.584127
864.526696	2532.201824
864.839045	2528.597399
865.151353	2530.656710
865.463619	2531.395239
865.775842	2530.439941
866.088023	2529.983716
866.400162	2531.042358
866.712258	2530.571011
867.024313	2529.313243
867.336325	2529.777029
867.648296	2529.552698
867.960224	2529.945908
868.272110	2530.571011
868.583954	2530.301309
868.895755	2530.571011
869.207515	2529.192255
869.519233	2530.785260
869.830909	2530.339118
870.142542	2530.016484
870.454134	2531.846423
870.765684	2533.073943
871.077191	2530.518078
871.388657	2532.244674
871.700081	2529.328366
872.011463	2529.971113
872.322803	2530.810465
872.634101	2529.915661
872.945357	2527.894158
873.256571	2530.659231
873.567744	2529.630835
873.878874	2531.289375
874.189963	2528.143695
874.501010	2532.408511
874.812015	2529.174611
875.122979	2531.125538
875.433900	2525.212264
875.744780	2529.807276
876.055618	2530.182842
876.366415	2531.743079
876.677169	2530.830630
876.987882	2529.875331
877.298554	2528.786442
877.609183	2530.576052
877.919771	2526.417100
878.230317	2527.080012
878.540822	2532.534540
878.851285	2528.100845
879.161707	2528.756195
879.472087	2530.450023
879.782425	2531.864067
880.092722	2531.450692
880.402977	2528.887265
880.713191	2531.145702
881.023363	2532.015301
881.333494	2534.919006
881.643583	2535.148378
881.953631	2534.800539
882.263637	2533.878008
882.573602	2532.148892
882.883526	2531.783408
883.193408	2532.340456
883.503248	2531.344828
883.813048	2529.499765
884.122806	2532.703419
884.432522	2532.683254
884.742197	2530.966741
885.051831	2531.589324
885.361424	2529.925743
885.670975	2529.923222
885.980485	2530.666793
886.289954	2531.115455
886.599382	2530.147554
886.908768	2529.829961
887.218113	2529.782070
887.527417	2528.090763
887.836680	2528.662934
888.145901	2527.984899
888.455082	2532.201824
888.764221	2529.749303
889.073319	2529.865249
889.382376	2529.625794
889.691392	2530.278624
890.000366	2530.901206
890.309300	2529.966072
890.618193	2530.064375
890.927044	2530.240815
891.235855	2530.298788
891.544625	2527.967255
891.853353	2532.247194
892.162041	2528.909950
892.470687	2531.359951
892.779293	2528.965403
893.087858	2528.466329
893.396381	2525.338293
893.704864	2526.349044
894.013306	2524.314939
894.321707	2532.085877
894.630068	2531.312060
894.938387	2531.700229
895.246665	2532.279962
895.554903	2529.744261
895.863100	2530.034128
896.171256	2530.054292
896.479371	2529.151926
896.787446	2527.415248
897.095480	2529.310722
897.403473	2527.480783
897.711425	2529.817358
898.019336	2531.213758
898.327207	2529.671165
898.635038	2529.686288
898.942827	2527.621936
899.250576	2531.017153
899.558284	2529.777029
899.865952	2530.820548
900.173579	2528.055475
900.481165	2529.993798
900.788711	2527.253931
901.096216	2530.208048
901.403681	2530.303829
901.711105	2528.305012
902.018489	2528.690660
902.325832	2530.447502
902.633135	2528.529343
902.940397	2527.586648
903.247619	2528.322656
903.554800	2528.846936
903.861941	2527.939528
904.169041	2528.821730
904.476101	2529.653521
904.783121	2531.523789
905.090100	2530.419776
905.397039	2530.301309
905.703938	2532.547143
906.010796	2527.992460
906.317614	2531.662420
906.624391	2528.025228
906.931129	2530.258459
907.237826	2531.627132
907.544483	2527.637059
907.851099	2526.727131
908.157675	2527.143026
908.464211	2530.369364
908.770707	2525.315608
909.077163	2523.573889
909.383578	2524.405679
909.689954	2524.014990
909.996289	2526.654034
910.302584	2530.452543
910.608839	2530.069416
910.915054	2527.321987
911.221229	2527.594209
911.527363	2526.666637
911.833458	2529.756864
912.139513	2528.665454
912.445527	2528.017666
912.751502	2528.857018
913.057436	2528.194107
913.363331	2528.884745
913.669186	2529.593027
913.975000	2530.623943
914.280775	2529.338448
914.586510	2528.857018
914.892205	2528.882224
915.197859	2529.535053
915.503475	2530.507996
915.809050	2531.183511
916.114585	2530.739889
916.420081	2529.101514
916.725536	2531.964890
917.030952	2530.994468
917.336328	2529.479601
917.641665	2530.545805
917.946961	2528.667975
918.252218	2527.044723
918.557435	2528.320135
918.862612	2529.517409
919.167750	2529.827440
919.472848	2529.895496
919.777906	2527.077491
920.082925	2531.425486
920.387904	2529.187214
920.692843	2529.832482
920.997743	2529.202337
921.302603	2530.931453
921.607423	2530.162677
921.912204	2528.930115
922.216946	2527.485824
922.521647	2527.798376
922.826310	2531.304498
923.130932	2530.583613
923.435516	2527.911802
923.740059	2531.236443
924.044564	2529.409025
924.349028	2529.466998
924.653454	2524.940042
924.957840	2527.271575
925.262186	2523.432737
925.566493	2530.485311
925.870761	2524.120854
926.174989	2526.739734
926.479178	2525.950793
926.783328	2531.702750
927.087438	2527.395084
927.391509	2529.658562
927.695541	2525.678571
927.999533	2527.412728
928.303486	2527.485824
928.607400	2527.473222
928.911275	2527.037162
929.215110	2528.315094
929.518906	2525.643283
929.822663	2530.843233
930.126381	2527.818541
930.430060	2527.823582
930.733699	2529.540095
931.037299	2526.855680
931.340861	2526.480114
931.644383	2529.247708
931.947866	2527.130423
932.251309	2527.039682
932.554714	2528.103366
932.858080	2530.387008
933.161407	2528.821730
933.464694	2527.911802
933.767943	2527.805938
934.071153	2529.013294
934.374323	2525.678571
934.677455	2530.389529
934.980548	2527.311905
935.283602	2527.856349
935.586617	2527.687471
935.889593	2528.635208
936.192530	2527.644621
936.495428	2526.666637
936.798287	2527.032121
937.101108	2525.923067
937.403890	2525.272758
937.706632	2528.904909
938.009336	2528.857018
938.312002	2528.370547
938.614628	2529.265352
938.917216	2529.086391
939.219765	2526.394415
939.522275	2528.002543
939.824747	2527.793335
940.127179	2525.718900
940.429573	2525.431554
940.731929	2522.482479
941.034246	2524.120854
941.336524	2525.227387
941.638763	2528.156298
941.940964	2526.848118
942.243126	2530.291227
942.545250	2525.292922
942.847335	2528.854498
943.149381	2529.139323
943.451389	2530.336597
943.753359	2528.640249
944.055290	2527.168232
944.357182	2531.105373
944.659036	2529.348531
944.960851	2530.016484
945.262628	2527.117820
945.564367	2526.417100
945.866067	2526.979188
946.167729	2529.477080
946.469352	2530.606299
946.770937	2527.649662
947.072484	2528.708304
947.373992	2528.539426
947.675462	2528.320135
947.976893	2527.949611
948.278286	2525.010618
948.579641	2528.652852
948.880958	2528.776360
949.182236	2526.606143
949.483476	2526.278468
949.784678	2528.907430
950.085841	2527.768129
950.386967	2528.423479
950.688054	2526.515402
950.989103	2528.393232
951.290114	2526.109589
951.591087	2527.387522
951.892021	2524.282171
952.192917	2528.015146
952.493776	2528.211751
952.794596	2529.151926
953.095378	2526.333921
953.396122	2528.002543
953.696828	2526.805269
953.997496	2528.839374
954.298126	2527.256452
954.598718	2527.551359
954.899272	2528.244518
955.199788	2530.160157
955.500266	2524.579599
955.800706	2522.737057
956.101108	2523.233611
956.401472	2524.256965
956.701798	2524.405679
957.002087	2526.023890
957.302337	2525.565145
957.602550	2527.049765
957.902724	2527.836185
958.202861	2527.311905
958.502960	2526.754857
958.803022	2528.259642
959.103045	2527.001874
959.403031	2527.054806
959.702979	2523.982223
960.002889	2527.894158
960.302762	2525.943231
960.602596	2526.656555
960.902393	2525.723941
961.202153	2526.898530
961.501875	2527.977337
961.801559	2528.531864
962.101205	2526.659075
962.400814	2526.981709
962.700385	2530.497914
962.999918	2526.621267
963.299414	2528.355423
963.598873	2526.240659
963.898293	2529.910619
964.197677	2525.781914
964.497022	2528.675537
964.796331	2527.385001
965.095601	2524.894671
965.394835	2529.353572
965.694030	2525.363499
965.993189	2528.776360
966.292309	2525.262676
966.591393	2529.721576
966.890439	2526.850639
967.189447	2524.355268
967.488419	2525.928108
967.787353	2528.297450
968.086249	2525.638242
968.385108	2527.074970
968.683930	2527.203520
968.982714	2527.324508
969.281462	2525.451719
969.580172	2527.395084
969.878844	2526.628828
970.177480	2525.439116
970.476078	2525.635721
970.774639	2527.475742
971.073162	2525.492048
971.371649	2522.321162
971.670098	2522.215298
971.968510	2523.720082
972.266885	2518.938548
972.565223	2526.853160
972.863524	2526.966586
973.161788	2525.807120
973.460014	2523.838550
973.758204	2528.118489
974.056356	2528.504138
974.354471	2526.349044
974.652550	2530.450023
974.950591	2526.769981
975.248595	2526.086904
975.546563	2527.168232
975.844493	2528.178983
976.142386	2527.548839
976.440243	2525.260155
976.738062	2526.497758
977.035845	2524.771163
977.333590	2527.286699
977.631299	2522.651358
977.928971	2527.818541
978.226606	2528.201668
978.524204	2525.519774
978.821765	2527.206040
979.119290	2524.569517
979.416777	2527.236287
979.714228	2526.835516
980.011642	2527.200999
980.309020	2528.378109
980.606360	2526.591020
980.903664	2525.749147
981.200931	2523.044568
981.498162	2526.752337
981.795356	2525.008097
982.092513	2529.071267
982.389633	2525.620598
982.686717	2526.636390
982.983764	2526.467511
983.280775	2524.904754
983.577749	2527.342152
983.874686	2526.096987
984.171587	2525.804600
984.468451	2528.307532
984.765279	2527.037162
985.062070	2524.211595
985.358824	2529.144364
985.655543	2527.591689
985.952224	2525.010618
986.248869	2524.309897
986.545478	2521.731347
986.842050	2522.505164
987.138586	2523.281502
987.435086	2524.297295
987.731549	2521.872500
988.027975	2526.953983
988.324366	2527.876514
988.620719	2526.880886
988.917037	2524.652696
989.213318	2525.789476
989.509563	2527.390042
989.805772	2527.856349
990.101944	2524.756040
990.398080	2528.070598
990.694180	2524.602284
990.990244	2526.044054
991.286271	2524.526667
991.582262	2526.757378
991.878217	2524.786287
992.174136	2526.419620
992.470019	2524.163704
992.765865	2526.152439
993.061676	2524.793848
993.357450	2528.768798
993.653188	2527.170752
993.948890	2526.918695
994.244556	2524.098169
994.540186	2527.964734
994.835780	2525.582789
995.131337	2527.672347
995.426859	2526.522964
995.722345	2525.960875
996.017795	2525.860052
996.313208	2527.294261
996.608586	2526.333921
996.903928	2525.300484
997.199234	2525.983561
997.494504	2523.830988
997.789738	2525.945752
998.084936	2525.504651
998.380099	2527.122861
998.675225	2525.161852
998.970316	2526.643952
999.265371	2523.551204
999.560390	2525.741585
999.855373	2527.813499
1000.150320	2526.893489
1000.445232	2528.468849
1000.740108	2526.618746
1001.034948	2525.600433
1001.329752	2522.946265
1001.624521	2527.059847
1001.919254	2518.867972
1002.213951	2525.597912
1002.508613	2522.646317
1002.803239	2525.441637
1003.097829	2520.496265
1003.392384	2523.102541
1003.686903	2524.740916
1003.981386	2528.035310
1004.275834	2527.165711
1004.570246	2526.152439
1004.864623	2524.246883
1005.158964	2524.677902
1005.453270	2525.124044
1005.747540	2523.014321
1006.041775	2525.552542
1006.335974	2524.967768
1006.630138	2524.947603
1006.924266	2526.091945
1007.218359	2524.801410
1007.512416	2525.474404
1007.806438	2525.736544
1008.100425	2525.555063
1008.394376	2525.635721
1008.688292	2525.466842
1008.982172	2527.011956
1009.276017	2524.524147
1009.569827	2524.307377
1009.863602	2525.943231
1010.157341	2525.577748
1010.451045	2526.664116
1010.744714	2524.902233
1011.038347	2526.641431
1011.331945	2526.336441
1011.625508	2526.432223
1011.919036	2525.219826
1012.212528	2526.129754
1012.505986	2525.126564
1012.799408	2523.510875
1013.092795	2524.365350
1013.386147	2525.718900
1013.679464	2524.700587
1013.972745	2526.533046
1014.265992	2525.539939
1014.559204	2525.948273
1014.852380	2525.507172
1015.145521	2526.769981
1015.438628	2525.134126
1015.731699	2524.667819
1016.024736	2525.870135
1016.317737	2526.979188
1016.610703	2525.124044
1016.903635	2523.881399
1017.196531	2522.817716
1017.489393	2524.045237
1017.782219	2519.145235
1018.075011	2524.980371
1018.367768	2525.875176
1018.660490	2525.940711
1018.953177	2525.940711
1019.245829	2525.940711
