Dividing Wavelength (nm)	Counts (n)	Blue Motor Position (mm): 0.000000	Red Motor Position (mm): 42.400000	
326.493990	2127.954218
326.888308	2127.954218
327.282561	2127.954218
327.676750	2095.998343
328.070874	2093.815524
328.464933	2096.941039
328.858929	2101.324322
329.252859	2112.631630
329.646726	2125.708383
330.040528	2136.405712
330.434265	2156.441778
330.827938	2170.889725
331.221547	2189.534432
331.615091	2210.125025
332.008571	2227.620350
332.401986	2248.185737
332.795338	2266.028901
333.188625	2286.107817
333.581847	2303.961063
333.975006	2322.033599
334.368100	2342.258709
334.761129	2358.702953
335.154095	2377.110726
335.546996	2397.247615
335.939833	2419.511871
336.332606	2433.803542
336.725315	2445.151179
337.117960	2454.936059
337.510540	2466.714715
337.903056	2474.785602
338.295508	2481.318938
338.687896	2492.235556
339.080220	2500.056906
339.472480	2506.302896
339.864676	2510.177023
340.256807	2515.994514
340.648875	2518.396624
341.040879	2522.232942
341.432818	2519.298991
341.824694	2523.818385
342.216506	2523.193282
342.608253	2523.175638
342.999937	2523.896523
343.391557	2522.583302
343.783113	2521.658251
344.174605	2521.912829
344.566033	2519.298991
344.957397	2520.274454
345.348697	2512.639626
345.739934	2516.644823
346.131106	2515.533249
346.522215	2514.898063
346.913260	2511.031498
347.304241	2510.749194
347.695159	2506.875067
348.086012	2505.826507
348.476802	2499.973727
348.867528	2503.005981
349.258191	2496.187821
349.648789	2499.608244
350.039324	2497.047338
350.429796	2499.532626
350.820203	2497.309477
351.210548	2495.764364
351.600828	2494.925012
351.991045	2494.655310
352.381198	2491.378560
352.771288	2492.898468
353.161314	2491.053406
353.551276	2494.683036
353.941175	2490.967706
354.331010	2493.876452
354.720782	2492.056595
355.110490	2492.371667
355.500135	2492.117089
355.889717	2493.349651
356.279235	2492.227994
356.668689	2493.347131
357.058080	2493.765546
357.447408	2493.321925
357.836672	2491.439054
358.225873	2492.268324
358.615010	2491.141626
359.004084	2499.310816
359.393095	2497.886690
359.782043	2496.044148
360.170927	2498.572287
360.559748	2499.633449
360.948505	2496.601195
361.337199	2500.160250
361.725830	2499.199910
362.114398	2502.643018
362.502903	2501.647390
362.891344	2504.036897
363.279722	2502.363234
363.668037	2501.735611
364.056289	2502.756444
364.444478	2505.602176
364.832603	2504.770385
365.220665	2506.698627
365.608665	2505.960097
365.996601	2506.118894
366.384474	2509.635099
366.772284	2509.829183
367.160031	2511.132321
367.547715	2513.526869
367.935336	2514.278001
368.322893	2518.915863
368.710388	2519.223373
369.097820	2527.788294
369.485189	2529.139323
369.872495	2539.188863
370.259738	2544.446787
370.646918	2551.582540
371.034035	2557.760474
371.421090	2570.159192
371.808081	2579.092116
372.195010	2588.251893
372.581875	2601.134562
372.968678	2613.981942
373.355418	2623.930659
373.742096	2643.495377
374.128710	2657.439209
374.515262	2672.711384
374.901751	2687.391224
375.288177	2701.214068
375.674540	2723.611915
376.060841	2740.099008
376.447079	2759.963675
376.833254	2780.367745
377.219367	2792.708490
377.605417	2828.404900
377.991404	2840.024760
378.377329	2862.576362
378.763191	2879.575133
379.148991	2919.004517
379.534727	2942.944957
379.920402	2968.667444
380.306013	2983.133035
380.691563	3029.982999
381.077049	3053.787327
381.462474	3072.689133
381.847835	3110.918724
382.233134	3134.045017
382.618371	3133.498052
383.003545	3203.116386
383.388657	3209.871532
383.773706	3242.084506
384.158693	3255.138573
384.543618	3281.718057
384.928480	3319.372956
385.313280	3366.333824
385.698017	3366.497662
386.082692	3416.710075
386.467305	3422.141918
386.851856	3456.943524
387.236344	3476.326760
387.620770	3511.193901
388.005133	3533.276675
388.389435	3559.170562
388.773674	3575.730752
389.157851	3616.949747
389.541965	3629.716469
389.926018	3595.900409
390.310008	3667.268024
390.693936	3683.845858
391.077802	3727.512333
391.461606	3715.597566
391.845348	3776.764406
392.229027	3775.521762
392.612645	3791.308135
392.996200	3863.600802
393.379694	3909.200559
393.763125	3972.376299
394.146494	3938.993778
394.529801	4005.395856
394.913047	4049.510994
395.296230	4016.143596
395.679351	4067.490269
396.062410	4093.048919
396.445408	4077.496959
396.828343	4108.129531
397.211217	4133.781442
397.594028	4051.101478
397.976778	4119.882981
398.359466	4147.150582
398.742092	4177.142927
399.124656	4096.358436
399.507158	4177.979758
399.889598	4200.833829
400.271977	4261.872120
400.654294	4234.702821
401.036549	4242.249429
401.418742	4215.364955
401.800874	4312.659224
402.182944	4337.060930
402.564952	4404.589706
402.946898	4386.675966
403.328783	4382.738825
403.710606	4293.575937
404.092367	4489.316379
404.474067	4455.238179
404.855705	4463.591371
405.237282	4391.709558
405.618797	4501.916743
406.000250	4532.849263
406.381642	4617.563332
406.762972	4575.174790
407.144240	4589.781534
407.525447	4589.458900
407.906593	4650.789578
408.287677	4690.171071
408.668700	4619.236996
409.049661	4671.284388
409.430560	4712.402560
409.811399	4639.578051
410.192176	4800.247186
410.572891	4736.776539
410.953545	4844.085060
411.334138	4724.380341
411.714669	4790.860558
412.095139	4686.158313
412.475547	4825.077389
412.855894	4806.162980
413.236180	4814.153209
413.616405	4770.111168
413.996568	4859.831104
414.376670	4801.525119
414.756711	4753.374538
415.136691	4785.622799
415.516609	4860.279767
415.896466	4900.238473
416.276262	4934.581333
416.655997	4913.784053
417.035670	5098.834728
417.415283	5189.794788
417.794834	5133.709431
418.174324	5087.275363
418.553753	4993.469572
418.933121	5177.270041
419.312428	5247.268983
419.691674	5184.889745
420.070859	5308.750895
420.449983	5221.120518
420.829045	5337.513198
421.208047	5246.417028
421.586988	5316.637780
421.965867	5331.279812
422.344686	5457.406960
422.723444	5314.676772
423.102141	5132.786900
423.480777	5432.249082
423.859352	5202.697621
424.237866	5461.414678
424.616319	5449.444458
424.994712	5559.704575
425.373044	5437.696049
425.751314	5583.365230
426.129524	5382.606320
426.507673	5577.885496
426.885762	5660.260471
427.263789	5596.628506
427.641756	5473.218539
428.019662	5596.671356
428.397508	5603.945741
428.775292	5551.152257
429.153016	5646.669520
429.530679	5572.698149
429.908282	5663.214587
430.285824	5533.828332
430.663305	5807.033665
431.040726	5542.728489
431.418086	5542.539446
431.795385	5647.400487
432.172624	5658.826262
432.549802	5653.457433
432.926920	5667.492006
433.303977	5670.025186
433.680974	5713.341300
434.057910	5730.095575
434.434786	5737.687553
434.811601	5705.189754
435.188355	5940.402431
435.565050	5813.191434
435.941683	5796.043949
436.318257	6008.405076
436.694770	5995.870247
437.071222	6024.897211
437.447614	5957.146623
437.823946	5871.585640
438.200218	6026.984248
438.576429	5890.411829
438.952580	5989.251212
439.328670	6031.279311
439.704700	5944.110200
440.080670	5923.517086
440.456580	6198.612852
440.832429	6084.312250
441.208218	5930.814156
441.583947	6080.213792
441.959616	6094.553354
442.335224	6015.596282
442.710773	6154.689278
443.086261	6177.888668
443.461689	5974.498275
443.837057	6122.196521
444.212365	6279.218381
444.587612	6170.828532
444.962800	6327.563046
445.337927	6302.369880
445.712995	5915.224388
446.088002	6492.789384
446.462949	6321.924516
446.837837	6252.860708
447.212664	6424.214568
447.587431	6562.468213
447.962139	7108.969619
448.336786	8038.470168
448.711374	7778.029037
449.085901	6844.982036
449.460369	6769.717609
449.834776	6708.679318
450.209124	7100.790347
450.583412	7252.496310
450.957640	7400.013074
451.331808	7159.991137
451.705917	6716.054526
452.079965	6636.358925
452.453954	6843.636048
452.827883	6727.034159
453.201752	6816.859959
453.575562	6613.164576
453.949311	6819.846843
454.323001	6709.964813
454.696632	6782.348220
455.070202	6919.573469
455.443713	7083.229487
455.817164	7179.449991
456.190556	7258.016373
456.563888	7331.241654
456.937160	7374.222531
457.310373	7034.645367
457.683526	7059.112607
458.056619	6949.820392
458.429653	6936.340347
458.802628	6872.053032
459.175542	6981.937583
459.548398	7334.452869
459.921194	7497.488825
460.293930	7499.391861
460.666607	8032.234261
461.039224	8342.393772
461.411782	8464.356927
461.784280	8494.147626
462.156719	8372.565077
462.529099	8252.683918
462.901419	7847.203750
463.273680	7736.389106
463.645882	7746.567196
464.018024	7611.134077
464.390106	7779.438039
464.762130	8165.456833
465.134094	8635.892269
465.505999	9664.000308
465.877845	10880.052644
466.249631	11527.583815
466.621358	11146.185238
466.993026	10514.165698
467.364634	10261.273695
467.736184	9892.934228
468.107674	9560.114730
468.479105	9598.437582
468.850477	9361.820943
469.221790	9131.704873
469.593043	8810.064134
469.964238	8667.263369
470.335373	8677.242333
470.706449	8735.457578
471.077467	8716.228097
471.448425	10027.018838
471.819324	11097.172620
472.190164	11133.622683
472.560945	9876.918482
472.931667	9082.863654
473.302330	8950.828273
473.672934	8595.749561
474.043479	8955.080487
474.413965	8896.955983
474.784393	8777.626830
475.154761	8935.858567
475.525070	9016.363273
475.895321	8847.351029
476.265513	9027.085808
476.635645	9192.952372
477.005719	9192.082773
477.375734	9311.180033
477.745691	9540.219816
478.115588	9673.341566
478.485427	9923.352550
478.855207	10455.567326
479.224928	11274.606112
479.594591	11906.492061
479.964194	11724.725698
480.333739	11651.361786
480.703226	11567.865155
481.072653	11656.312199
481.442022	11899.749518
481.811333	12093.304620
482.180584	11896.835731
482.549777	11604.340423
482.918912	11423.216807
483.287988	11455.845675
483.657005	11464.226593
484.025964	11144.372943
484.394864	11276.312542
484.763706	11247.769529
485.132489	11005.209371
485.501213	10965.285953
485.869879	11044.560618
486.238487	10875.744978
486.607036	10997.141004
486.975527	10773.666654
487.343959	10966.473145
487.712333	11016.342759
488.080648	10937.723444
488.448905	10988.702113
488.817104	10919.509756
489.185244	11188.795591
489.553326	11342.681853
489.921350	11879.282433
490.289315	12937.728136
490.657222	13292.496818
491.025070	13187.857587
491.392861	13065.284452
491.760593	12691.619005
492.128267	12345.455574
492.495883	12015.602795
492.863440	11678.150477
493.230939	11340.481390
493.598380	11273.302974
493.965763	11142.240535
494.333088	11043.733869
494.700354	10960.083482
495.067563	11024.436332
495.434713	10852.200269
495.801805	10974.954886
496.168839	10901.154914
496.535815	10835.045223
496.902733	10831.360139
497.269593	10771.491396
497.636395	10875.724814
498.003139	10858.501712
498.369825	10727.595549
498.736453	10878.137006
499.103023	10806.532457
499.469535	10840.361120
499.835989	10836.602939
500.202385	10786.350197
500.568723	10642.392487
500.935003	10862.330468
501.301226	10666.758905
501.667390	10937.403331
502.033497	11025.532783
502.399546	10879.188087
502.765537	10792.815477
503.131470	10865.277023
503.497345	11045.989785
503.863163	10651.101081
504.228923	10960.380910
504.594625	11025.890705
504.960269	10776.663620
505.325856	10995.356436
505.691385	10782.808787
506.056856	10946.507655
506.422270	10969.613784
506.787625	10853.561381
507.152924	10973.860956
507.518164	10958.762700
507.883347	10875.104752
508.248472	10800.291508
508.613540	11035.380677
508.978550	10909.966851
509.343503	10886.885928
509.708398	11003.318938
510.073236	11114.070568
510.438016	11117.543923
510.802738	11070.709083
511.167403	11119.910744
511.532010	11016.998109
511.896561	11257.599779
512.261053	11326.240130
512.625488	11192.707527
512.989866	11168.477221
513.354186	11165.354226
513.718449	11067.961654
514.082655	11260.311920
514.446803	11149.386371
514.810894	11280.474015
515.174927	11145.789508
515.538904	11164.141828
515.902822	11324.879019
516.266684	11204.284536
516.630488	11147.178346
516.994235	11200.322189
517.357925	11264.017168
517.721558	11359.146262
518.085133	11369.851152
518.448651	11380.072092
518.812112	11258.101374
519.175516	11280.204313
519.538863	11392.332178
519.902152	11309.248921
520.265385	11473.106586
520.628560	11385.425797
520.991678	11364.353774
521.354739	11421.719584
521.717743	11360.751869
522.080690	11332.216418
522.443580	11475.080198
522.806413	11426.019688
523.169189	11452.989861
523.531908	11508.434992
523.894569	11331.825729
524.257174	11334.033754
524.619722	11462.787344
524.982213	11403.770556
525.344647	11455.190325
525.707025	11403.626883
526.069345	11499.270174
526.431608	11414.868656
526.793815	11524.339832
527.155964	11314.990795
527.518057	11366.098013
527.880093	11314.400980
528.242072	11388.624409
528.603995	11295.612600
528.965860	11211.163191
529.327669	11270.605956
529.689421	11210.056657
530.051117	11181.687564
530.412755	11293.606221
530.774337	11176.469970
531.135862	11160.189564
531.497331	11187.250477
531.858743	11038.009638
532.220098	11196.105264
532.581396	11066.103989
532.942638	11058.680890
533.303824	11020.448779
533.664953	11032.643330
534.026025	10942.439444
534.387040	11042.045082
534.747999	11041.288909
535.108902	11102.617066
535.469748	10857.690086
535.830537	10966.889040
536.191270	10938.666140
536.551947	10965.689245
536.912567	10963.592125
537.273131	10889.260312
537.633638	10870.645851
537.994089	10852.883346
538.354483	10798.088524
538.714821	10953.421598
539.075103	10957.983842
539.435328	10915.713767
539.795497	10751.339384
540.155609	10905.989381
540.515665	10991.794861
540.875665	10725.929448
541.235609	10800.805706
541.595496	10797.705396
541.955328	10950.825403
542.315102	10829.058853
542.674821	10781.591348
543.034483	10789.374890
543.394090	10790.010075
543.753640	10712.192304
544.113134	10941.564804
544.472571	10785.208376
544.831953	10932.599112
545.191278	10742.550132
545.550548	10779.849629
545.909761	10905.139947
546.268918	10887.180836
546.628019	10960.431322
546.987064	10827.584315
547.346053	10749.751420
547.704986	10852.265804
548.063863	10833.737043
548.422684	10822.207925
548.781449	10740.185831
549.140158	10846.168529
549.498811	10730.710982
549.857408	10578.705070
550.215949	10808.100256
550.574434	10658.877061
550.932864	10756.241906
551.291237	10816.345063
551.649555	10758.182750
552.007817	10773.780080
552.366022	10737.574513
552.724173	10728.883564
553.082267	10711.262211
553.440305	10849.354538
553.798288	10654.645012
554.156215	10809.524382
554.514086	10788.928748
554.871902	10634.800510
555.229661	10664.099696
555.587365	10649.676955
555.945014	10539.946159
556.302606	10669.012300
556.660143	10566.444984
557.017625	10715.335463
557.375050	10618.056317
557.732421	10745.428631
558.089735	10662.063070
558.446994	10666.564820
558.804197	10693.141783
559.161345	10704.086128
559.518437	10552.864116
559.875474	10640.302929
560.232455	10661.246403
560.589381	10620.002203
560.946251	10613.224371
561.303065	10719.607841
561.659825	10658.176340
562.016528	10587.769065
562.373177	10471.149532
562.729770	10574.508310
563.086307	10497.968471
563.442789	10591.640671
563.799216	10469.992588
564.155587	10513.545636
564.511904	10469.944697
564.868164	10462.912287
565.224370	10476.772940
565.580520	10397.710003
565.936615	10411.820193
566.292654	10276.127455
566.648638	10406.166539
567.004567	10362.903357
567.360441	10349.612354
567.716260	10255.574671
568.072023	10349.629998
568.427732	10308.005191
568.783385	10209.927023
569.138982	10277.929667
569.494525	10300.914808
569.850013	10180.537096
570.205445	10264.626062
570.560823	10152.057097
570.916145	10083.378937
571.271412	10140.515375
571.626625	10086.413712
571.981782	10063.791534
572.336884	10037.151557
572.691931	10045.293020
573.046923	9985.383948
573.401860	9943.756620
573.756743	9882.002485
574.111570	9925.056460
574.466342	9914.575901
574.821059	9939.408625
575.175722	9830.597840
575.530330	9840.455816
575.884882	9832.689918
576.239380	9758.642930
576.593823	9738.667358
576.948211	9757.652343
577.302544	9629.816244
577.656823	9642.275455
578.011047	9642.391402
578.365216	9616.038770
578.719330	9547.400940
579.073389	9553.755314
579.427394	9505.224126
579.781344	9484.232762
580.135239	9430.229401
580.489080	9441.698026
580.842866	9340.418725
581.196597	9341.769754
581.550273	9386.792299
581.903895	9351.587401
582.257463	9423.139018
582.610975	9295.970871
582.964434	9321.922731
583.317837	9240.666893
583.671186	9227.718689
584.024481	9218.896670
584.377721	9143.430597
584.730906	9117.798850
585.084037	9146.891349
585.437113	9081.124456
585.790135	9106.960370
586.143103	9006.681737
586.496016	8973.763003
586.848874	9034.123258
587.201679	9020.791927
587.554428	8909.440400
587.907124	8955.234242
588.259765	8926.812216
588.612352	8928.629552
588.964884	8807.442734
589.317362	8819.123088
589.669786	8817.363725
590.022155	8867.762661
590.374470	8881.514928
590.726731	8822.999735
591.078937	8667.102052
591.431090	8790.133933
591.783188	8657.677615
592.135232	8650.809043
592.487222	8644.825194
592.839157	8699.128503
593.191038	8630.588975
593.542866	8580.305986
593.894639	8474.451838
594.246358	8529.617184
594.598022	8547.208291
594.949633	8441.195346
595.301190	8421.497037
595.652692	8443.332795
596.004141	8553.655926
596.355535	8331.603182
596.706876	8307.987897
597.058162	8243.577074
597.409395	8322.019948
597.760573	8376.010706
598.111698	8286.061398
598.462768	8277.206611
598.813785	8237.938543
599.164748	8210.537352
599.515657	8202.690796
599.866511	8108.564892
600.217312	8235.836382
600.568060	8088.337262
600.918753	8193.644445
601.269392	8162.578334
601.619978	8074.862257
601.970510	8137.307030
602.320988	8133.284189
602.671412	8187.952982
603.021783	8122.849001
603.372100	8098.172553
603.722363	8098.560722
604.072572	8073.972494
604.422728	8085.249555
604.772830	8013.022423
605.122878	8014.113833
605.472872	8015.573247
605.822813	8043.450828
606.172701	7986.722724
606.522534	8057.135040
606.872314	8054.914412
607.222041	8032.627471
607.571714	8078.033143
607.921333	8039.029736
608.270899	8044.864872
608.620411	8132.621278
608.969870	8031.808283
609.319276	8021.115996
609.668627	8039.100312
610.017926	8075.101712
610.367171	8120.293136
610.716362	8091.107376
611.065500	8083.888443
611.414585	8102.760003
611.763616	8097.517203
612.112594	8073.642298
612.461518	8084.448012
612.810389	8145.909759
613.159207	8079.600942
613.507971	8029.348200
613.856682	8141.153431
614.205340	8095.147861
614.553945	8169.451948
614.902496	8064.928664
615.250994	8112.202084
615.599439	8095.241122
615.947830	8108.446424
616.296169	8073.859068
616.644454	8087.596212
616.992686	8076.382165
617.340864	8132.432234
617.688990	8025.617746
618.037063	8123.927808
618.385082	8063.670896
618.733048	8141.942371
619.080961	8078.010458
619.428821	8098.611133
619.776628	8093.897654
620.124382	8042.150210
620.472083	8017.418309
620.819731	8046.785551
621.167326	7933.399919
621.514868	7948.036909
621.862357	7830.454516
622.209793	7844.156372
622.557176	7777.287987
622.904506	7741.639468
623.251783	7676.018768
623.599007	7630.177036
623.946179	7631.757437
624.293297	7577.315496
624.640363	7496.969586
624.987376	7476.076524
625.334336	7425.213803
625.681243	7362.451437
626.028097	7351.847370
626.374899	7331.229051
626.721647	7313.204405
627.068343	7249.189313
627.414987	7212.230094
627.761577	7165.075141
628.108115	7191.654624
628.454600	7087.451454
628.801032	7125.668441
629.147412	7087.358192
629.493739	7066.492857
629.840014	7001.653536
630.186236	7044.200874
630.532405	6934.041580
630.878521	6967.333360
631.224585	6926.444562
631.570597	6848.987233
631.916556	6867.158072
632.262462	6860.410487
632.608316	6816.870042
632.954117	6785.887110
633.299866	6766.206445
633.645562	6751.965186
633.991206	6673.456776
634.336797	6617.396625
634.682336	6568.139511
635.027823	6537.189347
635.373257	6516.941552
635.718639	6447.348423
636.063968	6458.922913
636.409245	6359.067737
636.754470	6350.396953
637.099642	6302.518594
637.444762	6241.833184
637.789829	6245.399800
638.134845	6191.242685
638.479808	6162.024157
638.824719	6166.601525
639.169577	6096.852120
639.514383	6108.782011
639.859137	6035.738212
640.203839	6037.608480
640.548489	6011.417165
640.893086	5989.606613
641.237632	5960.378003
641.582125	5966.066945
641.926566	5934.668118
642.270955	5940.450322
642.615292	5929.611841
642.959576	5933.992604
643.303809	5921.329225
643.647990	5913.936373
643.992118	5902.001442
644.336195	5846.059757
644.680219	5857.319174
645.024192	5845.018759
645.368112	5919.811838
645.711981	5925.909114
646.055797	5985.682075
646.399562	5939.008552
646.743274	6035.299632
647.086935	6070.605352
647.430544	6058.262087
647.774101	6064.775258
648.117606	6069.564354
648.461059	6046.662392
648.804460	6006.428943
649.147810	5929.667294
649.491108	5893.018105
649.834354	5863.799578
650.177548	5786.279234
650.520690	5711.808789
650.863781	5680.392318
651.206820	5686.413977
651.549807	5617.589624
651.892742	5559.727260
652.235626	5559.409667
652.578458	5534.796234
652.921238	5452.012926
653.263967	5480.445033
653.606644	5430.472075
653.949269	5416.316515
654.291843	5360.266446
654.634365	5394.447990
654.976836	5336.958672
655.319255	5338.879351
655.661622	5309.481862
656.003938	5293.473678
656.346203	5256.355663
656.688416	5271.595071
657.030577	5229.783741
657.372687	5196.476837
657.714746	5182.379251
658.056753	5210.985278
658.398708	5149.362213
658.740612	5142.793590
659.082465	5162.549872
659.424266	5156.107277
659.766016	5148.023787
660.107715	5112.670175
660.449362	5117.648315
660.790958	5104.949648
661.132503	5087.519859
661.473996	5100.962095
661.815438	5089.178398
662.156829	5078.634825
662.498168	5066.435233
662.839456	5042.048651
663.180693	5057.928286
663.521879	5054.492739
663.863013	5036.334503
664.204097	5034.572620
664.545129	5058.192946
664.886110	5043.457653
665.227040	5054.182708
665.567918	5031.479872
665.908746	5034.696128
666.249522	5032.319224
666.590248	5018.146020
666.930922	5022.970404
667.271545	5024.833111
667.612118	5017.457903
667.952639	4992.330271
668.293109	4991.621989
668.633528	4958.181495
668.973896	4954.007420
669.314213	4937.248104
669.654480	4911.674330
669.994695	4901.750819
670.334859	4891.340836
670.674973	4866.072052
671.015035	4868.635479
671.355047	4854.033777
671.695008	4835.157177
672.034918	4817.755113
672.374777	4817.336698
672.714585	4796.224345
673.054342	4788.828973
673.394049	4770.428761
673.733705	4788.264363
674.073310	4759.776803
674.412864	4737.726796
674.752368	4715.429773
675.091820	4710.557497
675.431223	4662.437163
675.770574	4658.530269
676.109875	4620.068786
676.449125	4604.801652
676.788324	4582.857509
677.127473	4538.628946
677.466571	4523.709651
677.805619	4509.672558
678.144616	4486.727746
678.483562	4468.559428
678.822458	4442.786529
679.161303	4427.849590
679.500098	4415.445831
679.838842	4400.052668
680.177535	4392.206112
680.516179	4402.308584
680.854771	4394.136873
681.193314	4436.648924
681.531805	4497.541021
681.870247	4571.661106
682.208638	4629.362153
682.546978	4626.385352
682.885268	4604.166466
683.223508	4541.152043
683.561697	4500.933718
683.899836	4477.129389
684.237925	4442.244605
684.575963	4417.134617
684.913951	4388.652098
685.251889	4402.734561
685.589776	4392.939599
685.927614	4367.287688
686.265401	4392.553951
686.603137	4376.777660
686.940824	4415.672683
687.278460	4423.103343
687.616046	4420.751645
687.953582	4451.606027
688.291068	4435.365950
688.628504	4454.534938
688.965889	4435.741516
689.303224	4399.092328
689.640510	4358.188405
689.977745	4309.387516
690.314930	4244.253287
690.652065	4206.610992
690.989150	4155.460924
691.326185	4096.794496
691.663170	4053.672466
692.000105	4006.129344
692.336990	3963.944969
692.673825	3937.098304
693.010610	3896.486769
693.347345	3862.874875
693.684030	3828.224504
694.020665	3808.974858
694.357251	3760.937703
694.693786	3756.814040
695.030272	3737.173704
695.366707	3709.013819
695.703093	3688.408102
696.039429	3695.238866
696.375716	3674.895290
696.711952	3662.007580
697.048139	3653.520797
697.384276	3635.813744
697.720363	3639.576966
698.056400	3631.939618
698.392388	3606.829630
698.728326	3601.370061
699.064214	3582.097730
699.400053	3571.322263
699.735842	3544.213458
700.071581	3528.981612
700.407270	3514.155579
700.742910	3496.302332
701.078501	3473.874239
701.414042	3458.163483
701.749533	3439.422993
702.084974	3413.715629
702.420366	3424.788524
702.755709	3396.593350
703.091002	3371.833723
703.426246	3378.664487
703.761440	3358.946013
704.096584	3346.595187
704.431679	3343.270546
704.766725	3333.536078
705.101721	3324.411589
705.436668	3330.050120
705.771565	3309.530103
706.106413	3317.517811
706.441212	3322.296825
706.775961	3319.123419
707.110661	3317.482523
707.445311	3327.708504
707.779913	3324.409068
708.114465	3331.335614
708.448967	3344.913962
708.783421	3365.988505
709.117825	3376.776575
709.452180	3379.667676
709.786485	3394.579409
710.120742	3429.204575
710.454949	3425.438833
710.789107	3446.392389
711.123216	3471.525061
711.457275	3473.186121
711.791286	3500.073115
712.125247	3497.701252
712.459159	3472.636636
712.793023	3499.591685
713.126837	3458.458390
713.460602	3452.038481
713.794318	3429.920418
714.127985	3414.494488
714.461602	3370.253322
714.795171	3356.312011
715.128691	3320.781958
715.462162	3292.382618
715.795584	3265.402363
716.128957	3251.468613
716.462281	3231.803072
716.795556	3213.977552
717.128782	3193.265972
717.461960	3163.480314
717.795088	3159.812875
718.128167	3145.700165
718.461198	3120.474231
718.794180	3115.677573
719.127113	3100.836416
719.459997	3091.253182
719.792833	3072.028742
720.125619	3065.195458
720.458357	3050.117367
720.791046	3043.616799
721.123686	3033.864687
721.456278	3022.217101
721.788821	3020.919004
722.121315	3010.846779
722.453761	3004.378978
722.786158	2997.616270
723.118506	3002.549039
723.450805	2989.714262
723.783056	2998.397649
724.115259	2996.058554
724.447412	2993.096876
724.779518	2992.650734
725.111574	2992.502020
725.443582	2999.650376
725.775542	2993.381701
726.107453	3005.762775
726.439315	3004.252949
726.771129	3017.183509
727.102895	3026.812113
727.434612	3033.746220
727.766281	3038.772250
728.097901	3041.862478
728.429473	3033.358051
728.760996	3032.029707
729.092471	3027.734644
729.423897	3021.269364
729.755276	3013.911800
730.086606	3013.372397
730.417887	3024.692308
730.749120	3041.610420
731.080305	3051.173489
731.411442	3061.480128
731.742530	3051.107954
732.073570	3048.743653
732.404562	3059.655230
732.735506	3053.391597
733.066401	3042.916079
733.397249	3017.198633
733.728048	2986.813078
734.058798	2953.881740
734.389501	2931.544388
734.720156	2910.295924
735.050762	2897.067936
735.381320	2891.447050
735.711831	2879.754093
736.042293	2868.484594
736.372707	2870.622043
736.703073	2860.794314
737.033391	2860.673326
737.363661	2866.163143
737.693883	2867.640201
738.024056	2874.337374
738.354182	2875.612786
738.684260	2886.133674
739.014290	2894.806979
739.344272	2895.754716
739.674207	2905.983217
740.004093	2906.573032
740.333931	2905.766447
740.663722	2899.283523
740.993464	2897.483832
741.323159	2889.072666
741.652806	2875.307796
741.982405	2866.901672
742.311956	2856.413551
742.641460	2848.534228
742.970915	2838.116683
743.300323	2825.964982
743.629683	2815.015596
743.958996	2808.986376
744.288260	2799.516568
744.617477	2789.978705
744.946647	2782.595935
745.275768	2773.599996
745.604842	2769.390633
745.933869	2763.094232
746.262847	2756.470156
746.591778	2761.864190
746.920662	2756.334044
747.249498	2753.221132
747.578286	2756.689446
747.907027	2763.303440
748.235720	2764.639345
748.564365	2769.405756
748.892963	2764.145312
749.221514	2761.118099
749.550017	2755.855135
749.878473	2753.513519
750.206881	2748.648805
750.535242	2742.317116
750.863555	2739.983062
751.191821	2737.485170
751.520039	2735.569532
751.848210	2733.946280
752.176334	2732.164232
752.504411	2732.859912
752.832440	2725.348592
753.160421	2722.628890
753.488356	2723.977398
753.816243	2722.802810
754.144082	2716.340050
754.471875	2713.292673
754.799620	2716.151007
755.127318	2713.907694
755.454969	2712.705378
755.782572	2709.617672
756.110129	2708.339739
756.437638	2707.328988
756.765100	2705.456199
757.092515	2708.264122
757.419882	2709.658001
757.747203	2704.939481
758.074477	2705.284800
758.401703	2709.284956
758.728882	2709.713454
759.056014	2710.938454
759.383099	2712.647405
759.710138	2710.494832
760.037129	2711.361911
760.364073	2715.722509
760.690970	2711.692107
761.017820	2709.040460
761.344623	2710.767055
761.671379	2717.572612
761.998088	2716.937427
762.324751	2736.698750
762.651366	2783.253806
762.977935	2881.135370
763.304456	2951.890484
763.630931	2955.429374
763.957359	2891.477297
764.283740	2826.408603
764.610074	2786.275978
764.936362	2753.662233
765.262602	2731.428224
765.588796	2713.859803
765.914943	2697.229036
766.241044	2680.298321
766.567097	2674.206087
766.893104	2667.405570
767.219064	2661.023469
767.544978	2658.029024
767.870845	2650.681542
768.196665	2645.055614
768.522438	2642.648463
768.848165	2643.628968
769.173846	2638.401291
769.499479	2635.172432
769.825066	2631.956176
770.150607	2631.167236
770.476101	2629.072636
770.801548	2627.393932
771.126949	2620.948817
771.452303	2618.554269
771.777611	2618.715586
772.102872	2617.719958
772.428087	2611.816767
772.753256	2614.034874
773.078378	2612.146962
773.403453	2607.211672
773.728482	2605.469954
774.053465	2607.420880
774.378401	2602.825869
774.703291	2601.184973
775.028135	2598.934098
775.352932	2596.811772
775.677683	2597.535178
776.002388	2598.603902
776.327046	2595.140630
776.651658	2593.940835
776.976224	2590.147367
777.300743	2590.674167
777.625216	2590.185175
777.949643	2590.422110
778.274024	2588.350195
778.598359	2585.307859
778.922647	2584.909608
779.246889	2583.240986
779.571086	2580.906932
779.895236	2584.178641
780.219339	2586.381625
780.543397	2587.465473
780.867409	2588.723241
781.191374	2587.732654
781.515294	2588.990422
781.839167	2583.505647
782.162995	2584.859196
782.486776	2585.935483
782.810511	2586.268199
783.134201	2585.166707
783.457844	2584.057653
783.781441	2584.987746
784.104993	2578.945923
784.428498	2581.176633
784.751958	2580.551530
785.075372	2580.604462
785.398739	2577.723443
785.722061	2574.161868
786.045337	2580.831314
786.368568	2580.720409
786.691752	2580.017168
787.014891	2581.625296
787.337983	2587.896492
787.661030	2596.234560
787.984031	2602.417535
788.306987	2603.342587
788.629897	2603.571959
788.952760	2597.973758
789.275579	2593.930753
789.598351	2591.279106
789.921078	2583.636717
790.243759	2582.033630
790.566395	2581.945409
790.888984	2577.204204
791.211529	2574.708833
791.534027	2574.938206
791.856480	2573.408215
792.178888	2573.135993
792.501249	2572.465520
792.823566	2570.960735
793.145836	2571.578277
793.468062	2570.890159
793.790241	2569.115673
794.112375	2569.508883
794.434464	2571.157340
794.756507	2570.988462
795.078505	2573.259501
795.400457	2573.141034
795.722364	2573.874522
796.044226	2580.599421
796.366042	2579.739905
796.687812	2577.690676
797.009538	2580.773341
797.331218	2579.301324
797.652852	2577.126066
797.974442	2573.640108
798.295986	2573.428380
798.617484	2574.920562
798.938938	2573.035170
799.260346	2572.243709
799.581709	2568.702298
799.903026	2570.088616
800.224299	2569.289593
800.545526	2569.322360
800.866708	2563.396484
801.187845	2568.273800
801.508936	2564.142575
801.829983	2564.855898
802.150984	2564.485373
802.471940	2565.551577
802.792851	2561.790876
803.113717	2566.421176
803.434538	2561.052347
803.755314	2563.436813
804.076045	2563.121741
804.396731	2561.455640
804.717372	2563.769529
805.037967	2562.428582
805.358518	2563.482183
805.679024	2566.554767
805.999485	2563.653583
806.319901	2569.113152
806.640272	2564.155177
806.960598	2564.533264
807.280879	2564.520661
807.601115	2567.767164
807.921306	2565.304561
808.241453	2564.281206
808.561554	2561.110321
808.881611	2565.682647
809.201623	2561.811041
809.521590	2562.078222
809.841513	2563.356155
810.161390	2562.529405
810.481223	2561.095197
810.801011	2559.895403
811.120755	2561.745506
811.440453	2560.896072
811.760107	2560.175187
812.079716	2558.352809
812.399281	2556.848025
812.718801	2557.460525
813.038276	2556.162428
813.357707	2557.024465
813.677093	2557.342058
813.996434	2558.952707
814.315731	2558.078067
814.634983	2559.517316
814.954191	2558.062943
815.273354	2560.253324
815.592473	2559.875238
815.911547	2561.465722
816.230577	2559.746688
816.549562	2561.586710
816.868502	2561.110321
817.187399	2560.535629
817.506250	2561.611915
817.825058	2563.031000
818.143821	2564.019066
818.462539	2563.051165
818.781213	2565.203737
819.099843	2571.074161
819.418429	2579.462641
819.736970	2583.588826
820.055466	2591.236256
820.373919	2596.290013
820.692327	2605.038935
821.010691	2621.226080
821.329011	2667.702998
821.647286	2773.766354
821.965517	2933.036569
822.283704	3020.006555
822.601847	3015.008251
822.919945	2929.520364
823.237999	2852.776359
823.556010	2784.710699
823.873976	2733.946280
824.191897	2691.187213
824.509775	2663.544046
824.827609	2641.993113
825.145398	2629.521299
825.463144	2628.187914
825.780845	2632.324180
826.098502	2643.568474
826.416116	2672.580314
826.733685	2699.835313
827.051210	2709.229503
827.368692	2693.896833
827.686129	2669.144768
828.003522	2640.032105
828.320872	2614.826335
828.638177	2602.067175
828.955439	2588.642582
829.272656	2578.835018
829.589830	2572.498287
829.906960	2571.853019
830.224046	2568.553584
830.541088	2565.148285
830.858086	2565.143244
831.175041	2564.752554
831.491952	2560.369271
831.808819	2563.998902
832.125642	2563.116700
832.442421	2568.747669
832.759157	2576.710171
833.075849	2592.057964
833.392497	2613.641664
833.709101	2628.906278
834.025662	2624.964096
834.342179	2612.792230
834.658653	2597.762030
834.975083	2586.200143
835.291469	2582.265523
835.607811	2571.648853
835.924110	2566.350600
836.240366	2564.926474
836.556578	2558.751061
836.872746	2559.512275
837.188871	2553.230997
837.504952	2555.895247
837.820990	2552.815102
838.136984	2550.944834
838.452935	2550.556665
838.768842	2550.470965
839.084706	2553.815771
839.400526	2554.962633
839.716303	2569.700447
840.032037	2578.293093
840.347727	2575.452403
840.663373	2573.720767
840.978977	2562.955383
841.294537	2559.345917
841.610054	2555.693601
841.925527	2550.165976
842.240957	2553.931717
842.556344	2550.213867
842.871687	2545.850748
843.186987	2548.220090
843.502244	2543.481406
843.817458	2546.657332
844.132629	2545.853268
844.447756	2545.941489
844.762840	2538.057124
845.077881	2544.449307
845.392879	2542.228679
845.707833	2542.279090
846.022745	2539.019984
846.337613	2544.512322
846.652438	2544.751776
846.967221	2540.486960
847.281960	2542.730274
847.596656	2542.392516
847.911309	2542.185829
848.225919	2544.134235
848.540485	2542.450490
848.855009	2544.789585
849.169490	2543.191539
849.483928	2544.880326
849.798323	2543.060469
850.112675	2540.721374
850.426984	2542.407640
850.741251	2546.906870
851.055474	2542.326981
851.369654	2541.185160
851.683792	2543.085675
851.997887	2543.622558
852.311938	2541.545602
852.625947	2540.486960
852.939914	2543.544420
853.253837	2543.373021
853.567718	2540.996117
853.881555	2543.524255
854.195350	2543.884698
854.509103	2543.171375
854.822812	2543.962836
855.136479	2546.944678
855.450103	2542.009389
855.763685	2541.797660
856.077224	2541.467465
856.390720	2540.050900
856.704173	2543.126004
857.017584	2541.830428
857.330953	2544.227496
857.644278	2542.818494
857.957561	2546.269164
858.270802	2543.521735
858.584000	2541.911086
858.897155	2542.752959
859.210268	2544.202291
859.523339	2540.285314
859.836367	2540.446631
860.149352	2540.854964
860.462295	2543.221786
860.775195	2537.893287
861.088054	2535.622247
861.400869	2542.382434
861.713642	2539.133410
862.026373	2540.121477
862.339062	2540.532331
862.651708	2542.281611
862.964312	2545.492826
863.276873	2543.128525
863.589392	2545.865871
863.901869	2543.937630
864.214303	2541.737166
864.526696	2544.219935
864.839045	2543.990562
865.151353	2544.532486
865.463619	2541.870757
865.775842	2543.557023
866.088023	2545.102137
866.400162	2544.414019
866.712258	2544.968546
867.024313	2545.565923
867.336325	2545.381921
867.648296	2543.582229
867.960224	2546.438042
868.272110	2544.040974
868.583954	2544.063659
868.895755	2544.686241
869.207515	2542.702547
869.519233	2544.056097
869.830909	2543.047866
870.142542	2545.480223
870.454134	2546.352343
870.765684	2542.790768
871.077191	2544.073741
871.388657	2545.548279
871.700081	2547.020296
872.011463	2547.070707
872.322803	2545.470141
872.634101	2547.834442
872.945357	2544.739173
873.256571	2549.732436
873.567744	2546.463248
873.878874	2548.394010
874.189963	2547.416026
874.501010	2551.146480
874.812015	2546.523742
875.122979	2549.316541
875.433900	2547.226983
875.744780	2549.586243
876.055618	2549.616490
876.366415	2548.038609
876.677169	2549.492982
876.987882	2550.662529
877.298554	2546.566592
877.609183	2548.338557
877.919771	2546.977446
878.230317	2547.842004
878.540822	2551.186809
878.851285	2551.663198
879.161707	2558.176369
879.472087	2560.066802
879.782425	2566.529561
880.092722	2578.603124
880.402977	2593.885382
880.713191	2625.795886
881.023363	2660.748726
881.333494	2687.575227
881.643583	2692.203006
881.953631	2690.327697
882.263637	2675.665501
882.573602	2661.822492
882.883526	2645.085861
883.193408	2631.089098
883.503248	2614.420522
883.813048	2606.168154
884.122806	2596.668099
884.432522	2586.807602
884.742197	2578.222517
885.051831	2574.411405
885.361424	2570.524675
885.670975	2562.189128
885.980485	2563.295661
886.289954	2561.039744
886.599382	2557.931873
886.908768	2555.713765
887.218113	2555.988508
887.527417	2556.215360
887.836680	2551.932900
888.145901	2552.734443
888.455082	2549.402241
888.764221	2549.959288
889.073319	2547.463917
889.382376	2548.210008
889.691392	2548.688917
890.000366	2550.765873
890.309300	2547.915100
890.618193	2550.289484
890.927044	2548.646068
891.235855	2550.322251
891.544625	2547.968033
891.853353	2548.918290
892.162041	2550.904505
892.470687	2552.736964
892.779293	2555.280226
893.087858	2552.147149
893.396381	2555.474311
893.704864	2563.986299
894.013306	2566.960580
894.321707	2583.543455
894.630068	2585.975812
894.938387	2587.561255
895.246665	2586.971440
895.554903	2585.317941
895.863100	2577.549523
896.171256	2571.343863
896.479371	2567.550395
896.787446	2562.857080
897.095480	2557.526060
897.403473	2556.285936
897.711425	2554.264434
898.019336	2553.311656
898.327207	2554.728220
898.635038	2552.426933
898.942827	2554.067829
899.250576	2551.257385
899.558284	2553.999773
899.865952	2549.893753
900.173579	2547.169010
900.481165	2550.007179
900.788711	2547.085831
901.096216	2548.983825
901.403681	2548.893084
901.711105	2544.847558
902.018489	2544.991231
902.325832	2548.225131
902.633135	2548.036088
902.940397	2548.600697
903.247619	2555.998591
903.554800	2560.737275
903.861941	2576.785788
904.169041	2594.543253
904.476101	2604.912906
904.783121	2604.728904
905.090100	2596.244642
905.397039	2585.892633
905.703938	2576.145562
906.010796	2568.636763
906.317614	2563.124262
906.624391	2558.133519
906.931129	2554.115720
907.237826	2550.203784
907.544483	2549.649257
907.851099	2545.066848
908.157675	2546.816129
908.464211	2544.219935
908.770707	2537.459747
909.077163	2542.316899
909.383578	2538.662063
909.689954	2541.880839
909.996289	2536.945550
910.302584	2543.536858
910.608839	2540.146682
910.915054	2540.978473
911.221229	2542.490819
911.527363	2541.482588
911.833458	2542.523586
912.139513	2543.398227
912.445527	2543.635161
912.751502	2543.909904
913.057436	2542.216076
913.363331	2546.004503
913.669186	2544.308155
913.975000	2550.007179
914.280775	2550.470965
914.586510	2553.203271
914.892205	2559.575289
915.197859	2568.039387
915.503475	2578.499781
915.809050	2586.573189
916.114585	2595.773294
916.420081	2598.029211
916.725536	2595.198603
917.030952	2591.132912
917.336328	2581.660584
917.641665	2578.409040
917.946961	2572.342011
918.252218	2567.852864
918.557435	2564.175342
918.862612	2560.013870
919.167750	2557.901626
919.472848	2550.738147
919.777906	2551.471634
920.082925	2550.980122
920.387904	2550.556665
920.692843	2547.751263
920.997743	2547.360573
921.302603	2548.860317
921.607423	2545.777651
921.912204	2546.765717
922.216946	2545.656663
922.521647	2544.217414
922.826310	2544.661036
923.130932	2542.349667
923.435516	2542.677342
923.740059	2541.545603
924.044564	2540.282793
924.349028	2542.291693
924.653454	2535.269366
924.957840	2540.368493
925.262186	2535.471012
925.566493	2537.048893
925.870761	2535.745755
926.174989	2540.083668
926.479178	2539.226672
926.783328	2537.545447
927.087438	2538.760365
927.391509	2536.577545
927.695541	2535.720549
927.999533	2539.408153
928.303486	2536.716177
928.607400	2538.105015
928.911275	2536.333049
929.215110	2537.729449
929.518906	2535.460930
929.822663	2539.163657
930.126381	2538.213400
930.430060	2535.498738
930.733699	2538.074768
931.037299	2537.593338
931.340861	2536.728780
931.644383	2537.308513
931.947866	2537.923533
932.251309	2536.355735
932.554714	2535.735673
932.858080	2537.737011
933.161407	2536.058307
933.464694	2538.231044
933.767943	2537.593338
934.071153	2536.227185
934.374323	2539.027546
934.677455	2535.299613
934.980548	2536.322967
935.283602	2534.485467
935.586617	2536.824562
935.889593	2535.786084
936.192530	2535.047555
936.495428	2536.000333
936.798287	2536.995961
937.101108	2538.162988
937.403890	2536.325488
937.706632	2539.350180
938.009336	2536.622916
938.312002	2542.077444
938.614628	2538.581404
938.917216	2540.892773
939.219765	2539.894625
939.522275	2539.713143
939.824747	2541.396888
940.127179	2538.896476
940.429573	2533.494880
940.731929	2535.148378
941.034246	2533.431865
941.336524	2537.792463
941.638763	2539.370345
941.940964	2540.318082
942.243126	2538.263811
942.545250	2539.080478
942.847335	2540.093750
943.149381	2536.509490
943.451389	2537.353883
943.753359	2538.588966
944.055290	2536.837165
944.357182	2538.246167
944.659036	2535.213913
944.960851	2537.696682
945.262628	2536.373379
945.564367	2535.256763
945.866067	2538.644418
946.167729	2538.606610
946.469352	2537.984027
946.770937	2536.940508
947.072484	2535.980169
947.373992	2536.302803
947.675462	2535.851619
947.976893	2535.375230
948.278286	2536.030580
948.579641	2538.573842
948.880958	2538.072248
949.182236	2536.091074
949.483476	2536.196938
949.784678	2532.786598
950.085841	2537.704243
950.386967	2536.232226
950.688054	2536.925385
950.989103	2538.130221
951.290114	2535.365148
951.591087	2536.670807
951.892021	2536.020498
952.192917	2538.344470
952.493776	2535.307175
952.794596	2538.568801
953.095378	2536.834644
953.396122	2538.936805
953.696828	2537.399253
953.997496	2535.914634
954.298126	2535.211393
954.598718	2536.915303
954.899272	2536.506969
955.199788	2536.370858
955.500266	2536.325488
955.800706	2532.857174
956.101108	2531.977492
956.401472	2529.033459
956.701798	2532.902544
957.002087	2530.770136
957.302337	2531.848943
957.602550	2532.254756
957.902724	2533.562935
958.202861	2533.978831
958.502960	2534.069571
958.803022	2532.983203
959.103045	2533.913296
959.403031	2532.143851
959.702979	2534.669469
960.002889	2535.100487
960.302762	2531.964890
960.602596	2534.800539
960.902393	2528.814168
961.202153	2534.369520
961.501875	2531.024714
961.801559	2531.783408
962.101205	2531.521268
962.400814	2532.660569
962.700385	2529.098994
962.999918	2532.148892
963.299414	2528.799045
963.598873	2531.347348
963.898293	2533.252904
964.197677	2533.131917
964.497022	2530.639066
964.796331	2533.504962
965.095601	2531.576721
965.394835	2533.043697
965.694030	2532.383305
965.993189	2533.003367
966.292309	2530.213089
966.591393	2529.164529
966.890439	2531.110414
967.189447	2529.106555
967.488419	2530.946577
967.787353	2530.507996
968.086249	2530.679395
968.385108	2532.690816
968.683930	2532.206865
968.982714	2531.004550
969.281462	2531.962369
969.580172	2530.167718
969.878844	2531.758202
970.177480	2532.978162
970.476078	2530.951618
970.774639	2529.769467
971.073162	2530.571011
971.371649	2529.550177
971.670098	2528.216792
971.968510	2529.625794
972.266885	2528.902389
972.565223	2531.022194
972.863524	2531.554036
973.161788	2530.520599
973.460014	2531.301978
973.758204	2534.084695
974.056356	2534.009077
974.354471	2532.400949
974.652550	2530.029087
974.950591	2534.193080
975.248595	2531.138140
975.546563	2531.700229
975.844493	2533.812473
976.142386	2530.213089
976.440243	2533.141999
976.738062	2532.441279
977.035845	2531.669982
977.333590	2534.205683
977.631299	2532.290044
977.928971	2529.530012
978.226606	2529.172090
978.524204	2529.925743
978.821765	2530.565969
979.119290	2529.078829
979.416777	2530.727286
979.714228	2532.796680
980.011642	2530.545805
980.309020	2533.865405
980.606360	2529.524971
980.903664	2530.180321
981.200931	2531.307019
981.498162	2528.539426
981.795356	2530.087060
982.092513	2533.661238
982.389633	2531.765764
982.686717	2535.072761
982.983764	2531.042358
983.280775	2533.890610
983.577749	2534.515713
983.874686	2534.288862
984.171587	2534.561084
984.468451	2531.019673
984.765279	2529.265352
985.062070	2529.676206
985.358824	2530.525640
985.655543	2531.044879
985.952224	2532.791639
986.248869	2532.552184
986.545478	2528.914992
986.842050	2531.160826
987.138586	2527.397604
987.435086	2527.107738
987.731549	2524.486338
988.027975	2530.218130
988.324366	2530.066895
988.620719	2530.976823
988.917037	2528.925074
989.213318	2530.124868
989.509563	2529.940866
989.805772	2531.392719
990.101944	2529.542615
990.398080	2528.310053
990.694180	2527.306863
990.990244	2528.549508
991.286271	2529.683768
991.582262	2528.768798
991.878217	2528.299971
992.174136	2530.129910
992.470019	2531.727955
992.765865	2529.323325
993.061676	2528.075639
993.357450	2528.584796
993.653188	2529.159488
993.948890	2529.240146
994.244556	2527.558921
994.540186	2529.204858
994.835780	2530.044210
995.131337	2527.889117
995.426859	2528.247039
995.722345	2528.806607
996.017795	2526.659075
996.313208	2529.361134
996.608586	2529.073788
996.903928	2528.957841
997.199234	2528.957841
997.494504	2531.364992
997.789738	2529.890455
998.084936	2530.225692
998.380099	2528.000022
998.675225	2526.074301
998.970316	2529.252749
999.265371	2529.514889
999.560390	2530.268541
999.855373	2530.853315
1000.150320	2530.303829
1000.445232	2528.950280
1000.740108	2527.727800
1001.034948	2527.972296
1001.329752	2529.739220
1001.624521	2528.393232
1001.919254	2524.660258
1002.213951	2526.401976
1002.508613	2523.959537
1002.803239	2528.456247
1003.097829	2524.735875
1003.392384	2529.025897
1003.686903	2526.676719
1003.981386	2527.531195
1004.275834	2530.114786
1004.570246	2531.070085
1004.864623	2527.082532
1005.158964	2526.898530
1005.453270	2527.614374
1005.747540	2527.586647
1006.041775	2527.715197
1006.335974	2530.329035
1006.630138	2527.137985
1006.924266	2526.951462
1007.218359	2527.508510
1007.512416	2532.315250
1007.806438	2529.940866
1008.100425	2526.293592
1008.394376	2529.262831
1008.688292	2526.091945
1008.982172	2526.951462
1009.276017	2525.955834
1009.569827	2527.758047
1009.863602	2531.254087
1010.157341	2528.869621
1010.451045	2525.550021
1010.744714	2530.427338
1011.038347	2526.860721
1011.331945	2528.103366
1011.625508	2530.336597
1011.919036	2528.398273
1012.212528	2528.552028
1012.505986	2528.814168
1012.799408	2527.561442
1013.092795	2527.821061
1013.386147	2525.882738
1013.679464	2529.527492
1013.972745	2528.370547
1014.265992	2527.705115
1014.559204	2530.321473
1014.852380	2527.349713
1015.145521	2529.729138
1015.438628	2526.502799
1015.731699	2530.150074
1016.024736	2528.015146
1016.317737	2529.028418
1016.610703	2527.972296
1016.903635	2525.693694
1017.196531	2522.255627
1017.489393	2523.609177
1017.782219	2524.909795
1018.075011	2528.395753
1018.367768	2526.086904
1018.660490	2525.340813
1018.953177	2525.340813
1019.245829	2525.340813
