Dividing Wavelength (nm)	Counts (n)	Blue Motor Position (mm): 0.000000	Red Motor Position (mm): 34.300000	
326.493990	2129.282562
326.888308	2129.282562
327.282561	2129.282562
327.676750	2096.840216
328.070874	2095.748806
328.464933	2095.587489
328.858929	2104.346494
329.252859	2111.121805
329.646726	2124.475821
330.040528	2139.805970
330.434265	2154.828609
330.827938	2170.309992
331.221547	2192.034845
331.615091	2206.767617
332.008571	2228.575648
332.401986	2249.632548
332.795338	2269.759355
333.188625	2285.898609
333.581847	2305.352421
333.975006	2323.959320
334.368100	2343.665191
334.761129	2355.484176
335.154095	2376.427649
335.546996	2394.759805
335.939833	2415.108423
336.332606	2429.359765
336.725315	2441.057762
337.117960	2450.966150
337.510540	2462.079374
337.903056	2470.858543
338.295508	2476.403812
338.687896	2488.066522
339.080220	2493.505927
339.472480	2502.499345
339.864676	2506.948164
340.256807	2509.632578
340.648875	2515.273629
341.040879	2515.533249
341.432818	2517.257323
341.824694	2521.660771
342.216506	2518.242869
342.608253	2521.859897
342.999937	2518.540297
343.391557	2521.824609
343.783113	2517.229597
344.174605	2516.728002
344.566033	2515.623989
344.957397	2514.507374
345.348697	2514.905625
345.739934	2511.704492
346.131106	2509.241889
346.522215	2509.267094
346.913260	2504.147803
347.304241	2504.893893
347.695159	2501.574294
348.086012	2500.515651
348.476802	2497.561535
348.867528	2499.701505
349.258191	2494.045330
349.648789	2495.068685
350.039324	2496.134889
350.429796	2493.213540
350.820203	2491.628097
351.210548	2492.391832
351.600828	2490.037613
351.991045	2489.102479
352.381198	2488.744557
352.771288	2490.967706
353.161314	2487.320431
353.551276	2488.605925
353.941175	2488.069043
354.331010	2489.485607
354.720782	2488.981491
355.110490	2488.885709
355.500135	2487.224649
355.889717	2489.823364
356.279235	2486.720534
356.668689	2492.752274
357.058080	2489.641883
357.447408	2487.796820
357.836672	2486.470997
358.225873	2491.073570
358.615010	2489.016779
359.004084	2491.388642
359.393095	2492.404435
359.782043	2494.461226
360.170927	2493.929384
360.559748	2495.345948
360.948505	2494.325114
361.337199	2495.655979
361.725830	2496.860815
362.114398	2497.692605
362.502903	2499.313336
362.891344	2497.768223
363.279722	2498.216885
363.668037	2497.221257
364.056289	2501.866681
364.444478	2501.874242
364.832603	2500.208141
365.220665	2501.216372
365.608665	2501.334839
365.996601	2504.891373
366.384474	2506.607886
366.772284	2502.786691
367.160031	2507.616117
367.547715	2510.471930
367.935336	2510.555109
368.322893	2514.038547
368.710388	2516.796058
369.097820	2523.785617
369.485189	2524.312418
369.872495	2533.136958
370.259738	2540.799512
370.646918	2546.488454
371.034035	2553.946841
371.421090	2567.152143
371.808081	2578.081365
372.195010	2584.246696
372.581875	2597.474684
372.968678	2610.206118
373.355418	2617.425050
373.742096	2636.659573
374.128710	2655.523570
374.515262	2669.059068
374.901751	2683.645647
375.288177	2696.165353
375.674540	2718.762325
376.060841	2736.728997
376.447079	2756.190372
376.833254	2776.168464
377.219367	2793.068932
377.605417	2827.464725
377.991404	2837.932681
378.377329	2858.855990
378.763191	2875.574977
379.148991	2913.297931
379.534727	2935.489090
379.920402	2966.242649
380.306013	2976.599700
380.691563	3031.056764
381.077049	3050.200546
381.462474	3070.367682
381.847835	3104.960080
382.233134	3126.493368
382.618371	3128.739202
383.003545	3195.181610
383.388657	3206.181408
383.773706	3236.456057
384.158693	3252.534817
384.543618	3281.241668
384.928480	3316.489416
385.313280	3358.630941
385.698017	3358.416692
386.082692	3412.243613
386.467305	3418.018254
386.851856	3450.810960
387.236344	3472.122438
387.620770	3504.191738
388.005133	3532.066798
388.389435	3559.203329
388.773674	3569.953590
389.157851	3613.446145
389.541965	3627.596664
389.926018	3590.730706
390.310008	3661.435409
390.693936	3680.788398
391.077802	3725.029565
391.461606	3711.226885
391.845348	3774.233747
392.229027	3777.409674
392.612645	3786.284625
392.996200	3864.838405
393.379694	3900.839805
393.763125	3967.740958
394.146494	3932.785597
394.529801	3997.813961
394.913047	4045.936816
395.296230	4013.343235
395.679351	4069.017738
396.062410	4089.898198
396.445408	4070.940939
396.828343	4105.450157
397.211217	4127.212818
397.594028	4049.468144
397.976778	4114.055407
398.359466	4140.498779
398.742092	4170.216381
399.124656	4093.111933
399.507158	4170.740661
399.889598	4197.587326
400.271977	4261.259620
400.654294	4232.348603
401.036549	4238.571907
401.418742	4210.134758
401.800874	4312.185356
402.182944	4332.291998
402.564952	4397.027975
402.946898	4382.857292
403.328783	4380.089698
403.710606	4295.980567
404.092367	4489.265967
404.474067	4451.769865
404.855705	4458.721616
405.237282	4389.725864
405.618797	4495.035568
406.000250	4528.753325
406.381642	4609.595789
406.762972	4572.722269
407.144240	4584.306841
407.525447	4582.285338
407.906593	4640.477897
408.287677	4686.485988
408.668700	4613.931181
409.049661	4662.245600
409.430560	4704.873597
409.811399	4633.049757
410.192176	4796.955313
410.572891	4731.722782
410.953545	4833.541487
411.334138	4718.157037
411.714669	4786.441986
412.095139	4679.574566
412.475547	4817.815607
412.855894	4803.221467
413.236180	4810.332014
413.616405	4765.057412
413.996568	4852.738201
414.376670	4795.392555
414.756711	4750.848920
415.136691	4782.615751
415.516609	4860.609962
415.896466	4896.465169
416.276262	4933.568061
416.655997	4910.224998
417.035670	5092.873564
417.415283	5181.928067
417.794834	5129.366477
418.174324	5081.525927
418.553753	4988.806505
418.933121	5175.540925
419.312428	5242.598354
419.691674	5180.793808
420.070859	5305.403569
420.449983	5221.667483
420.829045	5330.934493
421.208047	5240.302108
421.586988	5312.771215
421.965867	5326.798226
422.344686	5453.840344
422.723444	5311.397501
423.102141	5127.334892
423.480777	5429.625162
423.859352	5196.789389
424.237866	5454.520900
424.616319	5448.932781
424.994712	5554.061003
425.373044	5431.490388
425.751314	5579.622174
426.129524	5376.307398
426.507673	5571.750412
426.885762	5657.616385
427.263789	5586.291620
427.641756	5471.383559
428.019662	5589.752372
428.397508	5597.064566
428.775292	5547.991454
429.153016	5643.344879
429.530679	5571.957099
429.908282	5653.033977
430.285824	5524.159399
430.663305	5796.071676
431.040726	5535.774217
431.418086	5535.711203
431.795385	5643.569210
432.172624	5654.967259
432.549802	5645.704139
432.926920	5657.228217
433.303977	5668.288508
433.680974	5703.730340
434.057910	5726.299586
434.434786	5735.242593
434.811601	5701.242531
435.188355	5935.628458
435.565050	5807.469725
435.941683	5794.783661
436.318257	6002.249827
436.694770	5984.696529
437.071222	6021.933012
437.447614	5954.005985
437.823946	5866.967943
438.200218	6015.639132
438.576429	5887.298916
438.952580	5985.634184
439.328670	6028.239496
439.704700	5934.917656
440.080670	5921.654380
440.456580	6192.281162
440.832429	6072.644499
441.208218	5919.279996
441.583947	6075.586013
441.959616	6081.499286
442.335224	6004.878789
442.710773	6150.028731
443.086261	6172.139232
443.461689	5968.847142
443.837057	6110.616991
444.212365	6274.046157
444.587612	6165.883160
444.962800	6317.392518
445.337927	6295.715557
445.712995	5908.615435
446.088002	6484.252190
446.462949	6313.498227
446.837837	6248.648824
447.212664	6418.455050
447.587431	6559.980403
447.962139	7102.637930
448.336786	8028.886934
448.711374	7770.346318
449.085901	6842.668146
449.460369	6772.074348
449.834776	6692.930754
450.209124	7089.452792
450.583412	7241.869558
450.957640	7387.362299
451.331808	7151.159035
451.705917	6700.714295
452.079965	6625.790146
452.453954	6835.512228
452.827883	6715.081584
453.201752	6809.361243
453.575562	6611.611901
453.949311	6814.467932
454.323001	6697.835796
454.696632	6778.514423
455.070202	6912.901502
455.443713	7062.323822
455.817164	7167.522621
456.190556	7246.656133
456.563888	7327.614543
456.937160	7373.015175
457.310373	7029.241250
457.683526	7053.262348
458.056619	6939.828825
458.429653	6927.856085
458.802628	6864.750921
459.175542	6975.563044
459.548398	7331.639905
459.921194	7491.898186
460.293930	7490.892475
460.666607	8018.570213
461.039224	8332.629057
461.411782	8462.204354
461.784280	8474.182136
462.156719	8365.210034
462.529099	8247.635203
462.901419	7834.568098
463.273680	7725.931232
463.645882	7737.346925
464.018024	7604.688962
464.390106	7775.127853
464.762130	8159.319228
465.134094	8623.377605
465.505999	9651.132763
465.877845	10871.074349
466.249631	11524.475943
466.621358	11136.990174
466.993026	10507.188741
467.364634	10254.712633
467.736184	9887.429288
468.107674	9558.493999
468.479105	9588.327547
468.850477	9350.677473
469.221790	9127.792938
469.593043	8792.193244
469.964238	8654.907501
470.335373	8663.369078
470.706449	8723.683963
471.077467	8704.956077
471.448425	10016.051807
471.819324	11100.522467
472.190164	11123.565581
472.560945	9868.693839
472.931667	9073.887880
473.302330	8942.938867
473.672934	8592.329138
474.043479	8945.570350
474.413965	8882.639106
474.784393	8765.762474
475.154761	8926.683667
475.525070	9015.400413
475.895321	8835.146395
476.265513	9014.203139
476.635645	9187.391979
477.005719	9185.264612
477.375734	9300.903640
477.745691	9531.990133
478.115588	9664.688425
478.485427	9905.617771
478.855207	10447.221696
479.224928	11257.783782
479.594591	11884.106818
479.964194	11697.831142
480.333739	11642.610343
480.703226	11556.028525
481.072653	11648.468163
481.442022	11882.649924
481.811333	12075.080849
482.180584	11882.947352
482.549777	11586.101529
482.918912	11409.343551
483.287988	11429.956829
483.657005	11446.154057
484.025964	11125.768565
484.394864	11262.996335
484.763706	11230.110367
485.132489	10982.007460
485.501213	10945.701070
485.869879	11027.645026
486.238487	10861.770900
486.607036	10971.655451
486.975527	10747.840823
487.343959	10942.121851
487.712333	10991.109264
488.080648	10924.271125
488.448905	10965.028854
488.817104	10901.137270
489.185244	11162.400110
489.553326	11323.409522
489.921350	11852.745800
490.289315	12917.044282
490.657222	13260.304009
491.025070	13165.091736
491.392861	13034.314123
491.760593	12664.795026
492.128267	12310.220429
492.495883	11988.587252
492.863440	11649.617547
493.230939	11313.914509
493.598380	11244.021432
493.965763	11113.261462
494.333088	11002.111582
494.700354	10929.219018
495.067563	10986.070630
495.434713	10815.291462
495.801805	10947.495721
496.168839	10867.326252
496.535815	10794.390838
496.902733	10792.881012
497.269593	10728.266023
497.636395	10820.246916
498.003139	10806.222426
498.369825	10671.285861
498.736453	10825.915693
499.103023	10749.663200
499.469535	10778.322160
499.835989	10759.690055
500.202385	10719.209590
500.568723	10568.678215
500.935003	10786.607296
501.301226	10585.734959
501.667390	10839.184010
502.033497	10927.918400
502.399546	10781.442634
502.765537	10684.778509
503.131470	10750.116904
503.497345	10923.146948
503.863163	10526.133398
504.228923	10832.592702
504.594625	10879.682120
504.960269	10628.680549
505.325856	10839.478918
505.691385	10626.449838
506.056856	10764.670715
506.422270	10775.642787
506.787625	10656.734570
507.152924	10762.588719
507.518164	10741.839329
507.883347	10638.271344
508.248472	10552.743128
508.613540	10771.420820
508.978550	10640.799483
509.343503	10602.968144
509.708398	10706.969668
510.073236	10806.088835
510.438016	10793.125508
510.802738	10724.187729
511.167403	10754.888356
511.532010	10640.698660
511.896561	10851.824703
512.261053	10900.555017
512.625488	10754.570763
512.989866	10710.132992
513.354186	10686.757162
513.718449	10569.237783
514.082655	10732.747608
514.446803	10615.969280
514.810894	10704.418844
515.174927	10554.290762
515.538904	10557.343181
515.902822	10671.177476
516.266684	10543.152333
516.630488	10453.361821
516.994235	10491.399847
517.357925	10505.628504
517.721558	10565.250231
518.085133	10542.928002
518.448651	10523.590135
518.812112	10385.787674
519.175516	10364.483758
519.538863	10441.724318
519.902152	10333.210960
520.265385	10435.543863
520.628560	10331.005456
520.991678	10261.787893
521.354739	10294.084045
521.717743	10195.577378
522.080690	10144.223144
522.443580	10210.141272
522.806413	10139.728955
523.169189	10122.818405
523.531908	10128.739240
523.894569	9939.975755
524.257174	9898.151822
524.619722	9947.459348
524.982213	9877.041990
525.344647	9862.440288
525.707025	9781.164285
526.069345	9806.755702
526.431608	9692.535759
526.793815	9735.211647
527.155964	9515.578656
527.518057	9518.547896
527.880093	9428.805275
528.242072	9437.680227
528.603995	9308.142737
528.965860	9198.154843
529.327669	9191.596302
529.689421	9101.720090
530.051117	9029.997074
530.412755	9049.841576
530.774337	8925.894726
531.135862	8844.996810
531.497331	8815.438004
531.858743	8652.215525
532.220098	8722.534580
532.581396	8571.720901
532.942638	8514.534052
533.303824	8438.311806
533.664953	8380.779638
534.026025	8272.102443
534.387040	8287.286398
534.747999	8232.766319
535.108902	8208.384779
535.469748	8001.059765
535.830537	8017.420830
536.191270	7942.184129
536.551947	7899.646873
536.912567	7838.331319
537.273131	7747.381342
537.633638	7674.735794
537.994089	7609.122657
538.354483	7529.414453
538.714821	7560.011736
539.075103	7511.742688
539.435328	7433.453568
539.795497	7284.512678
540.155609	7306.676111
540.515665	7306.383724
540.875665	7099.116684
541.235609	7082.233859
541.595496	7026.352669
541.955328	7050.716566
542.315102	6936.146262
542.674821	6859.180446
543.034483	6802.157434
543.394090	6745.457056
543.753640	6658.918089
544.113134	6709.712755
544.472571	6587.008550
544.831953	6596.417863
545.191278	6448.696932
545.550548	6412.045223
545.909761	6421.066368
546.268918	6349.718918
546.628019	6338.310786
546.987064	6213.418720
547.346053	6142.920704
547.704986	6119.703670
548.063863	6063.431791
548.422684	6018.862949
548.781449	5915.771353
549.140158	5908.438995
549.498811	5808.614067
549.857408	5714.621753
550.215949	5731.998610
550.574434	5633.567561
550.932864	5606.882213
551.291237	5597.603969
551.649555	5514.545919
552.007817	5479.003263
552.366022	5420.026805
552.724173	5363.853227
553.082267	5319.102905
553.440305	5297.798988
553.798288	5209.039393
554.156215	5195.503895
554.514086	5139.836953
554.871902	5058.129932
555.229661	5023.383779
555.587365	4970.822188
555.945014	4907.858177
556.302606	4881.394640
556.660143	4823.474302
557.017625	4811.299916
557.375050	4748.109052
557.732421	4741.737034
558.089735	4672.060726
558.446994	4637.087721
558.804197	4603.052371
559.161345	4563.234818
559.518437	4493.810567
559.875474	4466.951300
560.232455	4437.851239
560.589381	4396.952358
560.946251	4342.797763
561.303065	4341.744162
561.659825	4281.104122
562.016528	4233.364395
562.373177	4182.854554
562.729770	4158.349505
563.086307	4109.891414
563.442789	4097.827933
563.799216	4031.657747
564.155587	4010.595807
564.511904	3966.974702
564.868164	3936.611833
565.224370	3913.263729
565.580520	3857.974874
565.936615	3842.864015
566.292654	3781.172895
566.648638	3775.660393
567.004567	3739.238057
567.360441	3710.216134
567.716260	3665.932118
568.072023	3655.915345
568.427732	3615.855816
568.783385	3590.254317
569.138982	3563.629462
569.494525	3544.110115
569.850013	3505.517562
570.205445	3496.471211
570.560823	3467.025831
570.916145	3427.858587
571.271412	3415.101947
571.626625	3390.758215
571.981782	3365.983464
572.336884	3338.816686
572.691931	3323.768842
573.046923	3293.786579
573.401860	3273.417797
573.756743	3245.083992
574.111570	3232.773494
574.466342	3213.072665
574.821059	3198.823844
575.175722	3172.204031
575.530330	3156.541166
575.884882	3141.644556
576.239380	3117.167234
576.593823	3102.628546
576.948211	3085.108016
577.302544	3068.489852
577.656823	3048.441183
578.011047	3038.999102
578.365216	3021.597039
578.719330	3006.569360
579.073389	2991.642503
579.427394	2980.274701
579.781344	2967.167701
580.135239	2955.323510
580.489080	2941.409926
580.842866	2927.708069
581.196597	2916.342788
581.550273	2909.948084
581.903895	2895.719428
582.257463	2894.254973
582.610975	2875.753938
582.964434	2871.153885
583.317837	2859.468490
583.671186	2850.255782
584.024481	2841.801767
584.377721	2830.907833
584.730906	2821.569096
585.084037	2815.907880
585.437113	2805.240798
585.790135	2800.035807
586.143103	2790.450053
586.496016	2783.105092
586.848874	2772.770727
587.201679	2771.213010
587.554428	2758.937800
587.907124	2757.024682
588.259765	2750.395565
588.612352	2749.810791
588.964884	2740.766961
589.317362	2737.215468
589.669786	2731.788666
590.022155	2732.020559
590.374470	2725.736761
590.726731	2720.816595
591.078937	2713.302755
591.431090	2708.526262
591.783188	2706.794626
592.135232	2700.387319
592.487222	2696.888758
592.839157	2693.460774
593.191038	2689.921884
593.542866	2687.275278
593.894639	2682.523990
594.246358	2677.089627
594.598022	2677.671880
594.949633	2672.658452
595.301190	2668.726352
595.652692	2667.700477
596.004141	2666.097391
596.355535	2663.546567
596.706876	2658.336534
597.058162	2655.208498
597.409395	2652.105668
597.760573	2652.871923
598.111698	2649.897643
598.462768	2646.880512
598.813785	2647.351860
599.164748	2643.112250
599.515657	2641.950264
599.866511	2641.700727
600.217312	2640.982362
600.568060	2635.419449
600.918753	2639.674183
601.269392	2637.183853
601.619978	2632.619088
601.970510	2636.082361
602.320988	2634.335601
602.671412	2634.335601
603.021783	2629.082718
603.372100	2630.030455
603.722363	2627.487193
604.072572	2627.996350
604.422728	2630.123717
604.772830	2622.695577
605.122878	2621.064763
605.472872	2621.142901
605.822813	2618.463528
606.172701	2621.210957
606.522534	2620.633745
606.872314	2623.290433
607.222041	2619.257510
607.571714	2622.504013
607.921333	2621.563837
608.270899	2617.777931
608.620411	2618.087962
608.969870	2620.414454
609.319276	2622.914867
609.668627	2620.621142
610.017926	2625.115330
610.367171	2623.126595
610.716362	2621.563837
611.065500	2620.447222
611.414585	2615.499329
611.763616	2619.441512
612.112594	2618.821450
612.461518	2617.414968
612.810389	2616.520163
613.159207	2616.905811
613.507971	2614.213835
613.856682	2613.646705
614.205340	2614.564195
614.553945	2615.363218
614.902496	2612.474637
615.250994	2613.258537
615.599439	2613.356839
615.947830	2614.072683
616.296169	2612.451952
616.644454	2614.251644
616.992686	2612.310800
617.340864	2610.654781
617.688990	2608.507249
618.037063	2608.963473
618.385082	2609.941457
618.733048	2609.825511
619.080961	2612.456993
619.428821	2611.453803
619.776628	2608.245109
620.124382	2610.117898
620.472083	2607.010026
620.819731	2612.099071
621.167326	2603.488780
621.514868	2610.299379
621.862357	2605.341404
622.209793	2604.013060
622.557176	2604.509614
622.904506	2600.438882
623.251783	2599.188676
623.599007	2600.237236
623.946179	2599.128182
624.293297	2600.673296
624.640363	2602.382247
624.987376	2598.979468
625.334336	2597.991402
625.681243	2598.135075
626.028097	2596.474015
626.374899	2600.617843
626.721647	2595.957297
627.068343	2598.810590
627.414987	2596.892431
627.761577	2599.284458
628.108115	2597.744386
628.454600	2592.678026
628.801032	2595.508634
629.147412	2595.934611
629.493739	2595.440578
629.840014	2597.015939
630.186236	2595.102821
630.532405	2593.474528
630.878521	2594.702049
631.224585	2593.555187
631.570597	2592.645258
631.916556	2593.015783
632.262462	2593.575351
632.608316	2594.336566
632.954117	2589.716348
633.299866	2591.115268
633.645562	2591.601740
633.991206	2591.561410
634.336797	2591.657192
634.682336	2591.705083
635.027823	2589.187027
635.373257	2587.740216
635.718639	2583.235945
636.063968	2589.101327
636.409245	2586.464804
636.754470	2587.931780
637.099642	2582.285687
637.444762	2586.908425
637.789829	2584.483630
638.134845	2584.241655
638.479808	2584.886923
638.824719	2582.815008
639.169577	2582.515060
639.514383	2585.408682
639.859137	2582.754515
640.203839	2586.250555
640.548489	2583.477920
640.893086	2583.278795
641.237632	2579.465162
641.582125	2577.768813
641.926566	2577.141190
642.270955	2580.448187
642.615292	2579.805440
642.959576	2584.912128
643.303809	2582.361305
643.647990	2582.371387
643.992118	2583.011613
644.336195	2583.160328
644.680219	2581.635378
645.024192	2582.845255
645.368112	2582.199988
645.711981	2583.687128
646.055797	2585.355750
646.399562	2581.978177
646.743274	2585.121336
647.086935	2585.111254
647.430544	2587.715010
647.774101	2586.414392
648.117606	2587.583940
648.461059	2585.335585
648.804460	2585.648137
649.147810	2582.696541
649.491108	2582.152097
649.834354	2582.946078
650.177548	2585.249886
650.520690	2579.596232
650.863781	2580.796026
651.206820	2583.913980
651.549807	2580.591860
651.892742	2579.994483
652.235626	2579.422312
652.578458	2581.403485
652.921238	2577.756211
653.263967	2579.417271
653.606644	2580.208732
653.949269	2576.291755
654.291843	2577.821746
654.634365	2580.755697
654.976836	2578.797209
655.319255	2579.137487
655.661622	2580.463310
656.003938	2577.118505
656.346203	2577.209245
656.688416	2577.443659
657.030577	2576.022054
657.372687	2578.938361
657.714746	2573.219172
658.056753	2574.668504
658.398708	2571.742114
658.740612	2574.411405
659.082465	2575.149934
659.424266	2573.251940
659.766016	2573.302351
660.107715	2574.537434
660.449362	2577.526838
660.790958	2579.906263
661.132503	2577.985583
661.473996	2578.376272
661.815438	2577.297466
662.156829	2578.860223
662.498168	2573.947619
662.839456	2575.979204
663.180693	2575.570870
663.521879	2577.970460
663.863013	2577.171437
664.204097	2578.368711
664.545129	2577.610017
664.886110	2576.397620
665.227040	2576.175809
665.567918	2578.441807
665.908746	2576.495922
666.249522	2577.509194
666.590248	2574.086251
666.930922	2575.865778
667.271545	2578.600604
667.612118	2577.857034
667.952639	2577.909966
668.293109	2576.987435
668.633528	2578.676221
668.973896	2577.771334
669.314213	2575.840572
669.654480	2577.650346
669.994695	2577.615058
670.334859	2576.742939
670.674973	2578.361149
671.015035	2577.178998
671.355047	2577.463824
671.695008	2575.036508
672.034918	2576.697568
672.374777	2576.773186
672.714585	2578.267888
673.054342	2577.567167
673.394049	2577.322671
673.733705	2579.303845
674.073310	2578.121694
674.412864	2575.001220
674.752368	2576.027095
675.091820	2579.956674
675.431223	2577.988104
675.770574	2575.253278
676.109875	2569.408060
676.449125	2573.693041
676.788324	2571.575756
677.127473	2572.710016
677.466571	2571.270766
677.805619	2572.228585
678.144616	2571.890828
678.483562	2575.901066
678.822458	2572.939388
679.161303	2575.810325
679.500098	2571.444686
679.838842	2574.613051
680.177535	2573.221693
680.516179	2571.842937
680.854771	2573.246898
681.193314	2574.272773
681.531805	2577.592373
681.870247	2578.850141
682.208638	2576.826118
682.546978	2580.672518
682.885268	2579.359297
683.223508	2576.006930
683.561697	2574.096333
683.899836	2578.645974
684.237925	2573.309913
684.575963	2575.747311
684.913951	2575.291086
685.251889	2580.075141
685.589776	2574.519790
685.927614	2573.491394
686.265401	2576.291755
686.603137	2574.166909
686.940824	2574.905438
687.278460	2578.162023
687.616046	2574.555078
687.953582	2580.995152
688.291068	2574.512228
688.628504	2577.978021
688.965889	2579.424832
689.303224	2577.776375
689.640510	2575.916189
689.977745	2576.921900
690.314930	2574.608010
690.652065	2576.591704
690.989150	2572.145406
691.326185	2573.083061
691.663170	2570.469223
692.000105	2571.273287
692.336990	2570.043245
692.673825	2569.279510
693.010610	2570.693554
693.347345	2568.341856
693.684030	2561.932029
694.020665	2565.019735
694.357251	2560.021431
694.693786	2565.720456
695.030272	2565.695250
695.366707	2565.644838
695.703093	2563.814900
696.039429	2566.552246
696.375716	2564.981927
696.711952	2567.925961
697.048139	2565.806155
697.384276	2564.613922
697.720363	2566.211968
698.056400	2563.678788
698.392388	2564.256001
698.728326	2564.997050
699.064214	2566.171639
699.400053	2563.703994
699.735842	2566.501835
700.071581	2566.733728
700.407270	2562.211813
700.742910	2564.467729
701.078501	2564.054354
701.414042	2562.814231
701.749533	2562.340362
702.084974	2560.671740
702.420366	2562.640311
702.755709	2562.552091
703.091002	2560.134857
703.426246	2558.874569
703.761440	2562.053016
704.096584	2562.279868
704.431679	2560.477656
704.766725	2562.650393
705.101721	2558.229301
705.436668	2558.652758
705.771565	2559.227450
706.106413	2562.231977
706.441212	2563.429251
706.775961	2559.890361
707.110661	2561.629559
707.445311	2562.713407
707.779913	2561.637121
708.114465	2562.824313
708.448967	2563.116700
708.783421	2563.187276
709.117825	2561.843808
709.452180	2564.994530
709.786485	2563.857749
710.120742	2568.326732
710.454949	2564.891186
710.789107	2563.492266
711.123216	2562.005125
711.457275	2566.166598
711.791286	2562.373130
712.125247	2561.926988
712.459159	2566.524520
712.793023	2568.825807
713.126837	2567.752041
713.460602	2567.631053
713.794318	2566.494273
714.127985	2564.019066
714.461602	2561.876576
714.795171	2566.295147
715.128691	2562.027811
715.462162	2563.784653
715.795584	2564.142575
716.128957	2563.777091
716.462281	2563.358675
716.795556	2560.475135
717.128782	2559.262738
717.461960	2559.998746
717.795088	2560.807851
718.128167	2557.999929
718.461198	2560.664178
718.794180	2560.402038
719.127113	2559.938252
719.459997	2559.335834
719.792833	2559.787018
720.125619	2560.326421
720.458357	2557.566389
720.791046	2557.077398
721.123686	2556.386759
721.456278	2559.426575
721.788821	2558.993036
722.121315	2559.194682
722.453761	2559.061092
722.786158	2557.415155
723.118506	2557.377346
723.450805	2555.496996
723.783056	2558.504044
724.115259	2557.445402
724.447412	2555.318035
724.779518	2560.626370
725.111574	2556.248128
725.443582	2558.362892
725.775542	2559.918088
726.107453	2558.922460
726.439315	2557.223591
726.771129	2563.414128
727.102895	2559.010680
727.434612	2560.064281
727.766281	2559.590413
728.097901	2558.312480
728.429473	2556.316183
728.760996	2556.621173
729.092471	2557.200906
729.423897	2560.603685
729.755276	2559.325752
730.086606	2558.173848
730.417887	2560.984292
730.749120	2561.274158
731.080305	2560.321380
731.411442	2561.679971
731.742530	2562.536967
732.073570	2564.016546
732.404562	2561.251473
732.735506	2561.450598
733.066401	2560.817934
733.397249	2560.606205
733.728048	2563.335990
734.058798	2560.727193
734.389501	2559.209806
734.720156	2556.986657
735.050762	2557.485731
735.381320	2558.942624
735.711831	2554.481203
736.042293	2556.454815
736.372707	2555.670916
736.703073	2556.290977
737.033391	2556.270813
737.363661	2557.926832
737.693883	2557.984805
738.024056	2560.636452
738.354182	2555.794424
738.684260	2557.881462
739.014290	2557.793241
739.344272	2558.390618
739.674207	2557.896585
740.004093	2559.643345
740.333931	2560.384394
740.663722	2560.432285
740.993464	2558.178890
741.323159	2559.650907
741.652806	2558.360371
741.982405	2558.272151
742.311956	2557.997408
742.641460	2559.056050
742.970915	2556.842984
743.300323	2556.255689
743.629683	2557.291647
743.958996	2557.251317
744.288260	2554.622356
744.617477	2555.963302
744.946647	2551.751418
745.275768	2551.857283
745.604842	2550.390307
745.933869	2551.678322
746.262847	2547.758825
746.591778	2553.077242
746.920662	2550.985163
747.249498	2556.863148
747.578286	2553.755277
747.907027	2554.745864
748.235720	2554.950031
748.564365	2556.064126
748.892963	2550.889381
749.221514	2554.082952
749.550017	2555.083621
749.878473	2552.946172
750.206881	2552.283260
750.535242	2552.368960
750.863555	2550.717982
751.191821	2553.788045
751.520039	2553.677139
751.848210	2553.402396
752.176334	2549.205636
752.504411	2551.053219
752.832440	2553.266285
753.160421	2554.254351
753.488356	2553.339382
753.816243	2552.880637
754.144082	2550.806202
754.471875	2553.959444
754.799620	2551.239741
755.127318	2552.331151
755.454969	2551.451470
755.782572	2555.426420
756.110129	2552.951213
756.437638	2550.627241
756.765100	2552.429454
757.092515	2552.401727
757.419882	2552.613456
757.747203	2552.424412
758.074477	2553.767880
758.401703	2552.862993
758.728882	2551.310317
759.056014	2550.276881
759.383099	2552.361398
759.710138	2554.294681
760.037129	2551.781665
760.364073	2553.417520
760.690970	2555.565051
761.017820	2554.415668
761.344623	2555.128992
761.671379	2552.759649
761.998088	2550.110523
762.324751	2556.149825
762.651366	2559.976061
762.977935	2569.493759
763.304456	2574.179512
763.630931	2577.458782
763.957359	2576.158165
764.283740	2568.503173
764.610074	2564.177863
764.936362	2561.929508
765.262602	2559.882800
765.588796	2556.502706
765.914943	2554.292160
766.241044	2551.390976
766.567097	2553.452808
766.893104	2550.778476
767.219064	2552.938610
767.544978	2551.310318
767.870845	2550.929710
768.196665	2550.685214
768.522438	2548.371325
768.848165	2549.107333
769.173846	2548.756973
769.499479	2550.528939
769.825066	2547.463917
770.150607	2546.589277
770.476101	2546.501057
770.801548	2549.175389
771.126949	2548.535162
771.452303	2548.857796
771.777611	2546.828732
772.102872	2546.254040
772.428087	2548.575492
772.753256	2546.536345
773.078378	2545.964174
773.403453	2547.957950
773.728482	2546.271684
774.053465	2547.365615
774.378401	2545.737322
774.703291	2546.493495
775.028135	2542.853782
775.352932	2545.444935
775.677683	2544.587939
776.002388	2547.005172
776.327046	2544.600542
776.651658	2546.911911
776.976224	2544.502239
777.300743	2546.992569
777.625216	2543.887218
777.949643	2545.180274
778.274024	2545.016437
778.598359	2541.671631
778.922647	2540.315561
779.246889	2543.002496
779.571086	2539.970242
779.895236	2543.604914
780.219339	2545.986859
780.543397	2544.076262
780.867409	2542.891591
781.191374	2546.019627
781.515294	2542.896632
781.839167	2542.899152
782.162995	2543.599873
782.486776	2547.158927
782.810511	2544.214893
783.134201	2544.408978
783.457844	2544.192208
783.781441	2547.985677
784.104993	2544.136756
784.428498	2545.371838
784.751958	2542.536189
785.075372	2544.298073
785.398739	2544.764379
785.722061	2545.633978
786.045337	2545.843186
786.368568	2544.650953
786.691752	2544.308155
787.014891	2544.459389
787.337983	2544.093906
787.661030	2547.297559
787.984031	2546.818649
788.306987	2549.440049
788.629897	2550.995245
788.952760	2546.501057
789.275579	2548.762014
789.598351	2546.148176
789.921078	2546.433001
790.243759	2548.578012
790.566395	2545.124822
790.888984	2546.690100
791.211529	2542.747918
791.534027	2545.817980
791.856480	2542.163144
792.178888	2542.964687
792.501249	2546.027188
792.823566	2545.684390
793.145836	2543.456200
793.468062	2544.333361
793.790241	2542.455531
794.112375	2544.625748
794.434464	2543.299924
794.756507	2544.482075
795.078505	2544.648433
795.400457	2543.708257
795.722364	2538.324305
796.044226	2544.129194
796.366042	2540.960829
796.687812	2544.005686
797.009538	2545.633978
797.331218	2545.623896
797.652852	2545.888557
797.974442	2545.046684
798.295986	2543.698175
798.617484	2545.442414
798.938938	2543.176416
799.260346	2545.480223
799.581709	2544.328319
799.903026	2544.792106
800.224299	2544.429143
800.545526	2541.356559
800.866708	2538.767927
801.187845	2545.969215
801.508936	2540.640715
801.829983	2543.998124
802.150984	2544.827394
802.471940	2542.894111
802.792851	2540.890252
803.113717	2544.129194
803.434538	2542.556354
803.755314	2544.779503
804.076045	2539.836651
804.396731	2541.709440
804.717372	2541.762372
805.037967	2543.360418
805.358518	2541.175078
805.679024	2543.970397
805.999485	2539.168698
806.319901	2543.466282
806.640272	2540.015612
806.960598	2541.404450
807.280879	2539.690458
807.601115	2544.988711
807.921306	2542.808412
808.241453	2544.378731
808.561554	2540.862526
808.881611	2543.753628
809.201623	2541.994265
809.521590	2543.614996
809.841513	2540.703730
810.161390	2545.366797
810.481223	2542.939482
810.801011	2540.073586
811.120755	2543.062990
811.440453	2545.344112
811.760107	2543.017619
812.079716	2543.357897
812.399281	2539.113246
812.718801	2539.884542
813.038276	2537.497556
813.357707	2540.890253
813.677093	2542.876467
813.996434	2542.367311
814.315731	2542.702547
814.634983	2541.101981
814.954191	2543.153731
815.273354	2542.717671
815.592473	2541.812784
815.911547	2542.931920
816.230577	2542.430325
816.549562	2546.246478
816.868502	2544.204811
817.187399	2543.499050
817.506250	2544.955943
817.825058	2544.295552
818.143821	2545.903680
818.462539	2546.543907
818.781213	2544.250182
819.099843	2545.402085
819.418429	2549.447611
819.736970	2551.769062
820.055466	2556.991698
820.373919	2555.544887
820.692327	2560.565876
821.010691	2570.701116
821.329011	2583.155286
821.647286	2618.682818
821.965517	2652.090545
822.283704	2678.637261
822.601847	2681.253620
822.919945	2668.065961
823.237999	2645.945378
823.556010	2626.388222
823.873976	2609.782661
824.191897	2595.811103
824.509775	2584.851635
824.827609	2578.998855
825.145398	2573.519121
825.463144	2572.924265
825.780845	2571.038873
826.098502	2576.430387
826.416116	2587.105030
826.733685	2597.119282
827.051210	2600.973245
827.368692	2596.600044
827.686129	2585.360791
828.003522	2575.825449
828.320872	2563.401525
828.638177	2559.426575
828.955439	2552.401727
829.272656	2550.584391
829.589830	2546.191026
829.906960	2548.343598
830.224046	2547.239586
830.541088	2547.277394
830.858086	2545.991900
831.175041	2544.618186
831.491952	2545.276056
831.808819	2548.699000
832.125642	2545.848227
832.442421	2548.257899
832.759157	2552.926007
833.075849	2557.722665
833.392497	2565.417987
833.709101	2571.979048
834.025662	2574.907959
834.342179	2569.095508
834.658653	2562.915054
834.975083	2556.941286
835.291469	2558.287274
835.607811	2547.317724
835.924110	2549.465255
836.240366	2546.919473
836.556578	2544.978628
836.872746	2543.292362
837.188871	2543.582229
837.504952	2541.369162
837.820990	2540.396219
838.136984	2539.919830
838.452935	2541.497712
838.768842	2541.800181
839.084706	2541.588452
839.400526	2542.634492
839.716303	2548.441901
840.032037	2553.225956
840.347727	2550.864175
840.663373	2551.204453
840.978977	2546.080120
841.294537	2544.610624
841.610054	2540.741538
841.925527	2544.129194
842.240957	2539.430838
842.556344	2540.252547
842.871687	2540.686086
843.186987	2542.384955
843.502244	2536.204500
843.817458	2540.849923
844.132629	2536.839685
844.447756	2536.769109
844.762840	2530.933974
845.077881	2535.022349
845.392879	2533.837678
845.707833	2535.042514
846.022745	2531.117976
846.337613	2537.275745
846.652438	2534.931609
846.967221	2536.348173
847.281960	2537.542926
847.596656	2536.154088
847.911309	2536.398584
848.225919	2536.872453
848.540485	2534.982020
848.855009	2535.770961
849.169490	2536.827082
849.483928	2536.053265
849.798323	2537.071578
850.112675	2537.938657
850.426984	2537.182484
850.741251	2537.260622
851.055474	2538.231044
851.369654	2535.634850
851.683792	2537.253060
851.997887	2537.442103
852.311938	2537.164840
852.625947	2536.179294
852.939914	2533.580579
853.253837	2536.617875
853.567718	2533.401618
853.881555	2537.598379
854.195350	2536.007895
854.509103	2535.667617
854.822812	2535.559232
855.136479	2537.656352
855.450103	2535.884387
855.763685	2539.332536
856.077224	2536.441434
856.390720	2533.928419
856.704173	2533.769623
857.017584	2535.753317
857.330953	2533.532688
857.644278	2535.939839
857.957561	2539.839172
858.270802	2534.898841
858.584000	2538.011754
858.897155	2536.519572
859.210268	2536.882535
859.523339	2536.138965
859.836367	2535.841537
860.149352	2535.914634
860.462295	2537.585776
860.775195	2533.532688
861.088054	2534.006557
861.400869	2530.883562
861.713642	2531.463295
862.026373	2533.048738
862.339062	2535.019829
862.651708	2534.649304
862.964312	2536.869932
863.276873	2533.820034
863.589392	2535.894469
863.901869	2536.418749
864.214303	2534.346835
864.526696	2536.655683
864.839045	2539.347659
865.151353	2537.646270
865.463619	2536.799356
865.775842	2538.536034
866.088023	2537.467309
866.400162	2538.031918
866.712258	2535.823893
867.024313	2540.393699
867.336325	2534.233409
867.648296	2536.083512
867.960224	2537.311033
868.272110	2539.594676
868.583954	2536.297761
868.895755	2538.563760
869.207515	2536.322967
869.519233	2538.346990
869.830909	2536.753986
870.142542	2540.928061
870.454134	2537.444624
870.765684	2538.808256
871.077191	2537.527803
871.388657	2539.017464
871.700081	2540.746580
872.011463	2538.021836
872.322803	2536.983358
872.634101	2537.489994
872.945357	2537.689120
873.256571	2538.036959
873.567744	2537.752134
873.878874	2541.369162
874.189963	2540.875129
874.501010	2542.568957
874.812015	2541.449821
875.122979	2537.537885
875.433900	2539.211548
875.744780	2539.947557
876.055618	2536.396064
876.366415	2537.235416
876.677169	2542.495860
876.987882	2536.993441
877.298554	2534.505631
877.609183	2538.793132
877.919771	2539.161137
878.230317	2539.314892
878.540822	2543.315048
878.851285	2542.223638
879.161707	2543.501570
879.472087	2546.690100
879.782425	2550.652447
880.092722	2558.642676
880.402977	2569.647515
880.713191	2585.955647
881.023363	2606.316868
881.333494	2620.369084
881.643583	2623.441667
881.953631	2622.549383
882.263637	2617.563682
882.573602	2613.258537
882.883526	2600.663214
883.193408	2593.078798
883.503248	2582.893146
883.813048	2574.056004
884.122806	2568.470405
884.432522	2567.220199
884.742197	2558.743499
885.051831	2554.680329
885.361424	2555.139074
885.670975	2552.641182
885.980485	2550.453321
886.289954	2547.857127
886.599382	2545.666746
886.908768	2544.862682
887.218113	2543.105840
887.527417	2542.823535
887.836680	2539.501415
888.145901	2541.480068
888.455082	2538.135262
888.764221	2540.741538
889.073319	2540.517207
889.382376	2538.417567
889.691392	2539.201466
890.000366	2537.505118
890.309300	2541.913607
890.618193	2540.807073
890.927044	2540.658359
891.235855	2538.377237
891.544625	2540.129038
891.853353	2539.720705
892.162041	2538.904038
892.470687	2543.809081
892.779293	2542.453010
893.087858	2542.513504
893.396381	2544.086344
893.704864	2546.548948
894.013306	2548.401572
894.321707	2560.079405
894.630068	2567.870508
894.938387	2568.026784
895.246665	2568.099880
895.554903	2563.608212
895.863100	2560.941442
896.171256	2555.224773
896.479371	2555.126471
896.787446	2552.051367
897.095480	2547.095913
897.403473	2545.291180
897.711425	2545.049204
898.019336	2543.672969
898.327207	2543.219266
898.635038	2545.409647
898.942827	2540.865047
899.250576	2540.650798
899.558284	2542.737835
899.865952	2539.728267
900.173579	2541.427135
900.481165	2539.428318
900.788711	2538.236085
901.096216	2538.117618
901.403681	2539.846734
901.711105	2537.111908
902.018489	2539.173740
902.325832	2540.335726
902.633135	2538.581404
902.940397	2541.109543
903.247619	2543.315048
903.554800	2549.026675
903.861941	2561.080074
904.169041	2570.116342
904.476101	2580.400296
904.783121	2578.721592
905.090100	2571.976528
905.397039	2565.133161
905.703938	2559.640824
906.010796	2552.197561
906.317614	2550.677653
906.624391	2546.168341
906.931129	2543.660367
907.237826	2541.964018
907.544483	2539.158616
907.851099	2540.335726
908.157675	2537.535365
908.464211	2539.471168
908.770707	2530.767616
909.077163	2536.391023
909.383578	2534.271218
909.689954	2530.961700
909.996289	2530.608819
910.302584	2533.467153
910.608839	2537.553009
910.915054	2534.412370
911.221229	2535.465971
911.527363	2537.220293
911.833458	2535.992772
912.139513	2537.815149
912.445527	2534.707277
912.751502	2534.699716
913.057436	2536.499408
913.363331	2537.704243
913.669186	2539.675334
913.975000	2537.169881
914.280775	2541.485109
914.586510	2543.541899
914.892205	2548.078938
915.197859	2553.798127
915.503475	2561.042265
915.809050	2565.649880
916.114585	2572.513411
916.420081	2575.593556
916.725536	2575.737228
917.030952	2570.461661
917.336328	2564.245918
917.641665	2562.703325
917.946961	2559.653427
918.252218	2555.476831
918.557435	2550.665050
918.862612	2550.062632
919.167750	2546.052394
919.472848	2546.480892
919.777906	2541.139790
920.082925	2544.913093
920.387904	2541.926210
920.692843	2538.730118
920.997743	2537.540406
921.302603	2537.489994
921.607423	2536.970755
921.912204	2536.625436
922.216946	2536.943029
922.521647	2541.822866
922.826310	2536.958152
923.130932	2537.522762
923.435516	2535.846578
923.740059	2535.241640
924.044564	2533.366330
924.349028	2536.706095
924.653454	2529.741741
924.957840	2533.172246
925.262186	2532.705939
925.566493	2533.273069
925.870761	2529.925743
926.174989	2532.741227
926.479178	2531.773326
926.783328	2533.482277
927.087438	2532.446320
927.391509	2533.457071
927.695541	2531.105373
927.999533	2529.096473
928.303486	2533.618388
928.607400	2532.426155
928.911275	2534.674510
929.215110	2533.903213
929.518906	2532.106042
929.822663	2533.215096
930.126381	2532.002698
930.430060	2534.220806
930.733699	2531.735517
931.037299	2532.153933
931.340861	2531.687626
931.644383	2531.574200
931.947866	2532.224509
932.251309	2535.481094
932.554714	2531.677544
932.858080	2535.125693
933.161407	2531.846422
933.464694	2531.060003
933.767943	2531.513706
934.071153	2531.329704
934.374323	2530.611340
934.677455	2531.760723
934.980548	2531.022194
935.283602	2533.537730
935.586617	2531.841381
935.889593	2531.886752
936.192530	2531.977492
936.495428	2530.949097
936.798287	2533.008408
937.101108	2530.686957
937.403890	2530.097142
937.706632	2533.910775
938.009336	2532.925229
938.312002	2533.547812
938.614628	2535.629808
938.917216	2537.346321
939.219765	2534.220806
939.522275	2535.581918
939.824747	2535.463450
940.127179	2531.967410
940.429573	2529.920702
940.731929	2531.982534
941.034246	2530.094622
941.336524	2534.525796
941.638763	2534.838347
941.940964	2534.276259
942.243126	2532.252235
942.545250	2533.474715
942.847335	2533.015970
943.149381	2533.230219
943.451389	2532.133768
943.753359	2532.136289
944.055290	2531.949766
944.357182	2529.812317
944.659036	2532.776515
944.960851	2533.147040
945.262628	2530.306350
945.564367	2531.793490
945.866067	2531.881711
946.167729	2531.412883
946.469352	2534.296423
946.770937	2532.358100
947.072484	2531.823737
947.373992	2531.942204
947.675462	2532.441279
947.976893	2532.673172
948.278286	2530.878521
948.579641	2530.107224
948.880958	2532.564787
949.182236	2531.911957
949.483476	2529.625794
949.784678	2532.665610
950.085841	2530.185362
950.386967	2532.799201
950.688054	2529.303160
950.989103	2532.370703
951.290114	2531.697708
951.591087	2528.846936
951.892021	2529.726617
952.192917	2534.843388
952.493776	2533.280631
952.794596	2536.096115
953.095378	2531.110414
953.396122	2533.535209
953.696828	2532.375744
953.997496	2530.190403
954.298126	2533.429345
954.598718	2532.647966
954.899272	2531.506145
955.199788	2532.146371
955.500266	2529.804755
955.800706	2529.842564
956.101108	2525.091276
956.401472	2528.436082
956.701798	2527.541277
957.002087	2526.356606
957.302337	2530.881042
957.602550	2530.288706
957.902724	2531.463295
958.202861	2529.769467
958.502960	2531.327184
958.803022	2528.914992
959.103045	2529.976154
959.403031	2528.776360
959.702979	2528.972965
960.002889	2530.802904
960.302762	2528.647810
960.602596	2530.076978
960.902393	2530.568490
961.202153	2529.736700
961.501875	2531.289375
961.801559	2529.008253
962.101205	2530.119827
962.400814	2529.303160
962.700385	2528.267203
962.999918	2528.468849
963.299414	2526.966586
963.598873	2529.802235
963.898293	2528.662934
964.197677	2528.698222
964.497022	2529.691329
964.796331	2530.686957
965.095601	2529.777029
965.394835	2530.712163
965.694030	2527.508510
965.993189	2531.138140
966.292309	2527.722759
966.591393	2527.584127
966.890439	2529.219981
967.189447	2529.691329
967.488419	2528.574714
967.787353	2528.506658
968.086249	2526.825433
968.385108	2528.826771
968.683930	2529.409025
968.982714	2528.990609
969.281462	2528.829292
969.580172	2530.571011
969.878844	2525.741585
970.177480	2530.203006
970.476078	2527.773170
970.774639	2528.604961
971.073162	2525.557583
971.371649	2526.144878
971.670098	2524.519105
971.968510	2523.125226
972.266885	2524.072963
972.565223	2528.420958
972.863524	2530.699560
973.161788	2527.821061
973.460014	2527.803417
973.758204	2529.794673
974.056356	2528.917512
974.354471	2528.136133
974.652550	2529.134282
974.950591	2527.145547
975.248595	2526.404497
975.546563	2525.731503
975.844493	2528.393232
976.142386	2529.789632
976.440243	2529.739220
976.738062	2527.117820
977.035845	2526.384332
977.333590	2529.020856
977.631299	2526.921215
977.928971	2528.083201
978.226606	2528.055475
978.524204	2528.730989
978.821765	2525.587830
979.119290	2528.985568
979.416777	2529.532533
979.714228	2527.445495
980.011642	2528.342821
980.309020	2527.001874
980.606360	2527.899199
980.903664	2526.747295
981.200931	2526.459950
981.498162	2529.487162
981.795356	2530.727286
982.092513	2531.652338
982.389633	2529.638397
982.686717	2530.444982
982.983764	2530.961700
983.280775	2531.682585
983.577749	2528.710825
983.874686	2529.159488
984.171587	2529.903058
984.468451	2532.191742
984.765279	2528.055475
985.062070	2529.908099
985.358824	2529.948428
985.655543	2528.741072
985.952224	2528.788963
986.248869	2531.296937
986.545478	2521.214629
986.842050	2525.366019
987.138586	2523.309228
987.435086	2525.993643
987.731549	2524.032634
988.027975	2528.426000
988.324366	2523.624301
988.620719	2527.730320
988.917037	2526.283509
989.213318	2526.298633
989.509563	2527.861390
989.805772	2528.947759
990.101944	2525.880217
990.398080	2526.734692
990.694180	2527.553880
990.990244	2529.028417
991.286271	2527.074970
991.582262	2525.446678
991.878217	2525.991122
992.174136	2528.133613
992.470019	2526.389373
992.765865	2527.989940
993.061676	2524.448529
993.357450	2528.355423
993.653188	2524.950124
993.948890	2527.498427
994.244556	2525.776873
994.540186	2528.844415
994.835780	2527.085053
995.131337	2526.139836
995.426859	2525.618077
995.722345	2527.616894
996.017795	2528.098325
996.313208	2529.774508
996.608586	2527.810979
996.903928	2527.647141
997.199234	2529.119158
997.494504	2529.114117
997.789738	2527.848788
998.084936	2530.679395
998.380099	2528.685619
998.675225	2525.849970
998.970316	2526.686802
999.265371	2527.218643
999.560390	2527.105217
999.855373	2528.068078
1000.150320	2525.809641
1000.445232	2529.761905
1000.740108	2525.096318
1001.034948	2527.868952
1001.329752	2528.395753
1001.624521	2528.451205
1001.919254	2521.645648
1002.213951	2524.647655
1002.508613	2523.468025
1002.803239	2525.015659
1003.097829	2522.923580
1003.392384	2527.087573
1003.686903	2528.637728
1003.981386	2527.879034
1004.275834	2527.120341
1004.570246	2528.337779
1004.864623	2524.473735
1005.158964	2528.146216
1005.453270	2525.688653
1005.747540	2526.636390
1006.041775	2526.631349
1006.335974	2526.737213
1006.630138	2524.798889
1006.924266	2525.814682
1007.218359	2527.364837
1007.512416	2526.200330
1007.806438	2527.649662
1008.100425	2526.820392
1008.394376	2527.072450
1008.688292	2527.405166
1008.982172	2527.682429
1009.276017	2528.564631
1009.569827	2526.167563
1009.863602	2528.506658
1010.157341	2528.489014
1010.451045	2525.507172
1010.744714	2525.671009
1011.038347	2523.009280
1011.331945	2526.134795
1011.625508	2526.870804
1011.919036	2529.522451
1012.212528	2526.666637
1012.505986	2526.563293
1012.799408	2527.059847
1013.092795	2527.400125
1013.386147	2526.263345
1013.679464	2529.809796
1013.972745	2526.535567
1014.265992	2525.517254
1014.559204	2527.891637
1014.852380	2526.651513
1015.145521	2528.872142
1015.438628	2523.606657
1015.731699	2527.286699
1016.024736	2526.240659
1016.317737	2525.423992
1016.610703	2527.034641
1016.903635	2524.665299
1017.196531	2520.135822
1017.489393	2523.147912
1017.782219	2520.685308
1018.075011	2527.453057
1018.367768	2526.268386
1018.660490	2527.576565
1018.953177	2527.576565
1019.245829	2527.576565
