Dividing Wavelength (nm)	Counts (n)	Blue Motor Position (mm): 0.000000	Red Motor Position (mm): 49.300000	
326.493990	2128.037397
326.888308	2128.037397
327.282561	2128.037397
327.676750	2096.147057
328.070874	2096.615885
328.464933	2095.889958
328.858929	2100.815166
329.252859	2113.697834
329.646726	2125.330297
330.040528	2138.278501
330.434265	2154.458084
330.827938	2170.410815
331.221547	2188.523681
331.615091	2211.622248
332.008571	2229.805690
332.401986	2250.391242
332.795338	2267.437903
333.188625	2285.666716
333.581847	2307.036167
333.975006	2325.489310
334.368100	2343.191322
334.761129	2359.416276
335.154095	2375.656353
335.546996	2399.029663
335.939833	2421.614032
336.332606	2439.121959
336.725315	2451.097220
337.117960	2461.534929
337.510540	2468.910137
337.903056	2481.641571
338.295508	2485.530822
338.687896	2497.808552
339.080220	2505.340036
339.472480	2513.123577
339.864676	2516.901922
340.256807	2520.498785
340.648875	2521.973323
341.040879	2525.040865
341.432818	2525.310567
341.824694	2530.190403
342.216506	2530.122348
342.608253	2532.244674
342.999937	2531.914478
343.391557	2529.285516
343.783113	2528.146216
344.174605	2527.314425
344.566033	2525.602953
344.957397	2525.308046
345.348697	2522.616070
345.739934	2520.153466
346.131106	2517.249762
346.522215	2516.594412
346.913260	2513.085768
347.304241	2515.134997
347.695159	2512.919410
348.086012	2510.108967
348.476802	2508.102588
348.867528	2504.843482
349.258191	2505.516476
349.648789	2506.222238
350.039324	2503.802484
350.429796	2502.176712
350.820203	2502.716115
351.210548	2498.816783
351.600828	2500.916423
351.991045	2497.352327
352.381198	2496.540702
352.771288	2497.304436
353.161314	2498.529437
353.551276	2497.599344
353.941175	2498.416011
354.331010	2499.323418
354.720782	2494.773777
355.110490	2496.966679
355.500135	2498.335352
355.889717	2498.831906
356.279235	2497.014570
356.668689	2502.466578
357.058080	2500.412308
357.447408	2497.629591
357.836672	2495.396360
358.225873	2499.671258
358.615010	2494.955259
359.004084	2502.058244
359.393095	2499.724190
359.782043	2503.321053
360.170927	2502.075888
360.559748	2502.322905
360.948505	2504.029336
361.337199	2502.098574
361.725830	2506.776764
362.114398	2509.688031
362.502903	2505.864316
362.891344	2507.477485
363.279722	2508.964625
363.668037	2508.263905
364.056289	2510.882784
364.444478	2508.921775
364.832603	2510.512259
365.220665	2510.729029
365.608665	2509.398164
365.996601	2513.796571
366.384474	2517.075842
366.772284	2516.992663
367.160031	2516.813702
367.547715	2516.939731
367.935336	2519.198167
368.322893	2524.839219
368.710388	2526.548170
369.097820	2533.167205
369.485189	2536.171733
369.872495	2544.020809
370.259738	2549.550955
370.646918	2558.055381
371.034035	2564.041752
371.421090	2573.519121
371.808081	2585.368353
372.195010	2593.270362
372.581875	2605.245622
372.968678	2616.830194
373.355418	2627.766977
373.742096	2646.472179
374.128710	2660.400887
374.515262	2677.576098
374.901751	2689.188396
375.288177	2705.710777
375.674540	2726.878582
376.060841	2746.289545
376.447079	2766.824686
376.833254	2785.605504
377.219367	2795.208902
377.605417	2834.681137
377.991404	2847.500791
378.377329	2869.631457
378.763191	2885.017058
379.148991	2923.929725
379.534727	2948.704475
379.920402	2977.600369
380.306013	2988.597646
380.691563	3040.017415
381.077049	3059.730848
381.462474	3079.015782
381.847835	3115.322172
382.233134	3138.103146
382.618371	3137.024339
383.003545	3205.394988
383.388657	3211.943447
383.773706	3245.827562
384.158693	3262.750716
384.543618	3287.220477
384.928480	3324.731702
385.313280	3372.015205
385.698017	3370.802807
386.082692	3423.868513
386.467305	3425.670726
386.851856	3458.488637
387.236344	3483.396978
387.620770	3512.958305
388.005133	3538.605175
388.389435	3568.368147
388.773674	3581.502873
389.157851	3621.033081
389.541965	3635.644866
389.926018	3599.217488
390.310008	3671.845392
390.693936	3688.448432
391.077802	3729.990060
391.461606	3720.616034
391.845348	3783.227165
392.229027	3781.092237
392.612645	3797.110503
392.996200	3873.070609
393.379694	3911.602668
393.763125	3975.839571
394.146494	3943.785395
394.529801	4001.988036
394.913047	4056.790420
395.296230	4022.790358
395.679351	4077.146599
396.062410	4099.713324
396.445408	4081.668514
396.828343	4113.286631
397.211217	4136.886793
397.594028	4056.082138
397.976778	4124.609063
398.359466	4150.432373
398.742092	4178.604861
399.124656	4105.311526
399.507158	4180.190304
399.889598	4209.219789
400.271977	4266.242800
400.654294	4237.634252
401.036549	4249.969956
401.418742	4220.156572
401.800874	4320.611645
402.182944	4339.334490
402.564952	4409.046086
402.946898	4389.945154
403.328783	4391.192840
403.710606	4305.891475
404.092367	4498.750898
404.474067	4458.938386
404.855705	4468.395590
405.237282	4396.309611
405.618797	4508.671889
406.000250	4540.423596
406.381642	4619.047952
406.762972	4584.405143
407.144240	4592.695321
407.525447	4592.909570
407.906593	4653.317716
408.287677	4692.628634
408.668700	4624.459631
409.049661	4676.305378
409.430560	4720.992686
409.811399	4644.057117
410.192176	4806.281447
410.572891	4746.216099
410.953545	4844.657231
411.334138	4727.566351
411.714669	4794.192760
412.095139	4685.800391
412.475547	4831.530066
412.855894	4811.400739
413.236180	4821.886339
413.616405	4773.392960
413.996568	4859.402606
414.376670	4803.685253
414.756711	4761.067338
415.136691	4790.406854
415.516609	4870.692270
415.896466	4907.018825
416.276262	4939.453608
416.655997	4917.426287
417.035670	5104.372436
417.415283	5193.910890
417.794834	5135.410820
418.174324	5091.688893
418.553753	4996.700952
418.933121	5182.449827
419.312428	5250.505404
419.691674	5192.078431
420.070859	5314.898582
420.449983	5228.291559
420.829045	5342.090566
421.208047	5246.185135
421.586988	5319.218851
421.965867	5331.869627
422.344686	5462.826201
422.723444	5317.502338
423.102141	5138.180934
423.480777	5434.951141
423.859352	5207.027972
424.237866	5464.469617
424.616319	5457.618689
424.994712	5565.244803
425.373044	5443.032110
425.751314	5587.796405
426.129524	5390.712495
426.507673	5581.005970
426.885762	5665.823384
427.263789	5595.398465
427.641756	5478.605012
428.019662	5599.721254
428.397508	5605.327017
428.775292	5553.171239
429.153016	5654.629502
429.530679	5578.437502
429.908282	5665.067211
430.285824	5534.614752
430.663305	5807.704138
431.040726	5544.475249
431.418086	5547.459612
431.795385	5652.814686
432.172624	5666.566954
432.549802	5655.090767
432.926920	5666.370349
433.303977	5673.281771
433.680974	5714.402463
434.057910	5734.735957
434.434786	5740.258541
434.811601	5703.841246
435.188355	5945.723369
435.565050	5816.931970
435.941683	5798.874557
436.318257	6015.566035
436.694770	5997.236399
437.071222	6032.640423
437.447614	5961.824814
437.823946	5873.145877
438.200218	6030.568509
438.576429	5896.128497
438.952580	5991.401264
439.328670	6036.945568
439.704700	5946.968534
440.080670	5929.984887
440.456580	6202.403799
440.832429	6084.735707
441.208218	5930.534372
441.583947	6086.094298
441.959616	6092.947746
442.335224	6019.200707
442.710773	6152.965203
443.086261	6182.738258
443.461689	5975.390559
443.837057	6122.428414
444.212365	6281.224760
444.587612	6178.188617
444.962800	6322.955432
445.337927	6309.692156
445.712995	5913.951497
446.088002	6491.027501
446.462949	6323.441903
446.837837	6259.862871
447.212664	6427.778664
447.587431	6569.425005
447.962139	7109.488858
448.336786	8040.736167
448.711374	7778.356712
449.085901	6854.524940
449.460369	6776.031654
449.834776	6711.888013
450.209124	7099.109122
450.583412	7253.935559
450.957640	7396.421252
451.331808	7157.689850
451.705917	6713.357509
452.079965	6638.264481
452.453954	6854.807245
452.827883	6727.457616
453.201752	6816.527243
453.575562	6616.675740
453.949311	6824.824982
454.323001	6708.747374
454.696632	6788.294261
455.070202	6924.450785
455.443713	7079.506595
455.817164	7182.182296
456.190556	7262.034173
456.563888	7338.705082
456.937160	7378.205043
457.310373	7036.001438
457.683526	7058.396763
458.056619	6948.597912
458.429653	6942.155318
458.802628	6875.904474
459.175542	6984.024621
459.548398	7334.483116
459.921194	7496.392374
460.293930	7503.492839
460.666607	8034.243160
461.039224	8343.578443
461.411782	8462.905075
461.784280	8487.153025
462.156719	8377.210501
462.529099	8256.381605
462.901419	7842.767534
463.273680	7731.947849
463.645882	7748.301352
464.018024	7616.455015
464.390106	7781.235211
464.762130	8167.483377
465.134094	8638.609451
465.505999	9661.056274
465.877845	10886.296113
466.249631	11533.681090
466.621358	11149.913172
466.993026	10523.819508
467.364634	10268.041444
467.736184	9891.419361
468.107674	9564.583713
468.479105	9602.513354
468.850477	9362.977888
469.221790	9134.409452
469.593043	8805.227147
469.964238	8666.925612
470.335373	8680.839197
470.706449	8741.494360
471.077467	8720.147594
471.448425	10029.667964
471.819324	11103.365678
472.190164	11129.677980
472.560945	9880.086847
472.931667	9090.682484
473.302330	8953.190054
473.672934	8596.377185
474.043479	8959.080642
474.413965	8900.028566
474.784393	8781.747973
475.154761	8936.713043
475.525070	9022.397534
475.895321	8850.698355
476.265513	9030.622177
476.635645	9198.311118
477.005719	9194.048823
477.375734	9305.090319
477.745691	9544.867760
478.115588	9685.684831
478.485427	9920.862220
478.855207	10464.883378
479.224928	11276.746082
479.594591	11905.095662
479.964194	11714.935777
480.333739	11656.614668
480.703226	11576.470404
481.072653	11665.766883
481.442022	11900.808160
481.811333	12089.236409
482.180584	11892.497818
482.549777	11611.594644
482.918912	11426.367528
483.287988	11450.255035
483.657005	11466.684156
484.025964	11143.407562
484.394864	11278.570979
484.763706	11247.003274
485.132489	11003.989412
485.501213	10966.649585
485.869879	11043.844774
486.238487	10879.755216
486.607036	10997.171251
486.975527	10774.095152
487.343959	10965.621190
487.712333	11009.824547
488.080648	10948.022522
488.448905	10987.333439
488.817104	10924.137535
489.185244	11187.522700
489.553326	11343.538850
489.921350	11877.296219
490.289315	12941.962705
490.657222	13287.611939
491.025070	13198.509545
491.392861	13074.592943
491.760593	12691.460209
492.128267	12346.612518
492.495883	12007.794048
492.863440	11672.048161
493.230939	11336.430823
493.598380	11275.684919
493.965763	11141.958231
494.333088	11040.016018
494.700354	10961.013575
495.067563	11023.100426
495.434713	10856.311330
495.801805	10985.168264
496.168839	10904.552652
496.535815	10842.095277
496.902733	10846.065185
497.269593	10772.723958
497.636395	10879.684640
498.003139	10859.837618
498.369825	10727.209901
498.736453	10883.485670
499.103023	10815.016719
499.469535	10836.552528
499.835989	10827.506177
500.202385	10790.930086
500.568723	10638.876283
500.935003	10865.869358
501.301226	10669.450881
501.667390	10929.652557
502.033497	11029.830366
502.399546	10885.817204
502.765537	10795.048708
503.131470	10865.645027
503.497345	11042.380319
503.863163	10651.930351
504.228923	10971.113527
504.594625	11031.027640
504.960269	10780.147058
505.325856	10994.259985
505.691385	10793.163317
506.056856	10949.391195
506.422270	10966.826026
506.787625	10855.353511
507.152924	10980.565690
507.518164	10960.189347
507.883347	10878.384023
508.248472	10793.589294
508.613540	11022.868533
508.978550	10918.236864
509.343503	10892.403471
509.708398	11013.431493
510.073236	11120.006526
510.438016	11127.419543
510.802738	11070.827550
511.167403	11126.693617
511.532010	11023.748214
511.896561	11252.233471
512.261053	11321.168729
512.625488	11190.776765
512.989866	11175.607933
513.354186	11167.191726
513.718449	11068.148177
514.082655	11260.246385
514.446803	11153.381485
514.810894	11285.895776
515.174927	11149.893007
515.538904	11170.644917
515.902822	11319.464819
516.266684	11203.419978
516.630488	11155.077834
516.994235	11202.797396
517.357925	11277.038469
517.721558	11355.007475
518.085133	11376.777697
518.448651	11386.345807
518.812112	11268.897005
519.175516	11287.811414
519.538863	11408.806668
519.902152	11319.825262
520.265385	11481.316105
520.628560	11388.389995
520.991678	11370.892150
521.354739	11432.187540
521.717743	11363.368228
522.080690	11341.172028
522.443580	11481.104376
522.806413	11433.755339
523.169189	11463.293980
523.531908	11522.588031
523.894569	11338.361585
524.257174	11345.136895
524.619722	11463.286418
524.982213	11416.106259
525.344647	11460.682662
525.707025	11417.243039
526.069345	11510.078408
526.431608	11422.674883
526.793815	11534.490196
527.155964	11322.028246
527.518057	11380.694674
527.880093	11328.629637
528.242072	11393.531972
528.603995	11303.128960
528.965860	11225.661549
529.327669	11273.393714
529.689421	11225.916128
530.051117	11193.713237
530.412755	11299.053188
530.774337	11193.320027
531.135862	11168.141984
531.497331	11188.871208
531.858743	11045.152953
532.220098	11216.524458
532.581396	11081.920609
532.942638	11059.948740
533.303824	11029.326251
533.664953	11038.904443
534.026025	10957.754469
534.387040	11049.939529
534.747999	11054.721063
535.108902	11113.763057
535.469748	10875.384536
535.830537	10974.975051
536.191270	10953.716505
536.551947	10977.130144
536.912567	10976.646193
537.273131	10903.186499
537.633638	10877.930319
537.994089	10867.036385
538.354483	10817.121400
538.714821	10966.420213
539.075103	10968.807199
539.435328	10937.773856
539.795497	10761.252813
540.155609	10920.109653
540.515665	11008.314722
540.875665	10748.818807
541.235609	10812.196193
541.595496	10807.220574
541.955328	10970.921963
542.315102	10847.988385
542.674821	10794.494181
543.034483	10795.706579
543.394090	10804.629421
543.753640	10734.244831
544.113134	10960.537186
544.472571	10809.695781
544.831953	10955.659870
545.191278	10758.268450
545.550548	10786.672831
545.909761	10932.745305
546.268918	10899.990408
546.628019	10980.800104
546.987064	10839.872128
547.346053	10770.009297
547.704986	10865.710562
548.063863	10854.718326
548.422684	10843.229536
548.781449	10760.758780
549.140158	10861.884326
549.498811	10738.607950
549.857408	10598.632752
550.215949	10819.359673
550.574434	10670.905254
550.932864	10778.748137
551.291237	10836.756695
551.649555	10783.529672
552.007817	10797.339913
552.366022	10752.372820
552.724173	10748.397871
553.082267	10737.065357
553.440305	10872.316994
553.798288	10673.148567
554.156215	10823.069962
554.514086	10802.111365
554.871902	10653.062090
555.229661	10689.681031
555.587365	10672.394915
555.945014	10562.931300
556.302606	10688.508963
556.660143	10585.545916
557.017625	10735.406817
557.375050	10633.026024
557.732421	10768.819585
558.089735	10680.216265
558.446994	10679.689464
558.804197	10718.259332
559.161345	10720.457275
559.518437	10568.365664
559.875474	10658.219190
560.232455	10677.718373
560.589381	10638.720007
560.946251	10631.508636
561.303065	10740.929401
561.659825	10672.959524
562.016528	10612.034659
562.373177	10483.349125
562.729770	10597.309449
563.086307	10520.827583
563.442789	10606.711201
563.799216	10481.839299
564.155587	10531.487103
564.511904	10487.233334
564.868164	10480.571449
565.224370	10497.083748
565.580520	10412.964535
565.936615	10423.180433
566.292654	10296.639910
566.648638	10426.157234
567.004567	10378.407425
567.360441	10361.506957
567.716260	10268.290981
568.072023	10369.174552
568.427732	10317.759824
568.783385	10226.628365
569.138982	10302.429675
569.494525	10313.772271
569.850013	10189.341471
570.205445	10275.194841
570.560823	10165.191823
570.916145	10088.657026
571.271412	10153.393003
571.626625	10102.046330
571.981782	10079.083874
572.336884	10061.878416
572.691931	10051.942302
573.046923	10005.588893
573.401860	9959.452252
573.756743	9895.424558
574.111570	9941.142782
574.466342	9925.588302
574.821059	9956.422519
575.175722	9846.767341
575.530330	9856.637920
575.884882	9850.255819
576.239380	9771.449982
576.593823	9748.227906
576.948211	9774.449468
577.302544	9647.699737
577.656823	9662.412344
578.011047	9664.030555
578.365216	9636.163056
578.719330	9560.092045
579.073389	9567.275689
579.427394	9517.890025
579.781344	9493.188372
580.135239	9446.277914
580.489080	9456.004821
580.842866	9356.179892
581.196597	9363.681129
581.550273	9401.267972
581.903895	9367.819917
582.257463	9433.589330
582.610975	9308.198190
582.964434	9335.889248
583.317837	9259.805634
583.671186	9244.725022
584.024481	9237.296882
584.377721	9156.524994
584.730906	9135.294175
585.084037	9162.655037
585.437113	9097.009132
585.790135	9118.542421
586.143103	9020.466772
586.496016	8997.683278
586.848874	9054.663440
587.201679	9045.672542
587.554428	8922.295342
587.907124	8978.093354
588.259765	8943.984907
588.612352	8946.470196
588.964884	8826.387391
589.317362	8839.804422
589.669786	8842.698044
590.022155	8885.636072
590.374470	8899.869770
590.726731	8843.192077
591.078937	8697.119603
591.431090	8808.342580
591.783188	8681.807098
592.135232	8664.213471
592.487222	8673.852158
592.839157	8718.567192
593.191038	8653.780803
593.542866	8600.450437
593.894639	8497.910847
594.246358	8555.105258
594.598022	8566.904079
594.949633	8463.683933
595.301190	8439.962784
595.652692	8468.266342
596.004141	8576.462106
596.355535	8356.108231
596.706876	8332.263573
597.058162	8269.297041
597.409395	8346.290583
597.760573	8407.384327
598.111698	8317.782858
598.462768	8303.586969
598.813785	8271.507587
599.164748	8234.119869
599.515657	8225.285247
599.866511	8136.167729
600.217312	8262.136082
600.568060	8120.900595
600.918753	8227.145433
601.269392	8199.393881
601.619978	8108.398533
601.970510	8172.073348
602.320988	8165.512286
602.671412	8219.240904
603.021783	8159.548601
603.372100	8135.008264
603.722363	8137.957339
604.072572	8112.693597
604.422728	8116.875234
604.772830	8051.501551
605.122878	8060.535298
605.472872	8057.263589
605.822813	8083.913649
606.172701	8031.228550
606.522534	8106.288811
606.872314	8105.323430
607.222041	8072.422339
607.571714	8127.595247
607.921333	8086.063701
608.270899	8090.968744
608.620411	8180.703803
608.969870	8090.794824
609.319276	8073.932165
609.668627	8095.339424
610.017926	8130.907285
610.367171	8177.530397
610.716362	8157.985843
611.065500	8145.934965
611.414585	8171.049993
611.763616	8156.473497
612.112594	8142.567474
612.461518	8152.896798
612.810389	8221.368271
613.159207	8160.382912
613.507971	8108.975746
613.856682	8225.345741
614.205340	8174.856065
614.553945	8258.408148
614.902496	8151.346644
615.250994	8211.275881
615.599439	8191.302829
615.947830	8203.399078
616.296169	8177.129625
616.644454	8191.842233
616.992686	8190.440792
617.340864	8246.458093
617.688990	8153.879823
618.037063	8240.680931
618.385082	8196.331380
618.733048	8271.555478
619.080961	8215.565903
619.428821	8234.860919
619.776628	8236.524500
620.124382	8188.058847
620.472083	8173.394130
620.819731	8198.806587
621.167326	8093.575021
621.514868	8107.153368
621.862357	7992.210020
622.209793	8005.929520
622.557176	7940.931403
622.904506	7909.467041
623.251783	7845.898091
623.599007	7800.537789
623.946179	7799.368241
624.293297	7759.545646
624.640363	7674.589601
624.987376	7660.020666
625.334336	7611.323120
625.681243	7556.926550
626.028097	7547.073614
626.374899	7523.765840
626.721647	7513.275198
627.068343	7443.056967
627.414987	7418.123420
627.761577	7369.584670
628.108115	7407.395844
628.454600	7301.773589
628.801032	7357.092691
629.147412	7313.771535
629.493739	7305.115874
629.840014	7243.512974
630.186236	7296.319060
630.532405	7182.774632
630.878521	7231.943526
631.224585	7189.902823
631.570597	7113.935155
631.916556	7142.631924
632.262462	7141.646378
632.608316	7097.914368
632.954117	7078.140442
633.299866	7067.271715
633.645562	7055.503141
633.991206	6980.044630
634.336797	6923.364417
634.682336	6880.809516
635.027823	6845.957499
635.373257	6835.454255
635.718639	6770.955212
636.063968	6781.496265
636.409245	6677.159504
636.754470	6674.850655
637.099642	6631.315251
637.444762	6571.575057
637.789829	6586.312870
638.134845	6525.196442
638.479808	6503.169120
638.824719	6517.680081
639.169577	6446.806499
639.514383	6465.352904
639.859137	6396.566360
640.203839	6404.962402
640.548489	6387.444392
640.893086	6365.734663
641.237632	6336.896743
641.582125	6355.720411
641.926566	6331.278377
642.270955	6336.808522
642.615292	6339.369429
642.959576	6350.142374
643.303809	6339.006466
643.647990	6351.188414
643.992118	6338.315827
644.336195	6286.555780
644.680219	6312.114430
645.024192	6299.579601
645.368112	6398.852523
645.711981	6420.451347
646.055797	6496.900445
646.399562	6451.494772
646.743274	6577.344658
647.086935	6626.563963
647.430544	6625.028932
647.774101	6650.474156
648.117606	6654.653273
648.461059	6646.594988
648.804460	6603.109995
649.147810	6512.081880
649.491108	6487.430638
649.834354	6454.650535
650.177548	6375.307814
650.520690	6288.617612
650.863781	6269.395693
651.206820	6289.572911
651.549807	6210.429316
651.892742	6150.401777
652.235626	6159.826214
652.578458	6146.865407
652.921238	6049.354368
653.263967	6085.875008
653.606644	6034.881216
653.949269	6030.659249
654.291843	5976.643286
654.634365	6018.799935
654.976836	5973.598429
655.319255	5974.964582
655.661622	5954.535306
656.003938	5948.914419
656.346203	5910.054685
656.688416	5942.181958
657.030577	5893.522221
657.372687	5865.974836
657.714746	5851.431107
658.056753	5890.290841
658.398708	5840.325445
658.740612	5829.504608
659.082465	5871.678901
659.424266	5866.710844
659.766016	5867.668663
660.107715	5843.705538
660.449362	5859.990986
660.790958	5851.496642
661.132503	5839.072718
661.473996	5872.286360
661.815438	5862.171285
662.156829	5856.898238
662.498168	5852.724163
662.839456	5826.878167
663.180693	5859.438980
663.521879	5863.928127
663.863013	5849.306260
664.204097	5873.092945
664.545129	5914.684985
664.886110	5906.180558
665.227040	5944.513492
665.567918	5907.576958
665.908746	5936.583757
666.249522	5944.687412
666.590248	5929.279125
666.930922	5954.681499
667.271545	5965.915711
667.612118	5971.897040
667.952639	5940.117606
668.293109	5962.893539
668.633528	5920.255460
668.973896	5925.347025
669.314213	5917.213123
669.654480	5896.123456
669.994695	5890.631119
670.334859	5882.587958
670.674973	5866.799064
671.015035	5876.621753
671.355047	5876.190734
671.695008	5861.195822
672.034918	5834.840669
672.374777	5849.704512
672.714585	5825.751469
673.054342	5834.515515
673.394049	5826.510163
673.733705	5857.919072
674.073310	5843.443398
674.412864	5802.468900
674.752368	5790.607065
675.091820	5800.170134
675.431223	5735.734105
675.770574	5741.624694
676.109875	5689.688206
676.449125	5694.870512
676.788324	5661.924051
677.127473	5606.962872
677.466571	5597.361994
677.805619	5588.161888
678.144616	5569.991049
678.483562	5552.271393
678.822458	5521.969018
679.161303	5515.044993
679.500098	5505.313045
679.838842	5487.553060
680.177535	5493.350387
680.516179	5507.458056
680.854771	5519.312330
681.193314	5599.663281
681.531805	5707.836360
681.870247	5855.995872
682.208638	5963.818591
682.546978	5976.101362
682.885268	5952.105470
683.223508	5868.898705
683.561697	5814.839892
683.899836	5783.504079
684.237925	5740.644189
684.575963	5702.281008
684.913951	5665.921686
685.251889	5728.570626
685.589776	5697.481830
685.927614	5663.380945
686.265401	5736.008848
686.603137	5716.151743
686.940824	5793.903980
687.278460	5818.015818
687.616046	5829.844886
687.953582	5898.974229
688.291068	5881.534357
688.628504	5944.589109
688.965889	5904.131329
689.303224	5849.608730
689.640510	5800.152490
689.977745	5719.032763
690.314930	5629.461541
690.652065	5570.157407
690.989150	5480.777750
691.326185	5402.221449
691.663170	5353.965004
692.000105	5271.216984
692.336990	5190.697154
692.673825	5169.375594
693.010610	5097.841621
693.347345	5030.053225
693.684030	5014.952449
694.020665	4975.031552
694.357251	4885.082244
694.693786	4892.356629
695.030272	4858.548130
695.366707	4825.904139
695.703093	4791.460455
696.039429	4807.766067
696.375716	4794.273419
696.711952	4774.370943
697.048139	4758.438377
697.384276	4734.956682
697.720363	4746.090070
698.056400	4754.259260
698.392388	4708.926684
698.728326	4690.576884
699.064214	4668.383204
699.400053	4660.622348
699.735842	4625.704796
700.071581	4604.501703
700.407270	4571.822423
700.742910	4559.232141
701.078501	4502.700642
701.414042	4499.469262
701.749533	4470.820385
702.084974	4406.775046
702.420366	4463.672029
702.755709	4407.783277
703.091002	4351.098023
703.426246	4400.430754
703.761440	4357.091954
704.096584	4318.721212
704.431679	4336.582020
704.766725	4323.926203
705.101721	4312.056807
705.436668	4340.544367
705.771565	4291.007469
706.106413	4315.308351
706.441212	4349.562991
706.775961	4356.897870
707.110661	4337.764171
707.445311	4364.711658
707.779913	4386.665883
708.114465	4399.656937
708.448967	4424.479578
708.783421	4485.686748
709.117825	4526.058828
709.452180	4531.621742
709.786485	4576.924071
710.120742	4660.080424
710.454949	4647.790091
710.789107	4714.219896
711.123216	4787.339312
711.457275	4782.998878
711.791286	4853.060834
712.125247	4869.946179
712.459159	4770.222074
712.793023	4848.249053
713.126837	4803.891940
713.460602	4798.477741
713.794318	4718.494794
714.127985	4727.268922
714.461602	4640.394718
714.795171	4612.343218
715.128691	4543.299575
715.462162	4492.325948
715.795584	4441.100263
716.128957	4423.378086
716.462281	4372.333883
716.795556	4344.176518
717.128782	4302.450888
717.461960	4239.028131
717.795088	4243.093822
718.128167	4202.406669
718.461198	4144.897186
718.794180	4142.764778
719.127113	4122.678301
719.459997	4099.589816
719.792833	4056.755132
720.125619	4048.704409
720.458357	4008.488604
720.791046	4014.391795
721.123686	3993.662571
721.456278	3950.553144
721.788821	3965.953869
722.121315	3937.715845
722.453761	3912.089140
722.786158	3923.459462
723.118506	3949.471816
723.450805	3902.218561
723.783056	3922.373094
724.115259	3936.493366
724.447412	3944.284469
724.779518	3935.772481
725.111574	3940.112914
725.443582	3969.457471
725.775542	3958.825677
726.107453	4005.206813
726.439315	4008.496166
726.771129	4022.833207
727.102895	4055.368814
727.434612	4107.885035
727.766281	4116.840644
728.097901	4120.596304
728.429473	4122.587560
728.760996	4127.795072
729.092471	4129.347747
729.423897	4110.466105
729.755276	4114.499028
730.086606	4116.946509
730.417887	4155.730626
730.749120	4219.702868
731.080305	4281.388947
731.411442	4311.706446
731.742530	4281.424235
732.073570	4282.712250
732.404562	4336.652596
732.735506	4333.816947
733.066401	4295.733550
733.397249	4226.647058
733.728048	4147.866426
734.058798	4067.283582
734.389501	3997.531656
734.720156	3934.688632
735.050762	3890.092065
735.381320	3880.629819
735.711831	3830.366995
736.042293	3800.843477
736.372707	3822.510357
736.703073	3795.623362
737.033391	3786.967701
737.363661	3802.935556
737.693883	3832.380936
738.024056	3840.698840
738.354182	3831.937314
738.684260	3895.150863
739.014290	3918.834204
739.344272	3913.364552
739.674207	3952.977939
740.004093	3959.755770
740.333931	3957.971202
740.663722	3956.899956
740.993464	3955.241417
741.323159	3928.475410
741.652806	3898.475504
741.982405	3873.882235
742.311956	3841.828058
742.641460	3832.781707
742.970915	3808.253973
743.300323	3768.554887
743.629683	3734.769074
743.958996	3721.702403
744.288260	3695.667364
744.617477	3663.134278
744.946647	3652.898215
745.275768	3624.335037
745.604842	3618.777165
745.933869	3574.588931
746.262847	3565.605595
746.591778	3604.699743
746.920662	3574.399888
747.249498	3546.166906
747.578286	3584.898091
747.907027	3610.560084
748.235720	3604.805607
748.564365	3630.654123
748.892963	3629.345944
749.221514	3611.820373
749.550017	3588.434460
749.878473	3589.576281
750.206881	3558.225346
750.535242	3551.578584
750.863555	3552.014644
751.191821	3550.630847
751.520039	3531.507230
751.848210	3509.842872
752.176334	3541.927295
752.504411	3552.541445
752.832440	3511.592152
753.160421	3490.716734
753.488356	3500.481449
753.816243	3515.037781
754.144082	3469.833754
754.471875	3456.542752
754.799620	3473.329794
755.127318	3465.495841
755.454969	3465.581541
755.782572	3471.275524
756.110129	3451.771300
756.437638	3437.671192
756.765100	3452.373718
757.092515	3461.210860
757.419882	3469.632108
757.747203	3443.551698
758.074477	3445.053962
758.401703	3464.822847
758.728882	3483.858244
759.056014	3490.502485
759.383099	3491.127588
759.710138	3487.714727
760.037129	3506.278776
760.364073	3538.292623
760.690970	3521.785365
761.017820	3499.329545
761.344623	3516.746732
761.671379	3567.443095
761.998088	3613.657873
762.324751	3740.508428
762.651366	3985.354749
762.977935	4462.003407
763.304456	4907.550666
763.630931	5009.870966
763.957359	4649.700688
764.283740	4301.664468
764.610074	4109.689768
764.936362	3910.937236
765.262602	3748.395313
765.588796	3636.864825
765.914943	3547.613717
766.241044	3459.423771
766.567097	3429.249945
766.893104	3386.606825
767.219064	3351.049046
767.544978	3324.434274
767.870845	3268.036366
768.196665	3246.535844
768.522438	3258.329624
768.848165	3252.310486
769.173846	3217.556772
769.499479	3197.271168
769.825066	3179.405319
770.150607	3164.236487
770.476101	3182.586287
770.801548	3178.782737
771.126949	3131.489152
771.452303	3111.430401
771.777611	3121.585805
772.102872	3126.858852
772.428087	3102.585696
772.753256	3092.455498
773.078378	3084.679518
773.403453	3050.656771
773.728482	3038.142106
774.053465	3058.803275
774.378401	3047.473282
774.703291	3013.440452
775.028135	3014.864578
775.352932	3011.459279
775.677683	2997.863287
776.002388	2995.728358
776.327046	2997.543174
776.651658	2988.678305
776.976224	2975.576346
777.300743	2975.273877
777.625216	2964.364820
777.949643	2963.711990
778.274024	2961.466156
778.598359	2953.788479
778.922647	2956.460290
779.246889	2955.746967
779.571086	2940.900769
779.895236	2933.061775
780.219339	2944.941254
780.543397	2958.723768
780.867409	2960.725107
781.191374	2956.954323
781.515294	2953.412913
781.839167	2951.373766
782.162995	2941.840944
782.486776	2954.736216
782.810511	2949.997531
783.134201	2934.228802
783.457844	2945.236161
783.781441	2933.533123
784.104993	2912.347674
784.428498	2913.764238
784.751958	2929.832916
785.075372	2923.292019
785.398739	2907.712333
785.722061	2923.954930
786.045337	2936.373813
786.368568	2921.704055
786.691752	2910.961356
787.014891	2958.186886
787.337983	2990.127636
787.661030	3016.311389
787.984031	3084.523242
788.306987	3132.194913
788.629897	3124.287864
788.952760	3108.688013
789.275579	3094.371136
789.598351	3035.548433
789.921078	2987.135712
790.243759	2979.362252
790.566395	2961.750981
790.888984	2938.780964
791.211529	2923.528953
791.534027	2911.185688
791.856480	2901.940212
792.178888	2887.341030
792.501249	2878.390461
792.823566	2877.394833
793.145836	2872.409132
793.468062	2867.178935
793.790241	2864.638194
794.112375	2871.799153
794.434464	2881.982283
794.756507	2889.271792
795.078505	2895.391753
795.400457	2907.876170
795.722364	2947.093827
796.044226	2969.070737
796.366042	2971.719863
796.687812	2960.594037
797.009538	2980.592294
797.331218	2968.967393
797.652852	2956.520784
797.974442	2939.416149
798.295986	2932.663524
798.617484	2928.751588
798.938938	2913.660894
799.260346	2895.706825
799.581709	2891.804972
799.903026	2884.956564
800.224299	2878.977756
800.545526	2869.923843
800.866708	2855.906915
801.187845	2843.402333
801.508936	2844.413084
801.829983	2852.776359
802.150984	2838.467043
802.471940	2826.637976
802.792851	2825.959941
803.113717	2831.900941
803.434538	2832.762978
803.755314	2824.024138
804.076045	2817.916780
804.396731	2818.751091
804.717372	2820.601194
805.037967	2814.531645
805.358518	2817.135401
805.679024	2831.003615
805.999485	2824.906340
806.319901	2832.170642
806.640272	2824.301401
806.960598	2829.287102
807.280879	2837.244564
807.601115	2842.512569
807.921306	2834.088801
808.241453	2828.702328
808.561554	2837.123576
808.881611	2836.818586
809.201623	2831.056547
809.521590	2829.730724
809.841513	2826.098572
810.161390	2829.677792
810.481223	2824.119920
810.801011	2814.592139
811.120755	2811.683393
811.440453	2810.823876
811.760107	2813.730102
812.079716	2812.613486
812.399281	2802.949594
812.718801	2796.053296
813.038276	2790.903757
813.357707	2796.577576
813.677093	2801.865746
813.996434	2796.232257
814.315731	2792.337965
814.634983	2788.501647
814.954191	2788.718417
815.273354	2804.860191
815.592473	2811.391006
815.911547	2813.858651
816.230577	2821.478355
816.549562	2831.129644
816.868502	2828.593944
817.187399	2840.329750
817.506250	2859.105527
817.825058	2849.161851
818.143821	2863.604757
818.462539	2876.868033
818.781213	2907.611510
819.099843	2942.942436
819.418429	3000.923267
819.736970	3065.487845
820.055466	3137.384781
820.373919	3239.455544
820.692327	3381.182543
821.010691	3550.832493
821.329011	4001.123478
821.647286	4897.400303
821.965517	6291.549043
822.283704	7057.539767
822.601847	7044.445370
822.919945	6403.036681
823.237999	5888.382764
823.556010	5302.278054
823.873976	4741.689143
824.191897	4325.231862
824.509775	4028.166748
824.827609	3757.484513
825.145398	3630.129843
825.463144	3616.052421
825.780845	3708.144220
826.098502	3814.137000
826.416116	4098.541256
826.733685	4421.870781
827.051210	4484.892766
827.368692	4371.502093
827.686129	4103.335393
828.003522	3773.492697
828.320872	3513.230527
828.638177	3312.305258
828.955439	3178.318951
829.272656	3089.057760
829.589830	3020.898839
829.906960	2972.292034
830.224046	2927.501382
830.541088	2894.151629
830.858086	2875.509442
831.175041	2861.726927
831.491952	2861.227853
831.808819	2872.157075
832.125642	2894.718759
832.442421	2941.084771
832.759157	3023.933614
833.075849	3205.589072
833.392497	3490.373935
833.709101	3695.896737
834.025662	3646.619458
834.342179	3486.827484
834.658653	3305.761840
834.975083	3157.272133
835.291469	3059.052812
835.607811	2969.463947
835.924110	2909.476737
836.240366	2858.888758
836.556578	2817.170689
836.872746	2792.406021
837.188871	2771.402053
837.504952	2753.727768
837.820990	2745.913979
838.136984	2730.130127
838.452935	2725.010835
838.768842	2722.903633
839.084706	2743.010275
839.400526	2816.855617
839.716303	2952.883592
840.032037	3035.987013
840.347727	3023.638707
840.663373	2960.258800
840.978977	2883.086296
841.294537	2812.542910
841.610054	2762.723707
841.925527	2741.029101
842.240957	2715.611604
842.556344	2694.700897
842.871687	2682.082889
843.186987	2670.828513
843.502244	2666.977072
843.817458	2660.378202
844.132629	2649.668270
844.447756	2639.512866
844.762840	2632.911475
845.077881	2635.560601
845.392879	2635.427011
845.707833	2629.392749
846.022745	2620.195164
846.337613	2627.197327
846.652438	2625.349744
846.967221	2626.143726
847.281960	2621.964609
847.596656	2621.173148
847.911309	2620.248096
848.225919	2617.248610
848.540485	2614.859103
848.855009	2616.089144
849.169490	2613.157713
849.483928	2614.506222
849.798323	2612.411623
850.112675	2612.252826
850.426984	2613.442539
850.741251	2611.753752
851.055474	2611.224431
851.369654	2614.932200
851.683792	2615.479165
851.997887	2611.168978
852.311938	2610.085130
852.625947	2612.038577
852.939914	2614.201232
853.253837	2616.336161
853.567718	2610.712754
853.881555	2609.079420
854.195350	2613.954216
854.509103	2614.576798
854.822812	2609.666714
855.136479	2612.005810
855.450103	2611.829369
855.763685	2615.194340
856.077224	2611.022785
856.390720	2608.963473
856.704173	2612.570419
857.017584	2615.348095
857.330953	2617.775410
857.644278	2621.760442
857.957561	2616.610904
858.270802	2614.299535
858.584000	2613.893722
858.897155	2619.267592
859.210268	2618.796244
859.523339	2614.556634
859.836367	2609.167640
860.149352	2610.944647
860.462295	2611.932713
860.775195	2609.104626
861.088054	2606.057248
861.400869	2607.821652
861.713642	2604.655807
862.026373	2603.476177
862.339062	2608.333329
862.651708	2613.185440
862.964312	2615.083434
863.276873	2614.712909
863.589392	2616.230297
863.901869	2619.796913
864.214303	2626.708335
864.526696	2625.831174
864.839045	2630.481639
865.151353	2634.050776
865.463619	2633.642442
865.775842	2634.718728
866.088023	2632.934160
866.400162	2630.799231
866.712258	2632.997174
867.024313	2630.103552
867.336325	2627.819909
867.648296	2629.659931
867.960224	2634.464150
868.272110	2633.869294
868.583954	2628.031638
868.895755	2629.400311
869.207515	2631.857874
869.519233	2639.906076
869.830909	2635.714356
870.142542	2631.903244
870.454134	2632.601444
870.765684	2637.854326
871.077191	2639.076806
871.388657	2644.420429
871.700081	2641.869605
872.011463	2643.548309
872.322803	2641.940181
872.634101	2647.324134
872.945357	2654.734630
873.256571	2661.300733
873.567744	2657.663540
873.878874	2656.922491
874.189963	2656.380567
874.501010	2664.390960
874.812015	2663.039931
875.122979	2666.064623
875.433900	2658.991884
875.744780	2657.638334
876.055618	2660.600012
876.366415	2668.688544
876.677169	2667.347597
876.987882	2662.243428
877.298554	2661.290650
877.609183	2673.709533
877.919771	2677.124915
878.230317	2686.584640
878.540822	2695.905733
878.851285	2710.870398
879.161707	2735.869480
879.472087	2772.725356
879.782425	2823.656133
880.092722	2939.937909
880.402977	3130.929584
880.713191	3394.652506
881.023363	3697.046120
881.333494	3893.688928
881.643583	4065.390628
881.953631	4065.428437
882.263637	3888.393196
882.573602	3668.384639
882.883526	3529.357178
883.193408	3411.482398
883.503248	3307.959783
883.813048	3188.912935
884.122806	3075.771799
884.432522	2987.256699
884.742197	2921.787234
885.051831	2882.125956
885.361424	2846.205215
885.670975	2809.288845
885.980485	2778.646191
886.289954	2759.172214
886.599382	2745.160327
886.908768	2731.481156
887.218113	2716.385421
887.527417	2700.349510
887.836680	2689.518591
888.145901	2688.853159
888.455082	2674.259019
888.764221	2665.777277
889.073319	2658.344096
889.382376	2655.846204
889.691392	2658.064312
890.000366	2659.231339
890.309300	2656.010042
890.618193	2659.400218
890.927044	2659.334683
891.235855	2660.408448
891.544625	2661.391473
891.853353	2662.167811
892.162041	2664.098573
892.470687	2688.427182
892.779293	2702.895293
893.087858	2713.827035
893.396381	2734.921743
893.704864	2777.096037
894.013306	2851.359794
894.321707	2944.119546
894.630068	2997.354130
894.938387	3017.793489
895.246665	3010.473733
895.554903	2969.070737
895.863100	2921.953592
896.171256	2862.450333
896.479371	2801.036476
896.787446	2759.376381
897.095480	2742.803587
897.403473	2733.782443
897.711425	2719.705021
898.019336	2698.678368
898.327207	2687.756708
898.635038	2684.016172
898.942827	2678.082734
899.250576	2671.554440
899.558284	2660.131185
899.865952	2655.218581
900.173579	2652.453508
900.481165	2648.970070
900.788711	2642.381282
901.096216	2632.717390
901.403681	2631.588172
901.711105	2633.836527
902.018489	2629.745630
902.325832	2633.869294
902.633135	2637.887094
902.940397	2653.028199
903.247619	2689.594209
903.554800	2757.400248
903.861941	2890.123747
904.169041	3020.528315
904.476101	3087.875609
904.783121	3082.680700
905.090100	3020.704755
905.397039	2945.810853
905.703938	2866.427803
906.010796	2803.607465
906.317614	2749.924217
906.624391	2714.275698
906.931129	2687.459280
907.237826	2658.941473
907.544483	2641.380613
907.851099	2627.005763
908.157675	2618.143415
908.464211	2613.087137
908.770707	2598.455188
909.077163	2597.285641
909.383578	2592.602409
909.689954	2591.992429
909.996289	2586.984043
910.302584	2590.464959
910.608839	2584.100503
910.915054	2587.021851
911.221229	2586.981522
911.527363	2592.378077
911.833458	2590.336410
912.139513	2591.818509
912.445527	2590.530494
912.751502	2599.203800
913.057436	2603.314861
913.363331	2611.705861
913.669186	2621.405041
913.975000	2634.088584
914.280775	2653.749084
914.586510	2671.786333
914.892205	2709.433670
915.197859	2778.837755
915.503475	2863.559387
915.809050	2933.591096
916.114585	2952.293777
916.420081	2964.979840
916.725536	2973.517034
917.030952	2948.268415
917.336328	2899.265879
917.641665	2846.832838
917.946961	2797.427010
918.252218	2761.493665
918.557435	2732.670868
918.862612	2710.373845
919.167750	2694.020342
919.472848	2674.468227
919.777906	2658.570948
920.082925	2644.259112
920.387904	2635.122021
920.692843	2628.631535
920.997743	2625.947121
921.302603	2617.462859
921.607423	2614.508743
921.912204	2604.408791
922.216946	2602.866198
922.521647	2600.345621
922.826310	2596.083325
923.130932	2591.498396
923.435516	2585.945565
923.740059	2585.302818
924.044564	2582.953640
924.349028	2579.593711
924.653454	2571.744635
924.957840	2571.606003
925.262186	2566.194324
925.566493	2568.798080
925.870761	2564.291289
926.174989	2564.992009
926.479178	2563.169632
926.783328	2562.710887
927.087438	2561.133006
927.391509	2561.692574
927.695541	2558.907336
927.999533	2558.617470
928.303486	2554.834084
928.607400	2554.682849
928.911275	2554.309804
929.215110	2554.526574
929.518906	2552.232849
929.822663	2555.910370
930.126381	2552.399207
930.430060	2556.603529
930.733699	2555.733930
931.037299	2552.457180
931.340861	2556.417006
931.644383	2557.095042
931.947866	2554.740823
932.251309	2554.587068
932.554714	2555.859959
932.858080	2555.373487
933.161407	2554.743343
933.464694	2554.395504
933.767943	2554.229146
934.071153	2552.794937
934.374323	2552.686552
934.677455	2553.777962
934.980548	2551.582540
935.283602	2554.524053
935.586617	2551.476676
935.889593	2550.637323
936.192530	2550.864175
936.495428	2555.494475
936.798287	2554.473642
937.101108	2555.759136
937.403890	2557.352140
937.706632	2563.041082
938.009336	2561.536298
938.312002	2568.039387
938.614628	2571.038873
938.917216	2575.550706
939.219765	2577.380645
939.522275	2575.744790
939.824747	2576.599266
940.127179	2574.272773
940.429573	2567.701629
940.731929	2566.050651
941.034246	2563.739282
941.336524	2565.833882
941.638763	2567.346228
941.940964	2566.645508
942.243126	2564.034190
942.545250	2564.225754
942.847335	2560.729713
943.149381	2559.600495
943.451389	2557.654610
943.753359	2557.876420
944.055290	2555.509599
944.357182	2553.125133
944.659036	2558.284754
944.960851	2552.492468
945.262628	2556.331307
945.564367	2558.970351
945.866067	2554.357695
946.167729	2554.496327
946.469352	2555.164280
946.770937	2553.377191
947.072484	2554.975236
947.373992	2554.571944
947.675462	2552.464742
947.976893	2554.662685
948.278286	2554.609753
948.579641	2553.210832
948.880958	2555.643189
949.182236	2552.694114
949.483476	2552.868034
949.784678	2552.535318
950.085841	2552.928528
950.386967	2551.887530
950.688054	2550.932231
950.989103	2554.188816
951.290114	2556.545556
951.591087	2554.173693
951.892021	2553.994732
952.192917	2556.963972
952.493776	2557.795762
952.794596	2560.835578
953.095378	2560.896072
953.396122	2561.387584
953.696828	2560.785166
953.997496	2555.832233
954.298126	2555.900288
954.598718	2555.965823
954.899272	2554.481203
955.199788	2554.367777
955.500266	2548.920811
955.800706	2547.128680
956.101108	2545.071890
956.401472	2547.715975
956.701798	2544.066179
957.002087	2542.936961
957.302337	2542.934440
957.602550	2542.384955
957.902724	2542.339584
958.202861	2541.346477
958.502960	2538.808256
958.803022	2540.726415
959.103045	2539.695499
959.403031	2539.980324
959.702979	2538.084850
960.002889	2539.387989
960.302762	2536.199459
960.602596	2535.960004
960.902393	2537.311033
961.202153	2536.375899
961.501875	2537.076620
961.801559	2538.281455
962.101205	2534.871115
962.400814	2536.383461
962.700385	2536.229706
962.999918	2538.452855
963.299414	2535.430683
963.598873	2540.058462
963.898293	2534.891279
964.197677	2535.960004
964.497022	2534.482946
964.796331	2538.236085
965.095601	2536.040663
965.394835	2537.837834
965.694030	2535.990251
965.993189	2536.176774
966.292309	2535.226516
966.591393	2535.337422
966.890439	2534.122503
967.189447	2537.356404
967.488419	2532.826927
967.787353	2536.310364
968.086249	2534.583769
968.385108	2538.006712
968.683930	2534.321629
968.982714	2536.776671
969.281462	2536.678368
969.580172	2534.467823
969.878844	2537.212731
970.177480	2536.373379
970.476078	2535.753317
970.774639	2538.684748
971.073162	2535.407998
971.371649	2535.128214
971.670098	2535.438245
971.968510	2536.605272
972.266885	2534.185518
972.565223	2535.660055
972.863524	2537.696682
973.161788	2538.621733
973.460014	2536.585107
973.758204	2538.687268
974.056356	2536.885056
974.354471	2537.762217
974.652550	2536.103677
974.950591	2537.164840
975.248595	2535.702905
975.546563	2536.290200
975.844493	2534.291382
976.142386	2537.797505
976.440243	2534.326670
976.738062	2535.158461
977.035845	2537.177443
977.333590	2536.985879
977.631299	2531.972451
977.928971	2537.066537
978.226606	2534.283820
978.524204	2536.201979
978.821765	2535.413039
979.119290	2534.833306
979.416777	2536.322967
979.714228	2534.077133
980.011642	2533.751979
980.309020	2535.924716
980.606360	2532.990764
980.903664	2536.388502
981.200931	2536.030580
981.498162	2536.549819
981.795356	2540.270191
982.092513	2544.335881
982.389633	2543.725902
982.686717	2548.159596
982.983764	2552.268137
983.280775	2552.492468
983.577749	2550.975081
983.874686	2551.012889
984.171587	2549.377035
984.468451	2543.151210
984.765279	2542.878988
985.062070	2542.722712
985.358824	2541.951415
985.655543	2539.299768
985.952224	2536.154088
986.248869	2535.806249
986.545478	2529.870290
986.842050	2534.379602
987.138586	2527.213602
987.435086	2530.452543
987.731549	2526.182686
988.027975	2532.080836
988.324366	2533.033614
988.620719	2533.565456
988.917037	2531.468336
989.213318	2531.566638
989.509563	2531.382636
989.805772	2531.445651
990.101944	2530.979344
990.398080	2530.724766
990.694180	2531.244005
990.990244	2536.280117
991.286271	2532.234591
991.582262	2531.995137
991.878217	2531.778367
992.174136	2532.408511
992.470019	2530.558408
992.765865	2534.621578
993.061676	2533.288192
993.357450	2528.390712
993.653188	2530.601257
993.948890	2533.005888
994.244556	2531.586803
994.540186	2533.802390
994.835780	2531.304498
995.131337	2532.642925
995.426859	2533.615868
995.722345	2533.613347
996.017795	2535.796167
996.313208	2537.800025
996.608586	2536.595189
996.903928	2537.855478
997.199234	2535.720549
997.494504	2535.274407
997.789738	2535.576876
998.084936	2535.055117
998.380099	2537.016126
998.675225	2531.922040
998.970316	2533.739376
999.265371	2534.132586
999.560390	2534.155271
999.855373	2534.127545
1000.150320	2530.969262
1000.445232	2533.381454
1000.740108	2529.151926
1001.034948	2530.845753
1001.329752	2530.444982
1001.624521	2530.021525
1001.919254	2525.290402
1002.213951	2528.027748
1002.508613	2526.331400
1002.803239	2528.410876
1003.097829	2525.650844
1003.392384	2532.274921
1003.686903	2530.490352
1003.981386	2530.543284
1004.275834	2530.316432
1004.570246	2530.291227
1004.864623	2529.235105
1005.158964	2531.158305
1005.453270	2529.560259
1005.747540	2530.704601
1006.041775	2530.013963
1006.335974	2531.294416
1006.630138	2530.318953
1006.924266	2528.947759
1007.218359	2528.728469
1007.512416	2531.579241
1007.806438	2528.922553
1008.100425	2528.730989
1008.394376	2527.130423
1008.688292	2529.582944
1008.982172	2529.131761
1009.276017	2531.027235
1009.569827	2531.548994
1009.863602	2531.637215
1010.157341	2530.419776
1010.451045	2532.007739
1010.744714	2529.290557
1011.038347	2529.557739
1011.331945	2528.771319
1011.625508	2529.807276
1011.919036	2528.773839
1012.212528	2529.477080
1012.505986	2527.473222
1012.799408	2527.931967
1013.092795	2525.761750
1013.386147	2528.529343
1013.679464	2528.511699
1013.972745	2527.110258
1014.265992	2529.182173
1014.559204	2528.967924
1014.852380	2527.924405
1015.145521	2530.427338
1015.438628	2529.971113
1015.731699	2528.950280
1016.024736	2528.995650
1016.317737	2529.857687
1016.610703	2527.132944
1016.903635	2528.652852
1017.196531	2524.239321
1017.489393	2528.052954
1017.782219	2527.659744
1018.075011	2526.739734
1018.367768	2528.962883
1018.660490	2529.222502
1018.953177	2529.222502
1019.245829	2529.222502
