Dividing Wavelength (nm)	Counts (n)	Blue Motor Position (mm): 0.000000	Red Motor Position (mm): 16.600000	
326.493990	2130.174846
326.888308	2130.174846
327.282561	2130.174846
327.676750	2097.223344
328.070874	2096.021028
328.464933	2098.871801
328.858929	2103.718870
329.252859	2115.235386
329.646726	2126.540174
330.040528	2138.459982
330.434265	2156.840029
330.827938	2174.710919
331.221547	2190.046109
331.615091	2209.958667
332.008571	2229.717470
332.401986	2249.448546
332.795338	2269.494694
333.188625	2288.532612
333.581847	2307.235292
333.975006	2324.455874
334.368100	2345.490088
334.761129	2359.496934
335.154095	2378.827239
335.546996	2393.043293
335.939833	2407.234141
336.332606	2424.484969
336.725315	2438.569953
337.117960	2448.611931
337.510540	2455.745164
337.903056	2466.412246
338.295508	2473.243009
338.687896	2481.833135
339.080220	2488.464773
339.472480	2502.017915
339.864676	2500.155209
340.256807	2506.794408
340.648875	2509.846827
341.040879	2513.375635
341.432818	2511.316323
341.824694	2513.811695
342.216506	2515.792868
342.608253	2515.876047
342.999937	2515.593743
343.391557	2513.453773
343.783113	2513.975532
344.174605	2512.954698
344.566033	2509.201559
344.957397	2508.291631
345.348697	2504.898935
345.739934	2504.929182
346.131106	2502.050683
346.522215	2505.297186
346.913260	2500.316526
347.304241	2498.143788
347.695159	2497.395177
348.086012	2497.054899
348.476802	2492.883344
348.867528	2492.890906
349.258191	2490.062819
349.648789	2491.280258
350.039324	2486.992756
350.429796	2488.724393
350.820203	2486.062663
351.210548	2486.173569
351.600828	2484.071407
351.991045	2485.263640
352.381198	2481.840697
352.771288	2484.943527
353.161314	2482.569144
353.551276	2482.236428
353.941175	2484.189875
354.331010	2483.889926
354.720782	2482.218783
355.110490	2483.781541
355.500135	2480.852631
355.889717	2483.216932
356.279235	2482.362456
356.668689	2484.890595
357.058080	2482.115440
357.447408	2482.301963
357.836672	2482.450677
358.225873	2484.673825
358.615010	2481.921355
359.004084	2487.741368
359.393095	2487.375884
359.782043	2488.845380
360.170927	2486.700369
360.559748	2486.808754
360.948505	2488.734475
361.337199	2489.296563
361.725830	2492.636328
362.114398	2493.649600
362.502903	2489.964516
362.891344	2493.263952
363.279722	2493.931904
363.668037	2492.759836
364.056289	2492.802686
364.444478	2494.161277
364.832603	2496.391988
365.220665	2497.448109
365.608665	2496.402070
365.996601	2498.743686
366.384474	2497.518685
366.772284	2500.596310
367.160031	2501.705364
367.547715	2503.636126
367.935336	2504.984634
368.322893	2509.882115
368.710388	2511.253309
369.097820	2518.391583
369.485189	2520.249248
369.872495	2527.442975
370.259738	2532.952956
370.646918	2541.825387
371.034035	2548.159596
371.421090	2559.487069
371.808081	2568.724983
372.195010	2579.394586
372.581875	2591.755495
372.968678	2603.234202
373.355418	2614.254164
373.742096	2632.311577
374.128710	2644.526293
374.515262	2660.607574
374.901751	2676.504853
375.288177	2691.446833
375.674540	2712.062631
376.060841	2729.494941
376.447079	2752.200298
376.833254	2770.320726
377.219367	2784.224228
377.605417	2819.111533
377.991404	2828.498162
378.377329	2852.443643
378.763191	2868.903010
379.148991	2906.250398
379.534727	2932.562701
379.920402	2957.980198
380.306013	2974.018629
380.691563	3020.704755
381.077049	3042.376675
381.462474	3061.444840
381.847835	3100.632249
382.233134	3118.609004
382.618371	3120.610342
383.003545	3186.972091
383.388657	3196.099100
383.773706	3226.961044
384.158693	3243.735483
384.543618	3272.709515
384.928480	3308.264773
385.313280	3351.492668
385.698017	3352.405116
386.082692	3404.674320
386.467305	3410.927871
386.851856	3438.966769
387.236344	3464.900985
387.620770	3493.139008
388.005133	3519.481558
388.389435	3545.811504
388.773674	3559.916653
389.157851	3601.675051
389.541965	3614.015795
389.926018	3580.361052
390.310008	3650.420488
390.693936	3671.205165
391.077802	3710.468192
391.461606	3699.571738
391.845348	3761.444339
392.229027	3760.889813
392.612645	3775.178963
392.996200	3853.165613
393.379694	3892.663053
393.763125	3955.432981
394.146494	3923.716561
394.529801	3985.044718
394.913047	4033.946431
395.296230	3997.231708
395.679351	4054.877302
396.062410	4076.302206
396.445408	4060.057087
396.828343	4089.031119
397.211217	4111.607927
397.594028	4030.077346
397.976778	4093.232921
398.359466	4118.005151
398.742092	4142.046414
399.124656	4058.075914
399.507158	4138.636073
399.889598	4156.335564
400.271977	4210.308678
400.654294	4176.530427
401.036549	4172.144623
401.418742	4135.860918
401.800874	4222.321748
402.182944	4230.231318
402.564952	4276.526754
402.946898	4253.345008
403.328783	4236.578131
403.710606	4136.019714
404.092367	4294.022079
404.474067	4246.516765
404.855705	4229.586050
405.237282	4147.251405
405.618797	4218.540882
406.000250	4219.138259
406.381642	4261.920011
406.762972	4207.427658
407.144240	4187.237837
407.525447	4161.603570
407.906593	4175.418852
408.287677	4182.214328
408.668700	4095.720730
409.049661	4101.003860
409.430560	4092.544803
409.811399	4005.756299
410.192176	4081.426539
410.572891	4006.247811
410.953545	4033.953993
411.334138	3916.835386
411.714669	3918.730860
412.095139	3813.925272
412.475547	3860.873537
412.855894	3806.855053
413.236180	3768.985906
413.616405	3702.175494
413.996568	3707.539281
414.376670	3635.491111
414.756711	3575.037594
415.136691	3552.574212
415.516609	3539.036193
415.896466	3515.884694
416.276262	3489.373266
416.655997	3435.251439
417.035670	3464.119606
417.415283	3453.954119
417.794834	3388.635889
418.174324	3338.670493
418.553753	3267.839761
418.933121	3283.522790
419.312428	3259.547062
419.691674	3200.132023
420.070859	3191.274716
420.449983	3134.249184
420.829045	3124.325672
421.208047	3070.685275
421.586988	3046.780123
421.965867	3016.533200
422.344686	3000.434275
422.723444	2952.099692
423.102141	2897.801424
423.480777	2912.219124
423.859352	2852.040350
424.237866	2858.384642
424.616319	2834.373627
424.994712	2823.804847
425.373044	2788.884775
425.751314	2776.622168
426.129524	2738.632033
426.507673	2737.059193
426.885762	2723.977398
427.263789	2703.888400
427.641756	2683.973322
428.019662	2671.902279
428.397508	2659.576658
428.775292	2647.125008
429.153016	2634.111269
429.530679	2624.535598
429.908282	2616.414299
430.285824	2607.524224
430.663305	2604.141610
431.040726	2590.046544
431.418086	2583.442632
431.795385	2580.511201
432.172624	2574.550037
432.549802	2570.494428
432.926920	2563.351113
433.303977	2565.962431
433.680974	2562.375650
434.057910	2560.089487
434.434786	2553.871224
434.811601	2555.640669
435.188355	2555.028168
435.565050	2549.261088
435.941683	2549.389638
436.318257	2547.426108
436.694770	2544.582898
437.071222	2543.461241
437.447614	2539.876981
437.823946	2541.941333
438.200218	2544.890408
438.576429	2544.900490
438.952580	2544.378731
439.328670	2542.659698
439.704700	2543.504091
440.080670	2540.804553
440.456580	2542.979811
440.832429	2542.049718
441.208218	2539.803884
441.583947	2541.011240
441.959616	2541.233051
442.335224	2537.827752
442.710773	2538.510828
443.086261	2541.452341
443.461689	2540.746580
443.837057	2541.913607
444.212365	2541.195242
444.587612	2538.432690
444.962800	2539.239275
445.337927	2542.566436
445.712995	2537.709284
446.088002	2541.331353
446.462949	2540.683565
446.837837	2542.589121
447.212664	2539.635005
447.587431	2542.130376
447.962139	2544.482075
448.336786	2547.940306
448.711374	2544.792106
449.085901	2544.494677
449.460369	2542.841179
449.834776	2543.758669
450.209124	2544.194729
450.583412	2545.122301
450.957640	2543.146169
451.331808	2545.311344
451.705917	2542.384955
452.079965	2539.314892
452.453954	2542.884029
452.827883	2542.687424
453.201752	2543.259595
453.575562	2542.516025
453.949311	2540.688606
454.323001	2544.396375
454.696632	2541.117104
455.070202	2544.648433
455.443713	2541.248174
455.817164	2544.935778
456.190556	2542.841179
456.563888	2546.092723
456.937160	2541.598535
457.310373	2545.714637
457.683526	2545.810419
458.056619	2544.119112
458.429653	2544.847558
458.802628	2547.005172
459.175542	2545.986859
459.548398	2543.864533
459.921194	2545.591128
460.293930	2544.567774
460.666607	2551.874927
461.039224	2551.726213
461.411782	2551.804351
461.784280	2552.346275
462.156719	2549.949206
462.529099	2550.871737
462.901419	2548.578012
463.273680	2550.438198
463.645882	2549.404761
464.018024	2549.233362
464.390106	2548.794782
464.762130	2550.944834
465.134094	2553.541028
465.505999	2555.900288
465.877845	2562.973027
466.249631	2565.831361
466.621358	2564.147616
466.993026	2564.071998
467.364634	2563.656103
467.736184	2559.716442
468.107674	2558.746019
468.479105	2558.821637
468.850477	2558.567058
469.221790	2559.343396
469.593043	2555.494475
469.964238	2557.127809
470.335373	2555.751574
470.706449	2557.841132
471.077467	2557.667213
471.448425	2561.450598
471.819324	2564.601320
472.190164	2563.734241
472.560945	2562.559652
472.931667	2559.608057
473.302330	2557.611760
473.672934	2553.714948
474.043479	2555.330638
474.413965	2558.914898
474.784393	2556.530432
475.154761	2557.644527
475.525070	2555.620504
475.895321	2556.837943
476.265513	2556.739640
476.635645	2558.924980
477.005719	2561.974878
477.375734	2560.308777
477.745691	2561.682492
478.115588	2563.615774
478.485427	2566.665672
478.855207	2568.924109
479.224928	2569.914696
479.594591	2570.391085
479.964194	2572.137845
480.333739	2572.039542
480.703226	2573.211610
481.072653	2571.888307
481.442022	2569.680282
481.811333	2570.749007
482.180584	2571.757237
482.549777	2569.524006
482.918912	2567.346228
483.287988	2568.603996
483.657005	2570.441496
484.025964	2567.031156
484.394864	2568.228430
484.763706	2568.248594
485.132489	2568.402350
485.501213	2568.089798
485.869879	2566.511917
486.238487	2563.630898
486.607036	2565.685168
486.975527	2566.090981
487.343959	2565.455795
487.712333	2568.346897
488.080648	2565.647359
488.448905	2566.448902
488.817104	2563.696433
489.185244	2565.289437
489.553326	2566.990827
489.921350	2568.460323
490.289315	2571.800087
490.657222	2572.198338
491.025070	2572.233627
491.392861	2573.546847
491.760593	2570.131465
492.128267	2569.045097
492.495883	2567.870508
492.863440	2568.422514
493.230939	2562.791545
493.598380	2568.107442
493.965763	2559.098900
494.333088	2561.196020
494.700354	2560.870866
495.067563	2560.893551
495.434713	2559.444219
495.801805	2564.515620
496.168839	2561.223747
496.535815	2564.949159
496.902733	2564.760116
497.269593	2564.253480
497.636395	2565.334808
498.003139	2564.082081
498.369825	2562.567214
498.736453	2563.139385
499.103023	2563.923284
499.469535	2566.731207
499.835989	2565.276834
500.202385	2564.926474
500.568723	2565.130641
500.935003	2564.641649
501.301226	2564.896227
501.667390	2568.760272
502.033497	2564.775239
502.399546	2565.980075
502.765537	2565.112997
503.131470	2565.281875
503.497345	2563.928326
503.863163	2568.397308
504.228923	2564.649211
504.594625	2564.858418
504.960269	2565.118038
505.325856	2567.444530
505.691385	2567.658779
506.056856	2566.852195
506.422270	2565.354972
506.787625	2564.104766
507.152924	2568.319171
507.518164	2569.027453
507.883347	2568.921588
508.248472	2566.945456
508.613540	2566.227092
508.978550	2563.557801
509.343503	2567.736917
509.708398	2569.748338
510.073236	2566.700960
510.438016	2569.476115
510.802738	2564.820610
511.167403	2565.919581
511.532010	2566.027966
511.896561	2567.321022
512.261053	2569.297154
512.625488	2562.496638
512.989866	2563.388922
513.354186	2565.773388
513.718449	2563.721638
514.082655	2568.745148
514.446803	2566.706001
514.810894	2567.293296
515.174927	2566.113666
515.538904	2568.596434
515.902822	2567.058882
516.266684	2567.653738
516.630488	2569.801270
516.994235	2568.603996
517.357925	2567.615930
517.721558	2569.710529
518.085133	2569.720611
518.448651	2570.227247
518.812112	2567.653738
519.175516	2568.634243
519.538863	2568.079716
519.902152	2568.094839
520.265385	2567.711712
520.628560	2568.868656
520.991678	2568.115004
521.354739	2568.014181
521.717743	2569.808832
522.080690	2569.977710
522.443580	2568.765313
522.806413	2570.461661
523.169189	2570.282700
523.531908	2570.479305
523.894569	2568.651887
524.257174	2570.386044
524.619722	2570.857392
524.982213	2568.339335
525.344647	2568.031825
525.707025	2566.733728
526.069345	2569.811352
526.431608	2569.027453
526.793815	2570.716239
527.155964	2569.655076
527.518057	2568.488049
527.880093	2568.409911
528.242072	2568.709860
528.603995	2570.597772
528.965860	2567.091650
529.327669	2568.750189
529.689421	2570.754048
530.051117	2570.517114
530.412755	2570.106260
530.774337	2564.170301
531.135862	2568.339335
531.497331	2566.794222
531.858743	2562.852039
532.220098	2564.624005
532.581396	2563.996381
532.942638	2566.274983
533.303824	2567.494942
533.664953	2567.837740
534.026025	2568.810683
534.387040	2567.381516
534.747999	2566.239695
535.108902	2568.558625
535.469748	2566.950497
535.830537	2568.288924
536.191270	2569.922257
536.551947	2567.255487
536.912567	2565.909499
537.273131	2567.237843
537.633638	2563.482183
537.994089	2569.690364
538.354483	2565.942267
538.714821	2567.510065
539.075103	2565.256670
539.435328	2567.051320
539.795497	2568.873697
540.155609	2567.948646
540.515665	2568.921588
540.875665	2566.794222
541.235609	2565.496124
541.595496	2568.321691
541.955328	2566.607699
542.315102	2567.215158
542.674821	2567.983934
543.034483	2569.385375
543.394090	2566.035528
543.753640	2567.038718
544.113134	2569.236661
544.472571	2567.315981
544.831953	2567.021073
545.191278	2567.270611
545.550548	2564.538305
545.909761	2567.399160
546.268918	2566.340518
546.628019	2567.958728
546.987064	2568.419994
547.346053	2567.247925
547.704986	2564.291289
548.063863	2565.806155
548.422684	2568.835889
548.781449	2567.815055
549.140158	2566.832030
549.498811	2565.599468
549.857408	2566.607699
550.215949	2565.866649
550.574434	2560.276010
550.932864	2564.848336
551.291237	2561.269117
551.649555	2568.167936
552.007817	2567.825137
552.366022	2569.037535
552.724173	2568.591393
553.082267	2568.392267
553.440305	2569.304716
553.798288	2566.456464
554.156215	2566.927812
554.514086	2565.319684
554.871902	2568.213306
555.229661	2568.316650
555.587365	2567.245405
555.945014	2565.314643
556.302606	2565.579303
556.660143	2565.871690
557.017625	2564.906309
557.375050	2566.975703
557.732421	2566.131310
558.089735	2568.989644
558.446994	2565.992678
558.804197	2565.856567
559.161345	2566.874880
559.518437	2569.105591
559.875474	2567.210117
560.232455	2567.338666
560.589381	2565.811197
560.946251	2568.515776
561.303065	2567.933522
561.659825	2567.613409
562.016528	2568.591393
562.373177	2564.901268
562.729770	2566.368244
563.086307	2565.607030
563.442789	2566.990827
563.799216	2568.115004
564.155587	2566.864798
564.511904	2567.804973
564.868164	2568.235992
565.224370	2564.475291
565.580520	2565.864129
565.936615	2566.098542
566.292654	2564.515620
566.648638	2564.543346
567.004567	2565.370096
567.360441	2568.304047
567.716260	2562.431103
568.072023	2562.055537
568.427732	2563.963614
568.783385	2559.151832
569.138982	2562.418500
569.494525	2564.170301
569.850013	2561.274158
570.205445	2564.503017
570.560823	2563.734241
570.916145	2563.638459
571.271412	2564.407235
571.626625	2565.556618
571.981782	2563.550239
572.336884	2565.934705
572.691931	2564.329097
573.046923	2564.258521
573.401860	2565.891855
573.756743	2563.880435
574.111570	2564.273645
574.466342	2564.797925
574.821059	2564.079560
575.175722	2563.872873
575.530330	2565.125600
575.884882	2566.343038
576.239380	2562.957903
576.593823	2564.881104
576.948211	2563.709035
577.302544	2564.500497
577.656823	2563.971175
578.011047	2565.768347
578.365216	2562.773901
578.719330	2563.487225
579.073389	2564.349262
579.427394	2561.982440
579.781344	2563.509910
580.135239	2564.591237
580.489080	2564.760116
580.842866	2563.116700
581.196597	2564.508058
581.550273	2562.685681
581.903895	2564.974365
582.257463	2565.559139
582.610975	2561.780794
582.964434	2562.431103
583.317837	2562.559652
583.671186	2564.918912
584.024481	2562.849519
584.377721	2563.111659
584.730906	2562.521844
585.084037	2561.506051
585.437113	2564.820610
585.790135	2564.911351
586.143103	2561.327090
586.496016	2563.013356
586.848874	2558.362892
587.201679	2560.664178
587.554428	2554.934907
587.907124	2560.482697
588.259765	2559.413972
588.612352	2560.603685
588.964884	2563.938408
589.317362	2558.781307
589.669786	2561.347255
590.022155	2562.340362
590.374470	2562.456309
590.726731	2561.498489
591.078937	2560.644014
591.431090	2560.747357
591.783188	2559.968499
592.135232	2559.925649
592.487222	2560.908674
592.839157	2561.407749
593.191038	2561.027142
593.542866	2562.615105
593.894639	2557.757953
594.246358	2563.716597
594.598022	2559.126627
594.949633	2557.057233
595.301190	2561.246432
595.652692	2558.231822
596.004141	2561.934549
596.355535	2560.575958
596.706876	2560.414641
597.058162	2559.421534
597.409395	2561.851370
597.760573	2559.202244
598.111698	2560.139898
598.462768	2560.432285
598.813785	2555.383570
599.164748	2555.542366
599.515657	2557.808365
599.866511	2559.275341
600.217312	2560.099569
600.568060	2561.226267
600.918753	2558.549414
601.269392	2557.354661
601.619978	2559.282902
601.970510	2558.917419
602.320988	2559.696277
602.671412	2557.110165
603.021783	2559.156873
603.372100	2560.666699
603.722363	2559.703839
604.072572	2559.696277
604.422728	2562.967986
604.772830	2555.655792
605.122878	2553.460370
605.472872	2555.817109
605.822813	2553.417520
606.172701	2557.077398
606.522534	2556.507747
606.872314	2559.787018
607.222041	2559.971020
607.571714	2558.017573
607.921333	2558.904816
608.270899	2556.727037
608.620411	2559.429096
608.969870	2557.999929
609.319276	2561.730382
609.668627	2563.139385
610.017926	2565.622153
610.367171	2563.804817
610.716362	2566.469067
611.065500	2565.410425
611.414585	2563.353634
611.763616	2564.813048
612.112594	2561.125444
612.461518	2559.706359
612.810389	2558.078067
613.159207	2561.145609
613.507971	2561.289282
613.856682	2561.382543
614.205340	2558.466235
614.553945	2560.772563
614.902496	2560.654096
615.250994	2559.718962
615.599439	2560.225598
615.947830	2558.877089
616.296169	2560.054199
616.644454	2560.964127
616.992686	2559.829868
617.340864	2560.044117
617.688990	2556.414486
618.037063	2560.868345
618.385082	2557.223591
618.733048	2560.094528
619.080961	2556.235525
619.428821	2559.557645
619.776628	2557.891544
620.124382	2558.196534
620.472083	2556.727037
620.819731	2559.252655
621.167326	2555.965823
621.514868	2559.184600
621.862357	2557.132850
622.209793	2558.428427
622.557176	2559.386246
622.904506	2555.882644
623.251783	2554.788714
623.599007	2554.647561
623.946179	2553.906512
624.293297	2553.538508
624.640363	2553.909032
624.987376	2557.936914
625.334336	2555.862479
625.681243	2556.036399
626.028097	2555.141594
626.374899	2556.066646
626.721647	2555.517160
627.068343	2554.640000
627.414987	2555.073539
627.761577	2556.323745
628.108115	2555.958261
628.454600	2555.376008
628.801032	2553.230997
629.147412	2556.830381
629.493739	2554.592109
629.840014	2554.496327
630.186236	2554.660164
630.532405	2553.843497
630.878521	2556.137222
631.224585	2555.249979
631.570597	2555.068498
631.916556	2555.139074
632.262462	2555.998591
632.608316	2556.492624
632.954117	2555.799465
633.299866	2552.159752
633.645562	2554.788714
633.991206	2554.970195
634.336797	2553.752757
634.682336	2554.995401
635.027823	2551.590102
635.373257	2552.467262
635.718639	2552.298384
636.063968	2551.448949
636.409245	2553.357026
636.754470	2551.302756
637.099642	2552.661347
637.444762	2553.031872
637.789829	2551.713610
638.134845	2551.108671
638.479808	2553.190668
638.824719	2551.196892
639.169577	2551.685883
639.514383	2551.529608
639.859137	2551.784186
640.203839	2551.234700
640.548489	2552.210163
640.893086	2548.598177
641.237632	2544.300593
641.582125	2551.673281
641.926566	2546.846376
642.270955	2553.077242
642.615292	2552.202602
642.959576	2550.823846
643.303809	2548.177240
643.647990	2548.746891
643.992118	2550.231511
644.336195	2547.242106
644.680219	2553.215874
645.024192	2553.382232
645.368112	2549.258568
645.711981	2552.991542
646.055797	2553.669578
646.399562	2550.740667
646.743274	2550.564227
647.086935	2552.822664
647.430544	2550.473486
647.774101	2551.799309
648.117606	2548.802343
648.461059	2553.041954
648.804460	2551.154042
649.147810	2551.975750
649.491108	2549.818136
649.834354	2552.129505
650.177548	2553.848538
650.520690	2552.018600
650.863781	2550.985163
651.206820	2552.908363
651.549807	2549.586243
651.892742	2553.336861
652.235626	2550.866696
652.578458	2552.739485
652.921238	2551.020451
653.263967	2549.561037
653.606644	2550.828887
653.949269	2551.393497
654.291843	2548.073897
654.634365	2548.888043
654.976836	2552.295863
655.319255	2549.644216
655.661622	2550.987684
656.003938	2549.298897
656.346203	2546.755635
656.688416	2550.322251
657.030577	2549.561037
657.372687	2549.455173
657.714746	2548.275543
658.056753	2548.426777
658.398708	2546.780841
658.740612	2547.892415
659.082465	2546.304452
659.424266	2546.637168
659.766016	2545.535676
660.107715	2551.083466
660.449362	2548.956099
660.790958	2549.981973
661.132503	2549.084648
661.473996	2548.646068
661.815438	2549.321582
662.156829	2550.707900
662.498168	2548.444422
662.839456	2549.117416
663.180693	2551.995914
663.521879	2549.193033
663.863013	2548.948537
664.204097	2552.588250
664.545129	2547.723537
664.886110	2549.515667
665.227040	2548.918290
665.567918	2549.775286
665.908746	2548.699000
666.249522	2551.383414
666.590248	2548.958619
666.930922	2550.297046
667.271545	2549.828218
667.612118	2551.953065
667.952639	2550.581871
668.293109	2548.530121
668.633528	2550.302087
668.973896	2547.252189
669.314213	2551.126315
669.654480	2546.932075
669.994695	2547.068187
670.334859	2549.157745
670.674973	2546.712785
671.015035	2549.974412
671.355047	2548.184802
671.695008	2551.597663
672.034918	2546.783361
672.374777	2549.959288
672.714585	2547.083310
673.054342	2547.995759
673.394049	2547.219421
673.733705	2549.533311
674.073310	2548.328475
674.412864	2549.286294
674.752368	2550.680173
675.091820	2547.012734
675.431223	2548.215049
675.770574	2549.445091
676.109875	2547.579864
676.449125	2544.424101
676.788324	2542.793288
677.127473	2546.949719
677.466571	2542.947043
677.805619	2547.887374
678.144616	2547.267312
678.483562	2547.766386
678.822458	2548.535162
679.161303	2547.703372
679.500098	2547.138763
679.838842	2547.758825
680.177535	2546.269164
680.516179	2549.999617
680.854771	2549.162786
681.193314	2550.743188
681.531805	2549.054401
681.870247	2548.187323
682.208638	2549.167827
682.546978	2550.193702
682.885268	2552.580688
683.223508	2548.535162
683.561697	2547.917621
683.899836	2547.718495
684.237925	2547.605069
684.575963	2550.445760
684.913951	2548.651109
685.251889	2551.557334
685.589776	2545.581046
685.927614	2550.334854
686.265401	2546.793444
686.603137	2550.634803
686.940824	2548.986346
687.278460	2552.245452
687.616046	2548.668753
687.953582	2547.443752
688.291068	2550.307128
688.628504	2548.719164
688.965889	2546.632127
689.303224	2547.121119
689.640510	2552.026161
689.977745	2548.993907
690.314930	2548.094061
690.652065	2547.912580
690.989150	2547.035419
691.326185	2547.574823
691.663170	2545.941489
692.000105	2549.036757
692.336990	2545.253371
692.673825	2549.029195
693.010610	2544.542568
693.347345	2542.798329
693.684030	2543.519214
694.020665	2541.434697
694.357251	2541.217928
694.693786	2541.333874
695.030272	2544.678680
695.366707	2547.627755
695.703093	2545.865871
696.039429	2543.060469
696.375716	2547.184133
696.711952	2544.416540
697.048139	2545.238248
697.384276	2545.049204
697.720363	2547.254709
698.056400	2545.888557
698.392388	2545.860830
698.728326	2547.451314
699.064214	2544.759338
699.400053	2543.504091
699.735842	2545.044163
700.071581	2544.661036
700.407270	2545.437373
700.742910	2545.878474
701.078501	2543.393185
701.414042	2543.693134
701.749533	2544.812270
702.084974	2544.892929
702.420366	2543.345294
702.755709	2543.809081
703.091002	2542.813453
703.426246	2544.814791
703.761440	2543.478885
704.096584	2545.790254
704.431679	2540.060983
704.766725	2544.474513
705.101721	2541.729605
705.436668	2543.821683
705.771565	2543.993083
706.106413	2542.233720
706.441212	2543.327650
706.775961	2546.213711
707.110661	2544.832435
707.445311	2543.062990
707.779913	2547.045501
708.114465	2546.712785
708.448967	2544.167003
708.783421	2545.762528
709.117825	2543.768751
709.452180	2543.289842
709.786485	2545.021478
710.120742	2546.372507
710.454949	2545.144986
710.789107	2543.022661
711.123216	2542.730274
711.457275	2545.079451
711.791286	2539.698020
712.125247	2540.320602
712.459159	2546.248999
712.793023	2547.763866
713.126837	2547.100954
713.460602	2545.661705
713.794318	2544.759338
714.127985	2544.958464
714.461602	2545.911242
714.795171	2545.497867
715.128691	2543.962836
715.462162	2544.149358
715.795584	2545.878474
716.128957	2543.395706
716.462281	2545.586087
716.795556	2544.038453
717.128782	2544.381252
717.461960	2545.452497
717.795088	2544.497198
718.128167	2545.018957
718.461198	2543.088196
718.794180	2542.647095
719.127113	2543.950233
719.459997	2544.582898
719.792833	2543.725902
720.125619	2542.959646
720.458357	2542.218597
720.791046	2540.572660
721.123686	2541.089378
721.456278	2543.806560
721.788821	2541.681714
722.121315	2544.076262
722.453761	2541.752290
722.786158	2542.518545
723.118506	2543.476364
723.450805	2542.810932
723.783056	2542.647095
724.115259	2543.030222
724.447412	2539.201466
724.779518	2541.797660
725.111574	2542.989893
725.443582	2544.136756
725.775542	2542.828576
726.107453	2541.593493
726.439315	2542.425284
726.771129	2547.403423
727.102895	2541.926210
727.434612	2543.390665
727.766281	2542.516025
728.097901	2543.007537
728.429473	2539.062834
728.760996	2540.917979
729.092471	2537.671476
729.423897	2541.323792
729.755276	2542.377393
730.086606	2544.119112
730.417887	2543.115922
730.749120	2542.974770
731.080305	2544.671118
731.411442	2544.106509
731.742530	2543.635161
732.073570	2543.652805
732.404562	2545.424770
732.735506	2541.149872
733.066401	2544.872764
733.397249	2542.758000
733.728048	2541.848072
734.058798	2545.835624
734.389501	2544.708927
734.720156	2540.567619
735.050762	2541.142310
735.381320	2542.926879
735.711831	2540.582742
736.042293	2543.090716
736.372707	2541.535520
736.703073	2542.397557
737.033391	2540.950746
737.363661	2542.238761
737.693883	2542.402599
738.024056	2545.482744
738.354182	2543.310006
738.684260	2541.530479
739.014290	2542.117773
739.344272	2540.791950
739.674207	2543.158772
740.004093	2543.433515
740.333931	2540.202135
740.663722	2543.574667
740.993464	2541.701878
741.323159	2541.336395
741.652806	2541.442259
741.982405	2541.810263
742.311956	2542.042156
742.641460	2541.802701
742.970915	2541.921168
743.300323	2541.475026
743.629683	2541.618699
743.958996	2542.460572
744.288260	2542.866385
744.617477	2543.415871
744.946647	2537.253060
745.275768	2536.890097
745.604842	2537.064017
745.933869	2539.829090
746.262847	2534.740045
746.591778	2541.212886
746.920662	2539.577032
747.249498	2542.127856
747.578286	2541.790098
747.907027	2543.007537
748.235720	2541.469985
748.564365	2539.960160
748.892963	2538.568801
749.221514	2539.685417
749.550017	2539.345139
749.878473	2541.495191
750.206881	2540.650798
750.535242	2541.656508
750.863555	2540.940664
751.191821	2539.798843
751.520039	2539.128369
751.848210	2540.436549
752.176334	2541.472506
752.504411	2542.402599
752.832440	2540.867567
753.160421	2538.402443
753.488356	2541.439738
753.816243	2539.864378
754.144082	2540.857485
754.471875	2537.820190
754.799620	2539.690458
755.127318	2540.739018
755.454969	2541.858154
755.782572	2540.978473
756.110129	2542.952084
756.437638	2540.358411
756.765100	2540.071065
757.092515	2540.386137
757.419882	2538.530993
757.747203	2538.909079
758.074477	2539.914789
758.401703	2539.037628
758.728882	2542.528628
759.056014	2540.307999
759.383099	2540.474357
759.710138	2540.108874
760.037129	2540.310520
760.364073	2540.030736
760.690970	2538.714995
761.017820	2541.346477
761.344623	2542.939482
761.671379	2542.274049
761.998088	2534.548481
762.324751	2541.142310
762.651366	2536.622916
762.977935	2545.674308
763.304456	2542.586601
763.630931	2547.252189
763.957359	2546.831252
764.283740	2545.676828
764.610074	2543.158772
764.936362	2542.513504
765.262602	2541.167516
765.588796	2542.488298
765.914943	2540.328164
766.241044	2539.798843
766.567097	2540.171888
766.893104	2539.017464
767.219064	2541.570808
767.544978	2539.259439
767.870845	2539.312371
768.196665	2536.806918
768.522438	2538.442772
768.848165	2541.659028
769.173846	2537.658873
769.499479	2539.246836
769.825066	2536.486805
770.150607	2536.557381
770.476101	2538.717515
770.801548	2541.127187
771.126949	2540.623071
771.452303	2536.597710
771.777611	2537.570653
772.102872	2539.705581
772.428087	2538.223482
772.753256	2538.473019
773.078378	2540.068544
773.403453	2539.503935
773.728482	2539.176260
774.053465	2539.662732
774.378401	2535.511341
774.703291	2537.898328
775.028135	2538.677186
775.352932	2538.452855
775.677683	2539.370345
776.002388	2538.974614
776.327046	2537.258101
776.651658	2537.729449
776.976224	2536.885056
777.300743	2537.290869
777.625216	2538.382278
777.949643	2537.215251
778.274024	2537.386651
778.598359	2535.662576
778.922647	2533.348686
779.246889	2536.038142
779.571086	2531.856505
779.895236	2537.147196
780.219339	2536.985879
780.543397	2539.783719
780.867409	2538.067206
781.191374	2535.360107
781.515294	2537.303472
781.839167	2535.365148
782.162995	2537.931095
782.486776	2537.139634
782.810511	2533.734335
783.134201	2534.621578
783.457844	2535.791125
783.781441	2536.020498
784.104993	2537.648791
784.428498	2536.948070
784.751958	2538.183153
785.075372	2536.615354
785.398739	2537.081661
785.722061	2538.722556
786.045337	2536.234747
786.368568	2538.127700
786.691752	2536.809438
787.014891	2536.111239
787.337983	2534.767771
787.661030	2538.712474
787.984031	2538.757844
788.306987	2537.679038
788.629897	2536.239788
788.952760	2536.880015
789.275579	2539.859337
789.598351	2539.287166
789.921078	2536.625436
790.243759	2537.416898
790.566395	2538.062165
790.888984	2535.748276
791.211529	2536.736342
791.534027	2538.621733
791.856480	2536.708615
792.178888	2538.604089
792.501249	2536.786753
792.823566	2538.820859
793.145836	2537.946219
793.468062	2538.838503
793.790241	2538.586445
794.112375	2536.706095
794.434464	2538.878832
794.756507	2536.539737
795.078505	2536.895138
795.400457	2533.736855
795.722364	2533.429345
796.044226	2530.812986
796.366042	2535.183666
796.687812	2533.419263
797.009538	2538.379758
797.331218	2540.275232
797.652852	2536.859850
797.974442	2538.478060
798.295986	2535.760878
798.617484	2535.014788
798.938938	2534.225847
799.260346	2538.410005
799.581709	2536.880015
799.903026	2536.834644
800.224299	2536.146527
800.545526	2534.626619
800.866708	2534.361958
801.187845	2536.391023
801.508936	2535.821372
801.829983	2536.345652
802.150984	2535.718029
802.471940	2533.825075
802.792851	2535.927237
803.113717	2538.420087
803.434538	2535.458409
803.755314	2538.135262
804.076045	2534.288862
804.396731	2536.844727
804.717372	2538.455375
805.037967	2536.277597
805.358518	2533.948584
805.679024	2535.811290
805.999485	2535.647452
806.319901	2534.654345
806.640272	2537.429500
806.960598	2535.158461
807.280879	2537.348842
807.601115	2534.661907
807.921306	2537.598379
808.241453	2536.801877
808.561554	2535.609644
808.881611	2537.074099
809.201623	2535.929757
809.521590	2536.673327
809.841513	2537.888245
810.161390	2535.866743
810.481223	2534.419932
810.801011	2536.264994
811.120755	2538.722556
811.440453	2537.762217
811.760107	2535.460930
812.079716	2532.526978
812.399281	2530.419776
812.718801	2533.983872
813.038276	2530.024045
813.357707	2535.423121
813.677093	2535.675179
813.996434	2533.860363
814.315731	2535.914634
814.634983	2535.387833
814.954191	2534.823224
815.273354	2536.539737
815.592473	2535.907072
815.911547	2534.309026
816.230577	2537.747093
816.549562	2536.522093
816.868502	2534.508152
817.187399	2537.154757
817.506250	2535.967566
817.825058	2534.354397
818.143821	2535.365148
818.462539	2538.170550
818.781213	2539.539223
819.099843	2538.311702
819.418429	2537.235416
819.736970	2538.967052
820.055466	2539.105684
820.373919	2539.927392
820.692327	2540.184491
821.010691	2545.142466
821.329011	2550.165976
821.647286	2562.680640
821.965517	2574.930644
822.283704	2585.451532
822.601847	2581.751325
822.919945	2578.968608
823.237999	2570.078533
823.556010	2564.157698
823.873976	2557.178221
824.191897	2553.276367
824.509775	2546.831252
824.827609	2548.749411
825.145398	2544.839997
825.463144	2546.553989
825.780845	2544.126673
826.098502	2545.160110
826.416116	2550.135729
826.733685	2552.837787
827.051210	2557.793241
827.368692	2554.060267
827.686129	2551.093548
828.003522	2547.710934
828.320872	2542.974770
828.638177	2539.009902
828.955439	2534.455220
829.272656	2536.615354
829.589830	2533.371372
829.906960	2537.328677
830.224046	2538.162988
830.541088	2538.856147
830.858086	2537.139634
831.175041	2534.954294
831.491952	2537.268183
831.808819	2535.634850
832.125642	2538.258770
832.442421	2535.039993
832.759157	2538.765406
833.075849	2542.246323
833.392497	2545.301262
833.709101	2546.619524
834.025662	2547.305121
834.342179	2543.703216
834.658653	2543.715819
834.975083	2539.209028
835.291469	2541.487629
835.607811	2539.355221
835.924110	2537.210210
836.240366	2533.348686
836.556578	2535.481094
836.872746	2537.333718
837.188871	2535.045035
837.504952	2534.646783
837.820990	2536.585107
838.136984	2534.921526
838.452935	2533.078985
838.768842	2535.516382
839.084706	2535.919675
839.400526	2534.465302
839.716303	2537.111908
840.032037	2536.985879
840.347727	2540.507125
840.663373	2537.424459
840.978977	2537.558050
841.294537	2537.540406
841.610054	2535.866743
841.925527	2533.134437
842.240957	2535.718029
842.556344	2535.483615
842.871687	2533.641073
843.186987	2533.167205
843.502244	2533.646114
843.817458	2533.525127
844.132629	2533.348686
844.447756	2532.395908
844.762840	2528.791483
845.077881	2529.451874
845.392879	2530.013963
845.707833	2532.781557
846.022745	2528.365506
846.337613	2532.010260
846.652438	2533.010929
846.967221	2532.199303
847.281960	2532.693336
847.596656	2534.873635
847.911309	2534.861033
848.225919	2531.710311
848.540485	2532.257277
848.855009	2534.044366
849.169490	2532.113604
849.483928	2535.186187
849.798323	2532.300126
850.112675	2532.746268
850.426984	2531.644776
850.741251	2535.019829
851.055474	2531.385157
851.369654	2531.748120
851.683792	2532.983203
851.997887	2530.896165
852.311938	2531.236443
852.625947	2533.177287
852.939914	2534.382123
853.253837	2535.019829
853.567718	2533.172246
853.881555	2534.165353
854.195350	2534.205683
854.509103	2531.881711
854.822812	2531.652338
855.136479	2535.095446
855.450103	2532.070754
855.763685	2532.388347
856.077224	2529.010773
856.390720	2535.206352
856.704173	2532.973120
857.017584	2532.728624
857.330953	2532.330373
857.644278	2533.419263
857.957561	2537.142155
858.270802	2536.630478
858.584000	2530.921371
858.897155	2533.124355
859.210268	2536.499408
859.523339	2535.531506
859.836367	2531.367513
860.149352	2532.779036
860.462295	2534.903882
860.775195	2529.010773
861.088054	2527.475742
861.400869	2530.749972
861.713642	2529.068747
862.026373	2532.597554
862.339062	2533.661238
862.651708	2531.702750
862.964312	2531.581762
863.276873	2531.299457
863.589392	2532.942873
863.901869	2532.461443
864.214303	2532.058151
864.526696	2532.733666
864.839045	2532.441279
865.151353	2531.712832
865.463619	2532.577390
865.775842	2537.787422
866.088023	2531.581762
866.400162	2535.536547
866.712258	2532.602596
867.024313	2532.353058
867.336325	2534.629139
867.648296	2536.534696
867.960224	2532.584952
868.272110	2531.929602
868.583954	2533.348686
868.895755	2534.263656
869.207515	2530.923891
869.519233	2534.190559
869.830909	2534.331711
870.142542	2534.039324
870.454134	2532.035466
870.765684	2531.296937
871.077191	2533.000847
871.388657	2535.208872
871.700081	2531.914478
872.011463	2533.893131
872.322803	2533.779705
872.634101	2534.356917
872.945357	2534.082174
873.256571	2533.089067
873.567744	2533.318439
873.878874	2533.658717
874.189963	2532.907585
874.501010	2533.326001
874.812015	2536.355735
875.122979	2533.787267
875.433900	2533.850281
875.744780	2534.727442
876.055618	2535.410518
876.366415	2535.135775
876.677169	2534.513193
876.987882	2532.030425
877.298554	2529.567821
877.609183	2532.872297
877.919771	2531.400280
878.230317	2531.821217
878.540822	2534.246012
878.851285	2533.588141
879.161707	2536.655683
879.472087	2537.013605
879.782425	2537.391692
880.092722	2539.163657
880.402977	2541.926210
880.713191	2547.496685
881.023363	2554.398024
881.333494	2560.429765
881.643583	2562.494117
881.953631	2560.152501
882.263637	2561.722821
882.573602	2557.200906
882.883526	2551.403579
883.193408	2551.988353
883.503248	2549.016593
883.813048	2544.973587
884.122806	2543.042825
884.432522	2543.269677
884.742197	2538.679707
885.051831	2538.236085
885.361424	2538.672145
885.670975	2535.730632
885.980485	2537.147196
886.289954	2536.748945
886.599382	2534.109901
886.908768	2537.048893
887.218113	2535.546629
887.527417	2535.471012
887.836680	2534.490508
888.145901	2534.114942
888.455082	2534.117462
888.764221	2531.624612
889.073319	2533.515044
889.382376	2532.821886
889.691392	2534.840868
890.000366	2531.969931
890.309300	2533.545291
890.618193	2535.042514
890.927044	2533.444468
891.235855	2531.511186
891.544625	2534.931609
891.853353	2534.417411
892.162041	2532.388347
892.470687	2537.051414
892.779293	2535.433203
893.087858	2534.432534
893.396381	2532.763913
893.704864	2534.568646
894.013306	2532.395908
894.321707	2540.192053
894.630068	2541.878319
894.938387	2543.463762
895.246665	2541.989224
895.554903	2540.486960
895.863100	2538.639377
896.171256	2536.254912
896.479371	2537.863040
896.787446	2538.924202
897.095480	2534.901362
897.403473	2534.939170
897.711425	2536.696012
898.019336	2535.743234
898.327207	2531.435568
898.635038	2533.769623
898.942827	2534.384643
899.250576	2532.834489
899.558284	2531.634694
899.865952	2535.203831
900.173579	2532.446320
900.481165	2533.268028
900.788711	2535.155940
901.096216	2531.362472
901.403681	2534.349355
901.711105	2534.094777
902.018489	2533.252904
902.325832	2537.323636
902.633135	2532.751310
902.940397	2534.603934
903.247619	2531.352389
903.554800	2536.459078
903.861941	2539.448483
904.169041	2544.890408
904.476101	2543.408309
904.783121	2546.649771
905.090100	2545.419729
905.397039	2541.520397
905.703938	2540.250026
906.010796	2539.811446
906.317614	2538.833462
906.624391	2536.222144
906.931129	2537.419418
907.237826	2534.888759
907.544483	2532.537061
907.851099	2533.255425
908.157675	2532.093439
908.464211	2531.574200
908.770707	2527.437933
909.077163	2530.744930
909.383578	2525.111441
909.689954	2531.793490
909.996289	2529.310722
910.302584	2534.760209
910.608839	2531.712832
910.915054	2531.175949
911.221229	2532.925229
911.527363	2532.118645
911.833458	2532.620240
912.139513	2533.888090
912.445527	2533.464633
912.751502	2530.127389
913.057436	2531.954807
913.363331	2533.245343
913.669186	2533.358769
913.975000	2532.532019
914.280775	2534.102339
914.586510	2538.069727
914.892205	2537.648791
915.197859	2537.888245
915.503475	2540.030736
915.809050	2544.393854
916.114585	2541.704399
916.420081	2546.064997
916.725536	2543.652805
917.030952	2542.934440
917.336328	2542.440407
917.641665	2539.607279
917.946961	2538.145344
918.252218	2537.558050
918.557435	2536.312885
918.862612	2537.419418
919.167750	2537.721887
919.472848	2535.193749
919.777906	2534.896321
920.082925	2532.577390
920.387904	2532.317770
920.692843	2533.741896
920.997743	2532.428676
921.302603	2533.026052
921.607423	2534.248532
921.912204	2534.319108
922.216946	2529.711494
922.521647	2531.586803
922.826310	2531.440610
923.130932	2531.077647
923.435516	2532.721063
923.740059	2530.008922
924.044564	2530.659231
924.349028	2532.824406
924.653454	2525.754188
924.957840	2529.935825
925.262186	2529.472039
925.566493	2533.189890
925.870761	2524.748478
926.174989	2532.942873
926.479178	2529.683768
926.783328	2529.693850
927.087438	2527.823582
927.391509	2530.830630
927.695541	2530.545805
927.999533	2531.054961
928.303486	2530.349200
928.607400	2529.625794
928.911275	2530.697039
929.215110	2532.121165
929.518906	2531.995137
929.822663	2533.406660
930.126381	2531.596885
930.430060	2531.107893
930.733699	2527.891637
931.037299	2529.603109
931.340861	2529.066226
931.644383	2531.201155
931.947866	2528.602440
932.251309	2532.418593
932.554714	2531.914478
932.858080	2531.690147
933.161407	2530.439941
933.464694	2531.254087
933.767943	2529.799714
934.071153	2531.029756
934.374323	2531.405322
934.677455	2530.422297
934.980548	2527.904240
935.283602	2529.678726
935.586617	2531.213758
935.889593	2529.920702
936.192530	2528.829292
936.495428	2528.574714
936.798287	2529.252749
937.101108	2529.701412
937.403890	2529.081350
937.706632	2531.438089
938.009336	2532.176618
938.312002	2530.031607
938.614628	2528.277286
938.917216	2531.571680
939.219765	2528.776360
939.522275	2531.806093
939.824747	2531.196114
940.127179	2527.453057
940.429573	2526.908612
940.731929	2527.866432
941.034246	2526.434744
941.336524	2530.364323
941.638763	2530.276103
941.940964	2531.246525
942.243126	2528.098325
942.545250	2529.414066
942.847335	2532.088398
943.149381	2530.031607
943.451389	2530.863398
943.753359	2533.462112
944.055290	2532.133768
944.357182	2530.369364
944.659036	2528.360465
944.960851	2533.419263
945.262628	2527.342152
945.564367	2530.901206
945.866067	2528.199148
946.167729	2529.338448
946.469352	2530.792821
946.770937	2530.939015
947.072484	2528.332738
947.373992	2529.981196
947.675462	2528.662934
947.976893	2530.979344
948.278286	2528.753675
948.579641	2532.471526
948.880958	2528.741072
949.182236	2529.494724
949.483476	2532.005219
949.784678	2532.602596
950.085841	2531.483459
950.386967	2530.984385
950.688054	2529.499765
950.989103	2527.684950
951.290114	2530.235774
951.591087	2532.211906
951.892021	2530.334076
952.192917	2531.783408
952.493776	2527.072450
952.794596	2531.259128
953.095378	2531.952287
953.396122	2531.382636
953.696828	2532.456402
953.997496	2528.642769
954.298126	2534.246012
954.598718	2528.849457
954.899272	2528.615043
955.199788	2530.203006
955.500266	2528.688140
955.800706	2526.893489
956.101108	2527.339631
956.401472	2525.366019
956.701798	2525.161853
957.002087	2527.102697
957.302337	2530.782739
957.602550	2530.641587
957.902724	2527.853829
958.202861	2532.191742
958.502960	2527.682429
958.803022	2529.484642
959.103045	2529.275434
959.403031	2529.598068
959.702979	2526.825433
960.002889	2528.385670
960.302762	2531.609488
960.602596	2528.675537
960.902393	2530.825589
961.202153	2528.025228
961.501875	2529.184693
961.801559	2532.000178
962.101205	2527.513551
962.400814	2528.443644
962.700385	2526.984230
962.999918	2529.519930
963.299414	2526.588499
963.598873	2530.936494
963.898293	2526.699404
964.197677	2526.454908
964.497022	2529.469518
964.796331	2528.045393
965.095601	2528.708304
965.394835	2529.038500
965.694030	2531.634694
965.993189	2529.958510
966.292309	2527.314425
966.591393	2530.500434
966.890439	2527.780732
967.189447	2528.778880
967.488419	2529.318284
967.787353	2527.362316
968.086249	2527.125382
968.385108	2528.914992
968.683930	2527.016997
968.982714	2527.735362
969.281462	2527.942049
969.580172	2528.063037
969.878844	2527.034641
970.177480	2528.582275
970.476078	2525.872655
970.774639	2530.933974
971.073162	2528.854498
971.371649	2524.715710
971.670098	2525.174455
971.968510	2525.242511
972.266885	2524.564476
972.565223	2528.315094
972.863524	2526.812830
973.161788	2530.865918
973.460014	2526.671678
973.758204	2530.087060
974.056356	2529.562780
974.354471	2527.805938
974.652550	2527.624456
974.950591	2528.546987
975.248595	2529.829961
975.546563	2530.356762
975.844493	2526.863242
976.142386	2529.537574
976.440243	2530.356762
976.738062	2529.025897
977.035845	2525.439116
977.333590	2527.153108
977.631299	2529.509848
977.928971	2528.509179
978.226606	2527.294261
978.524204	2529.633356
978.821765	2531.430527
979.119290	2529.751823
979.416777	2526.865762
979.714228	2527.931967
980.011642	2528.965403
980.309020	2528.302491
980.606360	2526.638911
980.903664	2529.151926
981.200931	2529.038500
981.498162	2527.823582
981.795356	2528.554549
982.092513	2532.736186
982.389633	2529.514889
982.686717	2532.146371
982.983764	2528.173942
983.280775	2530.059333
983.577749	2526.893489
983.874686	2527.793335
984.171587	2529.988757
984.468451	2528.567152
984.765279	2527.594209
985.062070	2527.848788
985.358824	2526.709487
985.655543	2529.240146
985.952224	2527.790814
986.248869	2527.150588
986.545478	2528.022707
986.842050	2526.389373
987.138586	2522.732016
987.435086	2526.364168
987.731549	2524.337624
988.027975	2528.970444
988.324366	2528.549508
988.620719	2527.843746
988.917037	2529.971113
989.213318	2528.337779
989.509563	2526.177645
989.805772	2528.587317
990.101944	2528.037831
990.398080	2527.919364
990.694180	2526.475073
990.990244	2529.842564
991.286271	2525.877696
991.582262	2527.969775
991.878217	2528.468849
992.174136	2529.472039
992.470019	2529.098994
992.765865	2527.153108
993.061676	2528.362985
993.357450	2526.727131
993.653188	2528.362985
993.948890	2529.514889
994.244556	2527.810979
994.540186	2528.257121
994.835780	2529.688809
995.131337	2527.873993
995.426859	2525.923067
995.722345	2524.821575
996.017795	2525.771832
996.313208	2526.921215
996.608586	2528.544467
996.903928	2527.233767
997.199234	2527.972296
997.494504	2529.842564
997.789738	2525.905423
998.084936	2527.884076
998.380099	2527.611853
998.675225	2526.868283
998.970316	2528.673016
999.265371	2527.407687
999.560390	2523.853673
999.855373	2529.562780
1000.150320	2529.212420
1000.445232	2525.418951
1000.740108	2525.572707
1001.034948	2528.178983
1001.329752	2526.366688
1001.624521	2528.998171
1001.919254	2523.405010
1002.213951	2525.272758
1002.508613	2523.979702
1002.803239	2524.877027
1003.097829	2523.115144
1003.392384	2528.673016
1003.686903	2526.694363
1003.981386	2528.952800
1004.275834	2527.586647
1004.570246	2526.901051
1004.864623	2528.519261
1005.158964	2528.501617
1005.453270	2524.617408
1005.747540	2526.401976
1006.041775	2527.589168
1006.335974	2527.505989
1006.630138	2528.093283
1006.924266	2527.344672
1007.218359	2527.011956
1007.512416	2526.192768
1007.806438	2525.839888
1008.100425	2527.601771
1008.394376	2529.096473
1008.688292	2529.751823
1008.982172	2525.176976
1009.276017	2528.567152
1009.569827	2525.481966
1009.863602	2526.616225
1010.157341	2527.611853
1010.451045	2527.695032
1010.744714	2524.466173
1011.038347	2529.721576
1011.331945	2525.451719
1011.625508	2528.166380
1011.919036	2525.824764
1012.212528	2526.797707
1012.505986	2527.105217
1012.799408	2527.589168
1013.092795	2527.516071
1013.386147	2525.081194
1013.679464	2524.887110
1013.972745	2525.562624
1014.265992	2525.464322
1014.559204	2528.965403
1014.852380	2528.108407
1015.145521	2528.410876
1015.438628	2526.762419
1015.731699	2530.230733
1016.024736	2525.774353
1016.317737	2526.911133
1016.610703	2525.474404
1016.903635	2524.695546
1017.196531	2522.011131
1017.489393	2522.132119
1017.782219	2523.384846
1018.075011	2526.051616
1018.367768	2524.382994
1018.660490	2527.589168
1018.953177	2527.589168
1019.245829	2527.589168
