Dividing Wavelength (nm)	Counts (n)	Blue Motor Position (mm): 0.000000	Red Motor Position (mm): 33.200000	
326.493990	2127.308950
326.888308	2127.308950
327.282561	2127.308950
327.676750	2095.895000
328.070874	2095.779053
328.464933	2097.722418
328.858929	2105.067379
329.252859	2113.375201
329.646726	2122.255193
330.040528	2138.112143
330.434265	2154.511016
330.827938	2171.537513
331.221547	2188.846315
331.615091	2210.286342
332.008571	2225.666903
332.401986	2250.910480
332.795338	2269.666093
333.188625	2286.556479
333.581847	2307.562967
333.975006	2322.792293
334.368100	2343.370283
334.761129	2359.620443
335.154095	2376.657022
335.546996	2396.093191
335.939833	2413.580953
336.332606	2430.549477
336.725315	2439.174891
337.117960	2451.694597
337.510540	2457.499486
337.903056	2470.682103
338.295508	2480.098978
338.687896	2487.491830
339.080220	2493.899137
339.472480	2498.446258
339.864676	2504.319202
340.256807	2509.531755
340.648875	2512.826149
341.040879	2516.082734
341.432818	2515.409740
341.824694	2518.300842
342.216506	2520.198837
342.608253	2519.016686
342.999937	2519.982067
343.391557	2518.673887
343.783113	2517.864782
344.174605	2517.403517
344.566033	2515.147600
344.957397	2515.180368
345.348697	2512.833711
345.739934	2511.288597
346.131106	2508.483195
346.522215	2508.205932
346.913260	2504.840961
347.304241	2504.115035
347.695159	2502.481701
348.086012	2500.550939
348.476802	2499.656135
348.867528	2497.080105
349.258191	2496.210506
349.648789	2496.931391
350.039324	2494.851915
350.429796	2493.178252
350.820203	2491.774291
351.210548	2491.209681
351.600828	2489.747747
351.991045	2492.918632
352.381198	2488.089207
352.771288	2489.047026
353.161314	2485.235914
353.551276	2490.801348
353.941175	2485.961840
354.331010	2487.282623
354.720782	2486.723054
355.110490	2487.774135
355.500135	2491.086173
355.889717	2489.883858
356.279235	2487.464104
356.668689	2489.331852
357.058080	2488.638693
357.447408	2487.665750
357.836672	2487.023003
358.225873	2488.477376
358.615010	2484.371356
359.004084	2492.207830
359.393095	2492.860659
359.782043	2494.113386
360.170927	2493.342089
360.559748	2493.884013
360.948505	2494.579693
361.337199	2495.537512
361.725830	2494.927532
362.114398	2496.202944
362.502903	2496.470125
362.891344	2495.860146
363.279722	2497.881648
363.668037	2497.324601
364.056289	2497.924498
364.444478	2499.015908
364.832603	2499.043634
365.220665	2499.489777
365.608665	2500.361896
365.996601	2503.008502
366.384474	2502.065806
366.772284	2504.909017
367.160031	2505.093019
367.547715	2509.085613
367.935336	2512.332116
368.322893	2513.909997
368.710388	2518.510050
369.097820	2526.117151
369.485189	2526.734693
369.872495	2534.271217
370.259738	2540.489481
370.646918	2546.952240
371.034035	2554.277037
371.421090	2565.670044
371.808081	2575.333936
372.195010	2583.982036
372.581875	2597.825044
372.968678	2610.662342
373.355418	2622.372943
373.742096	2638.285345
374.128710	2651.152890
374.515262	2666.188131
374.901751	2685.518436
375.288177	2697.304653
375.674540	2719.296687
376.060841	2735.831672
376.447079	2756.908736
376.833254	2778.376490
377.219367	2789.353602
377.605417	2828.523367
377.991404	2835.785150
378.377329	2858.956813
378.763191	2877.304093
379.148991	2914.575864
379.534727	2935.869698
379.920402	2968.826241
380.306013	2979.957108
380.691563	3027.976619
381.077049	3051.483520
381.462474	3069.024215
381.847835	3106.013681
382.233134	3128.988740
382.618371	3126.992443
383.003545	3199.078422
383.388657	3206.932540
383.773706	3236.728280
384.158693	3251.700507
384.543618	3280.679579
384.928480	3317.076710
385.313280	3362.880634
385.698017	3362.973895
386.082692	3414.413829
386.467305	3418.688728
386.851856	3451.783903
387.236344	3476.926657
387.620770	3506.175432
388.005133	3532.089483
388.389435	3560.773649
388.773674	3573.353848
389.157851	3612.258953
389.541965	3625.887712
389.926018	3593.526025
390.310008	3664.419772
390.693936	3682.767051
391.077802	3726.078125
391.461606	3712.784602
391.845348	3775.811628
392.229027	3774.427831
392.612645	3786.866878
392.996200	3861.654916
393.379694	3904.154364
393.763125	3972.567862
394.146494	3940.732976
394.529801	3999.472501
394.913047	4047.302968
395.296230	4013.363400
395.679351	4064.820978
396.062410	4090.682097
396.445408	4072.612081
396.828343	4104.883028
397.211217	4133.236997
397.594028	4049.815983
397.976778	4120.419864
398.359466	4140.690343
398.742092	4173.833409
399.124656	4098.982357
399.507158	4172.915919
399.889598	4197.889795
400.271977	4261.766256
400.654294	4231.231987
401.036549	4243.212289
401.418742	4212.153740
401.800874	4312.129903
402.182944	4330.522553
402.564952	4398.227770
402.946898	4387.442221
403.328783	4377.995099
403.710606	4294.621976
404.092367	4487.095750
404.474067	4451.222900
404.855705	4459.641627
405.237282	4388.894073
405.618797	4496.484899
406.000250	4533.590312
406.381642	4609.968834
406.762972	4575.121858
407.144240	4585.211728
407.525447	4583.303651
407.906593	4640.303978
408.287677	4686.745607
408.668700	4612.585193
409.049661	4670.901261
409.430560	4704.291343
409.811399	4633.448008
410.192176	4796.070590
410.572891	4729.562647
410.953545	4834.486703
411.334138	4719.344229
411.714669	4785.068272
412.095139	4680.328218
412.475547	4822.806350
412.855894	4803.614677
413.236180	4810.034586
413.616405	4768.029172
413.996568	4851.014126
414.376670	4792.498933
414.756711	4749.971759
415.136691	4781.010143
415.516609	4858.759859
415.896466	4896.752515
416.276262	4932.920273
416.655997	4911.591151
417.035670	5090.055559
417.415283	5184.128531
417.794834	5129.426971
418.174324	5082.307306
418.553753	4987.911700
418.933121	5176.856667
419.312428	5243.941821
419.691674	5177.295247
420.070859	5309.602850
420.449983	5217.327050
420.829045	5333.971788
421.208047	5242.699177
421.586988	5312.879600
421.965867	5319.884283
422.344686	5457.490139
422.723444	5312.067974
423.102141	5127.544100
423.480777	5428.115336
423.859352	5199.173855
424.237866	5454.732628
424.616319	5449.930929
424.994712	5554.423966
425.373044	5434.837715
425.751314	5577.489766
426.129524	5377.134147
426.507673	5569.063477
426.885762	5656.114122
427.263789	5583.604685
427.641756	5473.457994
428.019662	5589.089461
428.397508	5598.884422
428.775292	5545.125558
429.153016	5644.824457
429.530679	5568.466100
429.908282	5653.706971
430.285824	5523.625037
430.663305	5802.607532
431.040726	5533.432602
431.418086	5533.387231
431.795385	5638.248272
432.172624	5653.989275
432.549802	5645.550384
432.926920	5661.661911
433.303977	5667.618035
433.680974	5706.502975
434.057910	5728.991562
434.434786	5733.437860
434.811601	5697.496953
435.188355	5933.193581
435.565050	5806.723634
435.941683	5785.132372
436.318257	6003.079097
436.694770	5987.474205
437.071222	6022.588362
437.447614	5949.075736
437.823946	5864.228076
438.200218	6021.219689
438.576429	5886.540223
438.952580	5984.202496
439.328670	6027.594228
439.704700	5938.486793
440.080670	5923.842241
440.456580	6188.583476
440.832429	6073.065436
441.208218	5926.519093
441.583947	6082.925932
441.959616	6080.181024
442.335224	6009.201578
442.710773	6146.898175
443.086261	6172.214849
443.461689	5966.679445
443.837057	6115.617815
444.212365	6273.569768
444.587612	6164.574981
444.962800	6318.304967
445.337927	6297.759745
445.712995	5907.816413
446.088002	6481.618187
446.462949	6312.560572
446.837837	6248.016159
447.212664	6416.849443
447.587431	6567.446352
447.962139	7105.181192
448.336786	8030.132099
448.711374	7773.676000
449.085901	6848.967068
449.460369	6764.729387
449.834776	6698.987700
450.209124	7093.152999
450.583412	7238.413847
450.957640	7387.695015
451.331808	7148.590567
451.705917	6699.385951
452.079965	6630.352390
452.453954	6840.697055
452.827883	6716.641821
453.201752	6809.502395
453.575562	6609.963444
453.949311	6813.222767
454.323001	6700.696651
454.696632	6775.799761
455.070202	6914.151708
455.443713	7069.104174
455.817164	7169.367683
456.190556	7249.080928
456.563888	7320.937535
456.937160	7365.818928
457.310373	7026.342587
457.683526	7048.604322
458.056619	6940.040553
458.429653	6927.556136
458.802628	6863.175560
459.175542	6971.089020
459.548398	7326.344173
459.921194	7485.233780
460.293930	7485.730334
460.666607	8023.223198
461.039224	8330.990682
461.411782	8457.979868
461.784280	8473.206673
462.156719	8363.871608
462.529099	8238.977021
462.901419	7829.383271
463.273680	7727.524237
463.645882	7737.641833
464.018024	7602.906914
464.390106	7766.714167
464.762130	8159.558683
465.134094	8625.935990
465.505999	9642.729159
465.877845	10869.176355
466.249631	11516.523523
466.621358	11134.653599
466.993026	10505.462146
467.364634	10245.459595
467.736184	9886.239575
468.107674	9554.992918
468.479105	9584.529038
468.850477	9349.404582
469.221790	9120.881516
469.593043	8789.450856
469.964238	8652.303745
470.335373	8669.718411
470.706449	8724.452739
471.077467	8702.233854
471.448425	10010.977886
471.819324	11084.970507
472.190164	11111.245001
472.560945	9864.328200
472.931667	9067.500738
473.302330	8938.900903
473.672934	8584.091893
474.043479	8939.818393
474.413965	8884.393427
474.784393	8768.391436
475.154761	8923.714427
475.525070	9002.484977
475.895321	8831.176487
476.265513	9006.328857
476.635645	9176.921503
477.005719	9180.069703
477.375734	9286.962329
477.745691	9527.480821
478.115588	9665.807562
478.485427	9904.349920
478.855207	10438.135016
479.224928	11252.437638
479.594591	11879.126158
479.964194	11694.985411
480.333739	11634.327727
480.703226	11545.444623
481.072653	11635.114147
481.442022	11878.012063
481.811333	12063.017368
482.180584	11872.592822
482.549777	11574.083418
482.918912	11396.077755
483.287988	11429.447673
483.657005	11432.709299
484.025964	11114.783891
484.394864	11242.115875
484.763706	11214.507996
485.132489	10968.164452
485.501213	10930.136508
485.869879	11001.015131
486.238487	10838.412714
486.607036	10949.928078
486.975527	10725.533717
487.343959	10908.066336
487.712333	10961.923503
488.080648	10887.122863
488.448905	10927.545355
488.817104	10857.382576
489.185244	11120.979469
489.553326	11277.318253
489.921350	11802.982049
490.289315	12839.244155
490.657222	13182.075384
491.025070	13085.801948
491.392861	12943.406996
491.760593	12566.835324
492.128267	12219.830020
492.495883	11886.211499
492.863440	11543.208871
493.230939	11210.893489
493.598380	11134.187292
493.965763	10996.379790
494.333088	10888.728470
494.700354	10799.734461
495.067563	10851.675989
495.434713	10669.103041
495.801805	10790.753645
496.168839	10708.968486
496.535815	10633.189861
496.902733	10622.535382
497.269593	10543.868177
497.636395	10627.107709
498.003139	10594.614952
498.369825	10456.888108
498.736453	10592.273336
499.103023	10508.000367
499.469535	10518.143169
499.835989	10501.809830
500.202385	10437.051168
500.568723	10278.272466
500.935003	10472.503082
501.301226	10266.607236
501.667390	10495.505867
502.033497	10567.700232
502.399546	10418.250185
502.765537	10311.415532
503.131470	10352.768117
503.497345	10496.471248
503.863163	10115.168454
504.228923	10375.725531
504.594625	10414.091233
504.960269	10149.486108
505.325856	10326.004631
505.691385	10104.259397
506.056856	10223.528056
506.422270	10206.960303
506.787625	10081.606972
507.152924	10156.314351
507.518164	10112.433628
507.883347	10008.303554
508.248472	9901.804138
508.613540	10068.925949
508.978550	9932.366133
509.343503	9871.070743
509.708398	9933.694477
510.073236	9996.603036
510.438016	9969.587492
510.802738	9879.015602
511.167403	9886.925172
511.532010	9743.947967
511.896561	9912.209079
512.261053	9928.890257
512.625488	9774.184807
512.989866	9709.118635
513.354186	9650.805088
513.718449	9523.911684
514.082655	9637.352769
514.446803	9502.511986
514.810894	9549.228358
515.174927	9382.242658
515.538904	9367.492242
515.902822	9421.311600
516.266684	9285.167679
516.630488	9181.521556
516.994235	9180.488119
517.357925	9166.756016
517.721558	9183.835445
518.085133	9125.020303
518.448651	9087.539324
518.812112	8939.233619
519.175516	8888.625476
519.538863	8914.839476
519.902152	8803.198083
520.265385	8840.976490
520.628560	8733.783915
520.991678	8645.762848
521.354739	8641.218248
521.717743	8532.031897
522.080690	8458.662944
522.443580	8471.535530
522.806413	8381.049339
523.169189	8341.811518
523.531908	8321.334351
523.894569	8134.947770
524.257174	8072.165240
524.619722	8074.312772
524.982213	7993.079619
525.344647	7946.088503
525.707025	7859.854525
526.069345	7850.659461
526.431608	7717.436888
526.793815	7720.925367
527.155964	7533.056686
527.518057	7501.756162
527.880093	7398.281438
528.242072	7384.211578
528.603995	7257.061075
528.965860	7151.688357
529.327669	7115.747450
529.689421	7026.214037
530.051117	6949.717048
530.412755	6929.270128
530.774337	6823.741134
531.135862	6738.220480
531.497331	6695.337905
531.858743	6559.088119
532.220098	6572.091775
532.581396	6447.313135
532.942638	6386.093363
533.303824	6307.993287
533.664953	6246.450881
534.026025	6152.806407
534.387040	6131.111802
534.747999	6075.099541
535.108902	6037.663933
535.469748	5884.276745
535.830537	5867.903077
536.191270	5802.045443
536.551947	5751.701960
536.912567	5690.756931
537.273131	5619.064161
537.633638	5551.603441
537.994089	5491.175129
538.354483	5415.782153
538.714821	5418.978245
539.075103	5364.049832
539.435328	5296.984842
539.795497	5193.989028
540.155609	5180.337583
540.515665	5161.264378
540.875665	5037.325090
541.235609	4997.701621
541.595496	4947.698416
541.955328	4934.707362
542.315102	4862.795302
542.674821	4799.407834
543.034483	4753.185494
543.394090	4702.842012
543.753640	4640.251045
544.113134	4642.892610
544.472571	4568.255807
544.831953	4548.703692
545.191278	4465.875013
545.550548	4428.325979
545.909761	4416.441459
546.268918	4367.617884
546.628019	4342.074357
546.987064	4268.967544
547.346053	4221.631109
547.704986	4191.001059
548.063863	4152.673166
548.422684	4116.034060
548.781449	4056.500553
549.140158	4038.705280
549.498811	3983.295438
549.857408	3929.841563
550.215949	3918.650202
550.574434	3864.800596
550.932864	3841.525589
551.291237	3820.224193
551.649555	3777.404633
552.007817	3753.706168
552.366022	3718.352556
552.724173	3684.302083
553.082267	3655.877537
553.440305	3635.566728
553.798288	3592.071653
554.156215	3578.452975
554.514086	3548.435425
554.871902	3502.901203
555.229661	3481.486381
555.587365	3454.974953
555.945014	3424.889347
556.302606	3404.129875
556.660143	3377.323540
557.017625	3365.229812
557.375050	3333.281499
557.732421	3321.580981
558.089735	3292.528812
558.446994	3270.718259
558.804197	3251.357708
559.161345	3234.351376
559.518437	3201.709904
559.875474	3183.350022
560.232455	3169.721263
560.589381	3152.719971
560.946251	3126.740385
561.303065	3124.209726
561.659825	3096.324583
562.016528	3073.896490
562.373177	3056.542318
562.729770	3047.289280
563.086307	3028.866383
563.442789	3019.053777
563.799216	2994.843636
564.155587	2983.914414
564.511904	2965.456229
564.868164	2951.603139
565.224370	2945.384875
565.580520	2925.615991
565.936615	2920.226997
566.292654	2898.000550
566.648638	2895.684140
567.004567	2880.437170
567.360441	2872.192363
567.716260	2856.532018
568.072023	2851.198478
568.427732	2837.574759
568.783385	2829.571927
569.138982	2820.404589
569.494525	2813.523414
569.850013	2803.594862
570.205445	2801.283493
570.560823	2789.976185
570.916145	2781.302879
571.271412	2776.165944
571.626625	2768.271497
571.981782	2758.705907
572.336884	2756.457553
572.691931	2751.166862
573.046923	2742.538927
573.401860	2735.299830
573.756743	2731.029973
574.111570	2726.374467
574.466342	2722.230639
574.821059	2718.537993
575.175722	2713.131356
575.530330	2705.741024
575.884882	2704.311857
576.239380	2698.035621
576.593823	2695.625949
576.948211	2691.771987
577.302544	2688.008766
577.656823	2684.973991
578.011047	2683.194464
578.365216	2677.750018
578.719330	2672.734070
579.073389	2671.173833
579.427394	2667.191321
579.781344	2665.704181
580.135239	2664.716114
580.489080	2663.987668
580.842866	2659.652275
581.196597	2659.259065
581.550273	2658.303767
581.903895	2653.217242
582.257463	2653.050884
582.610975	2649.116264
582.964434	2647.588794
583.317837	2645.567292
583.671186	2647.704741
584.024481	2646.078969
584.377721	2644.783392
584.730906	2642.056128
585.084037	2640.485808
585.437113	2639.981693
585.790135	2638.537402
586.143103	2638.655870
586.496016	2634.648152
586.848874	2630.653038
587.201679	2632.009108
587.554428	2623.817233
587.907124	2628.997019
588.259765	2624.885958
588.612352	2629.357461
588.964884	2624.432254
589.317362	2626.857049
589.669786	2625.742954
590.022155	2627.265383
590.374470	2626.978037
590.726731	2625.455608
591.078937	2620.757253
591.431090	2621.526029
591.783188	2619.970833
592.135232	2620.580812
592.487222	2617.858589
592.839157	2620.278343
593.191038	2617.515791
593.542866	2616.308435
593.894639	2616.656274
594.246358	2615.416150
594.598022	2616.368928
594.949633	2613.014041
595.301190	2613.437497
595.652692	2612.630913
596.004141	2614.549072
596.355535	2612.250306
596.706876	2610.246447
597.058162	2606.962135
597.409395	2609.674276
597.760573	2609.361725
598.111698	2607.587238
598.462768	2609.467589
598.813785	2610.188474
599.164748	2606.168154
599.515657	2605.842999
599.866511	2606.342073
600.217312	2604.590272
600.568060	2604.103801
600.918753	2607.819132
601.269392	2605.522886
601.619978	2607.181426
601.970510	2604.670931
602.320988	2604.426435
602.671412	2603.027515
603.021783	2602.669593
603.372100	2606.339553
603.722363	2602.528441
604.072572	2605.911055
604.422728	2604.159254
604.772830	2598.770260
605.122878	2599.269335
605.472872	2598.974427
605.822813	2598.155240
606.172701	2597.772112
606.522534	2600.201948
606.872314	2600.290168
607.222041	2602.672113
607.571714	2599.838985
607.921333	2601.074068
608.270899	2600.796804
608.620411	2603.539192
608.969870	2601.835282
609.319276	2601.731938
609.668627	2605.175046
610.017926	2606.778133
610.367171	2610.374997
610.716362	2607.405757
611.065500	2607.045314
611.414585	2604.638163
611.763616	2606.977259
612.112594	2602.538523
612.461518	2600.028028
612.810389	2603.854264
613.159207	2602.553646
613.507971	2600.731269
613.856682	2600.201948
614.205340	2603.183791
614.553945	2602.669593
614.902496	2603.019953
615.250994	2600.680858
615.599439	2599.473501
615.947830	2598.734972
616.296169	2598.891248
616.644454	2600.262442
616.992686	2600.955601
617.340864	2602.503235
617.688990	2599.579366
618.037063	2601.046341
618.385082	2600.567432
618.733048	2599.420569
619.080961	2599.556680
619.428821	2600.060796
619.776628	2602.102463
620.124382	2601.142123
620.472083	2601.550457
620.819731	2599.707915
621.167326	2598.414859
621.514868	2600.764037
621.862357	2595.866556
622.209793	2596.468974
622.557176	2597.484766
622.904506	2595.596854
623.251783	2595.322111
623.599007	2592.791452
623.946179	2593.729107
624.293297	2591.770618
624.640363	2592.965372
624.987376	2593.918150
625.334336	2593.751792
625.681243	2592.620053
626.028097	2593.144333
626.374899	2590.606112
626.721647	2591.206009
627.068343	2592.788931
627.414987	2594.429827
627.761577	2589.965885
628.108115	2591.432861
628.454600	2590.533015
628.801032	2591.924373
629.147412	2589.701225
629.493739	2589.504620
629.840014	2591.127871
630.186236	2593.267841
630.532405	2590.641400
630.878521	2588.811461
631.224585	2588.682912
631.570597	2587.374732
631.916556	2589.058477
632.262462	2588.302304
632.608316	2588.907243
632.954117	2587.956985
633.299866	2590.565782
633.645562	2587.556214
633.991206	2587.382294
634.336797	2585.494382
634.682336	2588.140988
635.027823	2583.946747
635.373257	2583.742581
635.718639	2583.031778
636.063968	2585.950606
636.409245	2583.629155
636.754470	2582.600759
637.099642	2582.552868
637.444762	2580.314596
637.789829	2583.402303
638.134845	2582.232755
638.479808	2581.718557
638.824719	2583.306521
639.169577	2581.151428
639.514383	2582.613362
639.859137	2577.836869
640.203839	2581.388362
640.548489	2579.913824
640.893086	2577.753690
641.237632	2578.126735
641.582125	2575.651529
641.926566	2577.990624
642.270955	2578.817373
642.615292	2579.873495
642.959576	2581.915163
643.303809	2578.063721
643.647990	2579.530697
643.992118	2581.869792
644.336195	2578.073803
644.680219	2578.782085
645.024192	2576.077506
645.368112	2579.865933
645.711981	2580.216294
646.055797	2580.987590
646.399562	2581.771490
646.743274	2582.323496
647.086935	2582.142014
647.430544	2582.104206
647.774101	2583.137642
648.117606	2583.891295
648.461059	2581.229566
648.804460	2585.779207
649.147810	2583.367015
649.491108	2578.908114
649.834354	2578.812332
650.177548	2577.252095
650.520690	2580.609504
650.863781	2578.189750
651.206820	2582.149576
651.549807	2577.471385
651.892742	2578.131777
652.235626	2579.258474
652.578458	2580.102868
652.921238	2576.001889
653.263967	2575.512897
653.606644	2576.483319
653.949269	2578.807291
654.291843	2577.461303
654.634365	2575.525500
654.976836	2572.480643
655.319255	2577.715881
655.661622	2576.604307
656.003938	2576.072465
656.346203	2577.173957
656.688416	2574.638257
657.030577	2574.081209
657.372687	2577.728484
657.714746	2573.786302
658.056753	2574.933164
658.398708	2570.249932
658.740612	2572.639439
659.082465	2570.461661
659.424266	2572.215983
659.766016	2569.897052
660.107715	2572.682289
660.449362	2574.308061
660.790958	2574.799574
661.132503	2575.883422
661.473996	2575.880901
661.815438	2575.971642
662.156829	2576.145562
662.498168	2573.735890
662.839456	2575.825449
663.180693	2575.893504
663.521879	2575.754872
663.863013	2574.378637
664.204097	2574.134142
664.545129	2574.960891
664.886110	2574.366035
665.227040	2573.897207
665.567918	2577.451221
665.908746	2574.706312
666.249522	2576.521128
666.590248	2575.878381
666.930922	2575.903587
667.271545	2575.671693
667.612118	2578.950964
667.952639	2574.623133
668.293109	2574.963411
668.633528	2574.471899
668.973896	2574.179512
669.314213	2576.420305
669.654480	2575.480130
669.994695	2572.392423
670.334859	2575.550706
670.674973	2571.830334
671.015035	2576.082547
671.355047	2575.041549
671.695008	2576.599266
672.034918	2573.516600
672.374777	2574.756724
672.714585	2576.367373
673.054342	2573.317475
673.394049	2578.124215
673.733705	2574.202197
674.073310	2574.426528
674.412864	2576.480799
674.752368	2574.630695
675.091820	2576.667321
675.431223	2574.965932
675.770574	2573.929975
676.109875	2568.848492
676.449125	2569.340004
676.788324	2571.749676
677.127473	2574.648339
677.466571	2569.055179
677.805619	2571.721949
678.144616	2571.003585
678.483562	2571.961404
678.822458	2570.519634
679.161303	2575.414595
679.500098	2571.099367
679.838842	2572.155489
680.177535	2572.531055
680.516179	2568.924109
680.854771	2571.301013
681.193314	2572.054666
681.531805	2574.824780
681.870247	2576.190932
682.208638	2576.488360
682.546978	2576.712692
682.885268	2575.724626
683.223508	2575.122208
683.561697	2574.451734
683.899836	2572.455437
684.237925	2573.723287
684.575963	2573.425859
684.913951	2571.827814
685.251889	2574.857547
685.589776	2572.526013
685.927614	2573.839234
686.265401	2574.907959
686.603137	2573.347722
686.940824	2576.674883
687.278460	2575.376786
687.616046	2576.644636
687.953582	2579.061869
688.291068	2578.038515
688.628504	2578.174626
688.965889	2573.446024
689.303224	2577.244533
689.640510	2576.546334
689.977745	2574.101374
690.314930	2571.681620
690.652065	2574.371076
690.989150	2572.110118
691.326185	2572.820921
691.663170	2570.668348
692.000105	2569.765982
692.336990	2568.419994
692.673825	2567.333625
693.010610	2570.088616
693.347345	2567.464695
693.684030	2563.497307
694.020665	2564.707184
694.357251	2560.611246
694.693786	2567.121897
695.030272	2565.034859
695.366707	2565.360013
695.703093	2565.987637
696.039429	2561.947152
696.375716	2565.821279
696.711952	2561.155691
697.048139	2564.329097
697.384276	2564.409756
697.720363	2565.748182
698.056400	2563.610733
698.392388	2565.251628
698.728326	2566.688357
699.064214	2563.580486
699.400053	2564.979406
699.735842	2563.260373
700.071581	2564.654252
700.407270	2563.038562
700.742910	2562.910012
701.078501	2563.749365
701.414042	2561.664847
701.749533	2561.921946
702.084974	2562.993192
702.420366	2560.941442
702.755709	2560.523026
703.091002	2560.487738
703.426246	2560.086966
703.761440	2559.411452
704.096584	2559.431616
704.431679	2558.196534
704.766725	2559.353478
705.101721	2560.598643
705.436668	2560.787687
705.771565	2560.941442
706.106413	2560.182748
706.441212	2561.637121
706.775961	2561.647203
707.110661	2557.437840
707.445311	2560.175187
707.779913	2561.596792
708.114465	2558.861966
708.448967	2563.242729
708.783421	2561.427913
709.117825	2563.925805
709.452180	2565.503686
709.786485	2560.626370
710.120742	2566.534602
710.454949	2564.092163
710.789107	2564.014025
711.123216	2562.536967
711.457275	2562.431103
711.791286	2564.757595
712.125247	2561.483366
712.459159	2565.566701
712.793023	2567.474777
713.126837	2563.976217
713.460602	2563.046124
713.794318	2564.291289
714.127985	2564.238357
714.461602	2564.190466
714.795171	2564.006463
715.128691	2566.148954
715.462162	2562.622667
715.795584	2562.446226
716.128957	2563.787173
716.462281	2558.458674
716.795556	2564.865980
717.128782	2558.168807
717.461960	2561.800959
717.795088	2559.756771
718.128167	2562.660475
718.461198	2559.923129
718.794180	2561.185938
719.127113	2557.934394
719.459997	2561.158212
719.792833	2557.029507
720.125619	2560.250804
720.458357	2557.974723
720.791046	2556.222922
721.123686	2556.946328
721.456278	2556.303580
721.788821	2556.817778
722.121315	2556.371636
722.453761	2556.096893
722.786158	2558.057902
723.118506	2554.370298
723.450805	2557.999929
723.783056	2557.851215
724.115259	2558.143602
724.447412	2553.205791
724.779518	2559.040927
725.111574	2556.411965
725.443582	2554.317366
725.775542	2555.378529
726.107453	2556.966492
726.439315	2556.623694
726.771129	2563.951011
727.102895	2560.066802
727.434612	2558.720814
727.766281	2556.013714
728.097901	2555.426420
728.429473	2555.862479
728.760996	2555.993549
729.092471	2555.910370
729.423897	2557.029507
729.755276	2560.296174
730.086606	2559.086297
730.417887	2560.134857
730.749120	2561.231308
731.080305	2562.216854
731.411442	2562.471432
731.742530	2562.267265
732.073570	2561.884138
732.404562	2561.206102
732.735506	2561.196020
733.066401	2560.500341
733.397249	2561.430434
733.728048	2560.918757
734.058798	2557.919270
734.389501	2558.219219
734.720156	2559.897923
735.050762	2557.253838
735.381320	2554.758467
735.711831	2554.312325
736.042293	2555.078580
736.372707	2552.976419
736.703073	2558.120916
737.033391	2555.973385
737.363661	2554.791234
737.693883	2556.601008
738.024056	2558.141081
738.354182	2556.984136
738.684260	2559.577810
739.014290	2557.783159
739.344272	2557.846173
739.674207	2556.585885
740.004093	2557.757953
740.333931	2558.680484
740.663722	2558.967830
740.993464	2557.210988
741.323159	2556.485062
741.652806	2556.555638
741.982405	2556.825340
742.311956	2553.752757
742.641460	2556.356513
742.970915	2555.507078
743.300323	2552.878116
743.629683	2557.662171
743.958996	2555.197047
744.288260	2555.444064
744.617477	2554.730740
744.946647	2547.983156
745.275768	2551.746377
745.604842	2546.478372
745.933869	2549.944165
746.262847	2550.067673
746.591778	2550.854093
746.920662	2551.592622
747.249498	2554.524053
747.578286	2554.576985
747.907027	2551.905174
748.235720	2556.875751
748.564365	2554.733261
748.892963	2552.489948
749.221514	2553.296532
749.550017	2551.141439
749.878473	2555.565051
750.206881	2550.806202
750.535242	2551.784186
750.863555	2551.504402
751.191821	2551.592622
751.520039	2552.124464
751.848210	2552.762170
752.176334	2554.075390
752.504411	2554.299722
752.832440	2549.896274
753.160421	2553.535987
753.488356	2550.904505
753.816243	2553.314176
754.144082	2552.643703
754.471875	2553.863662
754.799620	2552.883157
755.127318	2550.349978
755.454969	2551.758980
755.782572	2552.971378
756.110129	2549.780327
756.437638	2551.625390
756.765100	2552.530277
757.092515	2551.201933
757.419882	2551.726213
757.747203	2553.054557
758.074477	2550.614638
758.401703	2552.316028
758.728882	2549.283774
759.056014	2551.068342
759.383099	2553.861141
759.710138	2553.236038
760.037129	2555.418858
760.364073	2552.855431
760.690970	2552.621018
761.017820	2555.502037
761.344623	2552.658826
761.671379	2552.094217
761.998088	2548.739329
762.324751	2555.572613
762.651366	2556.054043
762.977935	2569.211455
763.304456	2571.805128
763.630931	2577.867116
763.957359	2571.923596
764.283740	2568.417473
764.610074	2563.099056
764.936362	2561.027142
765.262602	2560.510423
765.588796	2557.916750
765.914943	2552.920966
766.241044	2553.414999
766.567097	2553.402396
766.893104	2550.299566
767.219064	2552.104299
767.544978	2548.774617
767.870845	2550.980122
768.196665	2549.263609
768.522438	2550.445760
768.848165	2550.407951
769.173846	2547.473999
769.499479	2548.888043
769.825066	2547.443752
770.150607	2549.271171
770.476101	2546.438042
770.801548	2548.172199
771.126949	2546.185985
771.452303	2548.651109
771.777611	2550.100441
772.102872	2546.995090
772.428087	2544.913093
772.753256	2546.543907
773.078378	2547.305121
773.403453	2547.176571
773.728482	2543.299924
774.053465	2546.559030
774.378401	2544.708927
774.703291	2545.470141
775.028135	2544.668597
775.352932	2543.501570
775.677683	2543.955274
776.002388	2546.904349
776.327046	2546.246478
776.651658	2544.204811
776.976224	2543.085675
777.300743	2545.518032
777.625216	2545.938968
777.949643	2542.886549
778.274024	2543.635161
778.598359	2542.455531
778.922647	2538.319264
779.246889	2543.738504
779.571086	2537.810107
779.895236	2540.295396
780.219339	2544.479554
780.543397	2543.705737
780.867409	2542.281611
781.191374	2544.325799
781.515294	2543.138607
781.839167	2544.444266
782.162995	2542.430325
782.486776	2542.442928
782.810511	2540.789429
783.134201	2541.928730
783.457844	2542.362269
783.781441	2545.235727
784.104993	2542.044677
784.428498	2544.035933
784.751958	2544.507280
785.075372	2544.202291
785.398739	2544.282949
785.722061	2542.667259
786.045337	2543.690613
786.368568	2545.255892
786.691752	2542.826056
787.014891	2545.696993
787.337983	2543.841848
787.661030	2545.190357
787.984031	2544.890408
788.306987	2549.495502
788.629897	2548.482230
788.952760	2550.087838
789.275579	2546.523742
789.598351	2547.416026
789.921078	2544.678680
790.243759	2547.413506
790.566395	2545.344112
790.888984	2546.044832
791.211529	2543.131045
791.534027	2543.226827
791.856480	2545.865871
792.178888	2541.981662
792.501249	2543.297403
792.823566	2545.051725
793.145836	2541.162475
793.468062	2544.330840
793.790241	2542.694986
794.112375	2544.991231
794.434464	2543.219266
794.756507	2542.823535
795.078505	2545.591128
795.400457	2541.666590
795.722364	2538.644418
796.044226	2542.939482
796.366042	2543.430994
796.687812	2541.812784
797.009538	2544.734132
797.331218	2544.227496
797.652852	2543.902342
797.974442	2543.776313
798.295986	2546.047353
798.617484	2544.406457
798.938938	2542.886549
799.260346	2541.774975
799.581709	2544.945861
799.903026	2543.748587
800.224299	2541.616179
800.545526	2542.218597
800.866708	2542.286652
801.187845	2541.243133
801.508936	2542.291693
801.829983	2541.646426
802.150984	2541.714481
802.471940	2542.964687
802.792851	2540.822197
803.113717	2540.333205
803.434538	2541.341436
803.755314	2545.291180
804.076045	2542.863864
804.396731	2541.109543
804.717372	2540.532331
805.037967	2539.834131
805.358518	2541.966539
805.679024	2541.366642
805.999485	2541.031405
806.319901	2543.294883
806.640272	2539.934954
806.960598	2542.369831
807.280879	2542.573998
807.601115	2541.497712
807.921306	2542.687424
808.241453	2543.100798
808.561554	2544.061138
808.881611	2544.688762
809.201623	2541.616179
809.521590	2543.365459
809.841513	2544.852599
810.161390	2543.126004
810.481223	2543.141128
810.801011	2540.612989
811.120755	2542.697506
811.440453	2542.546272
811.760107	2539.219110
812.079716	2541.780016
812.399281	2539.471168
812.718801	2537.386651
813.038276	2537.290869
813.357707	2542.120294
813.677093	2541.502753
813.996434	2542.074924
814.315731	2542.047197
814.634983	2540.464275
814.954191	2541.689275
815.273354	2542.942002
815.592473	2540.849923
815.911547	2540.943185
816.230577	2543.738504
816.549562	2542.672300
816.868502	2543.057949
817.187399	2542.316899
817.506250	2541.893442
817.825058	2544.033412
818.143821	2545.071890
818.462539	2546.029709
818.781213	2544.272867
819.099843	2549.649257
819.418429	2548.368804
819.736970	2550.463404
820.055466	2551.406099
820.373919	2557.964641
820.692327	2561.846329
821.010691	2568.508214
821.329011	2581.229566
821.647286	2617.190637
821.965517	2653.696152
822.283704	2673.407064
822.601847	2681.195646
822.919945	2664.617812
823.237999	2639.381796
823.556010	2625.364867
823.873976	2606.899121
824.191897	2592.206678
824.509775	2582.142014
824.827609	2574.595407
825.145398	2571.389233
825.463144	2569.902093
825.780845	2569.675241
826.098502	2574.371076
826.416116	2583.243507
826.733685	2595.160794
827.051210	2599.705394
827.368692	2593.358582
827.686129	2587.044537
828.003522	2575.694379
828.320872	2563.557801
828.638177	2558.746019
828.955439	2554.012376
829.272656	2549.538352
829.589830	2546.032229
829.906960	2549.939124
830.224046	2545.230686
830.541088	2545.823022
830.858086	2545.492826
831.175041	2547.481561
831.491952	2544.497198
831.808819	2546.674977
832.125642	2542.992414
832.442421	2548.827549
832.759157	2551.025492
833.075849	2560.228119
833.392497	2564.513099
833.709101	2570.512073
834.025662	2571.490056
834.342179	2567.608368
834.658653	2561.390105
834.975083	2557.735268
835.291469	2557.858776
835.607811	2549.687066
835.924110	2545.349153
836.240366	2546.095244
836.556578	2543.625078
836.872746	2543.569626
837.188871	2540.915458
837.504952	2543.602393
837.820990	2539.677855
838.136984	2541.414533
838.452935	2540.247505
838.768842	2540.839841
839.084706	2541.142310
839.400526	2543.821683
839.716303	2547.325285
840.032037	2553.369629
840.347727	2549.888712
840.663373	2548.789741
840.978977	2545.515511
841.294537	2544.043494
841.610054	2539.856816
841.925527	2540.406302
842.240957	2541.709440
842.556344	2538.067206
842.871687	2538.780530
843.186987	2539.201466
843.502244	2538.818338
843.817458	2539.662732
844.132629	2536.912782
844.447756	2539.624923
844.762840	2531.501103
845.077881	2535.629808
845.392879	2532.385826
845.707833	2534.493028
846.022745	2532.680733
846.337613	2535.488656
846.652438	2534.462781
846.967221	2538.112577
847.281960	2535.934798
847.596656	2538.868750
847.911309	2538.185673
848.225919	2536.690971
848.540485	2536.804397
848.855009	2535.748276
849.169490	2535.685261
849.483928	2535.221475
849.798323	2535.894469
850.112675	2536.786753
850.426984	2532.474046
850.741251	2538.508307
851.055474	2537.207690
851.369654	2536.012936
851.683792	2536.401105
851.997887	2535.904551
852.311938	2537.293389
852.625947	2536.035621
852.939914	2533.073943
853.253837	2534.709798
853.567718	2537.711805
853.881555	2536.005374
854.195350	2536.287679
854.509103	2536.063348
854.822812	2534.669469
855.136479	2538.200797
855.450103	2532.990764
855.763685	2534.845909
856.077224	2534.513193
856.390720	2534.394726
856.704173	2536.940508
857.017584	2536.993441
857.330953	2538.281455
857.644278	2537.366486
857.957561	2543.269677
858.270802	2535.160981
858.584000	2535.488656
858.897155	2537.784902
859.210268	2535.317257
859.523339	2534.709798
859.836367	2535.244160
860.149352	2536.343132
860.462295	2531.796011
860.775195	2534.558563
861.088054	2532.342976
861.400869	2534.752648
861.713642	2529.272913
862.026373	2535.904551
862.339062	2535.108049
862.651708	2536.698533
862.964312	2537.366486
863.276873	2536.822041
863.589392	2536.650642
863.901869	2537.651311
864.214303	2536.658204
864.526696	2537.502597
864.839045	2535.670138
865.151353	2536.910262
865.463619	2538.157947
865.775842	2538.941847
866.088023	2535.523944
866.400162	2537.311033
866.712258	2538.599048
867.024313	2539.599717
867.336325	2535.967566
867.648296	2536.723739
867.960224	2534.704757
868.272110	2537.210210
868.583954	2537.351362
868.895755	2536.645601
869.207515	2536.872453
869.519233	2538.987217
869.830909	2537.898328
870.142542	2536.436393
870.454134	2538.097453
870.765684	2535.496218
871.077191	2538.233564
871.388657	2538.664583
871.700081	2538.049562
872.011463	2535.382792
872.322803	2538.074768
872.634101	2540.010571
872.945357	2539.934954
873.256571	2540.605427
873.567744	2539.506456
873.878874	2534.578728
874.189963	2538.939326
874.501010	2539.587114
874.812015	2539.410674
875.122979	2537.991589
875.433900	2541.207845
875.744780	2538.755324
876.055618	2536.517052
876.366415	2537.507638
876.677169	2541.348998
876.987882	2537.421939
877.298554	2536.378420
877.609183	2540.537372
877.919771	2535.949922
878.230317	2537.492515
878.540822	2542.982331
878.851285	2542.130376
879.161707	2544.724050
879.472087	2548.298228
879.782425	2549.286294
880.092722	2558.083108
880.402977	2567.867987
880.713191	2585.186871
881.023363	2607.055397
881.333494	2618.758435
881.643583	2622.244393
881.953631	2620.830350
882.263637	2616.129474
882.573602	2607.834255
882.883526	2596.857142
883.193408	2586.197623
883.503248	2582.721747
883.813048	2573.587176
884.122806	2568.684654
884.432522	2563.996381
884.742197	2555.890206
885.051831	2556.343910
885.361424	2550.889381
885.670975	2552.048847
885.980485	2547.484082
886.289954	2548.346119
886.599382	2546.375028
886.908768	2544.971067
887.218113	2541.875798
887.527417	2543.683052
887.836680	2539.856816
888.145901	2542.677342
888.455082	2539.163657
888.764221	2543.158772
889.073319	2537.744573
889.382376	2539.347659
889.691392	2536.524613
890.000366	2540.527289
890.309300	2539.403112
890.618193	2537.616023
890.927044	2541.885880
891.235855	2541.873278
891.544625	2538.127700
891.853353	2538.372196
892.162041	2540.590304
892.470687	2541.991745
892.779293	2543.637681
893.087858	2543.113401
893.396381	2542.120294
893.704864	2546.828732
894.013306	2548.784699
894.321707	2557.004301
894.630068	2565.445713
894.938387	2569.773543
895.246665	2564.608881
895.554903	2562.302553
895.863100	2558.060422
896.171256	2553.911553
896.479371	2553.677139
896.787446	2550.375183
897.095480	2546.987528
897.403473	2544.721529
897.711425	2545.447456
898.019336	2544.527445
898.327207	2544.282949
898.635038	2540.050900
898.942827	2542.977290
899.250576	2541.858154
899.558284	2539.176260
899.865952	2540.411343
900.173579	2537.875642
900.481165	2540.983514
900.788711	2539.420756
901.096216	2539.120807
901.403681	2539.914789
901.711105	2539.579552
902.018489	2538.102494
902.325832	2541.722043
902.633135	2538.304141
902.940397	2538.639377
903.247619	2541.563247
903.554800	2546.788403
903.861941	2559.698798
904.169041	2570.381002
904.476101	2577.186560
904.783121	2579.245872
905.090100	2571.966445
905.397039	2562.259704
905.703938	2558.982954
906.010796	2552.598332
906.317614	2547.897456
906.624391	2546.276725
906.931129	2545.944009
907.237826	2542.200953
907.544483	2538.495704
907.851099	2540.580222
908.157675	2537.948739
908.464211	2535.435724
908.770707	2534.737524
909.077163	2537.144675
909.383578	2531.627132
909.689954	2533.268028
909.996289	2533.076464
910.302584	2535.755837
910.608839	2538.551157
910.915054	2535.884387
911.221229	2535.690302
911.527363	2536.161650
911.833458	2533.772143
912.139513	2533.809952
912.445527	2536.161650
912.751502	2535.498738
913.057436	2536.799356
913.363331	2537.542926
913.669186	2538.513348
913.975000	2538.765406
914.280775	2540.633154
914.586510	2544.492157
914.892205	2548.290666
915.197859	2556.621173
915.503475	2557.770556
915.809050	2566.418656
916.114585	2570.607854
916.420081	2575.396951
916.725536	2574.350911
917.030952	2567.948646
917.336328	2564.707184
917.641665	2557.982285
917.946961	2558.597305
918.252218	2550.990204
918.557435	2550.612118
918.862612	2546.145655
919.167750	2544.759338
919.472848	2541.989224
919.777906	2542.884029
920.082925	2540.131559
920.387904	2542.778165
920.692843	2539.430838
920.997743	2539.839172
921.302603	2541.679193
921.607423	2538.420087
921.912204	2535.400436
922.216946	2535.639891
922.521647	2538.861188
922.826310	2538.626774
923.130932	2535.234078
923.435516	2534.266176
923.740059	2534.976979
924.044564	2534.225847
924.349028	2536.290200
924.653454	2528.975485
924.957840	2529.696370
925.262186	2528.531864
925.566493	2532.171577
925.870761	2531.264169
926.174989	2532.738707
926.479178	2532.872297
926.783328	2534.006557
927.087438	2532.259797
927.391509	2532.716022
927.695541	2532.862215
927.999533	2535.135775
928.303486	2531.901875
928.607400	2529.593027
928.911275	2532.090918
929.215110	2531.256607
929.518906	2530.215609
929.822663	2529.245187
930.126381	2530.409694
930.430060	2533.159643
930.733699	2532.710980
931.037299	2532.869777
931.340861	2530.863397
931.644383	2531.785929
931.947866	2529.726617
932.251309	2532.010260
932.554714	2531.576721
932.858080	2533.227699
933.161407	2531.894313
933.464694	2531.213758
933.767943	2532.695857
934.071153	2528.592358
934.374323	2529.615712
934.677455	2530.485311
934.980548	2529.487163
935.283602	2529.915661
935.586617	2529.328366
935.889593	2531.959848
936.192530	2529.386339
936.495428	2531.579241
936.798287	2531.909437
937.101108	2528.955321
937.403890	2533.560415
937.706632	2533.542771
938.009336	2532.053110
938.312002	2532.274921
938.614628	2534.220806
938.917216	2532.965559
939.219765	2534.437576
939.522275	2531.110414
939.824747	2535.438245
940.127179	2531.274252
940.429573	2532.698378
940.731929	2533.038655
941.034246	2529.494724
941.336524	2530.510517
941.638763	2531.206196
941.940964	2534.069571
942.243126	2532.733666
942.545250	2533.782226
942.847335	2531.707791
943.149381	2534.850950
943.451389	2533.245343
943.753359	2531.831299
944.055290	2533.809952
944.357182	2533.139478
944.659036	2533.787267
944.960851	2532.237112
945.262628	2532.219468
945.564367	2530.336597
945.866067	2533.557894
946.167729	2532.095960
946.469352	2533.212575
946.770937	2534.044366
947.072484	2531.692667
947.373992	2531.879190
947.675462	2530.921371
947.976893	2533.038655
948.278286	2530.187883
948.579641	2534.039324
948.880958	2531.057482
949.182236	2528.748633
949.483476	2528.690660
949.784678	2531.092770
950.085841	2533.767102
950.386967	2531.796011
950.688054	2533.071423
950.989103	2534.021680
951.290114	2530.734848
951.591087	2531.511186
951.892021	2530.218130
952.192917	2534.467822
952.493776	2531.793490
952.794596	2531.564118
953.095378	2528.867101
953.396122	2532.779036
953.696828	2530.654190
953.997496	2528.302491
954.298126	2529.653521
954.598718	2531.748120
954.899272	2528.292409
955.199788	2531.191073
955.500266	2529.666123
955.800706	2530.732328
956.101108	2531.077647
956.401472	2527.977337
956.701798	2527.621936
957.002087	2528.486493
957.302337	2529.628315
957.602550	2529.310722
957.902724	2529.688809
958.202861	2531.085208
958.502960	2529.164529
958.803022	2529.542615
959.103045	2526.979188
959.403031	2527.649662
959.702979	2529.923222
960.002889	2530.203006
960.302762	2528.972965
960.602596	2530.497914
960.902393	2526.802748
961.202153	2528.032790
961.501875	2528.799045
961.801559	2526.999353
962.101205	2527.669827
962.400814	2526.999353
962.700385	2529.774508
962.999918	2529.887934
963.299414	2528.748633
963.598873	2530.150074
963.898293	2527.868952
964.197677	2529.499765
964.497022	2530.470187
964.796331	2528.189065
965.095601	2529.484642
965.394835	2526.570855
965.694030	2531.412883
965.993189	2529.784591
966.292309	2527.359796
966.591393	2527.521113
966.890439	2528.478932
967.189447	2528.330218
967.488419	2527.848787
967.787353	2527.052285
968.086249	2528.718387
968.385108	2529.812317
968.683930	2532.469005
968.982714	2528.597399
969.281462	2529.386339
969.580172	2526.712007
969.878844	2527.937008
970.177480	2528.730989
970.476078	2529.300640
970.774639	2529.560259
971.073162	2527.984899
971.371649	2527.243849
971.670098	2526.061698
971.968510	2525.736544
972.266885	2523.442819
972.565223	2527.909281
972.863524	2529.391381
973.161788	2530.392050
973.460014	2530.170239
973.758204	2531.165867
974.056356	2530.618902
974.354471	2528.985568
974.652550	2527.856349
974.950591	2527.939528
975.248595	2527.390043
975.546563	2530.507996
975.844493	2528.756195
976.142386	2529.187214
976.440243	2527.165711
976.738062	2528.753675
977.035845	2528.806607
977.333590	2526.979188
977.631299	2527.906761
977.928971	2528.511699
978.226606	2527.937008
978.524204	2531.929602
978.821765	2526.928777
979.119290	2527.143026
979.416777	2526.626308
979.714228	2529.451874
980.011642	2528.100845
980.309020	2530.966741
980.606360	2527.074970
980.903664	2529.948428
981.200931	2529.814837
981.498162	2527.717718
981.795356	2527.193438
982.092513	2531.173428
982.389633	2530.583613
982.686717	2530.021525
982.983764	2529.696370
983.280775	2529.623274
983.577749	2531.201155
983.874686	2532.428676
984.171587	2529.585465
984.468451	2530.651669
984.765279	2528.783922
985.062070	2529.151926
985.358824	2528.113448
985.655543	2527.415248
985.952224	2527.952131
986.248869	2526.820392
986.545478	2524.327542
986.842050	2527.569003
987.138586	2522.308559
987.435086	2523.669671
987.731549	2523.175638
988.027975	2526.391894
988.324366	2526.573376
988.620719	2528.615043
988.917037	2525.292923
989.213318	2528.052954
989.509563	2526.676719
989.805772	2526.739734
990.101944	2527.861390
990.398080	2526.127233
990.694180	2524.330062
990.990244	2526.036493
991.286271	2527.357275
991.582262	2528.335259
991.878217	2525.529857
992.174136	2526.981709
992.470019	2526.550690
992.765865	2528.458767
993.061676	2526.361647
993.357450	2529.262831
993.653188	2527.180835
993.948890	2527.763088
994.244556	2526.659075
994.540186	2528.269724
994.835780	2524.302336
995.131337	2527.195958
995.426859	2526.903571
995.722345	2527.460619
996.017795	2524.879548
996.313208	2529.020856
996.608586	2526.868283
996.903928	2527.291740
997.199234	2528.249559
997.494504	2528.970444
997.789738	2528.869621
998.084936	2529.703932
998.380099	2526.175124
998.675225	2528.121010
998.970316	2529.973634
999.265371	2527.422810
999.560390	2525.149250
999.855373	2526.928777
1000.150320	2527.969775
1000.445232	2529.928263
1000.740108	2527.959693
1001.034948	2526.827954
1001.329752	2524.854342
1001.624521	2528.373067
1001.919254	2524.438447
1002.213951	2525.318128
1002.508613	2524.365350
1002.803239	2525.728982
1003.097829	2522.686646
1003.392384	2525.378622
1003.686903	2526.974147
1003.981386	2527.937008
1004.275834	2525.406348
1004.570246	2528.796524
1004.864623	2527.702594
1005.158964	2526.664116
1005.453270	2526.442306
1005.747540	2524.536749
1006.041775	2527.531195
1006.335974	2524.766122
1006.630138	2526.396935
1006.924266	2527.816020
1007.218359	2524.834178
1007.512416	2526.044054
1007.806438	2526.033972
1008.100425	2525.849970
1008.394376	2523.757891
1008.688292	2525.562624
1008.982172	2526.273427
1009.276017	2525.058509
1009.569827	2526.454908
1009.863602	2529.288037
1010.157341	2526.379291
1010.451045	2527.143026
1010.744714	2527.737882
1011.038347	2524.763601
1011.331945	2528.317615
1011.625508	2526.936339
1011.919036	2530.336597
1012.212528	2526.858201
1012.505986	2527.649662
1012.799408	2525.560104
1013.092795	2526.938859
1013.386147	2524.738396
1013.679464	2524.985412
1013.972745	2528.869621
1014.265992	2526.190248
1014.559204	2527.505989
1014.852380	2526.205371
1015.145521	2528.136133
1015.438628	2528.310053
1015.731699	2525.955834
1016.024736	2527.261493
1016.317737	2528.431041
1016.610703	2529.071267
1016.903635	2522.752181
1017.196531	2521.532222
1017.489393	2524.753519
1017.782219	2522.185051
1018.075011	2522.875689
1018.367768	2526.911133
1018.660490	2525.625639
1018.953177	2525.625639
1019.245829	2525.625639
