Dividing Wavelength (nm)	Counts (n)	Blue Motor Position (mm): 0.000000	Red Motor Position (mm): 11.000000	
326.493990	2129.428755
326.888308	2129.428755
327.282561	2129.428755
327.676750	2096.941039
328.070874	2095.496748
328.464933	2097.457757
328.858929	2102.584611
329.252859	2113.806219
329.646726	2124.906840
330.040528	2138.122225
330.434265	2157.462612
330.827938	2171.633295
331.221547	2191.999557
331.615091	2208.496733
332.008571	2228.673951
332.401986	2249.740933
332.795338	2266.482605
333.188625	2286.080090
333.581847	2305.004582
333.975006	2324.171049
334.368100	2341.333657
334.761129	2361.021883
335.154095	2377.221631
335.546996	2391.576317
335.939833	2407.662639
336.332606	2424.989084
336.725315	2434.259766
337.117960	2446.212342
337.510540	2452.241562
337.903056	2463.929477
338.295508	2473.351394
338.687896	2481.555872
339.080220	2488.822695
339.472480	2494.035248
339.864676	2501.866681
340.256807	2505.224089
340.648875	2508.382372
341.040879	2512.374966
341.432818	2511.792713
341.824694	2513.189112
342.216506	2516.712879
342.608253	2513.451252
342.999937	2513.300017
343.391557	2511.759945
343.783113	2513.148783
344.174605	2512.160717
344.566033	2508.170643
344.957397	2509.932527
345.348697	2506.648215
345.739934	2508.231137
346.131106	2503.663852
346.522215	2502.234685
346.913260	2499.971207
347.304241	2497.206134
347.695159	2496.253356
348.086012	2494.952738
348.476802	2492.588437
348.867528	2489.909064
349.258191	2490.219095
349.648789	2488.951244
350.039324	2487.375884
350.429796	2488.331182
350.820203	2484.187354
351.210548	2484.058805
351.600828	2483.100985
351.991045	2483.975626
352.381198	2482.848928
352.771288	2483.917652
353.161314	2480.908083
353.551276	2480.948413
353.941175	2478.788278
354.331010	2482.712817
354.720782	2480.401448
355.110490	2482.034781
355.500135	2480.910604
355.889717	2482.375059
356.279235	2482.569144
356.668689	2484.207519
357.058080	2483.998311
357.447408	2480.063690
357.836672	2478.120325
358.225873	2482.271716
358.615010	2479.640233
359.004084	2484.751963
359.393095	2484.981336
359.782043	2487.683394
360.170927	2483.143835
360.559748	2487.789258
360.948505	2485.908908
361.337199	2487.708600
361.725830	2487.343116
362.114398	2490.335041
362.502903	2491.023159
362.891344	2487.179279
363.279722	2490.700525
363.668037	2493.369816
364.056289	2492.439723
364.444478	2494.607419
364.832603	2494.302429
365.220665	2494.045330
365.608665	2494.892244
365.996601	2494.544405
366.384474	2497.369971
366.772284	2498.484066
367.160031	2494.988026
367.547715	2499.220075
367.935336	2500.984479
368.322893	2505.980262
368.710388	2507.913545
369.097820	2514.986283
369.485189	2518.126922
369.872495	2522.384177
370.259738	2528.771319
370.646918	2535.332380
371.034035	2542.044677
371.421090	2550.927190
371.808081	2566.151474
372.195010	2570.330591
372.581875	2583.976994
372.968678	2598.981989
373.355418	2608.343412
373.742096	2625.939559
374.128710	2644.077631
374.515262	2656.078097
374.901751	2669.696774
375.288177	2683.892664
375.674540	2708.909390
376.060841	2726.150136
376.447079	2742.942219
376.833254	2764.162956
377.219367	2776.256684
377.605417	2814.589618
377.991404	2823.028510
378.377329	2846.016171
378.763191	2861.679036
379.148991	2896.919222
379.534727	2924.186823
379.920402	2951.182202
380.306013	2965.022690
380.691563	3012.916172
381.077049	3032.208668
381.462474	3048.579815
381.847835	3083.893098
382.233134	3102.230295
382.618371	3099.994543
383.003545	3163.384532
383.388657	3162.719100
383.773706	3189.396886
384.158693	3195.436188
384.543618	3216.309086
384.928480	3238.853126
385.313280	3271.096346
385.698017	3259.864655
386.082692	3297.396046
386.467305	3286.358439
386.851856	3299.969555
387.236344	3307.995072
387.620770	3315.423212
388.005133	3318.452945
388.389435	3323.297494
388.773674	3317.192657
389.157851	3326.259172
389.541965	3318.183243
389.926018	3273.221192
390.310008	3298.807569
390.693936	3290.693832
391.077802	3292.503606
391.461606	3260.056219
391.845348	3275.358642
392.229027	3244.721029
392.612645	3226.101527
392.996200	3241.116604
393.379694	3232.622260
393.763125	3235.828434
394.146494	3184.950588
394.529801	3181.709127
394.913047	3171.523475
395.296230	3125.734675
395.679351	3118.777882
396.062410	3093.078080
396.445408	3054.362019
396.828343	3029.403266
397.211217	3006.584483
397.594028	2949.475772
397.976778	2940.890687
398.359466	2918.991914
398.742092	2897.929974
399.124656	2854.775176
399.507158	2847.868795
399.889598	2825.758295
400.271977	2808.920841
400.654294	2783.208436
401.036549	2760.825712
401.418742	2736.436610
401.800874	2728.348079
402.182944	2712.531459
402.564952	2700.523430
402.946898	2679.179185
403.328783	2664.269972
403.710606	2644.985038
404.092367	2640.458082
404.474067	2627.015845
404.855705	2618.461007
405.237282	2600.277565
405.618797	2595.470825
406.000250	2587.588981
406.381642	2581.968095
406.762972	2572.624316
407.144240	2565.327246
407.525447	2560.394477
407.906593	2555.015566
408.287677	2554.168652
408.668700	2543.680531
409.049661	2543.501570
409.430560	2539.791281
409.811399	2536.408667
410.192176	2536.176774
410.572891	2531.974972
410.953545	2530.452543
411.334138	2531.377595
411.714669	2528.312574
412.095139	2528.415917
412.475547	2527.483304
412.855894	2526.742254
413.236180	2526.976668
413.616405	2525.746626
413.996568	2524.481297
414.376670	2524.569517
414.756711	2525.552542
415.136691	2526.943900
415.516609	2520.476100
415.896466	2525.161853
416.276262	2522.850483
416.655997	2521.194464
417.035670	2519.238497
417.415283	2524.987933
417.794834	2520.692870
418.174324	2523.926770
418.553753	2526.419620
418.933121	2521.108765
419.312428	2524.945083
419.691674	2527.654703
420.070859	2526.593540
420.449983	2524.463653
420.829045	2526.568334
421.208047	2524.798889
421.586988	2523.664630
421.965867	2524.521626
422.344686	2524.284692
422.723444	2524.703107
423.102141	2525.912984
423.480777	2526.769981
423.859352	2523.788138
424.237866	2527.158149
424.616319	2525.819723
424.994712	2525.923067
425.373044	2528.657893
425.751314	2525.219826
426.129524	2523.755371
426.507673	2528.047913
426.885762	2524.922398
427.263789	2526.351565
427.641756	2523.137829
428.019662	2526.081863
428.397508	2527.206040
428.775292	2531.463295
429.153016	2526.991791
429.530679	2528.647810
429.908282	2525.439116
430.285824	2524.952645
430.663305	2529.509848
431.040726	2528.688140
431.418086	2529.262831
431.795385	2527.175793
432.172624	2526.028931
432.549802	2530.467667
432.926920	2527.208561
433.303977	2529.804755
433.680974	2527.732841
434.057910	2528.355423
434.434786	2529.953469
434.811601	2527.639580
435.188355	2527.009435
435.565050	2530.573531
435.941683	2525.764270
436.318257	2528.733510
436.694770	2524.728313
437.071222	2528.010104
437.447614	2525.222346
437.823946	2525.703777
438.200218	2526.782583
438.576429	2529.739220
438.952580	2528.899868
439.328670	2531.624612
439.704700	2531.158305
440.080670	2529.368695
440.456580	2531.206196
440.832429	2532.247194
441.208218	2530.601257
441.583947	2529.267872
441.959616	2531.478418
442.335224	2527.546318
442.710773	2530.601257
443.086261	2530.797863
443.461689	2533.673841
443.837057	2530.462626
444.212365	2530.729807
444.587612	2532.085877
444.962800	2532.053110
445.337927	2533.288192
445.712995	2530.550846
446.088002	2530.137471
446.462949	2529.204858
446.837837	2532.882380
447.212664	2533.522606
447.587431	2532.466484
447.962139	2533.429345
448.336786	2535.851619
448.711374	2536.275076
449.085901	2534.435055
449.460369	2532.542102
449.834776	2533.943542
450.209124	2536.035621
450.583412	2533.169725
450.957640	2536.212062
451.331808	2535.468492
451.705917	2533.762061
452.079965	2536.227185
452.453954	2533.494880
452.827883	2534.823224
453.201752	2531.866587
453.575562	2534.921526
453.949311	2533.600744
454.323001	2534.298944
454.696632	2535.166022
455.070202	2538.294058
455.443713	2532.673172
455.817164	2532.690816
456.190556	2530.722245
456.563888	2534.913965
456.937160	2529.603109
457.310373	2535.607123
457.683526	2535.551671
458.056619	2535.173584
458.429653	2533.323481
458.802628	2537.119469
459.175542	2537.570653
459.548398	2535.889428
459.921194	2534.654345
460.293930	2537.973945
460.666607	2538.883873
461.039224	2538.959491
461.411782	2536.592669
461.784280	2540.096271
462.156719	2539.952598
462.529099	2541.222969
462.901419	2538.435211
463.273680	2539.798843
463.645882	2539.120808
464.018024	2538.372196
464.390106	2539.108205
464.762130	2538.636857
465.134094	2543.461241
465.505999	2540.635674
465.877845	2545.906201
466.249631	2548.015923
466.621358	2543.695655
466.993026	2547.274874
467.364634	2550.705379
467.736184	2542.904193
468.107674	2542.319420
468.479105	2542.924358
468.850477	2544.063659
469.221790	2544.154400
469.593043	2540.756662
469.964238	2544.232538
470.335373	2540.645757
470.706449	2541.858154
471.077467	2541.651467
471.448425	2546.455686
471.819324	2545.243289
472.190164	2547.761345
472.560945	2545.344112
472.931667	2541.709440
473.302330	2541.671631
473.672934	2539.234233
474.043479	2542.072403
474.413965	2539.856816
474.784393	2538.609130
475.154761	2541.419574
475.525070	2539.146013
475.895321	2539.486291
476.265513	2536.970755
476.635645	2541.026364
477.005719	2539.082999
477.375734	2541.437218
477.745691	2543.705737
478.115588	2546.642209
478.485427	2543.977959
478.855207	2545.175233
479.224928	2547.718495
479.594591	2549.092210
479.964194	2546.390151
480.333739	2548.378887
480.703226	2546.128011
481.072653	2548.792261
481.442022	2545.707075
481.811333	2546.589277
482.180584	2546.488454
482.549777	2548.121788
482.918912	2545.868392
483.287988	2547.161448
483.657005	2545.747404
484.025964	2544.653474
484.394864	2545.805378
484.763706	2547.854607
485.132489	2546.644730
485.501213	2545.087013
485.869879	2547.136242
486.238487	2543.244471
486.607036	2545.898639
486.975527	2544.948381
487.343959	2545.760007
487.712333	2548.431819
488.080648	2547.562220
488.448905	2545.192877
488.817104	2544.850079
489.185244	2544.393854
489.553326	2547.128680
489.921350	2545.785213
490.289315	2548.026006
490.657222	2550.919628
491.025070	2549.321582
491.392861	2548.517518
491.760593	2545.520552
492.128267	2550.007179
492.495883	2546.669935
492.863440	2548.620862
493.230939	2548.620862
493.598380	2547.151366
493.965763	2542.004348
494.333088	2544.892929
494.700354	2543.494008
495.067563	2544.839997
495.434713	2540.403781
495.801805	2546.254040
496.168839	2543.637681
496.535815	2550.342416
496.902733	2546.430481
497.269593	2547.347971
497.636395	2545.979297
498.003139	2547.262271
498.369825	2545.664225
498.736453	2546.034750
499.103023	2548.134391
499.469535	2545.739842
499.835989	2545.142466
500.202385	2545.858310
500.568723	2545.855789
500.935003	2549.009031
501.301226	2548.852755
501.667390	2545.891077
502.033497	2547.368135
502.399546	2548.603218
502.765537	2546.279246
503.131470	2545.835624
503.497345	2546.526262
503.863163	2546.344781
504.228923	2549.918959
504.594625	2547.549617
504.960269	2546.498536
505.325856	2548.232693
505.691385	2547.574823
506.056856	2550.193702
506.422270	2547.637837
506.787625	2545.949050
507.152924	2545.470141
507.518164	2549.276212
507.883347	2547.461397
508.248472	2548.194884
508.613540	2545.863351
508.978550	2546.831252
509.343503	2546.664894
509.708398	2549.482899
510.073236	2547.942827
510.438016	2550.100441
510.802738	2546.266643
511.167403	2546.831252
511.532010	2547.068187
511.896561	2547.481561
512.261053	2549.397200
512.625488	2546.942158
512.989866	2544.832435
513.354186	2545.941489
513.718449	2540.963349
514.082655	2548.015923
514.446803	2545.475182
514.810894	2544.938299
515.174927	2549.235883
515.538904	2548.983825
515.902822	2550.733105
516.266684	2548.633465
516.630488	2549.664381
516.994235	2549.543393
517.357925	2549.545914
517.721558	2551.882488
518.085133	2549.445091
518.448651	2547.620193
518.812112	2547.668084
519.175516	2548.406613
519.538863	2549.767724
519.902152	2548.580533
520.265385	2547.743701
520.628560	2548.041129
520.991678	2546.632127
521.354739	2546.390151
521.717743	2550.375183
522.080690	2552.121943
522.443580	2548.164638
522.806413	2548.840152
523.169189	2549.155224
523.531908	2552.406768
523.894569	2547.252189
524.257174	2550.599515
524.619722	2551.781665
524.982213	2551.297715
525.344647	2549.624052
525.707025	2551.791748
526.069345	2548.653629
526.431608	2547.658002
526.793815	2549.800492
527.155964	2551.499361
527.518057	2549.135060
527.880093	2549.921480
528.242072	2547.625234
528.603995	2550.130687
528.965860	2550.498692
529.327669	2550.443239
529.689421	2548.232693
530.051117	2550.234031
530.412755	2549.760163
530.774337	2550.644885
531.135862	2549.883671
531.497331	2546.193546
531.858743	2546.488454
532.220098	2547.897456
532.581396	2545.167672
532.942638	2546.682538
533.303824	2551.547252
533.664953	2550.299566
534.026025	2549.908877
534.387040	2550.501212
534.747999	2548.242775
535.108902	2550.286963
535.469748	2549.291335
535.830537	2551.988353
536.191270	2550.322251
536.551947	2553.750236
536.912567	2546.707744
537.273131	2550.536500
537.633638	2547.332847
537.994089	2551.244783
538.354483	2550.100441
538.714821	2549.082127
539.075103	2549.525749
539.435328	2550.780996
539.795497	2549.056922
540.155609	2554.554300
540.515665	2552.555483
540.875665	2552.121943
541.235609	2549.286294
541.595496	2551.847200
541.955328	2548.646068
542.315102	2550.861655
542.674821	2550.970040
543.034483	2551.746377
543.394090	2547.562220
543.753640	2551.917777
544.113134	2550.612118
544.472571	2548.436860
544.831953	2550.105482
545.191278	2551.204453
545.550548	2548.676315
545.909761	2549.750080
546.268918	2549.752601
546.628019	2552.003476
546.987064	2552.074052
547.346053	2550.980122
547.704986	2550.677653
548.063863	2550.856614
548.422684	2552.552962
548.781449	2549.825698
549.140158	2549.775286
549.498811	2552.948693
549.857408	2552.081614
550.215949	2550.423074
550.574434	2546.312013
550.932864	2550.874258
551.291237	2543.788916
551.649555	2552.618497
552.007817	2550.738147
552.366022	2551.446429
552.724173	2547.640358
553.082267	2549.813095
553.440305	2548.709082
553.798288	2549.974412
554.156215	2551.887530
554.514086	2553.112530
554.871902	2552.285781
555.229661	2550.539021
555.587365	2550.052550
555.945014	2550.362581
556.302606	2551.564896
556.660143	2551.277550
557.017625	2550.201264
557.375050	2550.559186
557.732421	2548.320913
558.089735	2552.928528
558.446994	2550.428116
558.804197	2551.491799
559.161345	2549.094730
559.518437	2552.079093
559.875474	2550.365101
560.232455	2549.155224
560.589381	2551.370811
560.946251	2550.423074
561.303065	2551.242262
561.659825	2551.721172
562.016528	2550.982643
562.373177	2552.192519
562.729770	2552.817622
563.086307	2549.429967
563.442789	2551.030533
563.799216	2548.673794
564.155587	2549.026675
564.511904	2553.238559
564.868164	2552.018600
565.224370	2550.286963
565.580520	2548.880481
565.936615	2549.528270
566.292654	2550.959957
566.648638	2550.501212
567.004567	2548.784699
567.360441	2553.513302
567.716260	2548.451983
568.072023	2550.909546
568.427732	2544.610624
568.783385	2549.072045
569.138982	2545.475182
569.494525	2548.759494
569.850013	2546.705223
570.205445	2551.950544
570.560823	2549.172868
570.916145	2549.724875
571.271412	2550.680173
571.626625	2553.228477
571.981782	2550.596994
572.336884	2550.571788
572.691931	2549.465255
573.046923	2547.037940
573.401860	2551.007848
573.756743	2548.283105
574.111570	2550.695297
574.466342	2549.641696
574.821059	2552.943651
575.175722	2547.237065
575.530330	2551.264947
575.884882	2550.851572
576.239380	2549.830739
576.593823	2552.058929
576.948211	2550.571788
577.302544	2547.385779
577.656823	2551.375852
578.011047	2550.609597
578.365216	2552.220246
578.719330	2547.002652
579.073389	2548.711603
579.427394	2550.806202
579.781344	2550.909546
580.135239	2548.502395
580.489080	2549.419885
580.842866	2550.803682
581.196597	2549.248486
581.550273	2548.184802
581.903895	2549.440049
582.257463	2551.484237
582.610975	2546.783361
582.964434	2551.393497
583.317837	2545.631458
583.671186	2549.770245
584.024481	2551.703528
584.377721	2550.392827
584.730906	2550.231511
585.084037	2550.617159
585.437113	2549.162786
585.790135	2554.108158
586.143103	2551.171686
586.496016	2549.077086
586.848874	2546.208670
587.201679	2546.475851
587.554428	2545.696993
587.907124	2543.728422
588.259765	2545.767569
588.612352	2549.109854
588.964884	2548.252858
589.317362	2549.881150
589.669786	2549.631613
590.022155	2550.327293
590.374470	2546.609442
590.726731	2548.451983
591.078937	2548.666232
591.431090	2550.992725
591.783188	2548.552806
592.135232	2550.503733
592.487222	2549.626572
592.839157	2550.150852
593.191038	2550.596994
593.542866	2548.842673
593.894639	2550.102961
594.246358	2551.998435
594.598022	2550.289484
594.949633	2548.275543
595.301190	2546.874102
595.652692	2551.348126
596.004141	2549.117416
596.355535	2549.392158
596.706876	2547.705893
597.058162	2547.673125
597.409395	2547.902498
597.760573	2547.126160
598.111698	2547.148845
598.462768	2551.015410
598.813785	2549.455173
599.164748	2548.895605
599.515657	2548.479710
599.866511	2547.847045
600.217312	2547.950388
600.568060	2547.617672
600.918753	2552.091696
601.269392	2548.744370
601.619978	2547.554658
601.970510	2548.162117
602.320988	2548.434339
602.671412	2549.056922
603.021783	2548.119267
603.372100	2549.482899
603.722363	2548.686397
604.072572	2548.194884
604.422728	2550.478527
604.772830	2547.070707
605.122878	2544.005686
605.472872	2543.715819
605.822813	2542.032074
606.172701	2547.554658
606.522534	2546.564071
606.872314	2549.707231
607.222041	2547.461397
607.571714	2547.088351
607.921333	2548.124308
608.270899	2549.331665
608.620411	2546.750594
608.969870	2551.113713
609.319276	2551.451470
609.668627	2549.555996
610.017926	2553.432643
610.367171	2557.377346
610.716362	2554.279557
611.065500	2555.557490
611.414585	2549.520708
611.763616	2553.490617
612.112594	2552.182437
612.461518	2550.085317
612.810389	2548.066335
613.159207	2550.286963
613.507971	2550.211346
613.856682	2549.926521
614.205340	2547.395862
614.553945	2550.851572
614.902496	2549.228321
615.250994	2547.063145
615.599439	2550.037426
615.947830	2548.807385
616.296169	2548.131870
616.644454	2550.697817
616.992686	2550.402910
617.340864	2546.944678
617.688990	2547.552137
618.037063	2547.136242
618.385082	2549.548434
618.733048	2548.825029
619.080961	2548.608259
619.428821	2547.252189
619.776628	2550.135729
620.124382	2549.911397
620.472083	2548.026006
620.819731	2549.135060
621.167326	2546.528783
621.514868	2545.888557
621.862357	2546.979966
622.209793	2545.878474
622.557176	2546.375028
622.904506	2544.351005
623.251783	2543.758669
623.599007	2545.956612
623.946179	2542.763041
624.293297	2545.369318
624.640363	2545.921324
624.987376	2548.048691
625.334336	2547.612631
625.681243	2546.357384
626.028097	2544.645912
626.374899	2547.237065
626.721647	2545.641540
627.068343	2547.549617
627.414987	2547.965512
627.761577	2546.133052
628.108115	2549.465255
628.454600	2546.017106
628.801032	2545.152548
629.147412	2547.390820
629.493739	2544.287990
629.840014	2546.992569
630.186236	2548.401572
630.532405	2547.922662
630.878521	2546.990049
631.224585	2546.674977
631.570597	2548.792261
631.916556	2545.094575
632.262462	2544.623227
632.608316	2544.459389
632.954117	2545.550799
633.299866	2548.038609
633.645562	2545.868392
633.991206	2548.598177
634.336797	2547.068187
634.682336	2548.434339
635.027823	2543.345294
635.373257	2545.578526
635.718639	2542.773123
636.063968	2547.257230
636.409245	2547.549617
636.754470	2544.842517
637.099642	2543.856972
637.444762	2545.742363
637.789829	2544.252702
638.134845	2541.684234
638.479808	2546.047353
638.824719	2543.622558
639.169577	2544.973587
639.514383	2543.675490
639.859137	2542.299255
640.203839	2544.797147
640.548489	2544.550130
640.893086	2544.509801
641.237632	2538.722556
641.582125	2539.695499
641.926566	2539.493853
642.270955	2543.630120
642.615292	2542.727753
642.959576	2542.886549
643.303809	2544.713968
643.647990	2544.744215
643.992118	2540.696168
644.336195	2543.365459
644.680219	2544.761859
645.024192	2546.364946
645.368112	2543.499050
645.711981	2544.572815
646.055797	2544.091385
646.399562	2543.851930
646.743274	2545.840666
647.086935	2546.259081
647.430544	2546.128011
647.774101	2545.087013
648.117606	2545.644061
648.461059	2545.276056
648.804460	2543.347815
649.147810	2544.295552
649.491108	2542.803370
649.834354	2542.034594
650.177548	2542.866385
650.520690	2545.908721
650.863781	2541.381765
651.206820	2548.086500
651.549807	2543.985521
651.892742	2543.814122
652.235626	2545.699513
652.578458	2542.160623
652.921238	2540.305479
653.263967	2543.506611
653.606644	2544.199770
653.949269	2543.120963
654.291843	2541.999306
654.634365	2539.960160
654.976836	2541.984183
655.319255	2545.528114
655.661622	2545.278577
656.003938	2542.763041
656.346203	2540.368493
656.688416	2540.582742
657.030577	2544.388813
657.372687	2540.925541
657.714746	2545.260933
658.056753	2540.156765
658.398708	2539.498894
658.740612	2539.095602
659.082465	2538.964532
659.424266	2538.989738
659.766016	2539.876981
660.107715	2543.993083
660.449362	2542.697506
660.790958	2541.533000
661.132503	2542.463093
661.473996	2544.237579
661.815438	2542.107691
662.156829	2542.717671
662.498168	2543.052907
662.839456	2544.028371
663.180693	2541.684234
663.521879	2543.118442
663.863013	2542.901673
664.204097	2540.048380
664.545129	2542.014430
664.886110	2543.516694
665.227040	2542.163144
665.567918	2544.378731
665.908746	2544.063659
666.249522	2546.256561
666.590248	2543.869574
666.930922	2542.894111
667.271545	2543.741025
667.612118	2543.138607
667.952639	2542.105171
668.293109	2542.568957
668.633528	2543.103319
668.973896	2540.708771
669.314213	2542.016950
669.654480	2543.627599
669.994695	2540.423946
670.334859	2542.727753
670.674973	2540.474357
671.015035	2543.776313
671.355047	2538.581404
671.695008	2541.989224
672.034918	2541.341436
672.374777	2543.488967
672.714585	2545.901159
673.054342	2541.442259
673.394049	2540.980993
673.733705	2541.280942
674.073310	2540.081147
674.412864	2544.925696
674.752368	2539.859337
675.091820	2543.635161
675.431223	2541.933771
675.770574	2543.294883
676.109875	2537.520241
676.449125	2540.423946
676.788324	2536.937988
677.127473	2539.622402
677.466571	2536.605272
677.805619	2542.274049
678.144616	2541.318751
678.483562	2545.097095
678.822458	2538.551157
679.161303	2542.100129
679.500098	2542.354708
679.838842	2539.856816
680.177535	2541.870757
680.516179	2540.040818
680.854771	2541.953936
681.193314	2541.238092
681.531805	2539.990407
681.870247	2542.180788
682.208638	2542.102650
682.546978	2542.974770
682.885268	2540.960829
683.223508	2541.560726
683.561697	2541.835469
683.899836	2541.777496
684.237925	2542.939482
684.575963	2542.778165
684.913951	2541.742207
685.251889	2543.400747
685.589776	2541.469985
685.927614	2541.273380
686.265401	2541.298586
686.603137	2543.569626
686.940824	2541.185160
687.278460	2543.730943
687.616046	2542.790767
687.953582	2545.636499
688.291068	2542.531148
688.628504	2539.710623
688.965889	2542.561395
689.303224	2539.713143
689.640510	2540.749100
689.977745	2543.282280
690.314930	2541.417053
690.652065	2542.256405
690.989150	2540.398740
691.326185	2542.163144
691.663170	2539.564429
692.000105	2543.599873
692.336990	2541.608617
692.673825	2539.065355
693.010610	2539.211548
693.347345	2538.533513
693.684030	2539.607279
694.020665	2539.322454
694.357251	2534.805580
694.693786	2538.752803
695.030272	2537.013605
695.366707	2538.866229
695.703093	2538.649460
696.039429	2539.854295
696.375716	2542.430325
696.711952	2540.222300
697.048139	2538.573842
697.384276	2542.505942
697.720363	2541.477547
698.056400	2542.016950
698.392388	2542.894111
698.728326	2537.994110
699.064214	2538.846065
699.400053	2539.788760
699.735842	2537.001002
700.071581	2540.590304
700.407270	2538.843544
700.742910	2541.175078
701.078501	2542.453010
701.414042	2540.595345
701.749533	2538.006713
702.084974	2539.861857
702.420366	2538.432690
702.755709	2537.653832
703.091002	2539.614841
703.426246	2539.826569
703.761440	2538.709953
704.096584	2539.284645
704.431679	2538.805735
704.766725	2538.921682
705.101721	2540.323123
705.436668	2538.034439
705.771565	2542.183308
706.106413	2540.302958
706.441212	2538.352032
706.775961	2541.543082
707.110661	2539.022505
707.445311	2541.094419
707.779913	2537.663914
708.114465	2540.776827
708.448967	2538.747762
708.783421	2540.179450
709.117825	2538.465458
709.452180	2539.783719
709.786485	2539.819007
710.120742	2538.220962
710.454949	2541.164995
710.789107	2536.635519
711.123216	2536.958152
711.457275	2537.225334
711.791286	2537.245498
712.125247	2536.975797
712.459159	2538.780530
712.793023	2539.335057
713.126837	2538.019315
713.460602	2540.358411
713.794318	2539.017464
714.127985	2541.739687
714.461602	2541.195242
714.795171	2540.625592
715.128691	2540.980993
715.462162	2539.395550
715.795584	2539.705581
716.128957	2538.513348
716.462281	2537.800025
716.795556	2536.549819
717.128782	2538.959491
717.461960	2539.110725
717.795088	2539.425797
718.128167	2538.410005
718.461198	2538.581404
718.794180	2538.641898
719.127113	2540.640715
719.459997	2536.675848
719.792833	2538.904038
720.125619	2536.060827
720.458357	2538.210879
720.791046	2537.137113
721.123686	2539.098122
721.456278	2537.489994
721.788821	2535.518903
722.121315	2541.800181
722.453761	2537.628626
722.786158	2538.770447
723.118506	2538.289017
723.450805	2536.892617
723.783056	2538.193235
724.115259	2535.564273
724.447412	2536.171733
724.779518	2538.830941
725.111574	2538.042001
725.443582	2536.890097
725.775542	2540.141641
726.107453	2536.943029
726.439315	2538.520910
726.771129	2540.534851
727.102895	2540.207176
727.434612	2539.161137
727.766281	2537.961342
728.097901	2536.091074
728.429473	2534.901362
728.760996	2536.562422
729.092471	2536.456558
729.423897	2541.291024
729.755276	2537.472350
730.086606	2538.669624
730.417887	2540.088709
730.749120	2536.738862
731.080305	2537.679037
731.411442	2538.309182
731.742530	2537.847916
732.073570	2535.521424
732.404562	2537.300951
732.735506	2539.307330
733.066401	2536.002854
733.397249	2539.430838
733.728048	2538.294058
734.058798	2537.318595
734.389501	2537.628626
734.720156	2537.595858
735.050762	2538.505787
735.381320	2539.040149
735.711831	2538.382278
736.042293	2536.282638
736.372707	2538.984696
736.703073	2536.564943
737.033391	2536.539737
737.363661	2536.844727
737.693883	2537.633667
738.024056	2541.222969
738.354182	2538.813297
738.684260	2536.411187
739.014290	2537.222813
739.344272	2537.767258
739.674207	2537.031249
740.004093	2538.722556
740.333931	2539.302289
740.663722	2537.633667
740.993464	2539.899666
741.323159	2537.066537
741.652806	2539.650129
741.982405	2539.549306
742.311956	2536.600231
742.641460	2536.859850
742.970915	2538.503266
743.300323	2536.103677
743.629683	2538.467978
743.958996	2537.759696
744.288260	2539.587114
744.617477	2537.220292
744.946647	2531.304498
745.275768	2535.770961
745.604842	2534.261135
745.933869	2533.106711
746.262847	2532.158974
746.591778	2538.767927
746.920662	2537.323636
747.249498	2539.539223
747.578286	2536.892618
747.907027	2537.164840
748.235720	2536.060827
748.564365	2535.536547
748.892963	2536.764068
749.221514	2537.648791
749.550017	2533.782226
749.878473	2536.585107
750.206881	2537.547967
750.535242	2536.222144
750.863555	2534.072092
751.191821	2536.161650
751.520039	2537.938657
751.848210	2537.346321
752.176334	2536.297761
752.504411	2537.434542
752.832440	2535.922195
753.160421	2538.541075
753.488356	2538.369676
753.816243	2538.452855
754.144082	2537.472350
754.471875	2534.001516
754.799620	2537.984027
755.127318	2535.002185
755.454969	2537.147196
755.782572	2535.725590
756.110129	2535.375230
756.437638	2536.103677
756.765100	2533.890610
757.092515	2536.045704
757.419882	2536.638039
757.747203	2535.700385
758.074477	2536.842206
758.401703	2537.575694
758.728882	2534.669469
759.056014	2535.223996
759.383099	2535.085364
759.710138	2537.157278
760.037129	2539.463606
760.364073	2539.874460
760.690970	2537.391692
761.017820	2536.204500
761.344623	2537.474871
761.671379	2537.840354
761.998088	2534.213244
762.324751	2534.036804
762.651366	2535.357586
762.977935	2538.331867
763.304456	2533.532688
763.630931	2538.190715
763.957359	2536.849768
764.283740	2539.945036
764.610074	2538.896476
764.936362	2536.567463
765.262602	2535.266845
765.588796	2536.995961
765.914943	2534.487987
766.241044	2535.458409
766.567097	2536.053265
766.893104	2537.109387
767.219064	2536.295241
767.544978	2537.091743
767.870845	2533.938501
768.196665	2535.289531
768.522438	2534.636701
768.848165	2535.725590
769.173846	2534.858512
769.499479	2535.176105
769.825066	2535.849099
770.150607	2533.300795
770.476101	2534.354397
770.801548	2538.266332
771.126949	2537.162319
771.452303	2536.532175
771.777611	2535.342463
772.102872	2534.460261
772.428087	2534.545960
772.753256	2537.857998
773.078378	2535.526465
773.403453	2535.508821
773.728482	2534.051927
774.053465	2537.545447
774.378401	2533.971269
774.703291	2534.298944
775.028135	2534.137627
775.352932	2535.707946
775.677683	2535.231557
776.002388	2535.657535
776.327046	2533.444468
776.651658	2536.310364
776.976224	2534.160312
777.300743	2535.095446
777.625216	2536.118800
777.949643	2532.789118
778.274024	2538.583925
778.598359	2534.016639
778.922647	2531.037317
779.246889	2533.537730
779.571086	2528.093283
779.895236	2533.648635
780.219339	2536.408667
780.543397	2533.951104
780.867409	2533.573018
781.191374	2533.933460
781.515294	2535.508821
781.839167	2534.934129
782.162995	2534.954294
782.486776	2534.387164
782.810511	2533.507483
783.134201	2533.762061
783.457844	2534.929088
783.781441	2537.248019
784.104993	2532.791639
784.428498	2537.195087
784.751958	2535.407998
785.075372	2533.981351
785.398739	2535.891948
785.722061	2532.902544
786.045337	2535.420601
786.368568	2534.898841
786.691752	2535.302133
787.014891	2537.222813
787.337983	2530.969262
787.661030	2534.803059
787.984031	2535.871784
788.306987	2536.053265
788.629897	2535.715508
788.952760	2533.935981
789.275579	2533.565456
789.598351	2534.906403
789.921078	2533.623429
790.243759	2534.235929
790.566395	2532.577390
790.888984	2535.649973
791.211529	2536.721218
791.534027	2534.573687
791.856480	2535.927237
792.178888	2535.292051
792.501249	2533.681403
792.823566	2537.207690
793.145836	2532.930271
793.468062	2532.312729
793.790241	2532.413552
794.112375	2537.200128
794.434464	2533.389016
794.756507	2534.656866
795.078505	2534.087215
795.400457	2532.375744
795.722364	2528.607481
796.044226	2534.505631
796.366042	2529.900537
796.687812	2532.340456
797.009538	2535.241640
797.331218	2534.228368
797.652852	2534.097298
797.974442	2532.791639
798.295986	2532.216947
798.617484	2532.484128
798.938938	2533.341125
799.260346	2535.370189
799.581709	2532.736186
799.903026	2534.293903
800.224299	2532.668131
800.545526	2535.622247
800.866708	2535.705426
801.187845	2533.532688
801.508936	2535.667617
801.829983	2532.534540
802.150984	2531.528830
802.471940	2535.503780
802.792851	2532.736186
803.113717	2532.171577
803.434538	2534.757689
803.755314	2532.970600
804.076045	2533.169725
804.396731	2533.988913
804.717372	2532.199303
805.037967	2533.749458
805.358518	2534.566125
805.679024	2533.694005
805.999485	2535.297092
806.319901	2533.978831
806.640272	2530.795342
806.960598	2535.660055
807.280879	2532.837009
807.601115	2531.095291
807.921306	2531.853984
808.241453	2532.859694
808.561554	2531.284334
808.881611	2534.092257
809.201623	2531.911958
809.521590	2533.686444
809.841513	2533.694005
810.161390	2533.867925
810.481223	2530.437420
810.801011	2532.310209
811.120755	2531.778367
811.440453	2534.235929
811.760107	2535.952442
812.079716	2532.892462
812.399281	2527.016997
812.718801	2530.671834
813.038276	2529.222502
813.357707	2534.911444
813.677093	2532.489170
813.996434	2533.885569
814.315731	2531.901875
814.634983	2533.963707
814.954191	2532.862215
815.273354	2533.721732
815.592473	2534.578728
815.911547	2532.267359
816.230577	2533.694005
816.549562	2530.369364
816.868502	2534.480425
817.187399	2532.937832
817.506250	2531.614529
817.825058	2536.191897
818.143821	2534.341794
818.462539	2534.588810
818.781213	2534.356917
819.099843	2535.624767
819.418429	2534.520755
819.736970	2535.934798
820.055466	2535.821372
820.373919	2535.750796
820.692327	2536.484284
821.010691	2538.352032
821.329011	2540.403781
821.647286	2542.846220
821.965517	2550.178578
822.283704	2551.741336
822.601847	2552.673950
822.919945	2548.106664
823.237999	2544.943340
823.556010	2543.776313
823.873976	2539.798843
824.191897	2537.908410
824.509775	2537.046373
824.827609	2538.692309
825.145398	2537.079140
825.463144	2538.014274
825.780845	2535.418080
826.098502	2537.724408
826.416116	2539.065355
826.733685	2542.092568
827.051210	2540.383617
827.368692	2539.108205
827.686129	2539.849254
828.003522	2536.023018
828.320872	2533.547812
828.638177	2532.242153
828.955439	2532.821886
829.272656	2532.831968
829.589830	2527.334590
829.906960	2532.549663
830.224046	2534.578728
830.541088	2534.893800
830.858086	2532.771474
831.175041	2534.593851
831.491952	2531.173428
831.808819	2533.131917
832.125642	2536.993441
832.442421	2534.929088
832.759157	2533.368851
833.075849	2537.242978
833.392497	2535.970086
833.709101	2535.831455
834.025662	2535.067720
834.342179	2536.015457
834.658653	2536.466640
834.975083	2534.631660
835.291469	2536.764068
835.607811	2532.413552
835.924110	2533.749458
836.240366	2532.771474
836.556578	2533.933460
836.872746	2535.513862
837.188871	2531.140661
837.504952	2533.389016
837.820990	2532.574869
838.136984	2530.366844
838.452935	2532.297606
838.768842	2534.588810
839.084706	2532.116124
839.400526	2535.649973
839.716303	2534.041845
840.032037	2533.414221
840.347727	2529.648479
840.663373	2533.242822
840.978977	2533.560415
841.294537	2532.524458
841.610054	2533.971269
841.925527	2530.339118
842.240957	2533.051258
842.556344	2534.309026
842.871687	2532.166536
843.186987	2531.364992
843.502244	2535.415559
843.817458	2532.176618
844.132629	2530.409694
844.447756	2531.435568
844.762840	2526.827954
845.077881	2529.174611
845.392879	2528.983047
845.707833	2531.483459
846.022745	2527.357275
846.337613	2533.628470
846.652438	2534.210724
846.967221	2532.647966
847.281960	2530.807945
847.596656	2533.978831
847.911309	2531.117976
848.225919	2533.424304
848.540485	2530.520599
848.855009	2531.289375
849.169490	2531.740558
849.483928	2533.482277
849.798323	2533.414221
850.112675	2531.982534
850.426984	2532.809283
850.741251	2532.852133
851.055474	2529.971113
851.369654	2530.757533
851.683792	2533.552853
851.997887	2531.753161
852.311938	2533.686444
852.625947	2532.698378
852.939914	2531.528830
853.253837	2532.809283
853.567718	2532.852133
853.881555	2533.494880
854.195350	2532.345497
854.509103	2530.931453
854.822812	2531.080167
855.136479	2531.344828
855.450103	2531.823737
855.763685	2532.131248
856.077224	2528.017666
856.390720	2532.133768
856.704173	2530.969262
857.017584	2534.747607
857.330953	2530.712163
857.644278	2533.515044
857.957561	2536.627957
858.270802	2533.507483
858.584000	2534.717360
858.897155	2532.748789
859.210268	2530.286185
859.523339	2532.587472
859.836367	2531.624612
860.149352	2533.124355
860.462295	2531.548994
860.775195	2528.778880
861.088054	2530.896165
861.400869	2530.729807
861.713642	2526.364168
862.026373	2530.571011
862.339062	2530.442461
862.651708	2531.145702
862.964312	2534.268697
863.276873	2529.996319
863.589392	2533.515044
863.901869	2530.921371
864.214303	2531.511186
864.526696	2533.401618
864.839045	2533.502442
865.151353	2531.725435
865.463619	2530.263500
865.775842	2531.574200
866.088023	2531.712832
866.400162	2532.945394
866.712258	2533.678882
867.024313	2530.749972
867.336325	2530.860877
867.648296	2530.288706
867.960224	2529.151926
868.272110	2531.725435
868.583954	2530.548325
868.895755	2531.337266
869.207515	2530.523120
869.519233	2532.476567
869.830909	2531.775846
870.142542	2532.017822
870.454134	2531.682585
870.765684	2532.186700
871.077191	2531.044879
871.388657	2531.654859
871.700081	2530.392050
872.011463	2530.283665
872.322803	2528.574714
872.634101	2531.619571
872.945357	2528.917512
873.256571	2531.334745
873.567744	2529.708973
873.878874	2530.306350
874.189963	2531.705270
874.501010	2532.743748
874.812015	2532.247194
875.122979	2533.878008
875.433900	2531.236443
875.744780	2527.601771
876.055618	2531.705270
876.366415	2531.730476
876.677169	2531.057482
876.987882	2527.621936
877.298554	2528.393232
877.609183	2530.268541
877.919771	2523.364681
878.230317	2527.667306
878.540822	2531.632173
878.851285	2531.516227
879.161707	2532.816845
879.472087	2533.177287
879.782425	2534.354397
880.092722	2533.530168
880.402977	2533.749458
880.713191	2533.988913
881.023363	2536.766589
881.333494	2543.080634
881.643583	2540.529810
881.953631	2541.275901
882.263637	2540.005530
882.573602	2540.587783
882.883526	2537.827752
883.193408	2539.869419
883.503248	2535.692823
883.813048	2533.391536
884.122806	2535.710467
884.432522	2533.908254
884.742197	2534.755168
885.051831	2532.106042
885.361424	2530.964221
885.670975	2533.809952
885.980485	2531.014632
886.289954	2530.868439
886.599382	2532.196783
886.908768	2531.070085
887.218113	2532.264838
887.527417	2532.063192
887.836680	2531.148223
888.145901	2534.067051
888.455082	2532.537061
888.764221	2533.454551
889.073319	2531.279293
889.382376	2531.916999
889.691392	2529.918181
890.000366	2531.697708
890.309300	2530.291227
890.618193	2532.106042
890.927044	2530.860877
891.235855	2529.792152
891.544625	2533.520086
891.853353	2533.668800
892.162041	2529.262831
892.470687	2533.086546
892.779293	2529.940866
893.087858	2529.272913
893.396381	2526.580937
893.704864	2528.355423
894.013306	2526.797707
894.321707	2532.642925
894.630068	2533.792308
894.938387	2533.535209
895.246665	2534.581248
895.554903	2532.718542
895.863100	2531.370033
896.171256	2534.792977
896.479371	2534.538399
896.787446	2531.294416
897.095480	2529.613191
897.403473	2528.809127
897.711425	2532.161495
898.019336	2530.497914
898.327207	2531.916999
898.635038	2532.171577
898.942827	2531.793490
899.250576	2530.770136
899.558284	2529.230064
899.865952	2530.114786
900.173579	2531.266690
900.481165	2530.258459
900.788711	2528.642769
901.096216	2529.633356
901.403681	2530.908768
901.711105	2530.495393
902.018489	2530.969262
902.325832	2533.719211
902.633135	2528.438602
902.940397	2532.690816
903.247619	2528.022707
903.554800	2532.469005
903.861941	2533.242822
904.169041	2537.663914
904.476101	2536.118800
904.783121	2536.640560
905.090100	2533.021011
905.397039	2534.107380
905.703938	2532.721063
906.010796	2534.452699
906.317614	2529.451874
906.624391	2534.460261
906.931129	2531.841381
907.237826	2530.770136
907.544483	2530.563449
907.851099	2530.457585
908.157675	2532.973120
908.464211	2531.428007
908.770707	2527.831143
909.077163	2530.011443
909.383578	2525.819723
909.689954	2527.788294
909.996289	2525.098838
910.302584	2531.785929
910.608839	2528.514220
910.915054	2531.100332
911.221229	2528.446164
911.527363	2529.741741
911.833458	2530.109745
912.139513	2531.894313
912.445527	2529.265352
912.751502	2530.956659
913.057436	2528.599919
913.363331	2530.739889
913.669186	2528.410876
913.975000	2531.276772
914.280775	2529.020856
914.586510	2530.303829
914.892205	2530.482790
915.197859	2528.453726
915.503475	2529.444313
915.809050	2534.694674
916.114585	2534.346835
916.420081	2533.998995
916.725536	2536.726259
917.030952	2531.952287
917.336328	2532.600075
917.641665	2532.305168
917.946961	2530.475229
918.252218	2530.707122
918.557435	2533.968748
918.862612	2533.497400
919.167750	2532.552184
919.472848	2530.518078
919.777906	2530.823068
920.082925	2528.282327
920.387904	2527.836185
920.692843	2530.114786
920.997743	2531.188552
921.302603	2531.997657
921.607423	2528.972965
921.912204	2530.560928
922.216946	2530.419776
922.521647	2530.530681
922.826310	2529.666123
923.130932	2529.209899
923.435516	2528.829292
923.740059	2530.578572
924.044564	2528.917512
924.349028	2528.788963
924.653454	2526.933818
924.957840	2525.348375
925.262186	2525.703777
925.566493	2528.080681
925.870761	2524.433406
926.174989	2528.337779
926.479178	2528.761236
926.783328	2529.943387
927.087438	2529.746782
927.391509	2531.609488
927.695541	2530.762574
927.999533	2530.238294
928.303486	2530.918850
928.607400	2530.404652
928.911275	2527.296781
929.215110	2529.459436
929.518906	2530.848274
929.822663	2530.613860
930.126381	2530.838192
930.430060	2528.758716
930.733699	2529.797193
931.037299	2528.723428
931.340861	2528.632687
931.644383	2531.606968
931.947866	2527.957172
932.251309	2529.648479
932.554714	2528.604961
932.858080	2529.804755
933.161407	2531.738038
933.464694	2532.307688
933.767943	2527.657224
934.071153	2529.414066
934.374323	2528.655372
934.677455	2529.799714
934.980548	2527.629497
935.283602	2529.202337
935.586617	2528.786442
935.889593	2528.025228
936.192530	2528.385670
936.495428	2530.513037
936.798287	2528.171421
937.101108	2528.670496
937.403890	2527.942049
937.706632	2530.898686
938.009336	2527.634538
938.312002	2529.409025
938.614628	2530.644107
938.917216	2529.144364
939.219765	2527.374919
939.522275	2529.270393
939.824747	2530.475229
940.127179	2529.648479
940.429573	2523.843591
940.731929	2528.345341
941.034246	2524.829136
941.336524	2528.083201
941.638763	2529.252749
941.940964	2531.049920
942.243126	2527.321987
942.545250	2529.083870
942.847335	2529.116638
943.149381	2529.406504
943.451389	2526.651513
943.753359	2527.001874
944.055290	2530.709642
944.357182	2532.499252
944.659036	2528.080681
944.960851	2529.726617
945.262628	2527.702594
945.564367	2529.124199
945.866067	2528.252080
946.167729	2530.606299
946.469352	2530.220650
946.770937	2531.889272
947.072484	2528.584796
947.373992	2529.426669
947.675462	2527.135464
947.976893	2528.577234
948.278286	2526.464991
948.579641	2529.837523
948.880958	2529.474560
949.182236	2529.184693
949.483476	2527.904240
949.784678	2531.060002
950.085841	2527.198479
950.386967	2528.317615
950.688054	2527.793335
950.989103	2526.938859
951.290114	2528.975485
951.591087	2526.409538
951.892021	2526.941380
952.192917	2530.281144
952.493776	2529.028418
952.794596	2530.876000
953.095378	2530.641587
953.396122	2529.547656
953.696828	2527.558921
953.997496	2528.373068
954.298126	2527.856349
954.598718	2528.599919
954.899272	2525.781914
955.199788	2527.659744
955.500266	2528.899868
955.800706	2528.796524
956.101108	2525.529857
956.401472	2526.094466
956.701798	2525.935670
957.002087	2524.836698
957.302337	2530.230733
957.602550	2529.587986
957.902724	2526.563293
958.202861	2529.739220
958.502960	2525.560104
958.803022	2530.462626
959.103045	2525.444157
959.403031	2530.565969
959.702979	2529.552697
960.002889	2531.032276
960.302762	2528.315094
960.602596	2527.760567
960.902393	2528.332738
961.202153	2528.529343
961.501875	2526.525485
961.801559	2529.162008
962.101205	2529.623274
962.400814	2528.385670
962.700385	2526.573376
962.999918	2526.094466
963.299414	2526.104548
963.598873	2530.737369
963.898293	2529.935825
964.197677	2528.201668
964.497022	2528.287368
964.796331	2528.201668
965.095601	2528.037831
965.394835	2529.285516
965.694030	2530.361803
965.993189	2526.732172
966.292309	2529.340969
966.591393	2527.717717
966.890439	2527.773170
967.189447	2527.934487
967.488419	2528.005063
967.787353	2527.737882
968.086249	2527.836185
968.385108	2529.935825
968.683930	2526.429703
968.982714	2525.134126
969.281462	2528.186545
969.580172	2527.634538
969.878844	2528.342821
970.177480	2529.852646
970.476078	2525.280320
970.774639	2528.783922
971.073162	2526.928777
971.371649	2527.337110
971.670098	2523.175638
971.968510	2525.169414
972.266885	2524.451050
972.565223	2526.268386
972.863524	2527.427851
973.161788	2527.954652
973.460014	2527.279137
973.758204	2529.988757
974.056356	2525.441637
974.354471	2526.303674
974.652550	2526.800227
974.950591	2526.948942
975.248595	2527.546318
975.546563	2528.995650
975.844493	2527.926925
976.142386	2528.305012
976.440243	2526.820392
976.738062	2528.499096
977.035845	2526.480114
977.333590	2529.411545
977.631299	2526.908612
977.928971	2527.861390
978.226606	2527.576565
978.524204	2528.219312
978.821765	2528.867101
979.119290	2527.702594
979.416777	2526.525485
979.714228	2527.352234
980.011642	2530.984385
980.309020	2531.909437
980.606360	2528.030269
980.903664	2531.060003
981.200931	2525.373581
981.498162	2525.915505
981.795356	2527.450536
982.092513	2529.356093
982.389633	2530.316432
982.686717	2527.455578
982.983764	2527.808458
983.280775	2530.500434
983.577749	2527.684950
983.874686	2528.662934
984.171587	2526.356606
984.468451	2529.167049
984.765279	2528.113448
985.062070	2526.979188
985.358824	2527.682429
985.655543	2528.234436
985.952224	2529.101514
986.248869	2526.185207
986.545478	2522.018693
986.842050	2524.151101
987.138586	2524.057840
987.435086	2526.031452
987.731549	2522.651358
988.027975	2529.477080
988.324366	2526.086904
988.620719	2527.417769
988.917037	2527.130423
989.213318	2527.009435
989.509563	2524.675381
989.805772	2524.798889
990.101944	2527.450536
990.398080	2528.988088
990.694180	2526.530526
990.990244	2525.406348
991.286271	2526.046575
991.582262	2528.978006
991.878217	2527.027079
992.174136	2528.420958
992.470019	2528.688140
992.765865	2526.918695
993.061676	2523.924249
993.357450	2524.685463
993.653188	2527.175793
993.948890	2525.038344
994.244556	2525.474404
994.540186	2528.410876
994.835780	2525.683612
995.131337	2528.292409
995.426859	2528.514220
995.722345	2524.725793
996.017795	2526.192768
996.313208	2525.539939
996.608586	2526.341483
996.903928	2525.620597
997.199234	2525.136647
997.494504	2527.168232
997.789738	2528.020187
998.084936	2526.991791
998.380099	2524.798889
998.675225	2527.004394
998.970316	2525.469363
999.265371	2527.591689
999.560390	2529.605630
999.855373	2525.814682
1000.150320	2526.893489
1000.445232	2527.775691
1000.740108	2525.912984
1001.034948	2527.256452
1001.329752	2526.560773
1001.624521	2530.175280
1001.919254	2522.177489
1002.213951	2525.965917
1002.508613	2521.496934
1002.803239	2527.004394
1003.097829	2521.693539
1003.392384	2527.536236
1003.686903	2524.352747
1003.981386	2528.143695
1004.275834	2527.342152
1004.570246	2529.731658
1004.864623	2526.197810
1005.158964	2529.048582
1005.453270	2525.421472
1005.747540	2528.214271
1006.041775	2529.958510
1006.335974	2528.010104
1006.630138	2527.430372
1006.924266	2525.960875
1007.218359	2527.672347
1007.512416	2525.174455
1007.806438	2525.759229
1008.100425	2525.973478
1008.394376	2528.388191
1008.688292	2527.392563
1008.982172	2522.535411
1009.276017	2527.626977
1009.569827	2525.514733
1009.863602	2527.448016
1010.157341	2524.100690
1010.451045	2523.836029
1010.744714	2523.725124
1011.038347	2528.768798
1011.331945	2525.940711
1011.625508	2529.114117
1011.919036	2526.606143
1012.212528	2527.533715
1012.505986	2527.369878
1012.799408	2527.833664
1013.092795	2526.689322
1013.386147	2528.441123
1013.679464	2523.964578
1013.972745	2526.018849
1014.265992	2527.382481
1014.559204	2528.133613
1014.852380	2526.160001
1015.145521	2525.169414
1015.438628	2526.091945
1015.731699	2528.214271
1016.024736	2526.890968
1016.317737	2525.605474
1016.610703	2527.571524
1016.903635	2522.674043
1017.196531	2522.187572
1017.489393	2523.551204
1017.782219	2521.774197
1018.075011	2524.055319
1018.367768	2526.031452
1018.660490	2528.209230
1018.953177	2528.209230
1019.245829	2528.209230
