Dividing Wavelength (nm)	Counts (n)	Blue Motor Position (mm): 0.000000	Red Motor Position (mm): 35.900000	
326.493990	2127.661831
326.888308	2127.661831
327.282561	2127.661831
327.676750	2093.364340
328.070874	2092.925760
328.464933	2095.756368
328.858929	2100.321133
329.252859	2112.714809
329.646726	2123.996912
330.040528	2137.066103
330.434265	2153.969092
330.827938	2171.570281
331.221547	2190.315811
331.615091	2208.632844
332.008571	2228.346276
332.401986	2249.327558
332.795338	2265.101328
333.188625	2286.306942
333.581847	2303.033491
333.975006	2324.622232
334.368100	2343.408092
334.761129	2358.186234
335.154095	2375.094264
335.546996	2395.911709
335.939833	2410.725140
336.332606	2427.434044
336.725315	2444.483226
337.117960	2454.512602
337.510540	2461.781946
337.903056	2469.941053
338.295508	2480.882878
338.687896	2488.555514
339.080220	2497.420383
339.472480	2502.398522
339.864676	2508.019409
340.256807	2509.120901
340.648875	2513.935203
341.040879	2518.005935
341.432818	2518.255472
341.824694	2521.738909
342.216506	2520.639938
342.608253	2521.438960
342.999937	2520.405524
343.391557	2520.181192
343.783113	2518.958713
344.174605	2519.104906
344.566033	2516.740605
344.957397	2515.573578
345.348697	2510.817249
345.739934	2509.889677
346.131106	2508.349604
346.522215	2508.962105
346.913260	2505.801301
347.304241	2505.282062
347.695159	2502.025477
348.086012	2502.882473
348.476802	2498.516834
348.867528	2496.334014
349.258191	2493.856287
349.648789	2497.004488
350.039324	2495.623212
350.429796	2495.839981
350.820203	2490.972747
351.210548	2491.643221
351.600828	2491.703714
351.991045	2489.326810
352.381198	2489.699856
352.771288	2486.569299
353.161314	2487.096100
353.551276	2488.366471
353.941175	2489.105000
354.331010	2490.929897
354.720782	2487.360760
355.110490	2490.395535
355.500135	2487.849752
355.889717	2490.574496
356.279235	2490.647593
356.668689	2490.299753
357.058080	2491.237408
357.447408	2488.736995
357.836672	2486.153404
358.225873	2490.098107
358.615010	2487.078456
359.004084	2491.078611
359.393095	2493.246308
359.782043	2494.925012
360.170927	2493.745382
360.559748	2494.199086
360.948505	2494.461226
361.337199	2496.911226
361.725830	2496.860815
362.114398	2500.061948
362.502903	2498.168994
362.891344	2499.971207
363.279722	2499.351145
363.668037	2497.911895
364.056289	2499.494818
364.444478	2500.177894
364.832603	2501.632267
365.220665	2500.860970
365.608665	2503.036228
365.996601	2503.154695
366.384474	2501.841475
366.772284	2505.372803
367.160031	2509.763648
367.547715	2508.457989
367.935336	2510.330778
368.322893	2515.518125
368.710388	2516.433095
369.097820	2528.194107
369.485189	2527.760567
369.872495	2533.184849
370.259738	2540.227341
370.646918	2550.647406
371.034035	2553.236038
371.421090	2565.982596
371.808081	2577.365521
372.195010	2582.683938
372.581875	2598.898810
372.968678	2610.425408
373.355418	2619.207098
373.742096	2638.297948
374.128710	2653.446615
374.515262	2670.183246
374.901751	2683.519618
375.288177	2696.036803
375.674540	2720.917418
376.060841	2738.780747
376.447079	2756.964189
376.833254	2781.328085
377.219367	2791.992646
377.605417	2826.733758
377.991404	2837.572239
378.377329	2860.880013
378.763191	2874.450800
379.148991	2917.834970
379.534727	2939.474123
379.920402	2968.155767
380.306013	2982.175216
380.691563	3030.033410
381.077049	3050.959240
381.462474	3068.852815
381.847835	3108.360338
382.233134	3133.109883
382.618371	3127.113430
383.003545	3200.764688
383.388657	3204.971531
383.773706	3236.836664
384.158693	3255.647730
384.543618	3281.770989
384.928480	3314.437666
385.313280	3361.292671
385.698017	3362.053885
386.082692	3414.121442
386.467305	3418.865168
386.851856	3454.153245
387.236344	3475.000937
387.620770	3505.862881
388.005133	3533.558980
388.389435	3559.498237
388.773674	3567.150708
389.157851	3613.065538
389.541965	3631.488434
389.926018	3591.186930
390.310008	3665.803569
390.693936	3683.248482
391.077802	3725.332034
391.461606	3710.969787
391.845348	3774.382461
392.229027	3777.334056
392.612645	3789.183288
392.996200	3865.554249
393.379694	3906.432965
393.763125	3969.613746
394.146494	3936.800876
394.529801	3996.974609
394.913047	4048.613668
395.296230	4013.698637
395.679351	4071.505548
396.062410	4092.174279
396.445408	4073.169129
396.828343	4110.145992
397.211217	4131.833036
397.594028	4050.841858
397.976778	4117.818628
398.359466	4143.586486
398.742092	4171.340559
399.124656	4091.261830
399.507158	4174.392977
399.889598	4201.320301
400.271977	4260.480762
400.654294	4235.015373
401.036549	4240.684150
401.418742	4212.249522
401.800874	4311.154440
402.182944	4337.038244
402.564952	4399.939242
402.946898	4386.209659
403.328783	4382.950553
403.710606	4294.059887
404.092367	4492.174713
404.474067	4456.082572
404.855705	4460.372594
405.237282	4389.614958
405.618797	4499.764170
406.000250	4533.958317
406.381642	4615.529227
406.762972	4574.975665
407.144240	4588.705247
407.525447	4585.957818
407.906593	4647.535513
408.287677	4689.971946
408.668700	4615.309937
409.049661	4667.299356
409.430560	4711.303588
409.811399	4636.971775
410.192176	4795.158141
410.572891	4740.033124
410.953545	4843.714535
411.334138	4720.544023
411.714669	4787.868633
412.095139	4685.268549
412.475547	4824.243078
412.855894	4803.191220
413.236180	4815.022808
413.616405	4768.974388
413.996568	4858.326320
414.376670	4794.081855
414.756711	4753.924023
415.136691	4784.561636
415.516609	4862.933934
415.896466	4900.238473
416.276262	4933.381539
416.655997	4913.224485
417.035670	5097.677784
417.415283	5188.226989
417.794834	5133.938803
418.174324	5085.778140
418.553753	4992.970498
418.933121	5177.975803
419.312428	5246.475001
419.691674	5184.937636
420.070859	5307.972037
420.449983	5221.181012
420.829045	5338.871789
421.208047	5245.933077
421.586988	5315.911854
421.965867	5325.820242
422.344686	5461.369307
422.723444	5313.708870
423.102141	5136.721520
423.480777	5432.692704
423.859352	5197.580850
424.237866	5456.842351
424.616319	5451.236588
424.994712	5563.205656
425.373044	5440.017500
425.751314	5576.998253
426.129524	5386.535899
426.507673	5583.387916
426.885762	5660.351211
427.263789	5593.485347
427.641756	5476.724662
428.019662	5595.690852
428.397508	5601.941882
428.775292	5549.541609
429.153016	5650.662114
429.530679	5579.284416
429.908282	5658.329709
430.285824	5530.458321
430.663305	5807.084076
431.040726	5543.348551
431.418086	5541.448036
431.795385	5646.956866
432.172624	5656.088916
432.549802	5650.520961
432.926920	5662.014792
433.303977	5673.440567
433.680974	5716.862546
434.057910	5730.864351
434.434786	5737.541359
434.811601	5704.236976
435.188355	5940.987205
435.565050	5814.607998
435.941683	5794.466068
436.318257	6012.435478
436.694770	5995.209856
437.071222	6026.333939
437.447614	5956.110666
437.823946	5874.428851
438.200218	6025.252612
438.576429	5888.695316
438.952580	5991.129042
439.328670	6037.873141
439.704700	5938.504437
440.080670	5927.403816
440.456580	6199.248037
440.832429	6075.238173
441.208218	5924.822745
441.583947	6088.020018
441.959616	6089.033290
442.335224	6016.710377
442.710773	6151.601571
443.086261	6180.305901
443.461689	5976.305529
443.837057	6123.028311
444.212365	6281.804493
444.587612	6167.498850
444.962800	6326.373334
445.337927	6302.949613
445.712995	5913.827988
446.088002	6487.279403
446.462949	6323.822510
446.837837	6255.426655
447.212664	6426.137769
447.587431	6566.246558
447.962139	7109.451049
448.336786	8036.259622
448.711374	7776.617514
449.085901	6853.980496
449.460369	6770.451097
449.834776	6704.260747
450.209124	7093.641991
450.583412	7244.740495
450.957640	7395.793629
451.331808	7159.797052
451.705917	6708.928855
452.079965	6635.585108
452.453954	6850.071081
452.827883	6725.058027
453.201752	6819.067985
453.575562	6617.162211
453.949311	6818.165618
454.323001	6711.320883
454.696632	6782.673374
455.070202	6924.402894
455.443713	7078.533652
455.817164	7179.903695
456.190556	7257.585355
456.563888	7334.972107
456.937160	7378.358798
457.310373	7034.663011
457.683526	7060.347690
458.056619	6948.295443
458.429653	6934.712054
458.802628	6873.036057
459.175542	6980.387428
459.548398	7341.553334
459.921194	7495.845409
460.293930	7497.498908
460.666607	8031.094960
461.039224	8335.878080
461.411782	8465.599572
461.784280	8489.492120
462.156719	8375.062969
462.529099	8255.824557
462.901419	7844.226948
463.273680	7733.775268
463.645882	7745.798420
464.018024	7613.969726
464.390106	7775.216073
464.762130	8169.557812
465.134094	8629.235425
465.505999	9655.263988
465.877845	10877.854701
466.249631	11527.593897
466.621358	11151.440641
466.993026	10521.248519
467.364634	10264.726885
467.736184	9899.187779
468.107674	9569.612264
468.479105	9599.067726
468.850477	9360.976550
469.221790	9137.519844
469.593043	8810.422056
469.964238	8670.225047
470.335373	8682.404475
470.706449	8738.439421
471.077467	8722.267399
471.448425	10031.409682
471.819324	11102.034813
472.190164	11131.651592
472.560945	9883.885356
472.931667	9092.744316
473.302330	8958.374881
473.672934	8599.316177
474.043479	8952.370866
474.413965	8897.659224
474.784393	8783.845093
475.154761	8936.004760
475.525070	9022.750415
475.895321	8853.102985
476.265513	9027.181589
476.635645	9197.252476
477.005719	9194.023617
477.375734	9311.248088
477.745691	9546.843893
478.115588	9681.624182
478.485427	9925.951265
478.855207	10460.142173
479.224928	11269.784248
479.594591	11901.521484
479.964194	11718.434338
480.333739	11657.320430
480.703226	11574.292626
481.072653	11663.780668
481.442022	11902.224725
481.811333	12088.558374
482.180584	11893.097716
482.549777	11604.035433
482.918912	11425.787795
483.287988	11454.386261
483.657005	11472.047943
484.025964	11147.369909
484.394864	11271.810792
484.763706	11248.999571
485.132489	11005.234577
485.501213	10966.367281
485.869879	11045.009281
486.238487	10885.620599
486.607036	10996.646971
486.975527	10770.367219
487.343959	10964.423916
487.712333	11014.122131
488.080648	10939.692015
488.448905	10986.516772
488.817104	10924.122411
489.185244	11186.015395
489.553326	11345.852739
489.921350	11877.354192
490.289315	12940.949433
490.657222	13289.782156
491.025070	13189.342207
491.392861	13067.850399
491.760593	12688.790918
492.128267	12342.332579
492.495883	12015.837209
492.863440	11677.008656
493.230939	11338.159938
493.598380	11276.546956
493.965763	11143.132820
494.333088	11049.410208
494.700354	10969.008845
495.067563	11022.825683
495.434713	10849.863695
495.801805	10984.964097
496.168839	10908.288147
496.535815	10843.257262
496.902733	10837.865748
497.269593	10761.973698
497.636395	10867.343896
498.003139	10856.155055
498.369825	10721.478109
498.736453	10879.989630
499.103023	10804.727724
499.469535	10840.502272
499.835989	10822.036525
500.202385	10790.080651
500.568723	10639.113217
500.935003	10864.803154
501.301226	10661.621969
501.667390	10922.012688
502.033497	11024.078410
502.399546	10874.865297
502.765537	10787.008068
503.131470	10858.262257
503.497345	11036.116685
503.863163	10643.110852
504.228923	10962.536004
504.594625	11020.746207
504.960269	10771.713207
505.325856	10989.972483
505.691385	10776.686305
506.056856	10930.431415
506.422270	10960.275046
506.787625	10844.885555
507.152924	10965.893412
507.518164	10944.786101
507.883347	10864.775428
508.248472	10777.243353
508.613540	11014.543067
508.978550	10893.401620
509.343503	10866.605367
509.708398	10989.009623
510.073236	11097.061715
510.438016	11102.811151
510.802738	11055.968749
511.167403	11099.791499
511.532010	10995.240489
511.896561	11223.481250
512.261053	11295.796602
512.625488	11163.080665
512.989866	11138.003446
513.354186	11125.869388
513.718449	11026.442711
514.082655	11217.260466
514.446803	11111.736513
514.810894	11229.112219
515.174927	11092.229769
515.538904	11113.790784
515.902822	11261.234451
516.266684	11143.450412
516.630488	11087.067627
516.994235	11137.564865
517.357925	11185.475991
517.721558	11271.868765
518.085133	11283.798656
518.448651	11292.071189
518.812112	11169.999649
519.175516	11182.305106
519.538863	11293.230655
519.902152	11201.514422
520.265385	11352.139058
520.628560	11257.657753
520.991678	11229.422250
521.354739	11285.787391
521.717743	11208.322501
522.080690	11187.474809
522.443580	11306.488889
522.806413	11250.348080
523.169189	11278.754982
523.531908	11317.801239
523.894569	11131.160079
524.257174	11136.324741
524.619722	11236.706717
524.982213	11174.841677
525.344647	11207.853673
525.707025	11153.565487
526.069345	11236.061450
526.431608	11139.382201
526.793815	11234.037426
527.155964	11009.864877
527.518057	11057.287011
527.880093	10991.578091
528.242072	11044.923581
528.603995	10932.077352
528.965860	10846.526451
529.327669	10884.118335
529.689421	10815.959414
530.051117	10774.085070
530.412755	10855.114056
530.774337	10730.340458
531.135862	10697.041116
531.497331	10702.974554
531.858743	10540.175532
532.220098	10681.970586
532.581396	10539.739472
532.942638	10499.322021
533.303824	10453.891142
533.664953	10432.786352
534.026025	10343.353762
534.387040	10408.367003
534.747999	10391.380835
535.108902	10419.661708
535.469748	10172.962762
535.830537	10242.167722
536.191270	10196.446977
536.551947	10189.137304
536.912567	10162.756946
537.273131	10074.703112
537.633638	10025.761070
537.994089	9989.318568
538.354483	9910.825282
538.714821	10019.142035
539.075103	9995.640175
539.435328	9935.577348
539.795497	9758.133774
540.155609	9861.311069
540.515665	9906.046269
540.875665	9642.966093
541.235609	9676.391464
541.595496	9636.573910
541.955328	9735.501513
542.315102	9604.267676
542.674821	9526.190285
543.034483	9496.757508
543.394090	9466.684505
543.753640	9363.328248
544.113134	9512.281742
544.472571	9360.522846
544.831953	9430.216798
545.191278	9235.822344
545.550548	9229.664575
545.909761	9306.214496
546.268918	9240.571111
546.628019	9264.808979
546.987064	9112.162840
547.346053	9020.242441
547.704986	9044.568529
548.063863	8999.641766
548.422684	8967.295202
548.781449	8851.391514
549.140158	8887.745795
549.498811	8749.192202
549.857408	8607.064431
550.215949	8722.184220
550.574434	8576.522600
550.932864	8595.570600
551.291237	8612.604659
551.649555	8522.189044
552.007817	8497.013522
552.366022	8428.970548
552.724173	8380.759473
553.082267	8331.688881
553.440305	8359.654682
553.798288	8205.763379
554.156215	8246.894153
554.514086	8182.838732
554.871902	8042.598873
555.229661	8024.649845
555.587365	7962.147099
555.945014	7848.398503
556.302606	7877.538893
556.660143	7775.359746
557.017625	7813.322155
557.375050	7708.556896
557.732421	7748.709686
558.089735	7640.765979
558.446994	7598.909279
558.804197	7574.172337
559.161345	7524.537136
559.518437	7397.847899
559.875474	7393.353710
560.232455	7365.624843
560.589381	7290.002495
560.946251	7227.325829
561.303065	7261.953515
561.659825	7162.791498
562.016528	7081.991884
562.373177	6979.721996
562.729770	6980.846173
563.086307	6896.913482
563.442789	6913.045175
563.799216	6775.214987
564.155587	6766.725684
564.511904	6691.362955
564.868164	6645.460728
565.224370	6611.511078
565.580520	6506.493761
565.936615	6491.052707
566.292654	6360.864909
566.648638	6393.118211
567.004567	6314.619884
567.360441	6272.445591
567.716260	6176.197361
568.072023	6188.389392
568.427732	6104.837308
568.783385	6040.464294
569.138982	6010.708883
569.494525	5983.519420
569.850013	5884.869080
570.205445	5869.881730
570.560823	5796.706861
570.916145	5714.241146
571.271412	5698.144742
571.626625	5633.164269
571.981782	5584.670889
572.336884	5529.039236
572.691931	5503.709958
573.046923	5431.140028
573.401860	5380.736052
573.756743	5313.686185
574.111570	5292.228513
574.466342	5257.116877
574.821059	5223.696548
575.175722	5146.839116
575.530330	5108.075163
575.884882	5075.811779
576.239380	5012.605792
576.593823	4967.169872
576.948211	4930.868523
577.302544	4866.021641
577.656823	4827.484540
578.011047	4798.833142
578.365216	4759.381072
578.719330	4702.660530
579.073389	4661.852390
579.427394	4622.508704
579.781344	4585.486471
580.135239	4535.400087
580.489080	4513.342518
580.842866	4445.009678
581.196597	4419.577056
581.550273	4404.246908
581.903895	4359.194116
582.257463	4351.312272
582.610975	4283.569246
582.964434	4273.146661
583.317837	4218.659349
583.671186	4190.380997
584.024481	4158.525946
584.377721	4111.282772
584.730906	4077.885128
585.084037	4061.035071
585.437113	4019.518649
585.790135	3991.174761
586.143103	3948.786219
586.496016	3922.390738
586.848874	3901.457346
587.201679	3880.060169
587.554428	3827.634689
587.907124	3815.639264
588.259765	3789.485758
588.612352	3765.031120
588.964884	3728.172724
589.317362	3706.619271
589.669786	3682.204963
590.022155	3677.786391
590.374470	3652.212618
590.726731	3625.723875
591.078937	3579.163778
591.431090	3571.352510
591.783188	3535.053682
592.135232	3509.273221
592.487222	3498.200327
592.839157	3483.669201
593.191038	3450.568985
593.542866	3427.387239
593.894639	3394.826426
594.246358	3387.867113
594.598022	3368.514123
594.949633	3338.604958
595.301190	3317.742143
595.652692	3303.873928
596.004141	3297.650624
596.355535	3263.847167
596.706876	3243.566605
597.058162	3220.536093
597.409395	3215.147100
597.760573	3208.023950
598.111698	3183.244158
598.462768	3170.416942
598.813785	3150.895074
599.164748	3131.317753
599.515657	3120.842235
599.866511	3096.523709
600.217312	3095.535643
600.568060	3072.805080
600.918753	3069.402301
601.269392	3056.315466
601.619978	3037.383413
601.970510	3033.332845
602.320988	3022.532173
602.671412	3015.086389
603.021783	3003.285048
603.372100	2989.925990
603.722363	2975.747745
604.072572	2967.797845
604.422728	2960.014304
604.772830	2941.220882
605.122878	2933.505396
605.472872	2923.508788
605.822813	2914.167530
606.172701	2907.077147
606.522534	2901.872156
606.872314	2899.780077
607.222041	2887.189795
607.571714	2879.993548
607.921333	2874.163454
608.270899	2865.023842
608.620411	2862.543594
608.969870	2853.015813
609.319276	2846.716892
609.668627	2839.807990
610.017926	2839.891169
610.367171	2835.104594
610.716362	2828.155363
611.065500	2817.561378
611.414585	2814.246820
611.763616	2812.195070
612.112594	2802.808442
612.461518	2797.089253
612.810389	2794.974489
613.159207	2784.433436
613.507971	2779.674587
613.856682	2778.081582
614.205340	2773.179060
614.553945	2772.241405
614.902496	2763.560538
615.250994	2759.915784
615.599439	2757.654827
615.947830	2752.349012
616.296169	2747.512025
616.644454	2745.034298
616.992686	2743.695872
617.340864	2744.202508
617.688990	2732.781774
618.037063	2734.188256
618.385082	2727.493603
618.733048	2729.469736
619.080961	2722.659137
619.428821	2722.303735
619.776628	2720.304918
620.124382	2714.411809
620.472083	2711.082127
620.819731	2708.707743
621.167326	2702.202134
621.514868	2698.509489
621.862357	2691.519929
622.209793	2691.691329
622.557176	2684.169927
622.904506	2675.582322
623.251783	2672.867660
623.599007	2670.455468
623.946179	2665.265600
624.293297	2665.492452
624.640363	2662.674447
624.987376	2660.456339
625.334336	2658.439878
625.681243	2652.745895
626.028097	2652.350164
626.374899	2654.343940
626.721647	2647.326654
627.068343	2646.179792
627.414987	2643.666777
627.761577	2640.606796
628.108115	2639.134779
628.454600	2638.633184
628.801032	2637.496404
629.147412	2636.397433
629.493739	2635.144706
629.840014	2633.781074
630.186236	2633.541619
630.532405	2630.098511
630.878521	2631.941053
631.224585	2629.367544
631.570597	2625.571555
631.916556	2628.074488
632.262462	2624.487707
632.608316	2624.112141
632.954117	2622.418313
633.299866	2619.461676
633.645562	2622.075515
633.991206	2617.717437
634.336797	2617.503188
634.682336	2618.687859
635.027823	2613.757611
635.373257	2612.577981
635.718639	2609.001282
636.063968	2610.705192
636.409245	2608.802157
636.754470	2609.311313
637.099642	2606.518514
637.444762	2605.782505
637.789829	2604.428956
638.134845	2602.924171
638.479808	2602.510797
638.824719	2603.715632
639.169577	2600.101125
639.514383	2601.583224
639.859137	2600.201948
640.203839	2601.479881
640.548489	2598.135075
640.893086	2595.977461
641.237632	2590.492686
641.582125	2595.022162
641.926566	2590.515371
642.270955	2594.167687
642.615292	2596.826896
642.959576	2595.911926
643.303809	2593.877821
643.647990	2595.057451
643.992118	2593.245156
644.336195	2595.218767
644.680219	2593.056112
645.024192	2595.826227
645.368112	2592.728437
645.711981	2594.167687
646.055797	2593.038468
646.399562	2596.544591
646.743274	2596.446288
647.086935	2596.521906
647.430544	2595.594333
647.774101	2594.447471
648.117606	2594.449992
648.461059	2594.717173
648.804460	2593.908067
649.147810	2596.075764
649.491108	2593.560228
649.834354	2593.552666
650.177548	2589.348344
650.520690	2588.277099
650.863781	2590.626276
651.206820	2590.543097
651.549807	2589.635690
651.892742	2587.069742
652.235626	2584.155955
652.578458	2586.792479
652.921238	2585.910277
653.263967	2584.985225
653.606644	2584.055132
653.949269	2584.791141
654.291843	2583.747622
654.634365	2586.666450
654.976836	2585.363312
655.319255	2583.835842
655.661622	2586.122005
656.003938	2583.762745
656.346203	2582.053794
656.688416	2584.980184
657.030577	2581.980697
657.372687	2581.774010
657.714746	2578.986252
658.056753	2582.300811
658.398708	2575.154975
658.740612	2579.240830
659.082465	2580.780903
659.424266	2576.727815
659.766016	2578.066242
660.107715	2580.249061
660.449362	2582.477251
660.790958	2579.586149
661.132503	2581.892477
661.473996	2583.193095
661.815438	2580.755697
662.156829	2582.124370
662.498168	2577.075655
662.839456	2580.241499
663.180693	2580.672518
663.521879	2583.417426
663.863013	2580.896849
664.204097	2581.199319
664.545129	2583.331727
664.886110	2579.697055
665.227040	2580.420460
665.567918	2581.506829
665.908746	2580.460790
666.249522	2582.600759
666.590248	2578.683783
666.930922	2577.305027
667.271545	2581.700913
667.612118	2584.592015
667.952639	2582.686459
668.293109	2583.745101
668.633528	2580.617065
668.973896	2580.238979
669.314213	2580.002045
669.654480	2579.190419
669.994695	2581.239648
670.334859	2582.915832
670.674973	2582.537745
671.015035	2580.717888
671.355047	2579.860892
671.695008	2579.369380
672.034918	2578.378793
672.374777	2579.497929
672.714585	2578.734194
673.054342	2579.180337
673.394049	2580.664956
673.733705	2580.145718
674.073310	2578.847620
674.412864	2579.492888
674.752368	2581.143866
675.091820	2578.479616
675.431223	2576.727815
675.770574	2579.273598
676.109875	2575.311251
676.449125	2574.434090
676.788324	2573.713205
677.127473	2575.429718
677.466571	2574.151786
677.805619	2577.506673
678.144616	2575.419636
678.483562	2576.062383
678.822458	2574.633216
679.161303	2576.732856
679.500098	2576.357290
679.838842	2574.229923
680.177535	2573.811508
680.516179	2574.723957
680.854771	2576.390058
681.193314	2575.409553
681.531805	2577.481468
681.870247	2579.540779
682.208638	2579.805440
682.546978	2580.546489
682.885268	2578.386355
683.223508	2578.434246
683.561697	2576.879050
683.899836	2580.929617
684.237925	2576.155644
684.575963	2575.089440
684.913951	2577.547003
685.251889	2578.124215
685.589776	2578.933320
685.927614	2578.459452
686.265401	2580.102868
686.603137	2579.036664
686.940824	2576.959708
687.278460	2579.538258
687.616046	2579.192939
687.953582	2580.138156
688.291068	2578.184709
688.628504	2579.034143
688.965889	2581.504308
689.303224	2579.840728
689.640510	2576.881570
689.977745	2578.061200
690.314930	2574.406364
690.652065	2575.817887
690.989150	2574.408884
691.326185	2575.341498
691.663170	2573.004923
692.000105	2573.589697
692.336990	2571.598441
692.673825	2573.738411
693.010610	2571.182546
693.347345	2566.728687
693.684030	2565.899417
694.020665	2564.074519
694.357251	2564.014025
694.693786	2567.847823
695.030272	2567.016032
695.366707	2568.172977
695.703093	2565.334808
696.039429	2567.230281
696.375716	2568.598955
696.711952	2566.721125
697.048139	2568.709860
697.384276	2567.550395
697.720363	2566.879921
698.056400	2565.634756
698.392388	2567.890673
698.728326	2565.405384
699.064214	2569.466033
699.400053	2566.806824
699.735842	2565.314643
700.071581	2564.553429
700.407270	2564.281206
700.742910	2567.903275
701.078501	2563.174673
701.414042	2564.500497
701.749533	2562.940259
702.084974	2563.414128
702.420366	2562.410938
702.755709	2561.294323
703.091002	2561.498489
703.426246	2562.778943
703.761440	2561.251473
704.096584	2559.837429
704.431679	2560.913716
704.766725	2563.149467
705.101721	2561.503531
705.436668	2563.270455
705.771565	2561.770712
706.106413	2563.146947
706.441212	2561.848850
706.775961	2562.897410
707.110661	2564.434962
707.445311	2564.341700
707.779913	2562.322718
708.114465	2564.008984
708.448967	2563.898079
708.783421	2566.040569
709.117825	2564.155177
709.452180	2563.237687
709.786485	2564.361865
710.120742	2565.768347
710.454949	2566.461505
710.789107	2564.893707
711.123216	2566.821948
711.457275	2566.337997
711.791286	2562.141237
712.125247	2565.470919
712.459159	2568.616599
712.793023	2571.353945
713.126837	2569.518965
713.460602	2565.564180
713.794318	2568.477967
714.127985	2567.169787
714.461602	2565.309602
714.795171	2566.912689
715.128691	2566.083419
715.462162	2564.387071
715.795584	2563.053685
716.128957	2562.269786
716.462281	2561.808520
716.795556	2562.791545
717.128782	2562.327759
717.461960	2562.478994
717.795088	2562.083263
718.128167	2560.984292
718.461198	2561.561504
718.794180	2560.485218
719.127113	2560.427244
719.459997	2560.810372
719.792833	2560.598643
720.125619	2561.755588
720.458357	2558.380536
720.791046	2559.960938
721.123686	2555.691080
721.456278	2557.367264
721.788821	2556.961451
722.121315	2556.240566
722.453761	2559.976061
722.786158	2556.842984
723.118506	2559.507234
723.450805	2556.779969
723.783056	2557.188303
724.115259	2556.091852
724.447412	2559.340876
724.779518	2557.896585
725.111574	2556.512788
725.443582	2558.791390
725.775542	2556.575803
726.107453	2559.681153
726.439315	2558.040258
726.771129	2563.320867
727.102895	2560.893551
727.434612	2560.449929
727.766281	2559.277861
728.097901	2557.959599
728.429473	2558.582182
728.760996	2561.102759
729.092471	2556.187634
729.423897	2560.331462
729.755276	2561.150650
730.086606	2562.138716
730.417887	2562.055537
730.749120	2561.122923
731.080305	2560.243242
731.411442	2563.792214
731.742530	2564.530743
732.073570	2563.257852
732.404562	2563.822461
732.735506	2561.546380
733.066401	2562.131154
733.397249	2563.429251
733.728048	2559.872717
734.058798	2560.891030
734.389501	2560.696946
734.720156	2557.836091
735.050762	2560.649055
735.381320	2557.815927
735.711831	2556.769887
736.042293	2555.950700
736.372707	2557.556307
736.703073	2558.204095
737.033391	2556.714434
737.363661	2556.905998
737.693883	2557.442881
738.024056	2561.841288
738.354182	2558.345248
738.684260	2556.270813
739.014290	2559.272820
739.344272	2557.957079
739.674207	2557.578992
740.004093	2561.364899
740.333931	2561.075032
740.663722	2558.209137
740.993464	2558.859445
741.323159	2558.441030
741.652806	2559.923129
741.982405	2559.862635
742.311956	2557.866338
742.641460	2556.371636
742.970915	2558.025134
743.300323	2555.880123
743.629683	2555.050854
743.958996	2555.605381
744.288260	2559.144271
744.617477	2555.048333
744.946647	2551.736295
745.275768	2555.723848
745.604842	2552.126984
745.933869	2553.412479
746.262847	2550.418033
746.591778	2553.238559
746.920662	2553.150339
747.249498	2554.050185
747.578286	2554.415668
747.907027	2553.425082
748.235720	2556.621173
748.564365	2555.207129
748.892963	2552.300904
749.221514	2552.946172
749.550017	2554.382901
749.878473	2553.840977
750.206881	2554.350133
750.535242	2554.826522
750.863555	2553.571275
751.191821	2554.609753
751.520039	2555.938097
751.848210	2555.035730
752.176334	2554.561862
752.504411	2554.743343
752.832440	2551.637992
753.160421	2555.625545
753.488356	2552.288301
753.816243	2553.331820
754.144082	2551.489278
754.471875	2553.281409
754.799620	2552.000956
755.127318	2552.011038
755.454969	2551.287632
755.782572	2553.788045
756.110129	2553.919115
756.437638	2552.769732
756.765100	2553.372149
757.092515	2551.663198
757.419882	2554.219063
757.747203	2553.687222
758.074477	2554.950031
758.401703	2553.230997
758.728882	2554.143446
759.056014	2552.893240
759.383099	2554.108158
759.710138	2554.907181
760.037129	2553.208312
760.364073	2554.584547
760.690970	2552.734443
761.017820	2555.260062
761.344623	2554.808878
761.671379	2555.249979
761.998088	2550.596994
762.324751	2552.822664
762.651366	2560.172666
762.977935	2573.209090
763.304456	2573.360324
763.630931	2580.233938
763.957359	2575.165057
764.283740	2568.001578
764.610074	2565.213820
764.936362	2561.332131
765.262602	2558.551935
765.588796	2557.145453
765.914943	2555.040771
766.241044	2553.188147
766.567097	2553.258723
766.893104	2551.481717
767.219064	2551.506922
767.544978	2549.561037
767.870845	2550.884340
768.196665	2550.203784
768.522438	2549.077086
768.848165	2551.282591
769.173846	2548.585574
769.499479	2547.204298
769.825066	2548.870399
770.150607	2547.932744
770.476101	2548.010882
770.801548	2549.203115
771.126949	2545.248330
771.452303	2550.455842
771.777611	2548.119267
772.102872	2550.234031
772.428087	2545.034081
772.753256	2548.315872
773.078378	2546.296890
773.403453	2544.169523
773.728482	2544.744215
774.053465	2547.627755
774.378401	2548.290666
774.703291	2545.008875
775.028135	2543.627599
775.352932	2544.429142
775.677683	2544.598021
776.002388	2543.035263
776.327046	2543.862013
776.651658	2547.216901
776.976224	2542.528628
777.300743	2544.645912
777.625216	2545.470141
777.949643	2543.645243
778.274024	2544.575336
778.598359	2541.477547
778.922647	2542.153062
779.246889	2543.534338
779.571086	2543.642723
779.895236	2542.087527
780.219339	2545.611293
780.543397	2542.735315
780.867409	2545.250851
781.191374	2546.155738
781.515294	2544.519883
781.839167	2544.645912
782.162995	2545.563402
782.486776	2547.466438
782.810511	2543.496529
783.134201	2544.207332
783.457844	2541.318751
783.781441	2543.123484
784.104993	2543.632640
784.428498	2547.237065
784.751958	2543.672969
785.075372	2544.161961
785.398739	2543.730943
785.722061	2545.071890
786.045337	2541.558205
786.368568	2544.671118
786.691752	2545.281097
787.014891	2544.693803
787.337983	2545.076931
787.661030	2545.031560
787.984031	2544.726571
788.306987	2548.126829
788.629897	2547.673125
788.952760	2548.923331
789.275579	2547.373176
789.598351	2548.260419
789.921078	2546.811088
790.243759	2544.098947
790.566395	2543.773792
790.888984	2546.528783
791.211529	2542.591642
791.534027	2545.293700
791.856480	2543.494008
792.178888	2542.727753
792.501249	2545.644061
792.823566	2541.918648
793.145836	2542.266487
793.468062	2545.336550
793.790241	2539.887063
794.112375	2541.497712
794.434464	2543.259595
794.756507	2546.107847
795.078505	2545.205480
795.400457	2545.606252
795.722364	2542.107691
796.044226	2544.575336
796.366042	2544.267826
796.687812	2543.042825
797.009538	2543.252033
797.331218	2543.481406
797.652852	2546.296890
797.974442	2545.676828
798.295986	2545.540717
798.617484	2543.471323
798.938938	2541.971580
799.260346	2545.384441
799.581709	2544.726571
799.903026	2543.441076
800.224299	2547.645399
800.545526	2543.206663
800.866708	2546.715306
801.187845	2538.994779
801.508936	2543.902342
801.829983	2544.134235
802.150984	2542.402599
802.471940	2540.234903
802.792851	2544.071221
803.113717	2540.217258
803.434538	2541.127187
803.755314	2539.982845
804.076045	2540.597866
804.396731	2539.829090
804.717372	2541.621220
805.037967	2542.319420
805.358518	2540.582742
805.679024	2544.484595
805.999485	2543.635161
806.319901	2544.159441
806.640272	2541.371683
806.960598	2544.565254
807.280879	2544.424101
807.601115	2543.753628
807.921306	2544.746735
808.241453	2543.801519
808.561554	2540.348328
808.881611	2542.470654
809.201623	2543.065510
809.521590	2542.004348
809.841513	2543.012578
810.161390	2543.819163
810.481223	2542.208514
810.801011	2541.038967
811.120755	2542.533669
811.440453	2543.234389
811.760107	2540.479398
812.079716	2539.695499
812.399281	2536.423790
812.718801	2539.627443
813.038276	2537.444624
813.357707	2543.012578
813.677093	2541.510314
813.996434	2543.955274
814.315731	2544.081303
814.634983	2540.965870
814.954191	2540.393699
815.273354	2544.126673
815.592473	2540.285314
815.911547	2541.958977
816.230577	2543.388144
816.549562	2543.798998
816.868502	2543.955274
817.187399	2542.684903
817.506250	2543.446118
817.825058	2545.069369
818.143821	2546.029709
818.462539	2546.264123
818.781213	2546.064997
819.099843	2545.490305
819.418429	2548.535162
819.736970	2553.505740
820.055466	2552.484906
820.373919	2553.223435
820.692327	2560.429765
821.010691	2566.927812
821.329011	2584.483630
821.647286	2622.806482
821.965517	2656.730927
822.283704	2682.438291
822.601847	2692.858356
822.919945	2674.173319
823.237999	2648.473517
823.556010	2631.951135
823.873976	2612.693927
824.191897	2596.307657
824.509775	2588.929928
824.827609	2579.452559
825.145398	2572.780592
825.463144	2572.359655
825.780845	2573.229254
826.098502	2580.410378
826.416116	2585.832139
826.733685	2600.539705
827.051210	2603.294696
827.368692	2600.217072
827.686129	2588.635021
828.003522	2577.552044
828.320872	2566.264900
828.638177	2560.424724
828.955439	2554.423230
829.272656	2550.602035
829.589830	2547.486602
829.906960	2550.400389
830.224046	2546.904349
830.541088	2546.478372
830.858086	2548.275543
831.175041	2549.750080
831.491952	2543.796478
831.808819	2546.312013
832.125642	2548.293187
832.442421	2549.976932
832.759157	2554.687891
833.075849	2560.611246
833.392497	2570.401167
833.709101	2572.019377
834.025662	2572.069789
834.342179	2568.793039
834.658653	2564.311453
834.975083	2556.467418
835.291469	2559.020762
835.607811	2548.227652
835.924110	2546.639688
836.240366	2545.066848
836.556578	2545.966694
836.872746	2545.475182
837.188871	2542.730274
837.504952	2540.297917
837.820990	2542.074924
838.136984	2538.299099
838.452935	2541.144831
838.768842	2540.345808
839.084706	2542.127856
839.400526	2545.167672
839.716303	2549.082127
840.032037	2552.681511
840.347727	2550.327293
840.663373	2549.150183
840.978977	2548.525080
841.294537	2544.890408
841.610054	2542.919317
841.925527	2540.378575
842.240957	2540.199614
842.556344	2542.311858
842.871687	2536.857329
843.186987	2537.283307
843.502244	2538.112577
843.817458	2537.767258
844.132629	2535.929757
844.447756	2534.850950
844.762840	2537.588297
845.077881	2536.275076
845.392879	2529.882893
845.707833	2533.270548
846.022745	2530.792821
846.337613	2536.804397
846.652438	2536.406146
846.967221	2536.575025
847.281960	2537.603420
847.596656	2540.265149
847.911309	2535.783564
848.225919	2534.775333
848.540485	2536.305323
848.855009	2535.639891
849.169490	2535.223996
849.483928	2537.623585
849.798323	2535.067720
850.112675	2536.358255
850.426984	2535.201310
850.741251	2540.164326
851.055474	2534.810621
851.369654	2537.500077
851.683792	2535.637370
851.997887	2537.648791
852.311938	2533.389016
852.625947	2536.544778
852.939914	2536.615354
853.253837	2536.476722
853.567718	2533.991433
853.881555	2538.160468
854.195350	2535.203831
854.509103	2537.381609
854.822812	2535.140817
855.136479	2537.142155
855.450103	2535.576876
855.763685	2533.147040
856.077224	2536.638039
856.390720	2535.193749
856.704173	2534.462781
857.017584	2536.839685
857.330953	2534.805580
857.644278	2535.917154
857.957561	2538.316743
858.270802	2534.959335
858.584000	2534.349355
858.897155	2536.169212
859.210268	2534.256094
859.523339	2537.646270
859.836367	2537.071578
860.149352	2538.152906
860.462295	2538.702392
860.775195	2534.528316
861.088054	2530.601257
861.400869	2531.745599
861.713642	2532.721063
862.026373	2533.404139
862.339062	2534.359438
862.651708	2534.286341
862.964312	2536.431352
863.276873	2534.409849
863.589392	2536.098636
863.901869	2539.466127
864.214303	2537.898328
864.526696	2538.727597
864.839045	2535.907072
865.151353	2537.018646
865.463619	2536.380940
865.775842	2537.484953
866.088023	2538.525951
866.400162	2537.852957
866.712258	2537.535365
867.024313	2534.989582
867.336325	2536.696012
867.648296	2538.092412
867.960224	2539.143493
868.272110	2534.379602
868.583954	2537.588297
868.895755	2539.294727
869.207515	2536.696012
869.519233	2536.222144
869.830909	2535.208872
870.142542	2540.580222
870.454134	2537.094264
870.765684	2539.198945
871.077191	2536.940508
871.388657	2535.123172
871.700081	2538.205838
872.011463	2536.201979
872.322803	2538.999820
872.634101	2536.764068
872.945357	2537.489994
873.256571	2539.244316
873.567744	2537.817669
873.878874	2541.328833
874.189963	2539.781199
874.501010	2539.443441
874.812015	2537.157278
875.122979	2539.030067
875.433900	2541.164995
875.744780	2539.889583
876.055618	2540.003009
876.366415	2541.023843
876.677169	2540.431507
876.987882	2540.048380
877.298554	2535.841537
877.609183	2540.557536
877.919771	2538.523431
878.230317	2537.716846
878.540822	2543.196580
878.851285	2542.669780
879.161707	2545.828063
879.472087	2547.249668
879.782425	2549.470296
880.092722	2557.752912
880.402977	2569.627350
880.713191	2587.364650
881.023363	2609.656632
881.333494	2624.780094
881.643583	2628.530712
881.953631	2625.034672
882.263637	2620.389249
882.573602	2611.912548
882.883526	2602.515838
883.193408	2590.331369
883.503248	2582.353743
883.813048	2575.414595
884.122806	2568.987123
884.432522	2565.770867
884.742197	2559.981102
885.051831	2556.666543
885.361424	2552.247972
885.670975	2552.424412
885.980485	2547.915100
886.289954	2550.541542
886.599382	2542.989893
886.908768	2547.761345
887.218113	2543.700696
887.527417	2542.677342
887.836680	2542.863864
888.145901	2543.173895
888.455082	2543.040305
888.764221	2540.965870
889.073319	2540.363452
889.382376	2539.191384
889.691392	2540.585263
890.000366	2542.357228
890.309300	2540.386137
890.618193	2538.699871
890.927044	2538.009233
891.235855	2538.974614
891.544625	2540.492001
891.853353	2541.371683
892.162041	2542.054759
892.470687	2545.177754
892.779293	2544.310675
893.087858	2543.446117
893.396381	2543.854451
893.704864	2546.954761
894.013306	2549.860986
894.321707	2559.575289
894.630068	2567.184911
894.938387	2569.055179
895.246665	2569.481157
895.554903	2565.763306
895.863100	2560.243242
896.171256	2553.478014
896.479371	2555.917932
896.787446	2550.528939
897.095480	2547.138763
897.403473	2545.485264
897.711425	2545.790254
898.019336	2543.035263
898.327207	2540.401261
898.635038	2542.319420
898.942827	2543.806560
899.250576	2543.380582
899.558284	2539.859337
899.865952	2541.714481
900.173579	2539.357742
900.481165	2540.955787
900.788711	2538.495704
901.096216	2539.947557
901.403681	2538.609130
901.711105	2540.557536
902.018489	2538.846065
902.325832	2540.635674
902.633135	2539.032587
902.940397	2540.532331
903.247619	2543.287321
903.554800	2548.908208
903.861941	2559.063612
904.169041	2571.283369
904.476101	2579.548341
904.783121	2579.392065
905.090100	2574.509708
905.397039	2568.540981
905.703938	2558.617470
906.010796	2555.905329
906.317614	2551.201933
906.624391	2548.096582
906.931129	2547.184133
907.237826	2541.575849
907.544483	2539.826569
907.851099	2540.549975
908.157675	2538.102494
908.464211	2538.669624
908.770707	2532.516896
909.077163	2534.208203
909.383578	2530.429858
909.689954	2533.278110
909.996289	2531.596885
910.302584	2536.471681
910.608839	2536.703574
910.915054	2535.551671
911.221229	2534.596372
911.527363	2537.346321
911.833458	2534.031763
912.139513	2534.896321
912.445527	2536.471681
912.751502	2535.259284
913.057436	2536.711136
913.363331	2539.052752
913.669186	2538.951929
913.975000	2539.463606
914.280775	2542.921837
914.586510	2545.954092
914.892205	2548.222611
915.197859	2557.642007
915.503475	2561.478325
915.809050	2569.060220
916.114585	2574.751683
916.420081	2576.206056
916.725536	2574.885273
917.030952	2573.163719
917.336328	2565.591906
917.641665	2564.210630
917.946961	2557.478169
918.252218	2554.929866
918.557435	2552.071532
918.862612	2548.421736
919.167750	2546.949719
919.472848	2546.768238
919.777906	2543.791437
920.082925	2542.430325
920.387904	2543.178936
920.692843	2542.768082
920.997743	2538.823379
921.302603	2542.011909
921.607423	2539.463606
921.912204	2535.861702
922.216946	2540.224820
922.521647	2539.256919
922.826310	2534.924047
923.130932	2538.404964
923.435516	2535.808769
923.740059	2536.436393
924.044564	2531.705270
924.349028	2532.925229
924.653454	2528.917512
924.957840	2529.792152
925.262186	2530.079498
925.566493	2532.844571
925.870761	2527.942049
926.174989	2530.865918
926.479178	2536.937988
926.783328	2532.411032
927.087438	2530.628984
927.391509	2532.821886
927.695541	2529.179652
927.999533	2532.537061
928.303486	2532.683254
928.607400	2533.520086
928.911275	2532.607637
929.215110	2533.149561
929.518906	2532.917668
929.822663	2531.717873
930.126381	2530.160157
930.430060	2532.514375
930.733699	2532.201824
931.037299	2533.245343
931.340861	2531.115455
931.644383	2531.770805
931.947866	2533.061341
932.251309	2532.539581
932.554714	2530.739889
932.858080	2534.424973
933.161407	2528.370547
933.464694	2535.007226
933.767943	2533.482277
934.071153	2531.513706
934.374323	2534.107380
934.677455	2534.130065
934.980548	2534.271217
935.283602	2532.116124
935.586617	2531.158305
935.889593	2531.367513
936.192530	2531.957328
936.495428	2531.896834
936.798287	2533.013450
937.101108	2533.048738
937.403890	2533.240302
937.706632	2533.260466
938.009336	2534.225847
938.312002	2533.898172
938.614628	2533.767102
938.917216	2535.440765
939.219765	2536.741383
939.522275	2535.103008
939.824747	2534.445137
940.127179	2531.478418
940.429573	2526.333921
940.731929	2533.898172
941.034246	2530.460105
941.336524	2531.448171
941.638763	2529.958510
941.940964	2534.697195
942.243126	2535.597041
942.545250	2531.823737
942.847335	2533.615867
943.149381	2530.192924
943.451389	2532.960518
943.753359	2530.984385
944.055290	2532.380785
944.357182	2531.062523
944.659036	2531.730476
944.960851	2532.043028
945.262628	2529.552698
945.564367	2529.998840
945.866067	2530.346679
946.167729	2532.232071
946.469352	2530.238294
946.770937	2531.218799
947.072484	2531.705270
947.373992	2532.269879
947.675462	2532.045548
947.976893	2532.436238
948.278286	2535.254242
948.579641	2533.283151
948.880958	2530.507996
949.182236	2532.156453
949.483476	2532.834489
949.784678	2530.013963
950.085841	2534.200641
950.386967	2530.210568
950.688054	2530.805424
950.989103	2530.565969
951.290114	2531.803573
951.591087	2531.259128
951.892021	2530.238294
952.192917	2533.857843
952.493776	2532.501772
952.794596	2534.624098
953.095378	2531.251566
953.396122	2534.752648
953.696828	2530.732327
953.997496	2531.657379
954.298126	2529.414066
954.598718	2529.383819
954.899272	2532.897503
955.199788	2530.732327
955.500266	2531.367513
955.800706	2528.403314
956.101108	2526.797707
956.401472	2527.276617
956.701798	2525.736544
957.002087	2529.456916
957.302337	2530.139992
957.602550	2528.426000
957.902724	2528.622605
958.202861	2532.237112
958.502960	2529.958510
958.803022	2528.080681
959.103045	2528.317615
959.403031	2529.812317
959.702979	2529.333407
960.002889	2530.606299
960.302762	2529.071267
960.602596	2531.372554
960.902393	2530.623943
961.202153	2530.999509
961.501875	2526.994312
961.801559	2529.497245
962.101205	2528.705784
962.400814	2527.420289
962.700385	2528.564631
962.999918	2530.369364
963.299414	2530.387008
963.598873	2529.078829
963.898293	2529.252749
964.197677	2526.084384
964.497022	2529.169570
964.796331	2528.426000
965.095601	2529.746782
965.394835	2529.124199
965.694030	2526.805269
965.993189	2526.046575
966.292309	2528.085722
966.591393	2527.589168
966.890439	2529.383819
967.189447	2530.364323
967.488419	2527.626977
967.787353	2530.172759
968.086249	2529.174611
968.385108	2529.391381
968.683930	2529.111597
968.982714	2529.875331
969.281462	2529.827440
969.580172	2526.122192
969.878844	2527.137985
970.177480	2527.589168
970.476078	2526.991791
970.774639	2529.572862
971.073162	2528.819210
971.371649	2525.895340
971.670098	2523.341996
971.968510	2524.503982
972.266885	2518.850328
972.565223	2527.311905
972.863524	2528.299971
973.161788	2528.267203
973.460014	2528.068078
973.758204	2530.019004
974.056356	2526.033972
974.354471	2530.576052
974.652550	2528.955321
974.950591	2530.810465
975.248595	2528.690660
975.546563	2529.429189
975.844493	2526.931297
976.142386	2528.471370
976.440243	2527.997502
976.738062	2528.461288
977.035845	2527.979858
977.333590	2527.236287
977.631299	2528.431041
977.928971	2529.325846
978.226606	2526.449867
978.524204	2528.995650
978.821765	2528.151257
979.119290	2528.559590
979.416777	2525.930628
979.714228	2527.044723
980.011642	2524.771163
980.309020	2532.126207
980.606360	2526.626308
980.903664	2528.599919
981.200931	2528.526823
981.498162	2524.798889
981.795356	2530.094622
982.092513	2530.830630
982.389633	2528.700743
982.686717	2530.177801
982.983764	2529.560259
983.280775	2529.325846
983.577749	2530.051772
983.874686	2528.748633
984.171587	2527.921884
984.468451	2530.407173
984.765279	2526.979188
985.062070	2527.826102
985.358824	2527.321987
985.655543	2527.112779
985.952224	2527.039682
986.248869	2529.522451
986.545478	2523.341996
986.842050	2526.535567
987.138586	2523.163035
987.435086	2524.420803
987.731549	2524.705628
988.027975	2526.654034
988.324366	2526.497758
988.620719	2528.431041
988.917037	2524.382994
989.213318	2525.923067
989.509563	2526.051616
989.805772	2526.601102
990.101944	2527.876514
990.398080	2524.846780
990.694180	2527.390043
990.990244	2525.721421
991.286271	2525.880217
991.582262	2526.328880
991.878217	2525.481966
992.174136	2527.264014
992.470019	2528.778880
992.765865	2527.052285
993.061676	2526.162522
993.357450	2525.653365
993.653188	2528.468849
993.948890	2526.228057
994.244556	2525.426513
994.540186	2527.566483
994.835780	2529.731658
995.131337	2527.689991
995.426859	2527.788294
995.722345	2527.004394
996.017795	2527.357275
996.313208	2526.853160
996.608586	2524.602284
996.903928	2529.504807
997.199234	2526.154960
997.494504	2527.495907
997.789738	2527.483304
998.084936	2525.882737
998.380099	2526.018849
998.675225	2526.180166
998.970316	2525.451719
999.265371	2527.924405
999.560390	2525.252593
999.855373	2529.257790
1000.150320	2526.470032
1000.445232	2526.510361
1000.740108	2524.826616
1001.034948	2526.626308
1001.329752	2525.804600
1001.624521	2525.744106
1001.919254	2521.665812
1002.213951	2525.366019
1002.508613	2523.646986
1002.803239	2522.938704
1003.097829	2521.002901
1003.392384	2527.039682
1003.686903	2525.867614
1003.981386	2528.632687
1004.275834	2524.841739
1004.570246	2528.622605
1004.864623	2525.537418
1005.158964	2525.791997
1005.453270	2526.764939
1005.747540	2523.803262
1006.041775	2527.765608
1006.335974	2525.149250
1006.630138	2523.891482
1006.924266	2525.353416
1007.218359	2524.544311
1007.512416	2524.433406
1007.806438	2527.866432
1008.100425	2528.673016
1008.394376	2525.754188
1008.688292	2526.616225
1008.982172	2523.369722
1009.276017	2525.877696
1009.569827	2525.827285
1009.863602	2526.979188
1010.157341	2526.091945
1010.451045	2524.123375
1010.744714	2528.294930
1011.038347	2525.544980
1011.331945	2522.910977
1011.625508	2527.692512
1011.919036	2526.200330
1012.212528	2525.809641
1012.505986	2527.808458
1012.799408	2526.638911
1013.092795	2524.768643
1013.386147	2527.435413
1013.679464	2523.773015
1013.972745	2524.244362
1014.265992	2526.149919
1014.559204	2528.456247
1014.852380	2525.159332
1015.145521	2528.138654
1015.438628	2525.986081
1015.731699	2525.665968
1016.024736	2522.600946
1016.317737	2524.846780
1016.610703	2527.092614
1016.903635	2522.941224
1017.196531	2520.718075
1017.489393	2524.521626
1017.782219	2521.365864
1018.075011	2524.672861
1018.367768	2525.910464
1018.660490	2526.767460
1018.953177	2526.767460
1019.245829	2526.767460
