Dividing Wavelength (nm)	Counts (n)	Blue Motor Position (mm): 0.000000	Red Motor Position (mm): 37.300000	
326.493990	2128.450771
326.888308	2128.450771
327.282561	2128.450771
327.676750	2095.335432
328.070874	2094.301995
328.464933	2095.118662
328.858929	2104.603593
329.252859	2111.681373
329.646726	2124.881634
330.040528	2136.998048
330.434265	2155.307518
330.827938	2171.668583
331.221547	2191.054340
331.615091	2212.045705
332.008571	2227.791749
332.401986	2249.511560
332.795338	2264.975300
333.188625	2287.332817
333.581847	2306.395940
333.975006	2323.248518
334.368100	2338.833245
334.761129	2360.399301
335.154095	2377.468648
335.546996	2394.507748
335.939833	2415.158834
336.332606	2429.523602
336.725315	2444.009358
337.117960	2451.263578
337.510540	2460.025104
337.903056	2473.550519
338.295508	2479.214256
338.687896	2487.300267
339.080220	2497.417862
339.472480	2501.052534
339.864676	2509.562002
340.256807	2511.573422
340.648875	2514.497292
341.040879	2517.839577
341.432818	2517.469052
341.824694	2522.089269
342.216506	2520.294618
342.608253	2522.979033
342.999937	2519.820750
343.391557	2519.994670
343.783113	2518.794875
344.174605	2515.853362
344.566033	2518.527694
344.957397	2516.977539
345.348697	2513.809174
345.739934	2513.342867
346.131106	2513.310100
346.522215	2510.751714
346.913260	2504.871208
347.304241	2507.815242
347.695159	2501.549088
348.086012	2501.964983
348.476802	2499.116731
348.867528	2497.770743
349.258191	2498.617657
349.648789	2497.090187
350.039324	2494.057933
350.429796	2496.646566
350.820203	2494.861997
351.210548	2492.714466
351.600828	2490.249342
351.991045	2492.308653
352.381198	2492.613643
352.771288	2491.363437
353.161314	2487.895123
353.551276	2488.547952
353.941175	2490.347644
354.331010	2489.959475
354.720782	2490.534167
355.110490	2489.465442
355.500135	2488.164824
355.889717	2489.921667
356.279235	2488.870586
356.668689	2492.656492
357.058080	2491.476862
357.447408	2490.322438
357.836672	2486.039978
358.225873	2488.726913
358.615010	2488.880668
359.004084	2494.357882
359.393095	2493.803355
359.782043	2495.721514
360.170927	2493.813437
360.559748	2496.754951
360.948505	2497.407780
361.337199	2496.747389
361.725830	2499.255363
362.114398	2496.644045
362.502903	2500.984479
362.891344	2498.226968
363.279722	2498.773933
363.668037	2501.546567
364.056289	2503.023625
364.444478	2504.256188
364.832603	2504.727535
365.220665	2504.147803
365.608665	2503.666373
365.996601	2506.103770
366.384474	2507.820283
366.772284	2507.674090
367.160031	2508.891528
367.547715	2510.781961
367.935336	2512.868999
368.322893	2514.890502
368.710388	2518.686490
369.097820	2526.467511
369.485189	2525.943231
369.872495	2536.154088
370.259738	2543.609955
370.646918	2548.078938
371.034035	2554.728220
371.421090	2566.562328
371.808081	2576.677404
372.195010	2586.174937
372.581875	2599.972576
372.968678	2611.536982
373.355418	2622.040227
373.742096	2641.156282
374.128710	2657.232522
374.515262	2668.948163
374.901751	2685.092458
375.288177	2697.899510
375.674540	2722.021431
376.060841	2741.860892
376.447079	2757.433016
376.833254	2778.820111
377.219367	2790.187913
377.605417	2827.706701
377.991404	2838.318329
378.377329	2858.843387
378.763191	2880.195194
379.148991	2913.111408
379.534727	2939.292641
379.920402	2966.492187
380.306013	2981.640854
380.691563	3028.654655
381.077049	3048.282387
381.462474	3067.647980
381.847835	3108.317488
382.233134	3128.416569
382.618371	3131.668113
383.003545	3200.164791
383.388657	3204.941284
383.773706	3237.570152
384.158693	3252.829725
384.543618	3278.252264
384.928480	3319.320024
385.313280	3362.041282
385.698017	3361.393494
386.082692	3416.969694
386.467305	3421.852052
386.851856	3452.686269
387.236344	3476.909013
387.620770	3505.010926
388.005133	3532.812889
388.389435	3558.991601
388.773674	3571.203796
389.157851	3612.362297
389.541965	3630.394504
389.926018	3593.818412
390.310008	3664.961696
390.693936	3685.078420
391.077802	3725.284143
391.461606	3713.976835
391.845348	3773.802728
392.229027	3773.361627
392.612645	3787.081127
392.996200	3868.336966
393.379694	3907.824324
393.763125	3971.012667
394.146494	3939.397070
394.529801	4000.299250
394.913047	4048.427146
395.296230	4011.334336
395.679351	4067.883479
396.062410	4089.414247
396.445408	4073.829520
396.828343	4109.964511
397.211217	4129.433447
397.594028	4051.141807
397.976778	4117.927013
398.359466	4144.398112
398.742092	4174.992875
399.124656	4095.067901
399.507158	4177.647042
399.889598	4199.064384
400.271977	4260.606790
400.654294	4231.705855
401.036549	4243.096343
401.418742	4210.807752
401.800874	4315.509997
402.182944	4335.654448
402.564952	4398.578130
402.946898	4387.255698
403.328783	4382.569946
403.710606	4296.126760
404.092367	4488.590452
404.474067	4452.082416
404.855705	4462.106751
405.237282	4393.005134
405.618797	4495.854755
406.000250	4536.471332
406.381642	4614.926809
406.762972	4575.993978
407.144240	4583.719546
407.525447	4586.817335
407.906593	4647.215399
408.287677	4686.609496
408.668700	4617.281028
409.049661	4667.556455
409.430560	4709.680337
409.811399	4640.974451
410.192176	4796.441115
410.572891	4736.529522
410.953545	4840.558773
411.334138	4718.827510
411.714669	4786.063900
412.095139	4682.818548
412.475547	4827.134180
412.855894	4802.717352
413.236180	4819.312830
413.616405	4769.349954
413.996568	4855.120146
414.376670	4798.591167
414.756711	4751.842027
415.136691	4785.743787
415.516609	4862.150035
415.896466	4899.744440
416.276262	4933.626035
416.655997	4914.167181
417.035670	5098.194502
417.415283	5191.349984
417.794834	5132.723885
418.174324	5084.971555
418.553753	4996.814377
418.933121	5178.500083
419.312428	5245.870063
419.691674	5183.173232
420.070859	5309.459177
420.449983	5220.586156
420.829045	5334.541438
421.208047	5243.609105
421.586988	5314.399508
421.965867	5328.718906
422.344686	5458.566426
422.723444	5316.216844
423.102141	5133.709431
423.480777	5428.490902
423.859352	5199.350295
424.237866	5462.690090
424.616319	5450.737514
424.994712	5560.138114
425.373044	5438.462304
425.751314	5580.970682
426.129524	5382.008943
426.507673	5576.438685
426.885762	5663.844731
427.263789	5593.455100
427.641756	5474.693077
428.019662	5594.987611
428.397508	5601.452890
428.775292	5549.264345
429.153016	5644.527029
429.530679	5571.591616
429.908282	5657.901211
430.285824	5532.489906
430.663305	5801.150638
431.040726	5537.039547
431.418086	5538.602305
431.795385	5643.178521
432.172624	5660.159647
432.549802	5651.224202
432.926920	5666.957643
433.303977	5674.920146
433.680974	5713.558070
434.057910	5728.782354
434.434786	5733.258899
434.811601	5703.884095
435.188355	5934.892450
435.565050	5814.728986
435.941683	5794.690400
436.318257	6004.407441
436.694770	5986.236602
437.071222	6028.189084
437.447614	5960.937571
437.823946	5874.549838
438.200218	6024.531727
438.576429	5886.361262
438.952580	5989.258773
439.328670	6030.828128
439.704700	5937.584426
440.080670	5928.056645
440.456580	6199.752152
440.832429	6084.216468
441.208218	5928.638898
441.583947	6082.641107
441.959616	6087.631850
442.335224	6011.959089
442.710773	6150.865563
443.086261	6178.967475
443.461689	5972.741433
443.837057	6122.950173
444.212365	6283.576458
444.587612	6169.195198
444.962800	6319.779505
445.337927	6306.763246
445.712995	5911.872021
446.088002	6498.516135
446.462949	6321.130534
446.837837	6250.256952
447.212664	6422.734990
447.587431	6565.336629
447.962139	7104.523321
448.336786	8032.002367
448.711374	7777.517360
449.085901	6852.158118
449.460369	6774.385718
449.834776	6706.055398
450.209124	7098.390757
450.583412	7249.491782
450.957640	7391.801035
451.331808	7159.794532
451.705917	6709.349792
452.079965	6630.521269
452.453954	6844.939186
452.827883	6722.489559
453.201752	6817.643859
453.575562	6613.351099
453.949311	6821.137378
454.323001	6706.713268
454.696632	6783.744620
455.070202	6915.931235
455.443713	7075.534166
455.817164	7173.660226
456.190556	7259.868997
456.563888	7331.531520
456.937160	7375.928962
457.310373	7029.228647
457.683526	7053.395939
458.056619	6949.462470
458.429653	6937.628361
458.802628	6875.385235
459.175542	6984.309446
459.548398	7337.432191
459.921194	7494.111252
460.293930	7499.296079
460.666607	8028.536574
461.039224	8338.499480
461.411782	8460.064385
461.784280	8489.653437
462.156719	8373.187660
462.529099	8253.714834
462.901419	7842.122267
463.273680	7730.937098
463.645882	7748.717248
464.018024	7609.115095
464.390106	7776.438553
464.762130	8162.361565
465.134094	8634.203482
465.505999	9655.364811
465.877845	10880.024918
466.249631	11528.639937
466.621358	11146.775053
466.993026	10514.584114
467.364634	10263.993397
467.736184	9896.752902
468.107674	9569.733252
468.479105	9601.333724
468.850477	9358.168628
469.221790	9126.020972
469.593043	8809.844844
469.964238	8667.964090
470.335373	8678.926079
470.706449	8734.318277
471.077467	8720.051812
471.448425	10021.776038
471.819324	11099.420975
472.190164	11131.034050
472.560945	9880.701868
472.931667	9084.459179
473.302330	8950.205691
473.672934	8596.530940
474.043479	8958.611815
474.413965	8895.420951
474.784393	8778.448538
475.154761	8933.567362
475.525070	9023.899798
475.895321	8848.427315
476.265513	9018.646916
476.635645	9193.310294
477.005719	9193.398514
477.375734	9307.104260
477.745691	9543.047904
478.115588	9675.597482
478.485427	9920.758876
478.855207	10456.134456
479.224928	11271.115113
479.594591	11902.040722
479.964194	11712.425282
480.333739	11661.257571
480.703226	11566.607387
481.072653	11664.153714
481.442022	11902.622976
481.811333	12094.103643
482.180584	11895.736760
482.549777	11601.668612
482.918912	11431.620410
483.287988	11455.578494
483.657005	11461.622837
484.025964	11145.817234
484.394864	11269.242324
484.763706	11245.006977
485.132489	10998.960861
485.501213	10964.305449
485.869879	11041.651872
486.238487	10884.004909
486.607036	10990.753862
486.975527	10767.856724
487.343959	10960.600201
487.712333	11012.463591
488.080648	10944.360123
488.448905	10980.613581
488.817104	10919.013202
489.185244	11183.983810
489.553326	11341.219919
489.921350	11873.364119
490.289315	12930.804111
490.657222	13281.940641
491.025070	13203.351573
491.392861	13066.227148
491.760593	12695.019264
492.128267	12337.130108
492.495883	12012.222702
492.863440	11668.347954
493.230939	11337.779331
493.598380	11269.007911
493.965763	11141.741461
494.333088	11045.009281
494.700354	10963.624893
495.067563	11022.815601
495.434713	10849.873777
495.801805	10973.944135
496.168839	10899.682898
496.535815	10841.147540
496.902733	10836.613022
497.269593	10770.881417
497.636395	10872.158198
498.003139	10856.487771
498.369825	10724.938861
498.736453	10879.619105
499.103023	10807.008846
499.469535	10830.850983
499.835989	10823.725312
500.202385	10784.464806
500.568723	10640.186983
500.935003	10856.134890
501.301226	10663.237659
501.667390	10925.876733
502.033497	11018.346618
502.399546	10877.499300
502.765537	10790.816660
503.131470	10867.225428
503.497345	11042.513909
503.863163	10652.633592
504.228923	10951.747934
504.594625	11023.501198
504.960269	10779.494228
505.325856	10988.364355
505.691385	10784.926071
506.056856	10941.458939
506.422270	10963.569440
506.787625	10849.258756
507.152924	10960.053235
507.518164	10950.210383
507.883347	10871.180214
508.248472	10785.609148
508.613540	11018.336536
508.978550	10903.330172
509.343503	10876.942253
509.708398	10997.022537
510.073236	11108.048909
510.438016	11115.262801
510.802738	11064.563916
511.167403	11113.886566
511.532010	11011.742706
511.896561	11244.838098
512.261053	11315.200003
512.625488	11185.879284
512.989866	11161.265850
513.354186	11157.674028
513.718449	11054.537061
514.082655	11251.883111
514.446803	11142.036369
514.810894	11268.196285
515.174927	11136.536470
515.538904	11154.026753
515.902822	11305.984774
516.266684	11189.914727
516.630488	11132.737960
516.994235	11192.987311
517.357925	11254.862433
517.721558	11344.970537
518.085133	11360.842610
518.448651	11362.664987
518.812112	11247.126782
519.175516	11260.284194
519.538863	11384.226002
519.902152	11289.469954
520.265385	11456.138062
520.628560	11369.808302
520.991678	11346.094715
521.354739	11406.492779
521.717743	11341.708911
522.080690	11317.130765
522.443580	11456.420367
522.806413	11397.655636
523.169189	11431.995976
523.531908	11491.287507
523.894569	11308.134826
524.257174	11306.246914
524.619722	11436.931266
524.982213	11373.367357
525.344647	11428.273084
525.707025	11370.917356
526.069345	11467.047119
526.431608	11382.514531
526.793815	11487.262146
527.155964	11272.879517
527.518057	11324.034625
527.880093	11276.040320
528.242072	11348.116217
528.603995	11250.761454
528.965860	11166.763228
529.327669	11217.187370
529.689421	11165.802888
530.051117	11130.381221
530.412755	11230.803526
530.774337	11125.912238
531.135862	11095.309914
531.497331	11114.884714
531.858743	10966.848711
532.220098	11129.045315
532.581396	11000.742909
532.942638	10974.067643
533.303824	10936.884092
533.664953	10941.602612
534.026025	10845.366985
534.387040	10947.087388
534.747999	10952.904879
535.108902	10999.543114
535.469748	10751.906514
535.830537	10851.917965
536.191270	10828.118678
536.551947	10845.513179
536.912567	10834.266365
537.273131	10758.276012
537.633638	10729.264171
537.994089	10713.939063
538.354483	10656.202728
538.714821	10793.407813
539.075103	10789.863882
539.435328	10751.770403
539.795497	10575.418238
540.155609	10715.073323
540.515665	10802.718824
540.875665	10532.492813
541.235609	10588.462224
541.595496	10575.874462
541.955328	10720.558098
542.315102	10596.646537
542.674821	10540.503207
543.034483	10534.083297
543.394090	10523.718685
543.753640	10443.347569
544.113134	10647.834413
544.472571	10498.402010
544.831953	10619.283838
545.191278	10431.188306
545.550548	10438.651734
545.909761	10564.408358
546.268918	10523.267502
546.628019	10589.125135
546.987064	10447.226737
547.346053	10359.225835
547.704986	10431.180744
548.063863	10409.115614
548.422684	10389.341688
548.781449	10292.473396
549.140158	10375.725531
549.498811	10245.562939
549.857408	10092.339588
550.215949	10287.843096
550.574434	10138.146033
550.932864	10206.725890
551.291237	10249.540409
551.649555	10173.509727
552.007817	10179.695223
552.366022	10121.910997
552.724173	10092.672305
553.082267	10066.773377
553.440305	10157.836780
553.798288	9966.252769
554.156215	10072.873173
554.514086	10034.215085
554.871902	9878.221620
555.229661	9896.120237
555.587365	9848.690541
555.945014	9727.677643
556.302606	9816.401950
556.660143	9703.328870
557.017625	9805.863418
557.375050	9691.255306
557.732421	9788.675604
558.089735	9687.262712
558.446994	9660.504268
558.804197	9665.598354
559.161345	9643.565991
559.518437	9493.359771
559.875474	9533.986430
560.232455	9525.313124
560.589381	9463.110327
560.946251	9423.005428
561.303065	9498.156429
561.659825	9403.513806
562.016528	9319.550868
562.373177	9196.957569
562.729770	9247.595959
563.086307	9153.071804
563.442789	9203.528713
563.799216	9058.771980
564.155587	9076.519362
564.511904	9008.738528
564.868164	8972.938774
565.224370	8952.096123
565.580520	8846.932613
565.936615	8836.736879
566.292654	8681.335750
566.648638	8769.180377
567.004567	8689.230197
567.360441	8648.502715
567.716260	8537.030201
568.072023	8583.413857
568.427732	8507.549533
568.783385	8415.379597
569.138982	8417.799351
569.494525	8400.185559
569.850013	8278.350953
570.205445	8291.674723
570.560823	8195.681071
570.916145	8087.699556
571.271412	8098.727080
571.626625	8031.205865
571.981782	7981.288360
572.336884	7922.919360
572.691931	7906.477637
573.046923	7810.882236
573.401860	7753.400480
573.756743	7663.607447
574.111570	7657.608474
574.466342	7620.346786
574.821059	7595.887107
575.175722	7488.024059
575.530330	7453.668595
575.884882	7414.597133
576.239380	7326.402146
576.593823	7286.163656
576.948211	7251.117554
577.302544	7155.113821
577.656823	7112.569003
578.011047	7088.200065
578.365216	7033.523710
578.719330	6955.874818
579.073389	6915.870741
579.427394	6858.552822
579.781344	6804.582229
580.135239	6741.608135
580.489080	6716.878755
580.842866	6613.106603
581.196597	6578.534370
581.550273	6571.368370
581.903895	6516.646645
582.257463	6526.744076
582.610975	6412.884575
582.964434	6403.828142
583.317837	6317.188352
583.671186	6285.391274
584.024481	6244.217650
584.377721	6166.427605
584.730906	6120.137210
585.084037	6099.690290
585.437113	6043.554521
585.790135	6007.873234
586.143103	5929.079999
586.496016	5885.274893
586.848874	5876.339448
587.201679	5844.181928
587.554428	5748.904120
587.907124	5739.066308
588.259765	5698.800092
588.612352	5666.440925
588.964884	5578.256021
589.317362	5546.456422
589.669786	5512.463922
590.022155	5523.766189
590.374470	5484.982072
590.726731	5436.433240
591.078937	5331.131098
591.431090	5346.887224
591.783188	5265.528042
592.135232	5222.075817
592.487222	5205.218198
592.839157	5191.871743
593.191038	5135.262106
593.542866	5083.169343
593.894639	5013.959342
594.246358	5005.802755
594.598022	4983.271318
594.949633	4912.851440
595.301190	4877.162591
595.652692	4858.298593
596.004141	4867.647413
596.355535	4763.698821
596.706876	4732.239500
597.058162	4677.616078
597.409395	4679.309905
597.760573	4681.613713
598.111698	4620.905617
598.462768	4581.950101
598.813785	4550.203435
599.164748	4509.173484
599.515657	4487.988035
599.866511	4422.442952
600.217312	4449.138383
600.568060	4374.456209
600.918753	4381.781005
601.269392	4348.542158
601.619978	4294.034682
601.970510	4287.478661
602.320988	4269.063326
602.671412	4260.579064
603.021783	4218.543403
603.372100	4191.777396
603.722363	4161.366636
604.072572	4139.873676
604.422728	4121.385245
604.772830	4075.868667
605.122878	4057.539031
605.472872	4035.763767
605.822813	4019.243906
606.172701	3987.411540
606.522534	3981.480622
606.872314	3965.361533
607.222041	3933.229218
607.571714	3927.636058
607.921333	3900.345772
608.270899	3876.460785
608.620411	3879.117473
608.969870	3844.877956
609.319276	3819.304183
609.668627	3802.585196
610.017926	3797.032365
610.367171	3786.665232
610.716362	3762.427364
611.065500	3740.067327
611.414585	3725.410172
611.763616	3707.740928
612.112594	3687.465407
612.461518	3669.067716
612.810389	3668.596368
613.159207	3635.864156
613.507971	3613.254581
613.856682	3612.395064
614.205340	3591.262547
614.553945	3590.241714
614.902496	3550.580436
615.250994	3546.955846
615.599439	3531.413969
615.947830	3514.702544
616.296169	3498.200327
616.644454	3483.422184
616.992686	3470.289978
617.340864	3470.347952
617.688990	3437.209927
618.037063	3440.549691
618.385082	3420.347267
618.733048	3419.389448
619.080961	3400.822878
619.428821	3389.984398
619.776628	3374.303889
620.124382	3357.355529
620.472083	3337.137982
620.819731	3327.801765
621.167326	3298.731951
621.514868	3285.776186
621.862357	3256.708893
622.209793	3248.035588
622.557176	3224.795868
622.904506	3207.383723
623.251783	3187.393027
623.599007	3168.546674
623.946179	3154.605363
624.293297	3138.395533
624.640363	3121.986577
624.987376	3106.515276
625.334336	3093.851897
625.681243	3077.410174
626.028097	3062.327042
626.374899	3057.515260
626.721647	3036.929709
627.068343	3025.730785
627.414987	3016.059332
627.761577	3002.740603
628.108115	2999.849502
628.454600	2986.049343
628.801032	2974.154740
629.147412	2973.864874
629.493739	2958.484314
629.840014	2949.037191
630.186236	2945.664659
630.532405	2928.620518
630.878521	2925.318563
631.224585	2917.018303
631.570597	2904.730490
631.916556	2899.643966
632.262462	2894.020559
632.608316	2885.190978
632.954117	2878.947509
633.299866	2872.804863
633.645562	2866.135416
633.991206	2852.985567
634.336797	2841.774040
634.682336	2836.080057
635.027823	2825.569251
635.373257	2821.503561
635.718639	2807.766417
636.063968	2803.365489
636.409245	2793.971299
636.754470	2788.899898
637.099642	2780.841614
637.444762	2775.082096
637.789829	2769.302413
638.134845	2760.697163
638.479808	2754.965371
638.824719	2749.911614
639.169577	2745.674525
639.514383	2741.742425
639.859137	2734.528533
640.203839	2733.066599
640.548489	2728.395970
640.893086	2725.149467
641.237632	2717.307952
641.582125	2715.936758
641.926566	2709.713454
642.270955	2708.380068
642.615292	2706.466951
642.959576	2705.930068
643.303809	2705.292362
643.647990	2698.779191
643.992118	2697.987730
644.336195	2690.743592
644.680219	2689.833663
645.024192	2688.618745
645.368112	2689.745443
645.711981	2688.200330
646.055797	2688.888447
646.399562	2689.004394
646.743274	2688.553210
647.086935	2691.517409
647.430544	2687.038344
647.774101	2688.815350
648.117606	2685.188240
648.461059	2684.769824
648.804460	2680.573064
649.147810	2675.030315
649.491108	2669.568225
649.834354	2666.488080
650.177548	2661.283089
650.520690	2657.522388
650.863781	2654.497696
651.206820	2656.995587
651.549807	2650.469814
651.892742	2648.309679
652.235626	2644.939668
652.578458	2642.787095
652.921238	2636.730149
653.263967	2639.890952
653.606644	2637.488842
653.949269	2635.182515
654.291843	2633.433234
654.634365	2632.351907
654.976836	2629.032307
655.319255	2633.050107
655.661622	2627.315794
656.003938	2624.933849
656.346203	2623.330762
656.688416	2624.490227
657.030577	2619.305401
657.372687	2619.494444
657.714746	2619.076028
658.056753	2619.355812
658.398708	2613.387086
658.740612	2614.460852
659.082465	2611.156375
659.424266	2612.772065
659.766016	2608.502208
660.107715	2609.381889
660.449362	2611.937754
660.790958	2610.856427
661.132503	2608.938268
661.473996	2611.564709
661.815438	2610.410285
662.156829	2608.862650
662.498168	2609.104626
662.839456	2607.446086
663.180693	2608.106477
663.521879	2606.447938
663.863013	2605.227978
664.204097	2606.193359
664.545129	2606.899121
664.886110	2604.103801
665.227040	2605.480036
665.567918	2602.384768
665.908746	2601.772267
666.249522	2602.785539
666.590248	2603.975252
666.930922	2602.329315
667.271545	2604.295365
667.612118	2603.145982
667.952639	2603.163626
668.293109	2600.585076
668.633528	2600.161619
668.973896	2602.304109
669.314213	2601.822679
669.654480	2601.285796
669.994695	2597.973758
670.334859	2597.535178
670.674973	2595.236412
671.015035	2597.661207
671.355047	2596.910075
671.695008	2596.393356
672.034918	2594.724734
672.374777	2593.421596
672.714585	2596.332862
673.054342	2597.709097
673.394049	2595.556525
673.733705	2597.114241
674.073310	2592.088211
674.412864	2597.038624
674.752368	2594.528129
675.091820	2593.656010
675.431223	2593.832450
675.770574	2591.546287
676.109875	2586.192582
676.449125	2586.462283
676.788324	2586.230390
677.127473	2588.667788
677.466571	2585.088569
677.805619	2589.663416
678.144616	2587.795668
678.483562	2587.291553
678.822458	2586.610997
679.161303	2586.976481
679.500098	2585.786769
679.838842	2583.672005
680.177535	2583.944227
680.516179	2584.292067
680.854771	2586.356419
681.193314	2581.816860
681.531805	2587.548652
681.870247	2589.504620
682.208638	2591.631987
682.546978	2590.517892
682.885268	2588.299784
683.223508	2591.090062
683.561697	2585.459094
683.899836	2588.395566
684.237925	2587.228539
684.575963	2585.214598
684.913951	2585.075966
685.251889	2588.148549
685.589776	2584.589495
685.927614	2588.098138
686.265401	2584.758373
686.603137	2586.195102
686.940824	2585.837180
687.278460	2590.064188
687.616046	2589.492017
687.953582	2588.065370
688.291068	2585.398600
688.628504	2590.280957
688.965889	2586.837849
689.303224	2588.110741
689.640510	2588.773652
689.977745	2587.059660
690.314930	2585.053281
690.652065	2585.489341
690.989150	2583.044381
691.326185	2582.830132
691.663170	2578.514904
692.000105	2579.515573
692.336990	2578.819894
692.673825	2578.371231
693.010610	2578.777044
693.347345	2572.745304
693.684030	2569.730694
694.020665	2571.006106
694.357251	2569.040056
694.693786	2573.708164
695.030272	2571.381672
695.366707	2572.485684
695.703093	2570.839747
696.039429	2573.017526
696.375716	2571.585838
696.711952	2569.163564
697.048139	2572.682289
697.384276	2572.394943
697.720363	2570.577607
698.056400	2571.283369
698.392388	2567.079047
698.728326	2570.776733
699.064214	2567.820096
699.400053	2569.632391
699.735842	2565.460836
700.071581	2567.946125
700.407270	2567.487380
700.742910	2569.153482
701.078501	2569.219017
701.414042	2567.225240
701.749533	2565.594427
702.084974	2563.981258
702.420366	2566.670713
702.755709	2565.793552
703.091002	2567.540312
703.426246	2566.947977
703.761440	2563.131823
704.096584	2567.421845
704.431679	2564.876062
704.766725	2567.043759
705.101721	2564.442523
705.436668	2565.773388
705.771565	2563.338511
706.106413	2566.252297
706.441212	2566.274983
706.775961	2565.995199
707.110661	2565.959911
707.445311	2565.589386
707.779913	2565.198696
708.114465	2567.482339
708.448967	2567.038717
708.783421	2568.311609
709.117825	2567.227761
709.452180	2567.832699
709.786485	2568.679613
710.120742	2570.496949
710.454949	2570.479305
710.789107	2569.975190
711.123216	2568.190621
711.457275	2568.823286
711.791286	2568.427555
712.125247	2569.329922
712.459159	2572.914182
712.793023	2572.798236
713.126837	2571.674058
713.460602	2572.944429
713.794318	2571.832855
714.127985	2573.110787
714.461602	2568.130127
714.795171	2570.514593
715.128691	2569.466033
715.462162	2566.123748
715.795584	2569.428224
716.128957	2567.341187
716.462281	2567.905796
716.795556	2568.001578
717.128782	2564.077040
717.461960	2564.135013
717.795088	2565.125600
718.128167	2564.273645
718.461198	2563.736762
718.794180	2563.797256
719.127113	2562.025290
719.459997	2562.554611
719.792833	2562.360527
720.125619	2561.117882
720.458357	2559.313149
720.791046	2558.163766
721.123686	2561.932029
721.456278	2561.788356
721.788821	2559.696277
722.121315	2563.560321
722.453761	2561.410269
722.786158	2559.257697
723.118506	2558.630073
723.450805	2559.098900
723.783056	2559.860114
724.115259	2560.976730
724.447412	2558.609908
724.779518	2564.863460
725.111574	2559.855073
725.443582	2560.225598
725.775542	2559.645865
726.107453	2562.602502
726.439315	2561.611915
726.771129	2565.354972
727.102895	2564.520661
727.434612	2562.302553
727.766281	2563.714077
728.097901	2562.718449
728.429473	2560.036555
728.760996	2558.672923
729.092471	2558.239383
729.423897	2562.438665
729.755276	2564.066957
730.086606	2561.501010
730.417887	2561.425393
730.749120	2563.091494
731.080305	2566.907648
731.411442	2566.161557
731.742530	2566.305230
732.073570	2566.947977
732.404562	2564.316494
732.735506	2567.517627
733.066401	2567.172308
733.397249	2566.572411
733.728048	2564.530743
734.058798	2564.734910
734.389501	2560.414641
734.720156	2559.494631
735.050762	2562.899930
735.381320	2559.164435
735.711831	2560.797769
736.042293	2558.315001
736.372707	2558.272151
736.703073	2559.683674
737.033391	2557.977243
737.363661	2555.592778
737.693883	2558.854404
738.024056	2560.752399
738.354182	2556.069167
738.684260	2561.437996
739.014290	2561.846329
739.344272	2557.780638
739.674207	2559.227450
740.004093	2562.713408
740.333931	2560.606205
740.663722	2561.750547
740.993464	2561.145609
741.323159	2564.382029
741.652806	2560.026472
741.982405	2560.079405
742.311956	2560.391956
742.641460	2561.506051
742.970915	2559.179559
743.300323	2560.369271
743.629683	2558.763663
743.958996	2560.023952
744.288260	2560.386915
744.617477	2558.408262
744.946647	2554.536656
745.275768	2552.550441
745.604842	2552.757129
745.933869	2552.721841
746.262847	2552.310987
746.591778	2554.899619
746.920662	2553.029351
747.249498	2557.805844
747.578286	2557.233673
747.907027	2555.363405
748.235720	2556.686708
748.564365	2555.164280
748.892963	2555.648230
749.221514	2557.203426
749.550017	2557.959599
749.878473	2554.148487
750.206881	2554.526574
750.535242	2558.761143
750.863555	2556.016235
751.191821	2554.183775
751.520039	2554.743343
751.848210	2556.744681
752.176334	2553.840977
752.504411	2557.546225
752.832440	2555.870041
753.160421	2555.799465
753.488356	2555.600339
753.816243	2555.532284
754.144082	2553.606563
754.471875	2556.439692
754.799620	2552.855431
755.127318	2556.132181
755.454969	2555.381049
755.782572	2554.466080
756.110129	2554.259393
756.437638	2554.481203
756.765100	2553.341902
757.092515	2556.104455
757.419882	2554.448436
757.747203	2556.222922
758.074477	2553.493137
758.401703	2551.010369
758.728882	2555.779300
759.056014	2556.492624
759.383099	2555.406255
759.710138	2553.404917
760.037129	2553.175544
760.364073	2558.120916
760.690970	2555.194527
761.017820	2556.439692
761.344623	2552.411810
761.671379	2557.889023
761.998088	2551.585060
762.324751	2559.262738
762.651366	2559.529919
762.977935	2574.539954
763.304456	2577.620099
763.630931	2582.026068
763.957359	2576.256467
764.283740	2570.907803
764.610074	2569.836558
764.936362	2563.076371
765.262602	2562.307595
765.588796	2557.967161
765.914943	2555.809547
766.241044	2553.964485
766.567097	2553.984650
766.893104	2555.880123
767.219064	2551.978270
767.544978	2556.411965
767.870845	2550.526418
768.196665	2553.120092
768.522438	2553.256203
768.848165	2550.786038
769.173846	2548.847714
769.499479	2550.329813
769.825066	2550.372663
770.150607	2548.754452
770.476101	2551.093548
770.801548	2552.731923
771.126949	2547.095913
771.452303	2549.112374
771.777611	2547.027857
772.102872	2546.122970
772.428087	2549.709751
772.753256	2549.117416
773.078378	2546.591798
773.403453	2552.164793
773.728482	2547.642878
774.053465	2545.959133
774.378401	2547.607590
774.703291	2549.046839
775.028135	2547.567261
775.352932	2546.062476
775.677683	2544.870243
776.002388	2548.482230
776.327046	2547.957950
776.651658	2546.455686
776.976224	2545.455017
777.300743	2546.717826
777.625216	2545.175233
777.949643	2549.760163
778.274024	2548.605738
778.598359	2543.458720
778.922647	2543.027702
779.246889	2542.011909
779.571086	2542.508463
779.895236	2545.704554
780.219339	2543.529297
780.543397	2546.659853
780.867409	2544.837476
781.191374	2546.344781
781.515294	2543.977959
781.839167	2547.005172
782.162995	2545.681869
782.486776	2545.260933
782.810511	2546.168341
783.134201	2544.655994
783.457844	2543.851930
783.781441	2544.832435
784.104993	2544.862682
784.428498	2543.877136
784.751958	2544.784544
785.075372	2546.513660
785.398739	2544.550130
785.722061	2545.195398
786.045337	2542.876467
786.368568	2544.451828
786.691752	2544.504760
787.014891	2545.107178
787.337983	2547.279915
787.661030	2550.266799
787.984031	2546.866540
788.306987	2546.858979
788.629897	2550.818805
788.952760	2550.707900
789.275579	2549.082128
789.598351	2548.699000
789.921078	2547.093392
790.243759	2547.393341
790.566395	2546.032229
790.888984	2545.560882
791.211529	2543.998124
791.534027	2545.490305
791.856480	2543.143648
792.178888	2543.299924
792.501249	2543.254554
792.823566	2545.563402
793.145836	2544.575336
793.468062	2545.906201
793.790241	2544.376210
794.112375	2544.348484
794.434464	2545.510470
794.756507	2545.349153
795.078505	2545.434853
795.400457	2543.844369
795.722364	2541.535520
796.044226	2544.411498
796.366042	2546.175902
796.687812	2544.630789
797.009538	2546.564071
797.331218	2546.927034
797.652852	2546.044832
797.974442	2545.328988
798.295986	2546.375028
798.617484	2545.220604
798.938938	2545.709596
799.260346	2545.749925
799.581709	2542.891591
799.903026	2547.325285
800.224299	2543.741025
800.545526	2545.021478
800.866708	2542.750438
801.187845	2543.655325
801.508936	2544.913093
801.829983	2543.771272
802.150984	2542.523586
802.471940	2544.751776
802.792851	2541.091899
803.113717	2544.698844
803.434538	2544.368649
803.755314	2543.262115
804.076045	2544.124153
804.396731	2545.439894
804.717372	2542.447969
805.037967	2542.657177
805.358518	2540.723894
805.679024	2543.698175
805.999485	2542.316899
806.319901	2546.493495
806.640272	2541.205325
806.960598	2542.095088
807.280879	2539.629964
807.601115	2545.018957
807.921306	2544.852599
808.241453	2544.708927
808.561554	2545.215563
808.881611	2543.688093
809.201623	2545.013916
809.521590	2543.403268
809.841513	2544.529966
810.161390	2543.864533
810.481223	2543.095757
810.801011	2541.157434
811.120755	2545.444935
811.440453	2544.454348
811.760107	2544.202291
812.079716	2538.926723
812.399281	2540.718853
812.718801	2542.763041
813.038276	2537.800025
813.357707	2544.156920
813.677093	2544.711447
813.996434	2542.924358
814.315731	2543.693134
814.634983	2543.617517
814.954191	2541.719522
815.273354	2547.151366
815.592473	2542.087527
815.911547	2542.531148
816.230577	2545.810419
816.549562	2547.221942
816.868502	2545.560882
817.187399	2544.648433
817.506250	2545.823022
817.825058	2544.421581
818.143821	2545.039122
818.462539	2543.914945
818.781213	2546.876623
819.099843	2549.271171
819.418429	2550.526418
819.736970	2550.896943
820.055466	2557.344579
820.373919	2558.824157
820.692327	2564.911351
821.010691	2571.303534
821.329011	2591.400093
821.647286	2623.925618
821.965517	2664.290137
822.283704	2688.492717
822.601847	2694.857173
822.919945	2676.812363
823.237999	2657.035917
823.556010	2633.934829
823.873976	2614.765842
824.191897	2600.804366
824.509775	2587.440267
824.827609	2582.789803
825.145398	2575.754872
825.463144	2573.078020
825.780845	2575.192784
826.098502	2579.273598
826.416116	2589.587799
826.733685	2603.304778
827.051210	2609.041611
827.368692	2604.612958
827.686129	2590.916143
828.003522	2581.494226
828.320872	2570.020560
828.638177	2563.010836
828.955439	2558.559497
829.272656	2551.993394
829.589830	2546.032229
829.906960	2551.388455
830.224046	2548.837632
830.541088	2549.866027
830.858086	2547.617672
831.175041	2548.986346
831.491952	2547.370656
831.808819	2546.362425
832.125642	2549.049360
832.442421	2549.745039
832.759157	2553.294012
833.075849	2561.546380
833.392497	2566.058213
833.709101	2574.711354
834.025662	2575.475088
834.342179	2571.298492
834.658653	2564.674416
834.975083	2561.715259
835.291469	2561.742985
835.607811	2552.434495
835.924110	2548.149514
836.240366	2549.351829
836.556578	2545.344112
836.872746	2546.551468
837.188871	2544.829914
837.504952	2544.222455
837.820990	2545.455017
838.136984	2542.417722
838.452935	2539.324974
838.768842	2541.527958
839.084706	2542.740356
839.400526	2545.581046
839.716303	2548.232693
840.032037	2555.345761
840.347727	2555.567572
840.663373	2551.234700
840.978977	2548.479710
841.294537	2543.350336
841.610054	2543.065510
841.925527	2542.921838
842.240957	2541.187681
842.556344	2540.524769
842.871687	2538.679707
843.186987	2539.163657
843.502244	2541.061652
843.817458	2538.856147
844.132629	2536.819521
844.447756	2539.382948
844.762840	2537.558050
845.077881	2538.969573
845.392879	2535.904551
845.707833	2537.419418
846.022745	2535.014788
846.337613	2537.888245
846.652438	2537.893287
846.967221	2537.900848
847.281960	2536.108718
847.596656	2537.225334
847.911309	2538.049562
848.225919	2538.611651
848.540485	2537.633667
848.855009	2539.307330
849.169490	2535.619726
849.483928	2536.214582
849.798323	2536.660724
850.112675	2537.961342
850.426984	2537.311033
850.741251	2536.799356
851.055474	2537.379089
851.369654	2535.629808
851.683792	2537.608461
851.997887	2537.830272
852.311938	2535.549150
852.625947	2536.847247
852.939914	2536.549819
853.253837	2536.927906
853.567718	2537.283307
853.881555	2537.316074
854.195350	2536.320447
854.509103	2538.349511
854.822812	2534.926567
855.136479	2540.194573
855.450103	2533.754499
855.763685	2539.740869
856.077224	2535.294572
856.390720	2538.672145
856.704173	2537.510159
857.017584	2537.598379
857.330953	2538.253729
857.644278	2536.736342
857.957561	2538.863709
858.270802	2542.589121
858.584000	2535.355066
858.897155	2538.404964
859.210268	2539.667773
859.523339	2537.963863
859.836367	2538.861188
860.149352	2536.776671
860.462295	2536.922864
860.775195	2533.946063
861.088054	2534.119983
861.400869	2533.540250
861.713642	2532.413552
862.026373	2535.828934
862.339062	2536.328008
862.651708	2536.784233
862.964312	2538.331867
863.276873	2537.205169
863.589392	2537.421939
863.901869	2537.953780
864.214303	2537.192566
864.526696	2538.178112
864.839045	2538.326826
865.151353	2539.768596
865.463619	2540.711292
865.775842	2536.471681
866.088023	2537.154758
866.400162	2538.717515
866.712258	2537.603420
867.024313	2537.134593
867.336325	2537.159799
867.648296	2535.115611
867.960224	2538.024357
868.272110	2537.227854
868.583954	2541.855633
868.895755	2539.939995
869.207515	2536.123842
869.519233	2538.755324
869.830909	2537.230375
870.142542	2539.249357
870.454134	2539.584594
870.765684	2538.538554
871.077191	2539.428318
871.388657	2540.469316
871.700081	2538.200797
872.011463	2540.040818
872.322803	2536.403626
872.634101	2537.832793
872.945357	2541.732125
873.256571	2540.209697
873.567744	2538.843544
873.878874	2541.527958
874.189963	2538.901517
874.501010	2544.040974
874.812015	2542.810932
875.122979	2542.483257
875.433900	2541.427135
875.744780	2538.427649
876.055618	2541.285983
876.366415	2539.642567
876.677169	2540.769265
876.987882	2540.519728
877.298554	2537.179963
877.609183	2541.137269
877.919771	2539.730787
878.230317	2541.081816
878.540822	2543.191539
878.851285	2545.180274
879.161707	2547.564740
879.472087	2548.802343
879.782425	2555.217212
880.092722	2561.122923
880.402977	2570.885118
880.713191	2592.577203
881.023363	2612.152003
881.333494	2628.019035
881.643583	2631.227729
881.953631	2630.179169
882.263637	2622.284722
882.573602	2614.481016
882.883526	2604.857454
883.193408	2596.068202
883.503248	2587.712489
883.813048	2582.956161
884.122806	2571.308575
884.432522	2566.017884
884.742197	2561.765671
885.051831	2562.136195
885.361424	2553.644372
885.670975	2554.861810
885.980485	2552.084135
886.289954	2549.306459
886.599382	2549.724875
886.908768	2548.250337
887.218113	2543.834286
887.527417	2546.226314
887.836680	2546.163299
888.145901	2540.486960
888.455082	2539.692978
888.764221	2542.430325
889.073319	2539.292207
889.382376	2543.267157
889.691392	2540.413863
890.000366	2542.518545
890.309300	2542.294214
890.618193	2544.010727
890.927044	2543.617517
891.235855	2541.878319
891.544625	2542.619368
891.853353	2542.145500
892.162041	2543.551982
892.470687	2546.516180
892.779293	2544.103988
893.087858	2541.540561
893.396381	2544.603062
893.704864	2552.389124
894.013306	2554.274516
894.321707	2563.356155
894.630068	2568.256156
894.938387	2574.613051
895.246665	2569.566856
895.554903	2567.315981
895.863100	2561.143088
896.171256	2557.427758
896.479371	2555.582695
896.787446	2551.973229
897.095480	2548.666232
897.403473	2548.149514
897.711425	2545.223124
898.019336	2545.094575
898.327207	2546.594318
898.635038	2544.456869
898.942827	2542.233720
899.250576	2542.067362
899.558284	2542.952084
899.865952	2543.277239
900.173579	2542.412681
900.481165	2538.767927
900.788711	2541.028884
901.096216	2541.906045
901.403681	2539.685417
901.711105	2542.357228
902.018489	2538.316743
902.325832	2542.765562
902.633135	2540.287835
902.940397	2542.062321
903.247619	2544.988711
903.554800	2550.153373
903.861941	2560.941442
904.169041	2575.457444
904.476101	2582.124370
904.783121	2580.790985
905.090100	2577.282342
905.397039	2571.306054
905.703938	2562.118551
906.010796	2555.658313
906.317614	2549.409803
906.624391	2547.012734
906.931129	2545.578526
907.237826	2543.887218
907.544483	2542.979811
907.851099	2542.357228
908.157675	2538.543595
908.464211	2539.650129
908.770707	2534.334232
909.077163	2538.553678
909.383578	2534.034283
909.689954	2532.196783
909.996289	2531.551515
910.302584	2537.424459
910.608839	2535.649973
910.915054	2538.079809
911.221229	2537.207690
911.527363	2539.584594
911.833458	2534.757689
912.139513	2538.352032
912.445527	2538.054603
912.751502	2537.805066
913.057436	2540.310520
913.363331	2541.611138
913.669186	2538.420087
913.975000	2540.486960
914.280775	2541.270860
914.586510	2547.869730
914.892205	2551.025492
915.197859	2552.873075
915.503475	2563.802297
915.809050	2569.662638
916.114585	2577.148752
916.420081	2580.218814
916.725536	2578.257805
917.030952	2573.471230
917.336328	2568.296485
917.641665	2564.661813
917.946961	2560.477656
918.252218	2557.460525
918.557435	2554.347613
918.862612	2550.823846
919.167750	2548.704041
919.472848	2547.292518
919.777906	2545.386962
920.082925	2544.383772
920.387904	2543.912424
920.692843	2537.641229
920.997743	2540.693647
921.302603	2537.174922
921.607423	2539.987886
921.912204	2540.865047
922.216946	2539.125849
922.521647	2538.049562
922.826310	2536.101156
923.130932	2537.346321
923.435516	2538.800694
923.740059	2535.869263
924.044564	2536.264994
924.349028	2536.466640
924.653454	2531.382636
924.957840	2534.976979
925.262186	2530.830630
925.566493	2534.142668
925.870761	2530.069416
926.174989	2533.096629
926.479178	2534.835827
926.783328	2533.497400
927.087438	2533.182328
927.391509	2536.474202
927.695541	2531.238963
927.999533	2535.032432
928.303486	2532.789118
928.607400	2535.927237
928.911275	2532.101001
929.215110	2533.762061
929.518906	2533.104190
929.822663	2534.747607
930.126381	2531.324663
930.430060	2532.831968
930.733699	2535.007226
931.037299	2531.249046
931.340861	2536.582587
931.644383	2530.142513
931.947866	2535.493697
932.251309	2533.772143
932.554714	2533.368851
932.858080	2535.919675
933.161407	2532.194262
933.464694	2532.811803
933.767943	2531.334745
934.071153	2532.796680
934.374323	2531.934643
934.677455	2534.535878
934.980548	2534.460261
935.283602	2535.241640
935.586617	2530.465146
935.889593	2533.199972
936.192530	2532.463964
936.495428	2531.264169
936.798287	2533.812472
937.101108	2532.186700
937.403890	2530.147554
937.706632	2534.278779
938.009336	2536.154088
938.312002	2536.038142
938.614628	2533.502442
938.917216	2534.346835
939.219765	2536.446475
939.522275	2538.808256
939.824747	2536.033101
940.127179	2533.489839
940.429573	2528.458767
940.731929	2533.832637
941.034246	2531.420445
941.336524	2535.372710
941.638763	2536.169212
941.940964	2536.839685
942.243126	2534.619057
942.545250	2536.512010
942.847335	2533.890610
943.149381	2533.192411
943.451389	2534.130065
943.753359	2534.989582
944.055290	2533.222658
944.357182	2532.295085
944.659036	2532.559746
944.960851	2531.634694
945.262628	2532.277441
945.564367	2535.607123
945.866067	2530.946577
946.167729	2533.257946
946.469352	2531.669982
946.770937	2534.104859
947.072484	2530.205527
947.373992	2533.404139
947.675462	2531.801052
947.976893	2532.537061
948.278286	2530.162677
948.579641	2534.062010
948.880958	2533.021011
949.182236	2532.761392
949.483476	2532.569828
949.784678	2536.426311
950.085841	2531.755682
950.386967	2533.971269
950.688054	2531.359951
950.989103	2532.479087
951.290114	2531.536392
951.591087	2534.223327
951.892021	2533.389016
952.192917	2535.062679
952.493776	2532.421114
952.794596	2534.689633
953.095378	2534.737524
953.396122	2534.881197
953.696828	2532.647966
953.997496	2532.922709
954.298126	2531.894313
954.598718	2532.043027
954.899272	2531.390198
955.199788	2531.604447
955.500266	2534.314067
955.800706	2530.404652
956.101108	2527.382481
956.401472	2531.221319
956.701798	2526.003725
957.002087	2528.436082
957.302337	2534.046886
957.602550	2528.610002
957.902724	2533.048738
958.202861	2528.960362
958.502960	2530.097142
958.803022	2532.758871
959.103045	2526.270906
959.403031	2528.189065
959.702979	2529.744261
960.002889	2529.887934
960.302762	2531.213758
960.602596	2531.833820
960.902393	2530.833151
961.202153	2530.155115
961.501875	2528.930115
961.801559	2528.640249
962.101205	2528.993129
962.400814	2530.258459
962.700385	2529.058664
962.999918	2530.283665
963.299414	2530.049251
963.598873	2527.437933
963.898293	2526.260824
964.197677	2529.424148
964.497022	2528.199148
964.796331	2530.744930
965.095601	2527.362316
965.394835	2530.011442
965.694030	2532.103521
965.993189	2531.538912
966.292309	2529.212420
966.591393	2530.288706
966.890439	2530.724766
967.189447	2528.650331
967.488419	2529.729138
967.787353	2531.672503
968.086249	2526.212933
968.385108	2530.175280
968.683930	2528.110927
968.982714	2528.650331
969.281462	2529.696370
969.580172	2533.371372
969.878844	2528.615043
970.177480	2531.680064
970.476078	2528.773839
970.774639	2530.255938
971.073162	2526.772501
971.371649	2527.289219
971.670098	2523.510875
971.968510	2528.967924
972.266885	2525.106400
972.565223	2529.668644
972.863524	2527.677388
973.161788	2527.911802
973.460014	2531.191073
973.758204	2528.942718
974.056356	2528.637728
974.354471	2526.853160
974.652550	2527.642100
974.950591	2531.145702
975.248595	2530.016484
975.546563	2530.339118
975.844493	2529.096473
976.142386	2529.018335
976.440243	2529.262831
976.738062	2529.623274
977.035845	2526.389373
977.333590	2527.208561
977.631299	2530.651669
977.928971	2528.322656
978.226606	2527.548839
978.524204	2529.890455
978.821765	2529.514889
979.119290	2529.930784
979.416777	2527.533715
979.714228	2527.248890
980.011642	2526.868283
980.309020	2532.791639
980.606360	2530.644107
980.903664	2529.774508
981.200931	2529.308202
981.498162	2528.927594
981.795356	2527.818541
982.092513	2529.535053
982.389633	2527.536236
982.686717	2532.227030
982.983764	2532.083357
983.280775	2533.625950
983.577749	2531.357431
983.874686	2530.596216
984.171587	2530.462626
984.468451	2531.468336
984.765279	2530.152595
985.062070	2528.476411
985.358824	2529.426669
985.655543	2527.672347
985.952224	2528.841895
986.248869	2527.561442
986.545478	2525.499610
986.842050	2526.701925
987.138586	2522.721934
987.435086	2527.541277
987.731549	2520.385359
988.027975	2528.685619
988.324366	2529.177132
988.620719	2527.236287
988.917037	2526.056657
989.213318	2526.522964
989.509563	2525.373581
989.805772	2530.266021
990.101944	2527.309384
990.398080	2529.530012
990.694180	2527.153108
990.990244	2527.750485
991.286271	2526.328880
991.582262	2528.642769
991.878217	2525.774353
992.174136	2527.211082
992.470019	2526.215454
992.765865	2527.508510
993.061676	2528.234436
993.357450	2527.747964
993.653188	2529.046062
993.948890	2527.392563
994.244556	2527.634538
994.540186	2528.305012
994.835780	2527.415248
995.131337	2527.528674
995.426859	2527.470701
995.722345	2525.802079
996.017795	2528.015146
996.313208	2529.086391
996.608586	2527.528674
996.903928	2531.458254
997.199234	2527.571524
997.494504	2531.594365
997.789738	2527.271575
998.084936	2531.362472
998.380099	2527.589168
998.675225	2527.926925
998.970316	2526.618746
999.265371	2526.943900
999.560390	2527.836185
999.855373	2527.437933
1000.150320	2528.446164
1000.445232	2527.926925
1000.740108	2528.206709
1001.034948	2527.402645
1001.329752	2526.911133
1001.624521	2526.333921
1001.919254	2523.669671
1002.213951	2524.498941
1002.508613	2524.637573
1002.803239	2526.724610
1003.097829	2519.878723
1003.392384	2525.653365
1003.686903	2526.664116
1003.981386	2528.751154
1004.275834	2526.316277
1004.570246	2528.718387
1004.864623	2526.371729
1005.158964	2526.969106
1005.453270	2527.473222
1005.747540	2527.684950
1006.041775	2526.419620
1006.335974	2527.652183
1006.630138	2527.720238
1006.924266	2530.210568
1007.218359	2524.743437
1007.512416	2523.425175
1007.806438	2526.517923
1008.100425	2527.253931
1008.394376	2526.921215
1008.688292	2527.092614
1008.982172	2526.044054
1009.276017	2529.782070
1009.569827	2527.652182
1009.863602	2527.047244
1010.157341	2524.846780
1010.451045	2525.164373
1010.744714	2527.551359
1011.038347	2524.884589
1011.331945	2526.384332
1011.625508	2527.042203
1011.919036	2526.974147
1012.212528	2527.188396
1012.505986	2528.723428
1012.799408	2525.408869
1013.092795	2527.705115
1013.386147	2526.238139
1013.679464	2525.819723
1013.972745	2525.698735
1014.265992	2525.872655
1014.559204	2526.263345
1014.852380	2526.265865
1015.145521	2525.739065
1015.438628	2527.342152
1015.731699	2527.319466
1016.024736	2527.221164
1016.317737	2525.446678
1016.610703	2526.757378
1016.903635	2523.256296
1017.196531	2523.052130
1017.489393	2525.045906
1017.782219	2521.670853
1018.075011	2523.294105
1018.367768	2526.467511
1018.660490	2527.889117
1018.953177	2527.889117
1019.245829	2527.889117
