Dividing Wavelength (nm)	Counts (n)	Blue Motor Position (mm): 0.000000	Red Motor Position (mm): 46.000000	
326.493990	2126.467077
326.888308	2126.467077
327.282561	2126.467077
327.676750	2095.320308
328.070874	2095.958014
328.464933	2095.504310
328.858929	2101.770464
329.252859	2112.971908
329.646726	2122.832405
330.040528	2138.225568
330.434265	2153.139822
330.827938	2171.592966
331.221547	2191.155163
331.615091	2210.062011
332.008571	2227.532129
332.401986	2247.757239
332.795338	2266.376740
333.188625	2288.409103
333.581847	2307.424336
333.975006	2325.832109
334.368100	2344.542351
334.761129	2358.947448
335.154095	2375.984028
335.546996	2396.168808
335.939833	2419.905081
336.332606	2436.412339
336.725315	2448.337188
337.117960	2460.347737
337.510540	2467.939715
337.903056	2477.086889
338.295508	2486.574340
338.687896	2495.267810
339.080220	2503.673934
339.472480	2509.993021
339.864676	2514.731705
340.256807	2517.947961
340.648875	2520.755884
341.040879	2526.046575
341.432818	2522.900895
341.824694	2529.615712
342.216506	2528.662934
342.608253	2528.970444
342.999937	2529.182173
343.391557	2525.822244
343.783113	2524.511544
344.174605	2524.645134
344.566033	2525.103879
344.957397	2526.102028
345.348697	2519.606501
345.739934	2518.220184
346.131106	2516.044926
346.522215	2517.063239
346.913260	2513.254647
347.304241	2513.952847
347.695159	2511.618793
348.086012	2510.572753
348.476802	2507.328771
348.867528	2506.156703
349.258191	2504.546054
349.648789	2507.633761
350.039324	2500.853409
350.429796	2503.021105
350.820203	2501.072699
351.210548	2499.953563
351.600828	2500.422390
351.991045	2496.437358
352.381198	2495.187152
352.771288	2496.298726
353.161314	2493.337048
353.551276	2495.933242
353.941175	2496.790239
354.331010	2497.148161
354.720782	2496.898623
355.110490	2495.484580
355.500135	2494.640187
355.889717	2496.258397
356.279235	2497.927019
356.668689	2495.885352
357.058080	2497.947183
357.447408	2493.402583
357.836672	2496.644045
358.225873	2496.996926
358.615010	2494.630104
359.004084	2499.835096
359.393095	2496.906185
359.782043	2502.088491
360.170927	2503.031187
360.559748	2502.043121
360.948505	2501.791063
361.337199	2506.204593
361.725830	2501.707884
362.114398	2505.972700
362.502903	2505.455982
362.891344	2507.918586
363.279722	2507.381703
363.668037	2509.289780
364.056289	2508.430263
364.444478	2509.844307
364.832603	2513.088289
365.220665	2509.546878
365.608665	2511.079389
365.996601	2513.955368
366.384474	2508.944461
366.772284	2512.468227
367.160031	2512.342198
367.547715	2517.955523
367.935336	2518.409227
368.322893	2523.830988
368.710388	2523.284023
369.097820	2530.795342
369.485189	2532.650487
369.872495	2540.340767
370.259738	2548.336037
370.646918	2556.820299
371.034035	2562.143757
371.421090	2573.836713
371.808081	2583.024216
372.195010	2594.225660
372.581875	2603.123297
372.968678	2619.285236
373.355418	2627.517440
373.742096	2648.528969
374.128710	2663.407935
374.515262	2676.923268
374.901751	2690.310052
375.288177	2702.766744
375.674540	2726.376988
376.060841	2744.618403
376.447079	2763.623553
376.833254	2787.359826
377.219367	2797.179993
377.605417	2836.904286
377.991404	2846.207735
378.377329	2865.711959
378.763191	2884.273488
379.148991	2922.697163
379.534727	2946.826645
379.920402	2974.248002
380.306013	2988.849704
380.691563	3036.816283
381.077049	3061.091959
381.462474	3077.372365
381.847835	3114.364352
382.233134	3137.861170
382.618371	3137.173053
383.003545	3207.708877
383.388657	3214.340515
383.773706	3244.307654
384.158693	3260.779625
384.543618	3289.972947
384.928480	3322.846311
385.313280	3368.887169
385.698017	3367.725183
386.082692	3422.144439
386.467305	3428.677774
386.851856	3460.719348
387.236344	3484.342195
387.620770	3511.496370
388.005133	3539.845299
388.389435	3567.564083
388.773674	3576.565063
389.157851	3623.067187
389.541965	3636.955566
389.926018	3598.829319
390.310008	3671.653828
390.693936	3693.161911
391.077802	3732.372005
391.461606	3720.595870
391.845348	3783.985859
392.229027	3784.127011
392.612645	3796.808034
392.996200	3873.476422
393.379694	3912.724325
393.763125	3977.994665
394.146494	3943.087195
394.529801	4007.276207
394.913047	4056.573650
395.296230	4023.233979
395.679351	4078.374120
396.062410	4100.240125
396.445408	4081.020726
396.828343	4113.634471
397.211217	4141.244870
397.594028	4060.823343
397.976778	4126.234835
398.359466	4152.395903
398.742092	4177.362217
399.124656	4104.736834
399.507158	4181.856406
399.889598	4207.455385
400.271977	4273.358389
400.654294	4242.047783
401.036549	4252.440121
401.418742	4218.916448
401.800874	4320.714988
402.182944	4342.381868
402.564952	4409.550201
402.946898	4397.640475
403.328783	4392.208632
403.710606	4303.595230
404.092367	4497.321731
404.474067	4460.034837
404.855705	4468.660251
405.237282	4398.545363
405.618797	4510.133823
406.000250	4543.660017
406.381642	4623.411071
406.762972	4584.576542
407.144240	4594.762194
407.525447	4594.842852
407.906593	4654.643540
408.287677	4696.659036
408.668700	4627.386021
409.049661	4678.972148
409.430560	4720.065114
409.811399	4644.215913
410.192176	4807.950069
410.572891	4746.712653
410.953545	4848.780895
411.334138	4726.996700
411.714669	4794.464983
412.095139	4692.119477
412.475547	4831.479655
412.855894	4817.283766
413.236180	4826.398172
413.616405	4779.008805
413.996568	4865.247824
414.376670	4805.653824
414.756711	4759.257564
415.136691	4793.824756
415.516609	4868.388463
415.896466	4909.872118
416.276262	4944.131799
416.655997	4922.621196
417.035670	5108.667499
417.415283	5193.830232
417.794834	5142.425586
418.174324	5094.466569
418.553753	5003.793855
418.933121	5182.694323
419.312428	5253.527575
419.691674	5192.643040
420.070859	5318.818079
420.449983	5232.069904
420.829045	5345.407645
421.208047	5251.589252
421.586988	5325.563143
421.965867	5335.539587
422.344686	5469.523374
422.723444	5323.760931
423.102141	5140.439371
423.480777	5438.941214
423.859352	5205.679464
424.237866	5470.040092
424.616319	5457.492660
424.994712	5569.552469
425.373044	5443.848777
425.751314	5587.529223
426.129524	5388.766610
426.507673	5588.688689
426.885762	5672.220608
427.263789	5601.412561
427.641756	5483.406711
428.019662	5607.771977
428.397508	5610.433706
428.775292	5555.081837
429.153016	5661.404813
429.530679	5587.181384
429.908282	5671.414023
430.285824	5534.836563
430.663305	5814.108924
431.040726	5547.928439
431.418086	5553.473709
431.795385	5652.607999
432.172624	5665.130225
432.549802	5660.671325
432.926920	5673.112892
433.303977	5682.678482
433.680974	5722.049893
434.057910	5737.604373
434.434786	5749.254480
434.811601	5713.051434
435.188355	5950.734276
435.565050	5821.988248
435.941683	5802.985618
436.318257	6019.286406
436.694770	5997.614486
437.071222	6035.970105
437.447614	5966.941585
437.823946	5882.313215
438.200218	6037.797523
438.576429	5898.956585
438.952580	5996.361759
439.328670	6039.738368
439.704700	5947.371826
440.080670	5940.044509
440.456580	6204.218615
440.832429	6091.400112
441.208218	5936.903870
441.583947	6096.796667
441.959616	6095.463282
442.335224	6023.412591
442.710773	6162.475340
443.086261	6184.790008
443.461689	5979.327700
443.837057	6130.516945
444.212365	6280.062774
444.587612	6179.716086
444.962800	6331.787533
445.337927	6313.382281
445.712995	5923.035656
446.088002	6500.734243
446.462949	6332.775599
446.837837	6259.046204
447.212664	6433.558347
447.587431	6576.502785
447.962139	7117.181658
448.336786	8055.206799
448.711374	7790.057230
449.085901	6866.316199
449.460369	6784.919208
449.834776	6719.772377
450.209124	7107.316120
450.583412	7259.465705
450.957640	7411.925321
451.331808	7172.798188
451.705917	6720.432768
452.079965	6642.912425
452.453954	6856.387647
452.827883	6736.264512
453.201752	6825.089643
453.575562	6625.374251
453.949311	6838.814184
454.323001	6717.929836
454.696632	6797.567463
455.070202	6931.216014
455.443713	7083.564724
455.817164	7188.153543
456.190556	7264.635408
456.563888	7345.505598
456.937160	7387.299284
457.310373	7043.532921
457.683526	7067.453196
458.056619	6955.509334
458.429653	6947.443488
458.802628	6877.699124
459.175542	6991.407391
459.548398	7348.638676
459.921194	7506.784713
460.293930	7510.018613
460.666607	8044.454017
461.039224	8347.326541
461.411782	8480.828897
461.784280	8495.808686
462.156719	8388.129640
462.529099	8263.857636
462.901419	7854.447888
463.273680	7747.283039
463.645882	7758.300481
464.018024	7626.350800
464.390106	7785.973895
464.762130	8176.159203
465.134094	8646.738312
465.505999	9667.740844
465.877845	10889.333409
466.249631	11541.217615
466.621358	11166.639720
466.993026	10529.674808
467.364634	10271.930694
467.736184	9917.386344
468.107674	9576.992513
468.479105	9607.831772
468.850477	9375.129590
469.221790	9150.475610
469.593043	8815.193508
469.964238	8680.105709
470.335373	8695.657668
470.706449	8753.983818
471.077467	8726.196978
471.448425	10038.459736
471.819324	11117.105342
472.190164	11146.873356
472.560945	9892.316686
472.931667	9109.070093
473.302330	8968.618505
473.672934	8607.452600
474.043479	8967.431313
474.413965	8907.885204
474.784393	8795.636352
475.154761	8945.222510
475.525070	9041.077530
475.895321	8861.330148
476.265513	9042.100884
476.635645	9206.742448
477.005719	9207.702788
477.375734	9327.919184
477.745691	9554.486282
478.115588	9690.791520
478.485427	9938.917112
478.855207	10474.917795
479.224928	11288.847372
479.594591	11916.450861
479.964194	11738.316648
480.333739	11679.209120
480.703226	11587.848288
481.072653	11685.871004
481.442022	11924.962849
481.811333	12113.776746
482.180584	11917.436406
482.549777	11626.395471
482.918912	11449.546753
483.287988	11464.221552
483.657005	11480.391053
484.025964	11163.370532
484.394864	11301.483024
484.763706	11264.238979
485.132489	11015.773109
485.501213	10983.933181
485.869879	11055.658718
486.238487	10898.042002
486.607036	11010.399239
486.975527	10786.105701
487.343959	10981.851185
487.712333	11030.301714
488.080648	10961.404265
488.448905	10997.791313
488.817104	10942.847777
489.185244	11202.187416
489.553326	11362.501150
489.921350	11901.907132
490.289315	12966.432466
490.657222	13299.940081
491.025070	13213.234756
491.392861	13093.580448
491.760593	12717.780073
492.128267	12358.413860
492.495883	12035.164993
492.863440	11693.825945
493.230939	11354.576456
493.598380	11293.391972
493.965763	11157.255612
494.333088	11059.747094
494.700354	10979.507048
495.067563	11039.166583
495.434713	10870.865142
495.801805	11001.587302
496.168839	10919.797101
496.535815	10859.053718
496.902733	10856.094561
497.269593	10783.338108
497.636395	10889.222503
498.003139	10876.748168
498.369825	10746.870401
498.736453	10903.030224
499.103023	10831.627321
499.469535	10854.829231
499.835989	10845.127531
500.202385	10806.996243
500.568723	10660.528038
500.935003	10878.769671
501.301226	10685.423777
501.667390	10940.833836
502.033497	11045.722604
502.399546	10900.025696
502.765537	10816.861781
503.131470	10882.227902
503.497345	11063.457383
503.863163	10670.075984
504.228923	10977.137706
504.594625	11043.585155
504.960269	10791.764397
505.325856	11019.957267
505.691385	10810.424228
506.056856	10965.764863
506.422270	10990.627833
506.787625	10879.404856
507.152924	10993.851651
507.518164	10975.501851
507.883347	10892.083358
508.248472	10811.863477
508.613540	11051.449355
508.978550	10928.140211
509.343503	10902.281612
509.708398	11021.179746
510.073236	11136.473455
510.438016	11140.415638
510.802738	11090.654408
511.167403	11134.290636
511.532010	11041.223374
511.896561	11273.343303
512.261053	11339.243787
512.625488	11209.817203
512.989866	11190.559995
513.354186	11185.130672
513.718449	11081.517317
514.082655	11272.463622
514.446803	11174.458550
514.810894	11295.726026
515.174927	11158.440283
515.538904	11189.589573
515.902822	11344.905002
516.266684	11224.645757
516.630488	11165.392034
516.994235	11221.434542
517.357925	11283.831423
517.721558	11373.566482
518.085133	11386.229861
518.448651	11400.887016
518.812112	11279.957297
519.175516	11295.088320
519.538863	11423.922568
519.902152	11332.884371
520.265385	11491.814308
520.628560	11402.482541
520.991678	11385.120807
521.354739	11445.753285
521.717743	11382.060827
522.080690	11356.444203
522.443580	11495.549803
522.806413	11448.425097
523.169189	11476.819396
523.531908	11538.765094
523.894569	11356.930675
524.257174	11363.935358
524.619722	11479.886938
524.982213	11420.076168
525.344647	11480.958183
525.707025	11422.649677
526.069345	11525.458968
526.431608	11439.547625
526.793815	11547.977803
527.155964	11337.980977
527.518057	11392.516180
527.880093	11340.993067
528.242072	11400.962633
528.603995	11313.932153
528.965860	11236.313507
529.327669	11291.327619
529.689421	11241.616801
530.051117	11206.789990
530.412755	11317.087915
530.774337	11204.476100
531.135862	11192.992352
531.497331	11209.245032
531.858743	11058.443956
532.220098	11233.064484
532.581396	11097.074317
532.942638	11075.112531
533.303824	11040.739423
533.664953	11060.175592
534.026025	10968.615635
534.387040	11068.889226
534.747999	11072.460884
535.108902	11128.304266
535.469748	10885.285362
535.830537	10990.915179
536.191270	10968.484565
536.551947	10995.782413
536.912567	10991.716723
537.273131	10911.829558
537.633638	10889.759386
537.994089	10881.756554
538.354483	10827.249078
538.714821	10973.540843
539.075103	10995.043884
539.435328	10948.637543
539.795497	10774.584144
540.155609	10936.909298
540.515665	11024.499346
540.875665	10759.170816
541.235609	10828.035498
541.595496	10822.674231
541.955328	10980.744651
542.315102	10854.345280
542.674821	10808.783332
543.034483	10807.800307
543.394090	10816.551750
543.753640	10747.054403
544.113134	10971.572272
544.472571	10821.945785
544.831953	10964.832249
545.191278	10773.361664
545.550548	10795.986363
545.909761	10933.100706
546.268918	10907.363095
546.628019	10992.903914
546.987064	10854.675476
547.346053	10785.057141
547.704986	10877.763961
548.063863	10864.901457
548.422684	10855.925682
548.781449	10767.705490
549.140158	10872.463187
549.498811	10747.097253
549.857408	10610.439134
550.215949	10832.325520
550.574434	10682.918323
550.932864	10782.934816
551.291237	10843.325318
551.649555	10791.043512
552.007817	10802.456684
552.366022	10767.229101
552.724173	10758.260888
553.082267	10744.284289
553.440305	10884.267049
553.798288	10683.800525
554.156215	10838.332055
554.514086	10812.740638
554.871902	10661.490899
555.229661	10697.981291
555.587365	10678.141830
555.945014	10576.454195
556.302606	10697.706548
556.660143	10588.570608
557.017625	10744.604402
557.375050	10642.919288
557.732421	10776.320822
558.089735	10687.105002
558.446994	10695.911897
558.804197	10731.706610
559.161345	10735.106868
559.518437	10577.719525
559.875474	10670.980871
560.232455	10702.329286
560.589381	10644.083795
560.946251	10646.203600
561.303065	10746.890566
561.659825	10686.663901
562.016528	10618.782243
562.373177	10493.451597
562.729770	10605.284554
563.086307	10522.430670
563.442789	10622.311051
563.799216	10491.425053
564.155587	10541.624863
564.511904	10493.272636
564.868164	10487.417336
565.224370	10503.188586
565.580520	10425.804354
565.936615	10434.644017
566.292654	10298.679057
566.648638	10429.799468
567.004567	10384.272808
567.360441	10370.417196
567.716260	10284.735225
568.072023	10374.472805
568.427732	10320.534979
568.783385	10235.926773
569.138982	10303.889089
569.494525	10320.857613
569.850013	10202.007370
570.205445	10283.802612
570.560823	10178.523155
570.916145	10096.488458
571.271412	10159.601184
571.626625	10110.069327
571.981782	10084.588814
572.336884	10056.179392
572.691931	10069.956865
573.046923	10016.034163
573.401860	9967.618922
573.756743	9905.748841
574.111570	9948.142424
574.466342	9932.915619
574.821059	9964.284198
575.175722	9857.933496
575.530330	9860.960709
575.884882	9856.302683
576.239380	9783.916755
576.593823	9763.101831
576.948211	9777.698492
577.302544	9656.330192
577.656823	9674.611937
578.011047	9674.339714
578.365216	9650.449686
578.719330	9568.848529
579.073389	9577.020239
579.427394	9522.477475
579.781344	9501.024845
580.135239	9449.726064
580.489080	9465.804824
580.842866	9363.817240
581.196597	9367.318322
581.550273	9409.442203
581.903895	9378.207214
582.257463	9441.214075
582.610975	9311.497625
582.964434	9351.897432
583.317837	9267.261500
583.671186	9249.110826
584.024481	9238.602541
584.377721	9163.038165
584.730906	9144.821956
585.084037	9174.612654
585.437113	9107.295606
585.790135	9122.784552
586.143103	9026.097741
586.496016	9002.880707
586.848874	9059.245848
587.201679	9044.230772
587.554428	8934.285727
587.907124	8984.399837
588.259765	8948.108571
588.612352	8957.643913
588.964884	8832.146909
589.317362	8847.015792
589.669786	8847.373714
590.022155	8896.761898
590.374470	8906.055265
590.726731	8853.702883
591.078937	8700.439203
591.431090	8810.134711
591.783188	8684.839352
592.135232	8681.187036
592.487222	8670.898041
592.839157	8728.609171
593.191038	8662.963265
593.542866	8605.267259
593.894639	8504.136672
594.246358	8556.524343
594.598022	8573.651663
594.949633	8476.624575
595.301190	8444.376314
595.652692	8476.604410
596.004141	8583.660874
596.355535	8358.553190
596.706876	8338.910334
597.058162	8275.278370
597.409395	8352.949948
597.760573	8414.383969
598.111698	8320.386614
598.462768	8308.373545
598.813785	8272.659490
599.164748	8240.650684
599.515657	8229.366061
599.866511	8142.668297
600.217312	8270.673276
600.568060	8123.222046
600.918753	8230.238181
601.269392	8202.365641
601.619978	8114.921787
601.970510	8179.902260
602.320988	8177.323709
602.671412	8229.247594
603.021783	8165.335846
603.372100	8136.397102
603.722363	8148.795820
604.072572	8114.500850
604.422728	8128.900906
604.772830	8058.450781
605.122878	8065.006802
605.472872	8065.591576
605.822813	8086.686284
606.172701	8032.546812
606.522534	8111.329964
606.872314	8108.005323
607.222041	8079.585819
607.571714	8129.299157
607.921333	8093.902696
608.270899	8103.531299
608.620411	8188.678908
608.969870	8088.168383
609.319276	8085.902384
609.668627	8101.658511
610.017926	8135.961042
610.367171	8181.850666
610.716362	8159.326790
611.065500	8148.145511
611.414585	8174.331785
611.763616	8162.601020
612.112594	8150.487127
612.461518	8165.915578
612.810389	8223.341882
613.159207	8159.982140
613.507971	8106.770241
613.856682	8232.047955
614.205340	8186.778393
614.553945	8255.181810
614.902496	8163.740320
615.250994	8217.168989
615.599439	8199.771968
615.947830	8206.514511
616.296169	8180.401334
616.644454	8193.646966
616.992686	8187.963065
617.340864	8250.095286
617.688990	8156.801172
618.037063	8250.428002
618.385082	8194.216616
618.733048	8284.354967
619.080961	8217.335347
619.428821	8236.189263
619.776628	8242.178154
620.124382	8191.136471
620.472083	8176.368411
620.819731	8203.452010
621.167326	8094.936132
621.514868	8105.101619
621.862357	7993.059454
622.209793	8009.722988
622.557176	7942.065662
622.904506	7914.750170
623.251783	7848.796754
623.599007	7802.627347
623.946179	7806.451062
624.293297	7763.013960
624.640363	7678.700662
624.987376	7663.269690
625.334336	7610.080476
625.681243	7558.000315
626.028097	7554.191724
626.374899	7521.162084
626.721647	7519.609408
627.068343	7447.493182
627.414987	7421.377484
627.761577	7374.794702
628.108115	7414.839108
628.454600	7306.194681
628.801032	7355.204778
629.147412	7318.444685
629.493739	7306.310627
629.840014	7240.999959
630.186236	7298.138917
630.532405	7176.768097
630.878521	7229.788432
631.224585	7188.095570
631.570597	7111.545648
631.916556	7143.272150
632.262462	7138.213352
632.608316	7103.623475
632.954117	7082.680002
633.299866	7065.575367
633.645562	7058.878194
633.991206	6981.496482
634.336797	6923.855929
634.682336	6880.149125
635.027823	6842.499268
635.373257	6835.237486
635.718639	6766.108143
636.063968	6783.913498
636.409245	6677.673702
636.754470	6672.756056
637.099642	6637.530993
637.444762	6574.917342
637.789829	6583.081491
638.134845	6528.879005
638.479808	6511.945769
638.824719	6514.400811
639.169577	6442.231652
639.514383	6468.803574
639.859137	6391.426904
640.203839	6399.757411
640.548489	6388.298868
640.893086	6365.127204
641.237632	6335.626372
641.582125	6359.287027
641.926566	6330.370969
642.270955	6340.370098
642.615292	6335.548234
642.959576	6349.696232
643.303809	6338.298183
643.647990	6344.435788
643.992118	6339.818091
644.336195	6284.685512
644.680219	6311.149049
645.024192	6296.927954
645.368112	6391.323560
645.711981	6418.422283
646.055797	6493.805177
646.399562	6452.999557
646.743274	6572.258133
647.086935	6633.119984
647.430544	6624.756710
647.774101	6644.303784
648.117606	6648.316542
648.461059	6641.150542
648.804460	6600.435663
649.147810	6507.292784
649.491108	6483.823692
649.834354	6456.795546
650.177548	6373.142639
650.520690	6291.488549
650.863781	6265.181288
651.206820	6285.794566
651.549807	6203.303645
651.892742	6150.439585
652.235626	6154.558208
652.578458	6138.925590
652.921238	6048.580551
653.263967	6084.942394
653.606644	6028.988107
653.949269	6028.667994
654.291843	5967.319672
654.634365	6017.516961
654.976836	5972.416278
655.319255	5968.622810
655.661622	5950.615809
656.003938	5943.419562
656.346203	5905.978912
656.688416	5939.716834
657.030577	5893.630606
657.372687	5861.856213
657.714746	5847.410787
658.056753	5890.225306
658.398708	5832.257078
658.740612	5822.280635
659.082465	5870.952975
659.424266	5859.842272
659.766016	5859.832190
660.107715	5835.072563
660.449362	5849.747361
660.790958	5841.701680
661.132503	5830.396892
661.473996	5871.920877
661.815438	5856.598289
662.156829	5852.812383
662.498168	5847.241908
662.839456	5823.104863
663.180693	5859.973342
663.521879	5855.748855
663.863013	5847.015056
664.204097	5864.349063
664.545129	5905.512605
664.886110	5901.580505
665.227040	5929.740391
665.567918	5900.622686
665.908746	5932.029074
666.249522	5933.932110
666.590248	5918.516262
666.930922	5945.849398
667.271545	5958.674093
667.612118	5960.677952
667.952639	5931.751811
668.293109	5957.905317
668.633528	5914.944604
668.973896	5913.522999
669.314213	5907.249283
669.654480	5886.820007
669.994695	5882.565273
670.334859	5873.549169
670.674973	5859.270101
671.015035	5867.739239
671.355047	5864.631368
671.695008	5847.753585
672.034918	5824.970090
672.374777	5834.228169
672.714585	5819.298792
673.054342	5820.455737
673.394049	5813.660262
673.733705	5846.929356
674.073310	5833.499723
674.412864	5791.975738
674.752368	5780.474346
675.091820	5787.398371
675.431223	5720.930757
675.770574	5720.255243
676.109875	5671.953427
676.449125	5680.498183
676.788324	5646.851001
677.127473	5593.321509
677.466571	5580.839612
677.805619	5573.908026
678.144616	5554.287855
678.483562	5533.624165
678.822458	5502.731975
679.161303	5497.960522
679.500098	5488.445345
679.838842	5470.977747
680.177535	5475.391277
680.516179	5491.134800
680.854771	5500.655019
681.193314	5583.405560
681.531805	5686.978586
681.870247	5840.123799
682.208638	5939.646258
682.546978	5948.657320
682.885268	5927.686120
683.223508	5838.480383
683.561697	5784.202279
683.899836	5756.838896
684.237925	5714.107555
684.575963	5674.554662
684.913951	5637.991173
685.251889	5695.800605
685.589776	5661.951778
685.927614	5634.769876
686.265401	5704.670515
686.603137	5688.687537
686.940824	5758.656232
687.278460	5783.493997
687.616046	5791.569925
687.953582	5855.090984
688.291068	5835.942162
688.628504	5897.043467
688.965889	5867.484661
689.303224	5806.600126
689.640510	5762.303507
689.977745	5681.856774
690.314930	5583.110652
690.652065	5533.810688
690.989150	5439.815854
691.326185	5362.151838
691.663170	5308.574455
692.000105	5235.235749
692.336990	5156.341691
692.673825	5131.075428
693.010610	5060.728647
693.347345	4990.076875
693.684030	4978.056244
694.020665	4934.062094
694.357251	4848.178477
694.693786	4860.115929
695.030272	4823.549920
695.366707	4786.381492
695.703093	4754.735649
696.039429	4775.164925
696.375716	4757.198253
696.711952	4731.881578
697.048139	4718.303230
697.384276	4696.522925
697.720363	4710.988516
698.056400	4712.039597
698.392388	4666.187782
698.728326	4648.669772
699.064214	4627.988439
699.400053	4620.736739
699.735842	4587.818004
700.071581	4563.822112
700.407270	4534.475035
700.742910	4514.975852
701.078501	4465.070949
701.414042	4460.047439
701.749533	4434.047688
702.084974	4368.434551
702.420366	4423.194084
702.755709	4367.789283
703.091002	4312.389523
703.426246	4353.626161
703.761440	4316.629133
704.096584	4280.380716
704.431679	4294.788334
704.766725	4282.651756
705.101721	4265.277419
705.436668	4291.103251
705.771565	4246.786467
706.106413	4269.327987
706.441212	4301.450219
706.775961	4309.032114
707.110661	4292.456800
707.445311	4319.409329
707.779913	4338.858101
708.114465	4347.594421
708.448967	4371.421434
708.783421	4429.001493
709.117825	4465.259992
709.452180	4472.080674
709.786485	4514.522148
710.120742	4596.839149
710.454949	4580.147889
710.789107	4642.827075
711.123216	4713.012539
711.457275	4702.405952
711.791286	4771.953710
712.125247	4784.100370
712.459159	4696.938820
712.793023	4773.786170
713.126837	4726.628696
713.460602	4714.262746
713.794318	4642.275069
714.127985	4647.538033
714.461602	4563.691042
714.795171	4539.884193
715.128691	4470.593533
715.462162	4417.429525
715.795584	4365.137636
716.128957	4346.631560
716.462281	4302.655055
716.795556	4274.976599
717.128782	4237.455291
717.461960	4173.319212
717.795088	4176.994213
718.128167	4140.226557
718.461198	4087.584308
718.794180	4078.268256
719.127113	4057.108012
719.459997	4037.689488
719.792833	3995.696676
720.125619	3987.444307
720.458357	3951.838638
720.791046	3957.293166
721.123686	3927.474741
721.456278	3889.925707
721.788821	3901.850556
722.121315	3876.123028
722.453761	3849.238554
722.786158	3862.716079
723.118506	3882.626116
723.450805	3841.913758
723.783056	3859.303218
724.115259	3871.616236
724.447412	3877.615209
724.779518	3869.756050
725.111574	3873.005074
725.443582	3897.119433
725.775542	3885.514697
726.107453	3929.982715
726.439315	3928.460287
726.771129	3945.517031
727.102895	3978.859222
727.434612	4019.508567
727.766281	4031.103220
728.097901	4033.643962
728.429473	4036.845095
728.760996	4042.856671
729.092471	4039.244684
729.423897	4026.634237
729.755276	4023.843959
730.086606	4024.499309
730.417887	4065.241914
730.749120	4123.285760
731.080305	4174.448430
731.411442	4203.737534
731.742530	4176.308616
732.073570	4178.383051
732.404562	4227.292325
732.735506	4217.056262
733.066401	4186.038043
733.397249	4122.708548
733.728048	4049.543761
734.058798	3968.010659
734.389501	3904.608067
734.720156	3846.470961
735.050762	3801.944969
735.381320	3791.696304
735.711831	3749.111157
736.042293	3716.567988
736.372707	3737.728231
736.703073	3710.962225
737.033391	3705.653890
737.363661	3717.971949
737.693883	3741.209148
738.024056	3745.088316
738.354182	3745.602513
738.684260	3800.157880
739.014290	3821.849965
739.344272	3821.464317
739.674207	3851.433977
740.004093	3859.653578
740.333931	3854.594780
740.663722	3850.337526
740.993464	3846.349973
741.323159	3823.974812
741.652806	3791.073721
741.982405	3766.866100
742.311956	3740.309302
742.641460	3730.413517
742.970915	3705.711863
743.300323	3671.240453
743.629683	3639.498828
743.958996	3629.290491
744.288260	3605.317284
744.617477	3574.747727
744.946647	3560.365315
745.275768	3535.091491
745.604842	3529.911705
745.933869	3492.120695
746.262847	3480.311792
746.591778	3511.347656
746.920662	3484.876557
747.249498	3460.066518
747.578286	3498.283506
747.907027	3509.169878
748.235720	3514.591638
748.564365	3533.122920
748.892963	3527.955737
749.221514	3515.746063
749.550017	3497.247549
749.878473	3492.748319
750.206881	3467.703867
750.535242	3460.742033
750.863555	3462.811427
751.191821	3457.039306
751.520039	3441.565484
751.848210	3426.192485
752.176334	3449.190229
752.504411	3453.182823
752.832440	3420.806012
753.160421	3403.144330
753.488356	3411.623551
753.816243	3420.193512
754.144082	3379.932337
754.471875	3370.838095
754.799620	3382.223541
755.127318	3375.112994
755.454969	3377.074003
755.782572	3377.507542
756.110129	3357.405941
756.437638	3352.221114
756.765100	3354.966023
757.092515	3367.122765
757.419882	3368.564535
757.747203	3353.312524
758.074477	3351.270857
758.401703	3364.549256
758.728882	3382.372255
759.056014	3387.761249
759.383099	3393.331724
759.710138	3392.048750
760.037129	3409.425608
760.364073	3429.441509
760.690970	3419.938934
761.017820	3398.188876
761.344623	3417.904828
761.671379	3454.518729
761.998088	3497.471880
762.324751	3611.517903
762.651366	3836.938139
762.977935	4265.650465
763.304456	4659.314169
763.630931	4730.739757
763.957359	4411.430552
764.283740	4105.271196
764.610074	3926.680760
764.936362	3746.076382
765.262602	3608.112604
765.588796	3507.052593
765.914943	3429.272630
766.241044	3354.204808
766.567097	3324.527536
766.893104	3283.255609
767.219064	3253.401896
767.544978	3233.683423
767.870845	3182.674507
768.196665	3168.556756
768.522438	3171.488187
768.848165	3165.801766
769.173846	3133.694657
769.499479	3121.787451
769.825066	3107.999896
770.150607	3090.527256
770.476101	3100.584358
770.801548	3094.103955
771.126949	3060.363512
771.452303	3043.243754
771.777611	3043.868857
772.102872	3047.460679
772.428087	3027.051568
772.753256	3016.341636
773.078378	3011.381141
773.403453	2982.452480
773.728482	2971.004019
774.053465	2986.576143
774.378401	2974.986531
774.703291	2952.565999
775.028135	2951.474589
775.352932	2946.168775
775.677683	2937.976900
776.002388	2932.040941
776.327046	2933.394491
776.651658	2925.714293
776.976224	2915.430339
777.300743	2916.201636
777.625216	2906.346180
777.949643	2903.298803
778.274024	2902.456930
778.598359	2893.433264
778.922647	2893.234139
779.246889	2895.999212
779.571086	2884.386914
779.895236	2875.028012
780.219339	2885.359857
780.543397	2894.847308
780.867409	2897.808986
781.191374	2891.628531
781.515294	2891.081566
781.839167	2890.897564
782.162995	2884.759959
782.486776	2886.436143
782.810511	2887.441853
783.134201	2874.723022
783.457844	2880.580843
783.781441	2871.191694
784.104993	2858.051926
784.428498	2858.523274
784.751958	2870.095243
785.075372	2862.707432
785.398739	2850.517922
785.722061	2863.766074
786.045337	2870.259080
786.368568	2863.168697
786.691752	2854.530680
787.014891	2893.327400
787.337983	2920.211874
787.661030	2944.991665
787.984031	3001.724811
788.306987	3038.371479
788.629897	3036.423073
788.952760	3017.337264
789.275579	3000.366220
789.598351	2953.755711
789.921078	2915.926893
790.243759	2903.961714
790.566395	2888.825650
790.888984	2871.307640
791.211529	2856.453880
791.534027	2849.635720
791.856480	2840.778412
792.178888	2827.247956
792.501249	2822.794096
792.823566	2817.967191
793.145836	2815.454176
793.468062	2815.219762
793.790241	2811.254895
794.112375	2815.116419
794.434464	2825.009683
794.756507	2832.773060
795.078505	2834.255159
795.400457	2846.376614
795.722364	2879.144114
796.044226	2898.184552
796.366042	2897.897206
796.687812	2889.944786
797.009538	2905.431211
797.331218	2894.507030
797.652852	2882.637633
797.974442	2867.791435
798.295986	2865.764892
798.617484	2859.332379
798.938938	2846.784947
799.260346	2836.332115
799.581709	2826.441371
799.903026	2821.458190
800.224299	2817.362253
800.545526	2810.299596
800.866708	2796.935497
801.187845	2791.347378
801.508936	2790.913839
801.829983	2794.898871
802.150984	2784.413271
802.471940	2776.271808
802.792851	2777.269956
803.113717	2778.862961
803.434538	2778.638630
803.755314	2773.720984
804.076045	2766.275200
804.396731	2767.550612
804.717372	2769.874584
805.037967	2760.624066
805.358518	2769.924995
805.679024	2777.393465
805.999485	2774.751900
806.319901	2780.037550
806.640272	2773.660490
806.960598	2775.689555
807.280879	2780.791202
807.601115	2788.201698
807.921306	2775.923968
808.241453	2776.619647
808.561554	2781.197015
808.881611	2781.431429
809.201623	2774.658639
809.521590	2772.198556
809.841513	2770.245108
810.161390	2774.555295
810.481223	2767.767381
810.801011	2759.557862
811.120755	2757.259096
811.440453	2757.690115
811.760107	2758.050557
812.079716	2754.804054
812.399281	2746.082858
812.718801	2744.552868
813.038276	2740.187229
813.357707	2744.378948
813.677093	2746.196284
813.996434	2742.100347
814.315731	2739.360479
814.634983	2737.333936
814.954191	2737.369224
815.273354	2747.133939
815.592473	2754.972933
815.911547	2754.856986
816.230577	2761.438213
816.549562	2768.379882
816.868502	2771.278545
817.187399	2777.259874
817.506250	2785.323200
817.825058	2783.563837
818.143821	2791.624642
818.462539	2802.463123
818.781213	2824.739982
819.099843	2851.937007
819.418429	2905.300141
819.736970	2956.488017
820.055466	3014.471368
820.373919	3092.364757
820.692327	3199.776622
821.010691	3340.941533
821.329011	3721.125191
821.647286	4508.883617
821.965517	5702.822932
822.283704	6368.716506
822.601847	6343.178020
822.919945	5745.544191
823.237999	5243.094907
823.556010	4745.643928
823.873976	4278.172691
824.191897	3934.981019
824.509775	3690.608566
824.827609	3480.281545
825.145398	3375.977552
825.463144	3373.328425
825.780845	3441.348714
826.098502	3534.226933
826.416116	3769.096811
826.733685	4035.889796
827.051210	4090.571192
827.368692	3991.613342
827.686129	3748.317175
828.003522	3488.110457
828.320872	3280.059518
828.638177	3127.612505
828.955439	3023.129550
829.272656	2955.676391
829.589830	2903.291241
829.906960	2865.303626
830.224046	2832.697443
830.541088	2803.776343
830.858086	2789.943417
831.175041	2781.128960
831.491952	2779.467899
831.808819	2786.701955
832.125642	2806.939667
832.442421	2839.263546
832.759157	2907.515728
833.075849	3049.209959
833.392497	3279.681431
833.709101	3431.662137
834.025662	3390.480951
834.342179	3254.009355
834.658653	3112.705813
834.975083	2999.715911
835.291469	2921.530135
835.607811	2853.376256
835.924110	2809.228351
836.240366	2771.797784
836.556578	2740.915675
836.872746	2726.409755
837.188871	2712.181098
837.504952	2697.750796
837.820990	2691.441792
838.136984	2680.000893
838.452935	2677.276149
838.768842	2672.234995
839.084706	2686.819053
839.400526	2749.629310
839.716303	2853.058663
840.032037	2919.359919
840.347727	2906.822569
840.663373	2852.998169
840.978977	2791.120527
841.294537	2736.663462
841.610054	2701.844212
841.925527	2684.172448
842.240957	2667.440858
842.556344	2650.676501
842.871687	2641.466313
843.186987	2635.041362
843.502244	2630.088429
843.817458	2625.183386
844.132629	2615.128805
844.447756	2611.058073
844.762840	2603.203955
845.077881	2605.583380
845.392879	2603.632453
845.707833	2600.484253
846.022745	2593.933273
846.337613	2598.399736
846.652438	2596.640373
846.967221	2597.159612
847.281960	2596.889910
847.596656	2597.363778
847.911309	2595.405290
848.225919	2593.804724
848.540485	2590.901019
848.855009	2592.146184
849.169490	2590.873293
849.483928	2592.519230
849.798323	2590.233066
850.112675	2588.960175
850.426984	2591.006883
850.741251	2590.280957
851.055474	2588.572006
851.369654	2591.289188
851.683792	2593.265320
851.997887	2587.092428
852.311938	2588.375401
852.625947	2591.221133
852.939914	2591.092583
853.253837	2590.976637
853.567718	2586.800041
853.881555	2587.074783
854.195350	2588.120823
854.509103	2591.261462
854.822812	2584.871799
855.136479	2586.550503
855.450103	2588.072932
855.763685	2592.037799
856.077224	2588.352716
856.390720	2586.399269
856.704173	2589.860021
857.017584	2592.582244
857.330953	2592.509147
857.644278	2592.486462
857.957561	2594.202975
858.270802	2590.038982
858.584000	2591.037130
858.897155	2594.018973
859.210268	2591.586616
859.523339	2586.789958
859.836367	2586.986563
860.149352	2586.883220
860.462295	2590.381780
860.775195	2583.424988
861.088054	2581.068249
861.400869	2584.962540
861.713642	2579.749987
862.026373	2583.820719
862.339062	2585.635534
862.651708	2589.401276
862.964312	2589.582757
863.276873	2588.284660
863.589392	2588.229208
863.901869	2594.112234
864.214303	2597.187338
864.526696	2599.153388
864.839045	2598.550970
865.151353	2600.086002
865.463619	2603.082967
865.775842	2600.960642
866.088023	2597.686412
866.400162	2602.619181
866.712258	2600.252360
867.024313	2599.138265
867.336325	2597.477204
867.648296	2600.592637
867.960224	2602.074737
868.272110	2600.353183
868.583954	2596.138778
868.895755	2597.373861
869.207515	2601.288317
869.519233	2606.233689
869.830909	2603.367793
870.142542	2600.542226
870.454134	2600.038111
870.765684	2604.958277
871.077191	2604.819645
871.388657	2608.615634
871.700081	2606.606734
872.011463	2605.565736
872.322803	2610.306941
872.634101	2609.689400
872.945357	2615.108640
873.256571	2618.884464
873.567744	2614.864144
873.878874	2619.645678
874.189963	2618.728188
874.501010	2620.772376
874.812015	2624.205402
875.122979	2622.995525
875.433900	2615.408589
875.744780	2618.650051
876.055618	2618.352622
876.366415	2621.578961
876.677169	2622.851852
876.987882	2616.338682
877.298554	2616.298352
877.609183	2622.425875
877.919771	2627.068777
878.230317	2629.579272
878.540822	2638.595376
878.851285	2646.656181
879.161707	2660.597492
879.472087	2686.236800
879.782425	2721.572768
880.092722	2800.514717
880.402977	2937.281221
880.713191	3157.294818
881.023363	3412.563726
881.333494	3585.500508
881.643583	3710.377451
881.953631	3686.431970
882.263637	3535.305740
882.573602	3351.832945
882.883526	3243.574167
883.193408	3147.378869
883.503248	3061.263358
883.813048	2974.096767
884.122806	2893.483676
884.432522	2836.382526
884.742197	2788.274795
885.051831	2759.086514
885.361424	2735.312433
885.670975	2710.046170
885.980485	2692.197965
886.289954	2679.093485
886.599382	2672.769358
886.908768	2662.026659
887.218113	2652.302273
887.527417	2641.907414
887.836680	2632.785446
888.145901	2632.740076
888.455082	2621.558796
888.764221	2617.611573
889.073319	2615.703496
889.382376	2613.003958
889.691392	2614.516304
890.000366	2615.713578
890.309300	2613.175357
890.618193	2612.197374
890.927044	2616.779783
891.235855	2616.046295
891.544625	2616.207612
891.853353	2614.186109
892.162041	2622.443519
892.470687	2633.629839
892.779293	2642.676190
893.087858	2650.835297
893.396381	2666.858605
893.704864	2696.442616
894.013306	2747.769124
894.321707	2812.893270
894.630068	2850.195288
894.938387	2861.265662
895.246665	2852.146214
895.554903	2815.116419
895.863100	2780.728188
896.171256	2743.053125
896.479371	2703.923688
896.787446	2676.827487
897.095480	2664.113697
897.403473	2660.524395
897.711425	2649.431336
898.019336	2640.523617
898.327207	2631.016001
898.635038	2628.167749
898.942827	2625.690022
899.250576	2620.295987
899.558284	2611.930192
899.865952	2609.880963
900.173579	2604.691096
900.481165	2603.047679
900.788711	2598.016608
901.096216	2596.685743
901.403681	2591.871441
901.711105	2592.055443
902.018489	2593.182141
902.325832	2595.470825
902.633135	2597.615836
902.940397	2607.877105
903.247619	2630.993316
903.554800	2681.225893
903.861941	2776.712909
904.169041	2871.899976
904.476101	2915.049732
904.783121	2904.085223
905.090100	2860.650641
905.397039	2802.014460
905.703938	2747.597725
906.010796	2705.342773
906.317614	2670.883966
906.624391	2647.835811
906.931129	2626.594909
907.237826	2612.996397
907.544483	2598.732452
907.851099	2594.576020
908.157675	2585.789289
908.464211	2580.876685
908.770707	2570.892680
909.077163	2569.022412
909.383578	2566.622822
909.689954	2566.819427
909.996289	2565.768347
910.302584	2565.828841
910.608839	2566.484191
910.915054	2567.434448
911.221229	2567.767164
911.527363	2568.072154
911.833458	2569.892011
912.139513	2569.362689
912.445527	2566.073337
912.751502	2572.122721
913.057436	2578.419122
913.363331	2581.032961
913.669186	2587.805751
913.975000	2594.984354
914.280775	2607.791405
914.586510	2622.264558
914.892205	2649.554844
915.197859	2695.625949
915.503475	2751.139135
915.809050	2799.075467
916.114585	2821.410299
916.420081	2825.138233
916.725536	2826.219560
917.030952	2800.827268
917.336328	2769.294851
917.641665	2735.766137
917.946961	2704.228678
918.252218	2679.216993
918.557435	2662.866011
918.862612	2647.142652
919.167750	2632.341824
919.472848	2621.896554
919.777906	2612.540172
920.082925	2604.837289
920.387904	2601.033738
920.692843	2596.335383
920.997743	2590.351533
921.302603	2587.132757
921.607423	2582.688980
921.912204	2579.192939
922.216946	2574.983576
922.521647	2574.305541
922.826310	2573.677917
923.130932	2568.165415
923.435516	2566.983265
923.740059	2562.322718
924.044564	2562.123592
924.349028	2561.642162
924.653454	2555.174362
924.957840	2554.335010
925.262186	2554.705535
925.566493	2555.118909
925.870761	2548.724206
926.174989	2554.589588
926.479178	2551.474155
926.783328	2553.288970
927.087438	2549.263609
927.391509	2552.822664
927.695541	2547.211859
927.999533	2547.962991
928.303486	2549.336706
928.607400	2545.593649
928.911275	2545.868392
929.215110	2546.337219
929.518906	2548.918290
929.822663	2545.255892
930.126381	2547.952909
930.430060	2550.165976
930.733699	2546.264122
931.037299	2548.910728
931.340861	2548.197405
931.644383	2546.614483
931.947866	2545.938968
932.251309	2549.109854
932.554714	2544.945861
932.858080	2549.351829
933.161407	2546.700182
933.464694	2547.615152
933.767943	2542.609286
934.071153	2545.785213
934.374323	2544.797147
934.677455	2545.283618
934.980548	2545.059287
935.283602	2544.764379
935.586617	2543.315047
935.889593	2544.300593
936.192530	2543.763710
936.495428	2545.679349
936.798287	2545.034081
937.101108	2545.512991
937.403890	2547.476520
937.706632	2548.872920
938.009336	2554.808878
938.312002	2553.644372
938.614628	2557.944476
938.917216	2558.677964
939.219765	2558.320042
939.522275	2560.376833
939.824747	2559.938252
940.127179	2553.992211
940.429573	2553.604042
940.731929	2554.793755
941.034246	2548.041129
941.336524	2551.980791
941.638763	2552.931048
941.940964	2552.545400
942.243126	2550.846531
942.545250	2551.506922
942.847335	2550.957437
943.149381	2551.887530
943.451389	2548.598177
943.753359	2548.484751
944.055290	2549.102292
944.357182	2545.528114
944.659036	2547.668084
944.960851	2546.274205
945.262628	2547.181613
945.564367	2547.650440
945.866067	2547.902498
946.167729	2545.124822
946.469352	2544.260264
946.770937	2547.589946
947.072484	2546.274205
947.373992	2547.211859
947.675462	2546.475851
947.976893	2546.674977
948.278286	2545.235727
948.579641	2544.182126
948.880958	2544.466951
949.182236	2546.929555
949.483476	2542.586601
949.784678	2545.901159
950.085841	2542.964687
950.386967	2544.650953
950.688054	2541.338915
950.989103	2546.705223
951.290114	2543.932589
951.591087	2545.767569
951.892021	2548.908208
952.192917	2546.032229
952.493776	2549.245965
952.794596	2549.387117
953.095378	2548.089020
953.396122	2551.892571
953.696828	2548.983825
953.997496	2547.942827
954.298126	2546.054915
954.598718	2546.823691
954.899272	2546.301931
955.199788	2544.305634
955.500266	2543.700696
955.800706	2540.272711
956.101108	2537.810107
956.401472	2540.335726
956.701798	2537.497556
957.002087	2538.359593
957.302337	2535.891948
957.602550	2537.550488
957.902724	2534.976979
958.202861	2536.272556
958.502960	2538.594007
958.803022	2539.665252
959.103045	2536.945550
959.403031	2536.925385
959.702979	2537.873122
960.002889	2534.389685
960.302762	2538.281455
960.602596	2536.759027
960.902393	2536.774150
961.202153	2534.190559
961.501875	2532.718542
961.801559	2535.347504
962.101205	2535.269366
962.400814	2535.347504
962.700385	2535.899510
962.999918	2531.896834
963.299414	2534.498069
963.598873	2534.011598
963.898293	2532.930271
964.197677	2532.869777
964.497022	2533.890610
964.796331	2535.486136
965.095601	2534.757689
965.394835	2532.907585
965.694030	2534.104859
965.993189	2533.683923
966.292309	2534.140147
966.591393	2534.777853
966.890439	2531.788449
967.189447	2530.407173
967.488419	2533.396577
967.787353	2534.125024
968.086249	2531.932122
968.385108	2533.250384
968.683930	2534.107380
968.982714	2533.202493
969.281462	2532.950435
969.580172	2532.040507
969.878844	2533.918337
970.177480	2534.588810
970.476078	2535.912113
970.774639	2533.058820
971.073162	2534.798018
971.371649	2530.366844
971.670098	2530.424817
971.968510	2532.050589
972.266885	2529.212420
972.565223	2535.508821
972.863524	2532.022863
973.161788	2531.135620
973.460014	2533.305837
973.758204	2535.970086
974.056356	2534.334232
974.354471	2535.919675
974.652550	2535.622247
974.950591	2532.756351
975.248595	2536.756506
975.546563	2535.226516
975.844493	2535.576876
976.142386	2533.260466
976.440243	2532.227030
976.738062	2536.103677
977.035845	2531.254087
977.333590	2536.257432
977.631299	2533.187369
977.928971	2533.583100
978.226606	2531.281813
978.524204	2534.828265
978.821765	2532.302647
979.119290	2531.433048
979.416777	2536.892617
979.714228	2532.547143
980.011642	2532.494211
980.309020	2536.229706
980.606360	2534.084695
980.903664	2536.499407
981.200931	2532.705939
981.498162	2532.902544
981.795356	2534.656866
982.092513	2537.432021
982.389633	2540.078627
982.686717	2539.725746
982.983764	2545.051725
983.280775	2542.684903
983.577749	2540.025695
983.874686	2539.962680
984.171587	2541.893442
984.468451	2540.751621
984.765279	2535.594520
985.062070	2536.010416
985.358824	2531.637215
985.655543	2535.614685
985.952224	2532.229550
986.248869	2532.945394
986.545478	2528.620084
986.842050	2530.888603
987.138586	2526.580937
987.435086	2527.198479
987.731549	2525.149250
988.027975	2534.251053
988.324366	2531.251566
988.620719	2532.385826
988.917037	2531.392719
989.213318	2531.070085
989.509563	2530.082019
989.805772	2533.850281
990.101944	2531.095291
990.398080	2530.480270
990.694180	2529.555218
990.990244	2533.840199
991.286271	2528.751154
991.582262	2532.584952
991.878217	2529.393901
992.174136	2531.138140
992.470019	2532.141330
992.765865	2534.009077
993.061676	2529.940866
993.357450	2532.559746
993.653188	2529.698891
993.948890	2528.516740
994.244556	2531.004550
994.540186	2532.547143
994.835780	2532.070754
995.131337	2532.849612
995.426859	2534.687113
995.722345	2533.462112
996.017795	2533.129396
996.313208	2534.462781
996.608586	2534.682072
996.903928	2534.298944
997.199234	2533.038655
997.494504	2531.291896
997.789738	2531.158305
998.084936	2531.460774
998.380099	2530.881042
998.675225	2529.920702
998.970316	2530.840712
999.265371	2528.438602
999.560390	2531.463295
999.855373	2530.674354
1000.150320	2532.857174
1000.445232	2531.241484
1000.740108	2529.381298
1001.034948	2528.526823
1001.329752	2529.091432
1001.624521	2527.422810
1001.919254	2525.015659
1002.213951	2527.236287
1002.508613	2524.995494
1002.803239	2527.319466
1003.097829	2525.895340
1003.392384	2528.814168
1003.686903	2528.564631
1003.981386	2532.128727
1004.275834	2529.519930
1004.570246	2528.073119
1004.864623	2527.783253
1005.158964	2529.275434
1005.453270	2525.865093
1005.747540	2528.085722
1006.041775	2528.083201
1006.335974	2532.101001
1006.630138	2527.884076
1006.924266	2527.876514
1007.218359	2526.931298
1007.512416	2530.477749
1007.806438	2528.241998
1008.100425	2529.547656
1008.394376	2526.003725
1008.688292	2530.422297
1008.982172	2528.151257
1009.276017	2529.338448
1009.569827	2528.501617
1009.863602	2529.633356
1010.157341	2528.889786
1010.451045	2530.490352
1010.744714	2525.804600
1011.038347	2528.272244
1011.331945	2528.471370
1011.625508	2527.858870
1011.919036	2529.121679
1012.212528	2528.199148
1012.505986	2528.221833
1012.799408	2527.810979
1013.092795	2531.294416
1013.386147	2526.878365
1013.679464	2529.290557
1013.972745	2528.236956
1014.265992	2528.604961
1014.559204	2530.669313
1014.852380	2528.141174
1015.145521	2530.913809
1015.438628	2527.624456
1015.731699	2528.282327
1016.024736	2527.503468
1016.317737	2528.310053
1016.610703	2530.502955
1016.903635	2525.303005
1017.196531	2524.566996
1017.489393	2525.126564
1017.782219	2528.201668
1018.075011	2527.788294
1018.367768	2527.082532
1018.660490	2528.849457
1018.953177	2528.849457
1019.245829	2528.849457
