Dividing Wavelength (nm)	Counts (n)	Blue Motor Position (mm): 0.000000	Red Motor Position (mm): 39.700000	
326.493990	2128.002108
326.888308	2128.002108
327.282561	2128.002108
327.676750	2095.010277
328.070874	2092.071284
328.464933	2095.940370
328.858929	2102.413212
329.252859	2111.613317
329.646726	2122.784514
330.040528	2136.582152
330.434265	2153.580923
330.827938	2171.585404
331.221547	2186.603001
331.615091	2207.841383
332.008571	2227.416183
332.401986	2249.181365
332.795338	2266.616195
333.188625	2286.337189
333.581847	2304.419808
333.975006	2322.172231
334.368100	2341.560509
334.761129	2358.806296
335.154095	2375.217773
335.546996	2395.543705
335.939833	2418.700245
336.332606	2431.325815
336.725315	2441.859306
337.117960	2452.438167
337.510540	2459.848663
337.903056	2474.583956
338.295508	2481.578557
338.687896	2490.773622
339.080220	2497.488438
339.472480	2504.140241
339.864676	2506.433966
340.256807	2514.237672
340.648875	2516.423012
341.040879	2516.133146
341.432818	2516.226407
341.824694	2519.926614
342.216506	2523.462984
342.608253	2520.897036
342.999937	2521.628004
343.391557	2522.943745
343.783113	2520.967612
344.174605	2518.457118
344.566033	2516.281860
344.957397	2518.384021
345.348697	2517.645492
345.739934	2511.328926
346.131106	2512.284225
346.522215	2510.829852
346.913260	2506.212155
347.304241	2507.094357
347.695159	2505.334994
348.086012	2501.922133
348.476802	2500.031701
348.867528	2498.529437
349.258191	2496.281082
349.648789	2499.545229
350.039324	2496.669251
350.429796	2496.868377
350.820203	2492.492655
351.210548	2496.286123
351.600828	2491.008035
351.991045	2493.450474
352.381198	2490.682881
352.771288	2492.411997
353.161314	2486.778507
353.551276	2490.105669
353.941175	2490.945021
354.331010	2488.991574
354.720782	2490.229177
355.110490	2489.770432
355.500135	2490.551811
355.889717	2491.587768
356.279235	2493.193375
356.668689	2492.175062
357.058080	2490.960144
357.447408	2489.760350
357.836672	2488.520226
358.225873	2490.801348
358.615010	2488.817654
359.004084	2495.948366
359.393095	2492.835453
359.782043	2494.146153
360.170927	2495.797131
360.559748	2494.589775
360.948505	2494.652789
361.337199	2497.254025
361.725830	2496.694457
362.114398	2497.722852
362.502903	2497.609426
362.891344	2499.015908
363.279722	2502.280055
363.668037	2501.864160
364.056289	2501.438183
364.444478	2501.493635
364.832603	2502.877432
365.220665	2504.041938
365.608665	2503.595796
365.996601	2506.088647
366.384474	2507.283400
366.772284	2510.260202
367.160031	2508.508401
367.547715	2511.454955
367.935336	2513.380676
368.322893	2515.626510
368.710388	2520.965092
369.097820	2527.669827
369.485189	2528.373068
369.872495	2536.068389
370.259738	2541.379244
370.646918	2552.069011
371.034035	2557.526060
371.421090	2563.681309
371.808081	2577.552044
372.195010	2584.710482
372.581875	2600.259921
372.968678	2611.821808
373.355418	2622.166255
373.742096	2639.843061
374.128710	2655.437871
374.515262	2669.860612
374.901751	2685.558765
375.288177	2698.796835
375.674540	2723.054867
376.060841	2739.269739
376.447079	2757.223808
376.833254	2779.409926
377.219367	2790.109775
377.605417	2829.576969
377.991404	2837.567197
378.377329	2861.444623
378.763191	2878.365256
379.148991	2916.315062
379.534727	2940.290789
379.920402	2969.048052
380.306013	2980.869557
380.691563	3032.765716
381.077049	3052.242213
381.462474	3067.718556
381.847835	3110.044083
382.233134	3132.386477
382.618371	3132.033597
383.003545	3200.235367
383.388657	3205.248794
383.773706	3241.003178
384.158693	3253.560692
384.543618	3282.892646
384.928480	3318.374807
385.313280	3364.017414
385.698017	3358.557845
386.082692	3414.552461
386.467305	3419.492792
386.851856	3453.187864
387.236344	3473.798622
387.620770	3505.739372
388.005133	3532.565872
388.389435	3559.803227
388.773674	3571.186152
389.157851	3611.981690
389.541965	3627.629431
389.926018	3591.680963
390.310008	3666.156449
390.693936	3680.985003
391.077802	3721.737691
391.461606	3712.598079
391.845348	3775.665434
392.229027	3774.695012
392.612645	3789.974750
392.996200	3867.416955
393.379694	3907.126124
393.763125	3972.893017
394.146494	3938.903037
394.529801	4000.798324
394.913047	4052.273546
395.296230	4016.027650
395.679351	4067.029003
396.062410	4091.735698
396.445408	4071.276175
396.828343	4108.063996
397.211217	4133.829333
397.594028	4051.416550
397.976778	4116.780151
398.359466	4140.287051
398.742092	4173.538502
399.124656	4094.813323
399.507158	4176.253163
399.889598	4200.675033
400.271977	4262.993777
400.654294	4229.180237
401.036549	4240.810179
401.418742	4211.190880
401.800874	4312.586128
402.182944	4332.226463
402.564952	4402.603491
402.946898	4388.205956
403.328783	4381.082806
403.710606	4293.611225
404.092367	4491.552130
404.474067	4451.908497
404.855705	4462.013489
405.237282	4390.703848
405.618797	4498.685363
406.000250	4532.559396
406.381642	4615.226758
406.762972	4576.944235
407.144240	4585.141152
407.525447	4585.451182
407.906593	4644.553670
408.287677	4689.608983
408.668700	4618.067448
409.049661	4668.446219
409.430560	4711.454823
409.811399	4637.382629
410.192176	4796.310045
410.572891	4735.170931
410.953545	4842.880224
411.334138	4721.310279
411.714669	4788.876864
412.095139	4681.938867
412.475547	4824.492616
412.855894	4804.060819
413.236180	4816.764527
413.616405	4765.942134
413.996568	4852.337429
414.376670	4801.260458
414.756711	4750.632150
415.136691	4782.845123
415.516609	4863.279253
415.896466	4895.804778
416.276262	4935.050161
416.655997	4912.816152
417.035670	5100.800778
417.415283	5186.452503
417.794834	5125.938492
418.174324	5085.407615
418.553753	4994.094675
418.933121	5174.227705
419.312428	5240.284464
419.691674	5180.932439
420.070859	5310.600999
420.449983	5219.436773
420.829045	5338.133260
421.208047	5241.973251
421.586988	5313.482018
421.965867	5329.505326
422.344686	5455.942505
422.723444	5310.858097
423.102141	5136.285460
423.480777	5431.762611
423.859352	5197.830387
424.237866	5459.340243
424.616319	5451.294561
424.994712	5557.869595
425.373044	5439.014311
425.751314	5575.410290
426.129524	5380.335280
426.507673	5574.959106
426.885762	5659.302651
427.263789	5591.088278
427.641756	5471.050843
428.019662	5590.954687
428.397508	5596.174802
428.775292	5546.617739
429.153016	5650.495756
429.530679	5575.070012
429.908282	5654.937012
430.285824	5526.972363
430.663305	5807.497451
431.040726	5537.951996
431.418086	5542.176483
431.795385	5646.235981
432.172624	5657.681920
432.549802	5648.333101
432.926920	5665.377242
433.303977	5676.727400
433.680974	5709.389035
434.057910	5727.887549
434.434786	5735.038426
434.811601	5702.124733
435.188355	5938.693480
435.565050	5812.190765
435.941683	5792.845337
436.318257	6007.462380
436.694770	5987.242312
437.071222	6024.975348
437.447614	5958.442200
437.823946	5868.893664
438.200218	6026.296131
438.576429	5887.190532
438.952580	5986.168546
439.328670	6031.559095
439.704700	5934.542090
440.080670	5921.823258
440.456580	6199.235434
440.832429	6079.873514
441.208218	5923.834679
441.583947	6081.648000
441.959616	6087.044555
442.335224	6010.204768
442.710773	6147.314070
443.086261	6173.840622
443.461689	5972.118850
443.837057	6118.501355
444.212365	6272.127998
444.587612	6163.191184
444.962800	6320.051727
445.337927	6303.282329
445.712995	5911.120889
446.088002	6486.031717
446.462949	6317.730276
446.837837	6249.926757
447.212664	6423.622233
447.587431	6561.102060
447.962139	7109.065401
448.336786	8033.058489
448.711374	7770.996627
449.085901	6849.037644
449.460369	6766.196363
449.834776	6704.711930
450.209124	7097.064934
450.583412	7248.241576
450.957640	7392.836992
451.331808	7158.546846
451.705917	6710.930193
452.079965	6631.887422
452.453954	6845.614701
452.827883	6722.542491
453.201752	6816.386091
453.575562	6608.856910
453.949311	6822.649724
454.323001	6707.880295
454.696632	6782.489372
455.070202	6919.835609
455.443713	7076.852428
455.817164	7175.447315
456.190556	7258.147443
456.563888	7328.060686
456.937160	7377.469034
457.310373	7031.497167
457.683526	7051.928963
458.056619	6947.698066
458.429653	6936.468896
458.802628	6871.319544
459.175542	6981.567058
459.548398	7337.888415
459.921194	7494.965728
460.293930	7501.526789
460.666607	8036.655352
461.039224	8333.740631
461.411782	8458.680588
461.784280	8482.855441
462.156719	8379.088330
462.529099	8243.703103
462.901419	7833.070875
463.273680	7733.434990
463.645882	7747.325889
464.018024	7614.683049
464.390106	7777.845035
464.762130	8163.662182
465.134094	8634.299264
465.505999	9655.241303
465.877845	10878.600792
466.249631	11526.000892
466.621358	11147.652214
466.993026	10510.997333
467.364634	10257.616338
467.736184	9896.216019
468.107674	9563.078928
468.479105	9596.809289
468.850477	9365.891675
469.221790	9133.590265
469.593043	8801.587434
469.964238	8659.999067
470.335373	8678.379114
470.706449	8735.888597
471.077467	8715.298004
471.448425	10024.871306
471.819324	11095.831673
472.190164	11121.158430
472.560945	9877.180622
472.931667	9092.242721
473.302330	8951.962533
473.672934	8595.202596
474.043479	8952.277605
474.413965	8891.375425
474.784393	8773.409905
475.154761	8932.302033
475.525070	9016.638016
475.895321	8846.856996
476.265513	9020.802009
476.635645	9187.828039
477.005719	9192.478503
477.375734	9309.798756
477.745691	9539.924909
478.115588	9678.062607
478.485427	9911.951980
478.855207	10454.619589
479.224928	11264.909452
479.594591	11896.578632
479.964194	11710.129037
480.333739	11651.074440
480.703226	11571.646020
481.072653	11653.910089
481.442022	11893.959753
481.811333	12078.753329
482.180584	11888.555636
482.549777	11598.165010
482.918912	11420.232444
483.287988	11444.182966
483.657005	11458.658639
484.025964	11138.215174
484.394864	11267.631676
484.763706	11244.472615
485.132489	10995.724440
485.501213	10954.308841
485.869879	11038.309587
486.238487	10867.245593
486.607036	10984.142389
486.975527	10772.242528
487.343959	10952.650301
487.712333	10997.549338
488.080648	10930.703638
488.448905	10975.829526
488.817104	10915.227295
489.185244	11179.066164
489.553326	11339.710093
489.921350	11873.028882
490.289315	12935.968773
490.657222	13283.243780
491.025070	13184.159901
491.392861	13059.512331
491.760593	12685.834281
492.128267	12327.047800
492.495883	12004.741629
492.863440	11671.649909
493.230939	11335.299084
493.598380	11259.901066
493.965763	11133.912549
494.333088	11027.932372
494.700354	10953.620723
495.067563	11011.029383
495.434713	10838.165697
495.801805	10974.528909
496.168839	10900.736499
496.535815	10837.422127
496.902733	10835.693011
497.269593	10763.579305
497.636395	10867.956396
498.003139	10849.956956
498.369825	10717.356966
498.736453	10874.451923
499.103023	10803.386777
499.469535	10834.770480
499.835989	10819.286576
500.202385	10785.397419
500.568723	10637.878134
500.935003	10860.389624
501.301226	10664.644141
501.667390	10923.399006
502.033497	11025.701661
502.399546	10880.420649
502.765537	10790.362956
503.131470	10857.864006
503.497345	11030.863803
503.863163	10650.196194
504.228923	10951.309354
504.594625	11020.368121
504.960269	10762.820612
505.325856	10986.572225
505.691385	10782.947418
506.056856	10937.763774
506.422270	10962.160438
506.787625	10847.028046
507.152924	10967.025151
507.518164	10951.886566
507.883347	10872.871521
508.248472	10791.817329
508.613540	11022.689572
508.978550	10904.814792
509.343503	10876.664989
509.708398	11003.744916
510.073236	11100.507343
510.438016	11112.346493
510.802738	11066.890409
511.167403	11115.514858
511.532010	11010.832778
511.896561	11243.756771
512.261053	11306.927470
512.625488	11185.362565
512.989866	11162.213587
513.354186	11151.344859
513.718449	11053.614530
514.082655	11247.283058
514.446803	11144.758592
514.810894	11264.909452
515.174927	11126.600356
515.538904	11159.062866
515.902822	11308.414610
516.266684	11197.937724
516.630488	11131.134873
516.994235	11200.599453
517.357925	11253.851682
517.721558	11347.682678
518.085133	11358.062414
518.448651	11368.575740
518.812112	11262.048598
519.175516	11264.579257
519.538863	11384.866229
519.902152	11308.475104
520.265385	11461.763990
520.628560	11362.312107
520.991678	11351.637463
521.354739	11407.896740
521.717743	11344.721000
522.080690	11329.584936
522.443580	11458.792229
522.806413	11415.067782
523.169189	11448.558687
523.531908	11502.408292
523.894569	11325.068062
524.257174	11331.510657
524.619722	11444.603902
524.982213	11397.806871
525.344647	11440.724734
525.707025	11386.292875
526.069345	11482.253759
526.431608	11403.964640
526.793815	11517.388081
527.155964	11294.821139
527.518057	11348.441372
527.880093	11301.740122
528.242072	11368.663960
528.603995	11270.593353
528.965860	11194.522342
529.327669	11247.734241
529.689421	11200.014679
530.051117	11174.163642
530.412755	11282.223295
530.774337	11168.043681
531.135862	11151.100363
531.497331	11172.890751
531.858743	11019.165805
532.220098	11186.574963
532.581396	11061.342619
532.942638	11039.637931
533.303824	10998.776859
533.664953	11024.857268
534.026025	10929.188771
534.387040	11029.298525
534.747999	11028.658298
535.108902	11088.171640
535.469748	10841.807931
535.830537	10947.079826
536.191270	10927.835221
536.551947	10949.650814
536.912567	10948.788777
537.273131	10867.636282
537.633638	10847.133910
537.994089	10837.621253
538.354483	10791.706423
538.714821	10930.174317
539.075103	10936.410224
539.435328	10910.145812
539.795497	10734.005376
540.155609	10885.766792
540.515665	10973.177879
540.875665	10712.885462
541.235609	10787.625609
541.595496	10776.124217
541.955328	10935.757394
542.315102	10813.670731
542.674821	10764.849676
543.034483	10770.178176
543.394090	10772.098855
543.753640	10704.741478
544.113134	10919.696278
544.472571	10771.728331
544.831953	10921.286762
545.191278	10724.981711
545.550548	10750.689075
545.909761	10885.474405
546.268918	10861.337361
546.628019	10944.292068
546.987064	10808.745523
547.346053	10726.357946
547.704986	10833.563124
548.063863	10814.247943
548.422684	10809.259721
548.781449	10727.502288
549.140158	10822.812863
549.498811	10703.030007
549.857408	10555.422501
550.215949	10783.050762
550.574434	10632.274892
550.932864	10731.903215
551.291237	10786.791298
551.649555	10737.478731
552.007817	10753.746535
552.366022	10716.129445
552.724173	10703.738289
553.082267	10690.976608
553.440305	10820.415794
553.798288	10627.140477
554.156215	10782.239136
554.514086	10754.951371
554.871902	10604.276323
555.229661	10640.219750
555.587365	10615.752510
555.945014	10510.460450
556.302606	10630.548297
556.660143	10525.173058
557.017625	10680.410349
557.375050	10583.693292
557.732421	10710.264062
558.089735	10618.250402
558.446994	10621.980856
558.804197	10652.109312
559.161345	10655.643160
559.518437	10502.523153
559.875474	10585.374517
560.232455	10621.262491
560.589381	10569.273072
560.946251	10568.544625
561.303065	10667.152115
561.659825	10599.850190
562.016528	10532.702021
562.373177	10408.137630
562.729770	10516.348518
563.086307	10434.623852
563.442789	10521.954281
563.799216	10401.352237
564.155587	10444.779257
564.511904	10396.643799
564.868164	10386.700123
565.224370	10395.693542
565.580520	10316.509618
565.936615	10322.309465
566.292654	10187.561943
566.648638	10321.858282
567.004567	10265.475497
567.360441	10250.825904
567.716260	10158.696297
568.072023	10255.128528
568.427732	10188.862561
568.783385	10104.244273
569.138982	10164.312142
569.494525	10188.159320
569.850013	10057.706862
570.205445	10131.302667
570.560823	10027.228045
570.916145	9940.447102
571.271412	10006.284572
571.626625	9941.036918
571.981782	9923.216439
572.336884	9888.150172
572.691931	9891.774762
573.046923	9825.959978
573.401860	9782.283421
573.756743	9711.278769
574.111570	9748.853009
574.466342	9733.253159
574.821059	9746.324871
575.175722	9647.051949
575.530330	9638.287903
575.884882	9630.360688
576.239380	9556.820336
576.593823	9531.402838
576.948211	9540.877687
577.302544	9410.818438
577.656823	9415.032843
578.011047	9413.845651
578.365216	9385.758862
578.719330	9298.647724
579.073389	9301.274165
579.427394	9244.162933
579.781344	9215.284683
580.135239	9151.100713
580.489080	9159.610180
580.842866	9053.178820
581.196597	9042.002582
581.550273	9077.583046
581.903895	9030.256693
582.257463	9092.129295
582.610975	8959.829253
582.964434	8977.261563
583.317837	8888.925425
583.671186	8869.211992
584.024481	8851.434363
584.377721	8768.298175
584.730906	8736.130572
585.084037	8750.691945
585.437113	8681.537397
585.790135	8694.352010
586.143103	8582.912263
586.496016	8542.724184
586.848874	8586.932583
587.201679	8563.493738
587.554428	8449.167931
587.907124	8479.001479
588.259765	8442.120398
588.612352	8424.113396
588.964884	8298.623953
589.317362	8297.802245
589.669786	8283.301366
590.022155	8312.905542
590.374470	8317.276223
590.726731	8251.136284
591.078937	8098.880835
591.431090	8184.376284
591.783188	8055.350472
592.135232	8033.202162
592.487222	8029.645628
592.839157	8055.184113
593.191038	7982.150397
593.542866	7920.134122
593.894639	7809.145559
594.246358	7843.586722
594.598022	7843.190991
594.949633	7735.519507
595.301190	7698.721604
595.652692	7709.673511
596.004141	7786.392311
596.355535	7577.050836
596.706876	7542.917183
597.058162	7467.027653
597.409395	7515.707555
597.760573	7552.409676
598.111698	7462.485573
598.462768	7432.281500
598.813785	7386.291054
599.164748	7338.064855
599.515657	7325.328380
599.866511	7219.151598
600.217312	7316.748336
600.568060	7181.219436
600.918753	7249.154025
601.269392	7204.481840
601.619978	7118.174766
601.970510	7150.969992
602.320988	7130.283617
602.671412	7154.768502
603.021783	7091.912875
603.372100	7052.748151
603.722363	7027.088678
604.072572	6995.984758
604.422728	6990.336145
604.772830	6912.301604
605.122878	6894.702936
605.472872	6887.063068
605.822813	6879.697942
606.172701	6826.675086
606.522534	6861.673296
606.872314	6840.397107
607.222041	6794.063862
607.571714	6813.159752
607.921333	6768.492609
608.270899	6748.181800
608.620411	6800.725746
608.969870	6703.665891
609.319276	6675.072466
609.668627	6671.480644
610.017926	6678.276119
610.367171	6684.302819
610.716362	6650.133878
611.065500	6622.248736
611.414585	6614.213136
611.763616	6594.187153
612.112594	6547.690070
612.461518	6540.519029
612.810389	6563.904942
613.159207	6499.741135
613.507971	6439.335509
613.856682	6495.045301
614.205340	6448.490245
614.553945	6481.497200
614.902496	6388.659310
615.250994	6402.615745
615.599439	6374.521394
615.947830	6359.171081
616.296169	6311.542259
616.644454	6304.519932
616.992686	6275.785355
617.340864	6293.547861
617.688990	6206.333379
618.037063	6245.354430
618.385082	6184.177507
618.733048	6212.319749
619.080961	6160.085833
619.428821	6148.634852
619.776628	6122.960256
620.124382	6071.845476
620.472083	6034.074631
620.819731	6036.184354
621.167326	5945.932577
621.514868	5928.313744
621.862357	5840.143963
622.209793	5831.034598
622.557176	5771.337254
622.904506	5730.335030
623.251783	5673.690104
623.599007	5621.862002
623.946179	5609.911947
624.293297	5558.739194
624.640363	5495.351725
624.987376	5464.099092
625.334336	5419.789870
625.681243	5367.016551
626.028097	5340.333724
626.374899	5314.865815
626.721647	5282.163850
627.068343	5229.977825
627.414987	5192.907700
627.761577	5153.697606
628.108115	5153.158202
628.454600	5078.859156
628.801032	5081.150361
629.147412	5047.150299
629.493739	5012.893138
629.840014	4967.986539
630.186236	4980.463395
630.532405	4904.485645
630.878521	4912.241460
631.224585	4868.771590
631.570597	4818.017253
631.916556	4809.560718
632.262462	4795.828615
632.608316	4755.534672
632.954117	4728.491402
633.299866	4711.984144
633.645562	4684.613199
633.991206	4632.913646
634.336797	4585.887242
634.682336	4549.777457
635.027823	4515.515255
635.373257	4494.665043
635.718639	4447.716777
636.063968	4435.229839
636.409245	4381.831417
636.754470	4356.769321
637.099642	4328.392666
637.444762	4290.621820
637.789829	4275.163122
638.134845	4236.003439
638.479808	4210.754820
638.824719	4201.685784
639.169577	4161.006193
639.514383	4145.444151
639.859137	4110.917289
640.203839	4104.701546
640.548489	4074.560487
640.893086	4057.513825
641.237632	4028.912839
641.582125	4023.518804
641.926566	3994.254906
642.270955	3992.351871
642.615292	3973.462667
642.959576	3962.722489
643.303809	3951.521045
643.647990	3939.268521
643.992118	3923.804781
644.336195	3891.513670
644.680219	3884.960170
645.024192	3872.100187
645.368112	3896.368302
645.711981	3887.445459
646.055797	3905.155033
646.399562	3880.622257
646.743274	3905.210485
647.086935	3919.560130
647.430544	3910.349942
647.774101	3898.964496
648.117606	3892.970564
648.461059	3876.690157
648.804460	3848.406764
649.147810	3804.679795
649.491108	3784.255561
649.834354	3761.514916
650.177548	3721.820870
650.520690	3681.302596
650.863781	3665.193589
651.206820	3656.928617
651.549807	3621.494347
651.892742	3594.415789
652.235626	3583.564705
652.578458	3566.921336
652.921238	3529.377343
653.263967	3533.395142
653.606644	3507.569311
653.949269	3495.709997
654.291843	3472.220740
654.634365	3471.522541
654.976836	3451.642750
655.319255	3443.597069
655.661622	3428.148453
656.003938	3412.437697
656.346203	3396.784914
656.688416	3394.753329
657.030577	3371.231305
657.372687	3359.356868
657.714746	3344.727439
658.056753	3344.626616
658.398708	3316.741473
658.740612	3308.905000
659.082465	3310.031698
659.424266	3302.177580
659.766016	3289.247020
660.107715	3278.017850
660.449362	3272.008795
660.790958	3262.317177
661.132503	3252.842328
661.473996	3254.773090
661.815438	3242.359248
662.156829	3237.179463
662.498168	3226.330900
662.839456	3216.634240
663.180693	3213.443190
663.521879	3209.400185
663.863013	3199.111190
664.204097	3190.705066
664.545129	3193.041640
664.886110	3184.857327
665.227040	3183.591998
665.567918	3178.162675
665.908746	3171.669669
666.249522	3165.955521
666.590248	3159.414624
666.930922	3158.247597
667.271545	3153.990342
667.612118	3148.127480
667.952639	3137.344452
668.293109	3130.249028
668.633528	3115.508694
668.973896	3110.618775
669.314213	3101.005295
669.654480	3092.591609
669.994695	3083.320927
670.334859	3076.132242
670.674973	3068.018504
671.015035	3065.039183
671.355047	3054.525856
671.695008	3046.775082
672.034918	3040.708053
672.374777	3034.313350
672.714585	3027.006197
673.054342	3023.666433
673.394049	3014.050432
673.733705	3014.799043
674.073310	3004.840244
674.412864	2996.489573
674.752368	2987.304590
675.091820	2980.380565
675.431223	2968.344811
675.770574	2958.116309
676.109875	2943.910338
676.449125	2937.271138
676.788324	2930.851229
677.127473	2919.735485
677.466571	2911.563774
677.805619	2907.757703
678.144616	2900.894172
678.483562	2893.508882
678.822458	2883.827346
679.161303	2881.367263
679.500098	2874.332332
679.838842	2869.916282
680.177535	2865.177597
680.516179	2862.319263
680.854771	2859.148377
681.193314	2865.691795
681.531805	2875.481716
681.870247	2896.130282
682.208638	2902.449368
682.546978	2899.071795
682.885268	2891.656258
683.223508	2876.920965
683.561697	2867.254553
683.899836	2860.688450
684.237925	2852.720906
684.575963	2850.064218
684.913951	2842.038701
685.251889	2845.222190
685.589776	2838.136848
685.927614	2835.424707
686.265401	2838.804801
686.603137	2837.718432
686.940824	2840.670028
687.278460	2844.816377
687.616046	2844.100533
687.953582	2849.673528
688.291068	2846.648836
688.628504	2847.238651
688.965889	2843.241016
689.303224	2835.568380
689.640510	2823.381391
689.977745	2810.854123
690.314930	2796.703604
690.652065	2788.110958
690.989150	2777.869854
691.326185	2766.741507
691.663170	2756.908736
692.000105	2751.607963
692.336990	2741.830645
692.673825	2735.045252
693.010610	2726.256000
693.347345	2719.122767
693.684030	2711.480378
694.020665	2709.655480
694.357251	2698.360775
694.693786	2699.878162
695.030272	2695.721731
695.366707	2692.001360
695.703093	2688.792665
696.039429	2689.498427
696.375716	2685.851152
696.711952	2681.298990
697.048139	2679.501819
697.384276	2678.649864
697.720363	2679.295131
698.056400	2675.453772
698.392388	2673.848165
698.728326	2671.304902
699.064214	2667.206444
699.400053	2667.599654
699.735842	2658.021462
700.071581	2656.672953
700.407270	2653.744043
700.742910	2650.338744
701.078501	2647.500574
701.414042	2648.677683
701.749533	2640.463123
702.084974	2640.352218
702.420366	2638.625623
702.755709	2636.581435
703.091002	2631.946094
703.426246	2632.341824
703.761440	2629.551546
704.096584	2628.107255
704.431679	2626.582306
704.766725	2624.346554
705.101721	2621.518467
705.436668	2627.308232
705.771565	2620.485031
706.106413	2621.868827
706.441212	2621.188272
706.775961	2622.647686
707.110661	2619.060905
707.445311	2620.636265
707.779913	2618.861779
708.114465	2621.722634
708.448967	2621.704990
708.783421	2625.412758
709.117825	2625.639610
709.452180	2622.050309
709.786485	2625.064919
710.120742	2631.517596
710.454949	2631.409211
710.789107	2632.674541
711.123216	2634.438944
711.457275	2635.275776
711.791286	2636.042031
712.125247	2636.899027
712.459159	2636.452885
712.793023	2640.556385
713.126837	2636.427680
713.460602	2634.983389
713.794318	2632.475415
714.127985	2627.449385
714.461602	2619.993518
714.795171	2620.817747
715.128691	2615.784155
715.462162	2611.000100
715.795584	2607.798967
716.128957	2607.761158
716.462281	2605.364090
716.795556	2603.511466
717.128782	2600.721187
717.461960	2597.525095
717.795088	2598.243460
718.128167	2597.724221
718.461198	2592.143664
718.794180	2595.922008
719.127113	2590.916143
719.459997	2589.585278
719.792833	2587.914136
720.125619	2588.050247
720.458357	2583.936665
720.791046	2584.980184
721.123686	2587.684763
721.456278	2584.110585
721.788821	2583.740060
722.121315	2582.429360
722.453761	2580.465831
722.786158	2580.980028
723.118506	2580.024730
723.450805	2581.617734
723.783056	2580.707806
724.115259	2581.915162
724.447412	2577.867116
724.779518	2583.561099
725.111574	2579.881057
725.443582	2581.501788
725.775542	2579.444997
726.107453	2581.688311
726.439315	2582.383990
726.771129	2584.677715
727.102895	2581.960533
727.434612	2586.452201
727.766281	2584.103023
728.097901	2584.115626
728.429473	2584.667632
728.760996	2584.224011
729.092471	2578.585480
729.423897	2584.773497
729.755276	2583.762745
730.086606	2585.564958
730.417887	2587.392376
730.749120	2586.674012
731.080305	2583.319124
731.411442	2587.830957
731.742530	2588.415730
732.073570	2587.145360
732.404562	2587.435226
732.735506	2587.306677
733.066401	2583.417426
733.397249	2581.849627
733.728048	2583.777869
734.058798	2579.134966
734.389501	2578.444328
734.720156	2574.411405
735.050762	2574.476940
735.381320	2574.096333
735.711831	2573.614903
736.042293	2574.113977
736.372707	2572.888977
736.703073	2571.109449
737.033391	2571.595921
737.363661	2570.749007
737.693883	2570.708678
738.024056	2574.318144
738.354182	2574.000551
738.684260	2577.657908
739.014290	2573.602300
739.344272	2572.213462
739.674207	2574.494584
740.004093	2578.580439
740.333931	2573.536765
740.663722	2574.320664
740.993464	2573.670355
741.323159	2574.847465
741.652806	2571.858061
741.982405	2572.263873
742.311956	2569.904613
742.641460	2573.561971
742.970915	2567.031156
743.300323	2568.941753
743.629683	2567.477298
743.958996	2566.527040
744.288260	2567.154664
744.617477	2564.417317
744.946647	2563.938408
745.275768	2561.687533
745.604842	2562.277348
745.933869	2562.305074
746.262847	2560.492779
746.591778	2565.843964
746.920662	2562.436144
747.249498	2564.598799
747.578286	2562.058057
747.907027	2565.516289
748.235720	2565.649880
748.564365	2565.070147
748.892963	2564.629046
749.221514	2562.630228
749.550017	2563.862791
749.878473	2563.527554
750.206881	2563.330949
750.535242	2560.770043
750.863555	2559.862635
751.191821	2563.572924
751.520039	2563.323387
751.848210	2563.784653
752.176334	2562.471432
752.504411	2562.647872
752.832440	2561.049827
753.160421	2564.893707
753.488356	2557.548745
753.816243	2562.572255
754.144082	2558.355330
754.471875	2563.333469
754.799620	2558.183931
755.127318	2558.027655
755.454969	2557.495813
755.782572	2562.662996
756.110129	2559.499672
756.437638	2561.208623
756.765100	2559.124106
757.092515	2560.454971
757.419882	2560.709549
757.747203	2561.896741
758.074477	2559.988664
758.401703	2561.223747
758.728882	2559.003118
759.056014	2562.151319
759.383099	2561.332131
759.710138	2558.022614
760.037129	2562.390774
760.364073	2564.049313
760.690970	2561.926988
761.017820	2560.885989
761.344623	2561.450598
761.671379	2562.990671
761.998088	2562.027811
762.324751	2560.860783
762.651366	2571.321178
762.977935	2582.172261
763.304456	2592.050402
763.630931	2595.894282
763.957359	2587.619228
764.283740	2581.975656
764.610074	2575.152455
764.936362	2567.792370
765.262602	2566.418656
765.588796	2567.449572
765.914943	2563.557801
766.241044	2560.936401
766.567097	2559.048489
766.893104	2558.801472
767.219064	2557.394990
767.544978	2557.407593
767.870845	2557.198385
768.196665	2556.527912
768.522438	2553.417520
768.848165	2555.360885
769.173846	2553.104968
769.499479	2552.946172
769.825066	2552.545400
770.150607	2553.349464
770.476101	2550.234031
770.801548	2554.622356
771.126949	2550.019782
771.452303	2554.239228
771.777611	2550.493651
772.102872	2553.026830
772.428087	2549.608928
772.753256	2552.845349
773.078378	2548.419216
773.403453	2551.416182
773.728482	2551.128836
774.053465	2548.401572
774.378401	2549.142621
774.703291	2551.511964
775.028135	2546.196067
775.352932	2547.849565
775.677683	2547.247148
776.002388	2547.307641
776.327046	2549.371994
776.651658	2547.484082
776.976224	2549.878630
777.300743	2548.547765
777.625216	2548.026006
777.949643	2548.202446
778.274024	2546.415357
778.598359	2544.262784
778.922647	2542.808412
779.246889	2545.961653
779.571086	2541.943854
779.895236	2549.379556
780.219339	2549.860986
780.543397	2549.137580
780.867409	2548.976263
781.191374	2548.386448
781.515294	2548.751932
781.839167	2547.471479
782.162995	2547.247147
782.486776	2545.361756
782.810511	2549.765204
783.134201	2546.783361
783.457844	2545.631458
783.781441	2548.076417
784.104993	2549.371994
784.428498	2546.894267
784.751958	2546.601880
785.075372	2547.620193
785.398739	2544.567774
785.722061	2548.552806
786.045337	2545.918803
786.368568	2550.879299
786.691752	2545.747404
787.014891	2547.897456
787.337983	2549.193033
787.661030	2550.390307
787.984031	2551.816953
788.306987	2552.177396
788.629897	2552.036244
788.952760	2552.888199
789.275579	2550.642365
789.598351	2553.659495
789.921078	2548.444422
790.243759	2550.939793
790.566395	2548.825029
790.888984	2550.294525
791.211529	2549.142621
791.534027	2547.715975
791.856480	2545.835624
792.178888	2547.015254
792.501249	2545.598690
792.823566	2548.388969
793.145836	2546.405275
793.468062	2546.841335
793.790241	2544.681200
794.112375	2547.458876
794.434464	2548.719164
794.756507	2545.323947
795.078505	2547.146324
795.400457	2546.417878
795.722364	2544.116591
796.044226	2547.998279
796.366042	2543.829245
796.687812	2545.707075
797.009538	2548.189843
797.331218	2548.610780
797.652852	2551.504402
797.974442	2544.845038
798.295986	2547.030378
798.617484	2548.167158
798.938938	2547.821839
799.260346	2545.303783
799.581709	2547.597508
799.903026	2548.613300
800.224299	2546.185985
800.545526	2547.645399
800.866708	2547.378218
801.187845	2543.751107
801.508936	2546.203629
801.829983	2545.633978
802.150984	2544.361087
802.471940	2546.667415
802.792851	2544.262784
803.113717	2547.945347
803.434538	2543.350336
803.755314	2543.899821
804.076045	2544.174564
804.396731	2547.615152
804.717372	2546.690100
805.037967	2546.375028
805.358518	2543.945192
805.679024	2548.313352
805.999485	2545.770089
806.319901	2543.108360
806.640272	2542.531148
806.960598	2546.140614
807.280879	2545.127342
807.601115	2545.099616
807.921306	2546.377548
808.241453	2544.623227
808.561554	2546.070038
808.881611	2548.641027
809.201623	2545.298742
809.521590	2546.932075
809.841513	2544.134235
810.161390	2544.522404
810.481223	2542.873947
810.801011	2548.056253
811.120755	2542.778165
811.440453	2544.764379
811.760107	2544.313196
812.079716	2544.025850
812.399281	2539.652649
812.718801	2543.524255
813.038276	2538.301620
813.357707	2547.819318
813.677093	2544.577857
813.996434	2544.872764
814.315731	2545.699513
814.634983	2544.101468
814.954191	2542.324461
815.273354	2545.535676
815.592473	2544.197249
815.911547	2546.927034
816.230577	2546.080120
816.549562	2546.594318
816.868502	2548.202446
817.187399	2546.478372
817.506250	2548.242775
817.825058	2547.421067
818.143821	2544.401416
818.462539	2549.356870
818.781213	2551.980791
819.099843	2548.986346
819.418429	2554.513971
819.736970	2556.326266
820.055466	2560.318859
820.373919	2564.465208
820.692327	2564.404715
821.010691	2575.185222
821.329011	2593.943356
821.647286	2632.261166
821.965517	2680.948630
822.283704	2704.631971
822.601847	2716.178733
822.919945	2694.249714
823.237999	2666.483039
823.556010	2645.232055
823.873976	2623.169445
824.191897	2608.736622
824.509775	2596.300095
824.827609	2587.024372
825.145398	2580.289390
825.463144	2580.062538
825.780845	2580.165882
826.098502	2586.850452
826.416116	2597.832606
826.733685	2611.358022
827.051210	2616.469752
827.368692	2610.158227
827.686129	2599.165991
828.003522	2583.304000
828.320872	2571.590879
828.638177	2565.339849
828.955439	2555.814588
829.272656	2556.333827
829.589830	2548.038609
829.906960	2553.412479
830.224046	2550.458362
830.541088	2553.775442
830.858086	2549.790410
831.175041	2549.422405
831.491952	2548.547765
831.808819	2546.569112
832.125642	2552.139587
832.442421	2552.558003
832.759157	2557.712583
833.075849	2567.477298
833.392497	2574.648339
833.709101	2580.175964
834.025662	2581.617734
834.342179	2577.733525
834.658653	2569.251784
834.975083	2563.088973
835.291469	2563.232646
835.607811	2553.294012
835.924110	2551.453990
836.240366	2548.668753
836.556578	2547.143804
836.872746	2547.534493
837.188871	2546.163299
837.504952	2545.016437
837.820990	2543.441076
838.136984	2539.997968
838.452935	2542.042156
838.768842	2549.261088
839.084706	2543.675490
839.400526	2551.527087
839.716303	2552.439536
840.032037	2556.563200
840.347727	2557.372305
840.663373	2553.702345
840.978977	2548.509957
841.294537	2547.955430
841.610054	2544.678680
841.925527	2542.513504
842.240957	2540.980993
842.556344	2545.119781
842.871687	2540.681045
843.186987	2542.389996
843.502244	2542.369831
843.817458	2540.360931
844.132629	2540.464275
844.447756	2540.045859
844.762840	2537.737011
845.077881	2537.772299
845.392879	2536.073430
845.707833	2537.190046
846.022745	2534.936650
846.337613	2539.977804
846.652438	2539.584594
846.967221	2538.843544
847.281960	2535.773481
847.596656	2538.062165
847.911309	2537.779861
848.225919	2537.918492
848.540485	2539.672814
848.855009	2538.223482
849.169490	2539.322454
849.483928	2537.109387
849.798323	2536.756506
850.112675	2539.856816
850.426984	2536.776671
850.741251	2542.594162
851.055474	2534.898841
851.369654	2536.829603
851.683792	2539.821528
851.997887	2538.049562
852.311938	2537.379089
852.625947	2538.021836
852.939914	2536.585107
853.253837	2540.723894
853.567718	2537.409336
853.881555	2537.116949
854.195350	2539.451003
854.509103	2539.758513
854.822812	2537.691640
855.136479	2537.311033
855.450103	2538.783050
855.763685	2537.207690
856.077224	2537.553009
856.390720	2538.662062
856.704173	2538.901517
857.017584	2537.595858
857.330953	2537.248019
857.644278	2537.308513
857.957561	2540.522248
858.270802	2541.162475
858.584000	2539.234233
858.897155	2539.612320
859.210268	2537.469830
859.523339	2540.025695
859.836367	2538.626774
860.149352	2539.982845
860.462295	2540.814635
860.775195	2535.592000
861.088054	2537.316074
861.400869	2539.541744
861.713642	2532.710980
862.026373	2537.280786
862.339062	2538.828421
862.651708	2538.352032
862.964312	2537.837834
863.276873	2539.299768
863.589392	2539.803884
863.901869	2537.719367
864.214303	2541.681714
864.526696	2538.614172
864.839045	2538.203317
865.151353	2538.752803
865.463619	2540.192053
865.775842	2540.597866
866.088023	2539.458565
866.400162	2541.472506
866.712258	2538.450334
867.024313	2541.056611
867.336325	2538.329346
867.648296	2540.580222
867.960224	2540.323123
868.272110	2538.636857
868.583954	2541.112063
868.895755	2538.099974
869.207515	2540.134079
869.519233	2541.351518
869.830909	2542.407640
870.142542	2538.697351
870.454134	2538.785571
870.765684	2541.964018
871.077191	2540.416384
871.388657	2541.437218
871.700081	2540.544933
872.011463	2541.558205
872.322803	2539.440921
872.634101	2542.667259
872.945357	2541.956457
873.256571	2543.544420
873.567744	2541.391847
873.878874	2542.173226
874.189963	2544.247661
874.501010	2544.378731
874.812015	2543.930068
875.122979	2543.473844
875.433900	2541.545603
875.744780	2544.018288
876.055618	2543.040305
876.366415	2543.199101
876.677169	2543.688093
876.987882	2539.269522
877.298554	2537.590817
877.609183	2539.667773
877.919771	2538.805735
878.230317	2540.953267
878.540822	2545.946530
878.851285	2545.533155
879.161707	2548.555327
879.472087	2552.336192
879.782425	2555.587737
880.092722	2565.100394
880.402977	2576.770665
880.713191	2595.589292
881.023363	2618.745832
881.333494	2634.317957
881.643583	2639.686786
881.953631	2636.742752
882.263637	2631.089098
882.573602	2623.207254
882.883526	2609.069338
883.193408	2599.763368
883.503248	2593.736668
883.813048	2584.201326
884.122806	2579.016499
884.432522	2572.094995
884.742197	2564.082081
885.051831	2559.948335
885.361424	2558.302398
885.670975	2556.154866
885.980485	2552.825184
886.289954	2550.221428
886.599382	2549.561037
886.908768	2549.341747
887.218113	2548.620862
887.527417	2547.632796
887.836680	2545.260933
888.145901	2543.678011
888.455082	2542.266488
888.764221	2545.389482
889.073319	2541.999306
889.382376	2545.369318
889.691392	2542.105171
890.000366	2543.932589
890.309300	2545.515511
890.618193	2543.468803
890.927044	2543.667928
891.235855	2541.744728
891.544625	2544.577857
891.853353	2543.839328
892.162041	2543.952753
892.470687	2546.561551
892.779293	2545.954092
893.087858	2547.289997
893.396381	2545.823022
893.704864	2553.692263
894.013306	2556.018755
894.321707	2566.156516
894.630068	2570.386044
894.938387	2575.573391
895.246665	2572.543658
895.554903	2571.626167
895.863100	2565.428069
896.171256	2560.253324
896.479371	2555.968344
896.787446	2556.008673
897.095480	2551.045657
897.403473	2551.280071
897.711425	2545.205480
898.019336	2549.835780
898.327207	2546.044832
898.635038	2546.896787
898.942827	2546.382590
899.250576	2544.827394
899.558284	2541.162475
899.865952	2542.183308
900.173579	2543.622558
900.481165	2542.586601
900.788711	2540.799512
901.096216	2540.854964
901.403681	2542.402599
901.711105	2543.902342
902.018489	2544.340922
902.325832	2546.095244
902.633135	2541.142310
902.940397	2544.940820
903.247619	2549.886192
903.554800	2553.276368
903.861941	2565.828841
904.169041	2580.899370
904.476101	2586.616038
904.783121	2587.019331
905.090100	2582.368866
905.397039	2573.067937
905.703938	2565.075188
906.010796	2559.678633
906.317614	2551.416182
906.624391	2549.124977
906.931129	2547.542055
907.237826	2545.346632
907.544483	2543.476364
907.851099	2542.783206
908.157675	2542.049718
908.464211	2539.352701
908.770707	2536.852288
909.077163	2537.386651
909.383578	2532.789118
909.689954	2535.518903
909.996289	2533.215096
910.302584	2536.275076
910.608839	2536.922864
910.915054	2538.251208
911.221229	2539.004861
911.527363	2537.235416
911.833458	2535.208872
912.139513	2541.888401
912.445527	2539.335057
912.751502	2540.131559
913.057436	2537.857998
913.363331	2542.505942
913.669186	2540.739018
913.975000	2543.277239
914.280775	2545.064328
914.586510	2546.866540
914.892205	2553.762839
915.197859	2561.057388
915.503475	2566.045610
915.809050	2574.552557
916.114585	2582.053794
916.420081	2584.828949
916.725536	2582.283167
917.030952	2578.305696
917.336328	2572.089954
917.641665	2565.967472
917.946961	2562.310115
918.252218	2559.877758
918.557435	2554.390462
918.862612	2552.578168
919.167750	2550.221428
919.472848	2548.638506
919.777906	2547.146324
920.082925	2546.609442
920.387904	2543.093237
920.692843	2544.789585
920.997743	2542.251364
921.302603	2540.088709
921.607423	2541.906045
921.912204	2541.495191
922.216946	2538.924203
922.521647	2541.422094
922.826310	2539.582073
923.130932	2539.385468
923.435516	2539.372865
923.740059	2538.188194
924.044564	2536.396064
924.349028	2535.965045
924.653454	2532.756351
924.957840	2534.291382
925.262186	2533.777184
925.566493	2534.881197
925.870761	2532.758871
926.174989	2535.413039
926.479178	2534.538399
926.783328	2537.452186
927.087438	2536.885056
927.391509	2535.803728
927.695541	2538.107536
927.999533	2537.016126
928.303486	2533.215096
928.607400	2536.315405
928.911275	2536.380940
929.215110	2533.144520
929.518906	2535.133255
929.822663	2539.206507
930.126381	2535.481094
930.430060	2535.647452
930.733699	2531.475898
931.037299	2534.979500
931.340861	2534.654345
931.644383	2533.746938
931.947866	2534.218285
932.251309	2533.520086
932.554714	2535.765920
932.858080	2535.879346
933.161407	2535.231557
933.464694	2536.421270
933.767943	2533.799870
934.071153	2534.082174
934.374323	2532.433717
934.677455	2535.226516
934.980548	2531.236443
935.283602	2534.508152
935.586617	2535.206352
935.889593	2532.867256
936.192530	2534.487987
936.495428	2535.904551
936.798287	2534.699716
937.101108	2533.814993
937.403890	2533.963707
937.706632	2536.010416
938.009336	2535.942360
938.312002	2536.317926
938.614628	2534.863553
938.917216	2539.032587
939.219765	2534.447658
939.522275	2538.793133
939.824747	2538.460416
940.127179	2536.058307
940.429573	2536.262473
940.731929	2533.462112
941.034246	2530.865918
941.336524	2535.024870
941.638763	2536.817000
941.940964	2537.326157
942.243126	2535.760878
942.545250	2534.825744
942.847335	2536.315405
943.149381	2533.046217
943.451389	2535.077802
943.753359	2533.414221
944.055290	2531.274252
944.357182	2532.196783
944.659036	2535.100487
944.960851	2537.121990
945.262628	2534.971938
945.564367	2532.005219
945.866067	2531.571680
946.167729	2534.976979
946.469352	2534.669469
946.770937	2532.698378
947.072484	2536.985879
947.373992	2531.574200
947.675462	2537.389171
947.976893	2537.240457
948.278286	2537.739531
948.579641	2534.543440
948.880958	2532.791639
949.182236	2532.690816
949.483476	2532.254756
949.784678	2533.394057
950.085841	2532.630322
950.386967	2534.316588
950.688054	2532.073274
950.989103	2534.684592
951.290114	2532.506814
951.591087	2534.450178
951.892021	2533.257946
952.192917	2533.366330
952.493776	2536.340611
952.794596	2535.362627
953.095378	2536.101156
953.396122	2533.958666
953.696828	2532.753830
953.997496	2534.858512
954.298126	2531.891793
954.598718	2533.358769
954.899272	2532.176618
955.199788	2533.988913
955.500266	2532.597554
955.800706	2531.861546
956.101108	2530.190403
956.401472	2528.408356
956.701798	2527.150588
957.002087	2529.887934
957.302337	2531.183511
957.602550	2531.291896
957.902724	2528.405835
958.202861	2533.091588
958.502960	2530.724766
958.803022	2533.857843
959.103045	2530.044210
959.403031	2530.908768
959.702979	2531.377595
960.002889	2530.460105
960.302762	2532.219468
960.602596	2529.724097
960.902393	2530.704601
961.202153	2529.847605
961.501875	2528.012625
961.801559	2530.538243
962.101205	2530.936494
962.400814	2530.802904
962.700385	2532.254756
962.999918	2528.531864
963.299414	2529.744261
963.598873	2530.926412
963.898293	2531.463295
964.197677	2531.609488
964.497022	2531.254087
964.796331	2528.468849
965.095601	2529.582944
965.394835	2532.027904
965.694030	2530.132430
965.993189	2531.407842
966.292309	2530.225692
966.591393	2528.978006
966.890439	2528.446164
967.189447	2530.931453
967.488419	2529.114117
967.787353	2531.856505
968.086249	2529.482121
968.385108	2529.701412
968.683930	2530.941535
968.982714	2530.424817
969.281462	2529.905578
969.580172	2529.696370
969.878844	2527.770650
970.177480	2529.078829
970.476078	2527.359796
970.774639	2530.699560
971.073162	2529.928263
971.371649	2529.232584
971.670098	2525.794517
971.968510	2529.194776
972.266885	2521.912829
972.565223	2531.954807
972.863524	2529.910619
973.161788	2530.689478
973.460014	2529.068747
973.758204	2528.380629
974.056356	2529.403983
974.354471	2528.922553
974.652550	2526.190248
974.950591	2528.055475
975.248595	2532.048069
975.546563	2529.182173
975.844493	2531.574200
976.142386	2528.330218
976.440243	2528.035310
976.738062	2527.463139
977.035845	2530.318953
977.333590	2530.049251
977.631299	2529.325846
977.928971	2528.836854
978.226606	2529.610671
978.524204	2528.589837
978.821765	2527.085053
979.119290	2529.726617
979.416777	2529.378778
979.714228	2531.889272
980.011642	2530.268541
980.309020	2532.128727
980.606360	2529.303160
980.903664	2527.750485
981.200931	2528.730989
981.498162	2526.185207
981.795356	2529.383819
982.092513	2530.989426
982.389633	2530.941535
982.686717	2533.847761
982.983764	2530.843233
983.280775	2533.343645
983.577749	2530.500434
983.874686	2533.510003
984.171587	2530.137471
984.468451	2532.650487
984.765279	2532.171577
985.062070	2528.794004
985.358824	2527.415248
985.655543	2530.039169
985.952224	2526.664116
986.248869	2529.867770
986.545478	2524.330062
986.842050	2525.786956
987.138586	2526.928777
987.435086	2526.528005
987.731549	2522.094310
988.027975	2528.403314
988.324366	2528.597399
988.620719	2528.259642
988.917037	2528.000022
989.213318	2529.139323
989.509563	2526.636390
989.805772	2529.633356
990.101944	2527.896678
990.398080	2523.717562
990.694180	2528.955321
990.990244	2528.100845
991.286271	2525.736544
991.582262	2527.269055
991.878217	2524.506502
992.174136	2527.049765
992.470019	2530.933974
992.765865	2529.048582
993.061676	2525.610515
993.357450	2529.696370
993.653188	2527.276617
993.948890	2528.305012
994.244556	2526.961544
994.540186	2526.084384
994.835780	2528.564631
995.131337	2528.733510
995.426859	2530.563449
995.722345	2529.134282
996.017795	2529.504807
996.313208	2526.152439
996.608586	2528.675537
996.903928	2530.492873
997.199234	2527.687471
997.494504	2527.112779
997.789738	2528.141174
998.084936	2527.198479
998.380099	2529.419107
998.675225	2528.136133
998.970316	2526.838036
999.265371	2528.733510
999.560390	2530.994468
999.855373	2527.616894
1000.150320	2527.788294
1000.445232	2527.158149
1000.740108	2528.100845
1001.034948	2530.127389
1001.329752	2526.946421
1001.624521	2529.194776
1001.919254	2522.525329
1002.213951	2525.214785
1002.508613	2525.522295
1002.803239	2526.434744
1003.097829	2523.132788
1003.392384	2527.931967
1003.686903	2526.613705
1003.981386	2530.371885
1004.275834	2525.978519
1004.570246	2528.269724
1004.864623	2524.879548
1005.158964	2525.703777
1005.453270	2524.078004
1005.747540	2528.315094
1006.041775	2527.634538
1006.335974	2527.445495
1006.630138	2525.665968
1006.924266	2527.468180
1007.218359	2528.012625
1007.512416	2526.974147
1007.806438	2525.960875
1008.100425	2527.170752
1008.394376	2526.797707
1008.688292	2527.253931
1008.982172	2526.064219
1009.276017	2525.403828
1009.569827	2525.063550
1009.863602	2527.342152
1010.157341	2527.304343
1010.451045	2526.979188
1010.744714	2528.105886
1011.038347	2528.105886
1011.331945	2529.759385
1011.625508	2527.228726
1011.919036	2523.331914
1012.212528	2523.815864
1012.505986	2526.152439
1012.799408	2526.026410
1013.092795	2527.359796
1013.386147	2525.955834
1013.679464	2525.610515
1013.972745	2526.855680
1014.265992	2526.691843
1014.559204	2525.759229
1014.852380	2527.836185
1015.145521	2526.538087
1015.438628	2526.951462
1015.731699	2527.742923
1016.024736	2526.548170
1016.317737	2524.914836
1016.610703	2526.727131
1016.903635	2525.038344
1017.196531	2520.700431
1017.489393	2524.776204
1017.782219	2520.987777
1018.075011	2525.920546
1018.367768	2526.827954
1018.660490	2527.816020
1018.953177	2527.816020
1019.245829	2527.816020
