Dividing Wavelength (nm)	Counts (n)	Blue Motor Position (mm): 0.000000	Red Motor Position (mm): 48.200000	
326.493990	2129.706018
326.888308	2129.706018
327.282561	2129.706018
327.676750	2096.086563
328.070874	2096.010946
328.464933	2098.425659
328.858929	2101.936823
329.252859	2114.474172
329.646726	2124.047323
330.040528	2136.468726
330.434265	2156.409010
330.827938	2174.289983
331.221547	2190.129288
331.615091	2208.017823
332.008571	2229.009188
332.401986	2248.437794
332.795338	2266.863212
333.188625	2285.981788
333.581847	2305.516259
333.975006	2320.927066
334.368100	2343.985304
334.761129	2360.227902
335.154095	2378.297918
335.546996	2397.630742
335.939833	2424.202664
336.332606	2438.723708
336.725315	2450.124277
337.117960	2462.956535
337.510540	2471.120683
337.903056	2481.450008
338.295508	2487.196923
338.687896	2497.599344
339.080220	2506.887670
339.472480	2509.136024
339.864676	2514.383866
340.256807	2522.066584
340.648875	2522.535411
341.040879	2525.292922
341.432818	2527.911802
341.824694	2528.907430
342.216506	2531.075126
342.608253	2530.318953
342.999937	2529.968593
343.391557	2529.499765
343.783113	2527.420289
344.174605	2526.941380
344.566033	2527.385001
344.957397	2523.543642
345.348697	2523.077335
345.739934	2521.446522
346.131106	2520.392921
346.522215	2516.579288
346.913260	2516.425533
347.304241	2514.449401
347.695159	2512.440501
348.086012	2511.220542
348.476802	2507.482526
348.867528	2507.938750
349.258191	2503.880622
349.648789	2503.295848
350.039324	2503.137051
350.429796	2504.843482
350.820203	2499.010867
351.210548	2501.216372
351.600828	2499.648573
351.991045	2499.799808
352.381198	2499.283089
352.771288	2499.583038
353.161314	2499.537668
353.551276	2498.476505
353.941175	2498.368120
354.331010	2499.958604
354.720782	2495.749240
355.110490	2500.331649
355.500135	2498.768892
355.889717	2501.662514
356.279235	2498.582369
356.668689	2499.124293
357.058080	2498.365599
357.447408	2497.034735
357.836672	2497.760661
358.225873	2496.996926
358.615010	2497.561535
359.004084	2502.922802
359.393095	2499.973727
359.782043	2502.524551
360.170927	2501.665034
360.559748	2503.373986
360.948505	2503.631084
361.337199	2507.495129
361.725830	2504.530930
362.114398	2505.831548
362.502903	2507.827845
362.891344	2508.606703
363.279722	2507.293483
363.668037	2509.246930
364.056289	2510.358504
364.444478	2509.047804
364.832603	2511.462517
365.220665	2512.695079
365.608665	2511.084430
365.996601	2512.374966
366.384474	2515.281191
366.772284	2514.333454
367.160031	2514.177178
367.547715	2518.515091
367.935336	2522.227901
368.322893	2524.304856
368.710388	2528.035310
369.097820	2533.424304
369.485189	2539.125849
369.872495	2540.572660
370.259738	2549.334185
370.646918	2554.803837
371.034035	2562.171483
371.421090	2576.339646
371.808081	2586.731985
372.195010	2592.390680
372.581875	2606.188318
372.968678	2620.411934
373.355418	2628.717235
373.742096	2648.750780
374.128710	2662.314005
374.515262	2677.392096
374.901751	2691.633355
375.288177	2705.453679
375.674540	2726.792883
376.060841	2744.759555
376.447079	2766.328132
376.833254	2784.803961
377.219367	2796.748975
377.605417	2836.092660
377.991404	2844.667663
378.377329	2867.640201
378.763191	2882.027654
379.148991	2922.583737
379.534727	2946.723302
379.920402	2974.119452
380.306013	2988.015393
380.691563	3039.460368
381.077049	3059.093142
381.462474	3076.958991
381.847835	3116.179168
382.233134	3137.044503
382.618371	3135.532157
383.003545	3204.689226
383.388657	3213.440669
383.773706	3244.826893
384.158693	3261.704676
384.543618	3288.750467
384.928480	3323.584840
385.313280	3365.043289
385.698017	3368.932539
386.082692	3418.703851
386.467305	3428.967640
386.851856	3456.026034
387.236344	3479.600990
387.620770	3512.539889
388.005133	3536.140051
388.389435	3567.075091
388.773674	3576.706216
389.157851	3615.898666
389.541965	3635.891882
389.926018	3598.877210
390.310008	3670.769105
390.693936	3689.328113
391.077802	3729.642220
391.461606	3717.359449
391.845348	3782.123153
392.229027	3779.905045
392.612645	3793.644710
392.996200	3871.943911
393.379694	3911.390940
393.763125	3977.062051
394.146494	3945.905200
394.529801	4005.269827
394.913047	4051.809760
395.296230	4023.362529
395.679351	4073.660641
396.062410	4094.213425
396.445408	4082.396961
396.828343	4110.501393
397.211217	4136.405363
397.594028	4055.898136
397.976778	4123.754587
398.359466	4152.771468
398.742092	4178.312474
399.124656	4101.029065
399.507158	4178.922454
399.889598	4207.145354
400.271977	4266.129374
400.654294	4240.968976
401.036549	4250.390892
401.418742	4214.150037
401.800874	4316.979493
402.182944	4337.428934
402.564952	4401.650713
402.946898	4393.171493
403.328783	4387.570771
403.710606	4300.346206
404.092367	4491.353005
404.474067	4456.049804
404.855705	4467.503306
405.237282	4390.068662
405.618797	4505.503524
406.000250	4538.094583
406.381642	4619.370586
406.762972	4581.166202
407.144240	4591.004013
407.525447	4594.744550
407.906593	4651.162623
408.287677	4693.538562
408.668700	4620.290597
409.049661	4670.986960
409.430560	4713.067992
409.811399	4642.736334
410.192176	4801.199964
410.572891	4745.391871
410.953545	4846.580431
411.334138	4727.967122
411.714669	4796.100837
412.095139	4688.250392
412.475547	4835.626004
412.855894	4811.055420
413.236180	4815.458868
413.616405	4769.317187
413.996568	4860.594839
414.376670	4801.094100
414.756711	4756.757152
415.136691	4785.789157
415.516609	4866.268657
415.896466	4903.031272
416.276262	4935.798772
416.655997	4918.429476
417.035670	5099.900933
417.415283	5190.097257
417.794834	5134.314369
418.174324	5091.230148
418.553753	4997.260520
418.933121	5180.012429
419.312428	5246.298561
419.691674	5185.386299
420.070859	5310.265762
420.449983	5226.771651
420.829045	5340.794990
421.208047	5248.252008
421.586988	5312.539322
421.965867	5329.323844
422.344686	5462.921983
422.723444	5317.668696
423.102141	5135.945183
423.480777	5432.639772
423.859352	5201.233166
424.237866	5463.264781
424.616319	5458.001817
424.994712	5561.950409
425.373044	5440.148570
425.751314	5584.673410
426.129524	5385.966249
426.507673	5580.461526
426.885762	5662.594525
427.263789	5591.491570
427.641756	5474.670392
428.019662	5595.842086
428.397508	5602.627479
428.775292	5546.975661
429.153016	5648.310415
429.530679	5576.088325
429.908282	5657.044214
430.285824	5531.983270
430.663305	5805.838911
431.040726	5537.236152
431.418086	5540.480135
431.795385	5647.488707
432.172624	5661.800543
432.549802	5651.836702
432.926920	5665.500750
433.303977	5680.162946
433.680974	5711.216454
434.057910	5733.382407
434.434786	5738.907512
434.811601	5710.001536
435.188355	5943.636331
435.565050	5815.467515
435.941683	5797.687366
436.318257	6011.674264
436.694770	5992.585935
437.071222	6029.068765
437.447614	5957.731397
437.823946	5870.264858
438.200218	6022.721953
438.576429	5893.963322
438.952580	5988.915975
439.328670	6033.545310
439.704700	5945.705725
440.080670	5926.277118
440.456580	6197.713006
440.832429	6085.612868
441.208218	5926.279638
441.583947	6084.690336
441.959616	6091.216110
442.335224	6015.283730
442.710773	6153.968393
443.086261	6177.717269
443.461689	5977.389377
443.837057	6117.092353
444.212365	6275.873575
444.587612	6176.131826
444.962800	6325.823848
445.337927	6301.792668
445.712995	5914.148102
446.088002	6494.389951
446.462949	6322.161450
446.837837	6251.955821
447.212664	6424.595176
447.587431	6565.452576
447.962139	7110.865093
448.336786	8039.024695
448.711374	7778.840662
449.085901	6852.415217
449.460369	6774.859586
449.834776	6707.925666
450.209124	7101.475944
450.583412	7248.768377
450.957640	7392.869759
451.331808	7162.773854
451.705917	6709.236366
452.079965	6639.244986
452.453954	6848.422623
452.827883	6723.785136
453.201752	6813.762170
453.575562	6613.582992
453.949311	6821.205434
454.323001	6711.257868
454.696632	6783.091790
455.070202	6922.618326
455.443713	7079.287305
455.817164	7172.241141
456.190556	7253.875066
456.563888	7329.993968
456.937160	7371.525514
457.310373	7032.081940
457.683526	7051.460136
458.056619	6951.587316
458.429653	6937.668691
458.802628	6869.882815
459.175542	6975.704196
459.548398	7334.997313
459.921194	7500.226172
460.293930	7504.052408
460.666607	8031.122686
461.039224	8338.476795
461.411782	8466.847257
461.784280	8480.927200
462.156719	8370.982155
462.529099	8250.007066
462.901419	7842.941454
463.273680	7734.879280
463.645882	7744.699448
464.018024	7606.544106
464.390106	7776.093234
464.762130	8162.555649
465.134094	8639.098443
465.505999	9655.505964
465.877845	10880.498787
466.249631	11534.129753
466.621358	11146.417131
466.993026	10516.900524
467.364634	10261.278736
467.736184	9889.468434
468.107674	9555.287825
468.479105	9593.467004
468.850477	9359.539821
469.221790	9127.692115
469.593043	8807.112539
469.964238	8662.171804
470.335373	8676.546654
470.706449	8737.922702
471.077467	8709.417498
471.448425	10027.243169
471.819324	11095.234296
472.190164	11120.082144
472.560945	9869.361792
472.931667	9085.469931
473.302330	8947.372562
473.672934	8592.369467
474.043479	8945.300648
474.413965	8890.531032
474.784393	8777.440307
475.154761	8928.160725
475.525070	9014.550978
475.895321	8844.127211
476.265513	9021.727061
476.635645	9188.712762
477.005719	9189.521867
477.375734	9300.853229
477.745691	9539.047748
478.115588	9678.223923
478.485427	9920.232076
478.855207	10456.351225
479.224928	11270.986563
479.594591	11899.144580
479.964194	11712.170704
480.333739	11652.909420
480.703226	11566.476317
481.072653	11652.024698
481.442022	11896.737429
481.811333	12084.722056
482.180584	11895.726677
482.549777	11593.265008
482.918912	11417.038873
483.287988	11446.464088
483.657005	11456.695109
484.025964	11140.055195
484.394864	11271.447829
484.763706	11247.555280
485.132489	10990.935344
485.501213	10962.898967
485.869879	11046.463653
486.238487	10875.888651
486.607036	10989.370066
486.975527	10769.376632
487.343959	10955.475868
487.712333	11005.955462
488.080648	10932.672208
488.448905	10976.971348
488.817104	10916.777450
489.185244	11186.038080
489.553326	11333.993425
489.921350	11879.025335
490.289315	12942.681070
490.657222	13289.610757
491.025070	13192.404708
491.392861	13069.130852
491.760593	12681.738344
492.128267	12330.876557
492.495883	12007.592402
492.863440	11671.690239
493.230939	11332.919659
493.598380	11264.785944
493.965763	11134.885492
494.333088	11043.224712
494.700354	10954.069386
495.067563	11019.417863
495.434713	10846.629794
495.801805	10978.776081
496.168839	10899.985367
496.535815	10835.037661
496.902733	10837.830460
497.269593	10765.134501
497.636395	10864.167969
498.003139	10854.095743
498.369825	10726.055477
498.736453	10887.750486
499.103023	10804.778135
499.469535	10831.299646
499.835989	10823.367390
500.202385	10787.827255
500.568723	10643.930039
500.935003	10854.735970
501.301226	10664.686990
501.667390	10923.129304
502.033497	11019.304437
502.399546	10883.694878
502.765537	10790.146186
503.131470	10862.491785
503.497345	11039.688343
503.863163	10649.810545
504.228923	10961.270674
504.594625	11029.941272
504.960269	10772.693712
505.325856	10998.794503
505.691385	10786.045207
506.056856	10938.172107
506.422270	10964.625562
506.787625	10849.495690
507.152924	10970.619494
507.518164	10951.780702
507.883347	10876.407890
508.248472	10790.975456
508.613540	11027.292145
508.978550	10908.817468
509.343503	10885.550023
509.708398	11001.683084
510.073236	11113.344642
510.438016	11122.494336
510.802738	11062.975953
511.167403	11119.094077
511.532010	11023.546568
511.896561	11248.513100
512.261053	11317.705457
512.625488	11191.389265
512.989866	11168.973774
513.354186	11162.417754
513.718449	11061.753473
514.082655	11252.931671
514.446803	11149.807307
514.810894	11275.974785
515.174927	11141.960751
515.538904	11163.725933
515.902822	11316.974489
516.266684	11201.375791
516.630488	11146.586010
516.994235	11200.218846
517.357925	11260.992476
517.721558	11355.703154
518.085133	11366.634896
518.448651	11375.499765
518.812112	11261.249575
519.175516	11276.025197
519.538863	11401.779300
519.902152	11309.332100
520.265385	11475.244035
520.628560	11387.364121
520.991678	11361.853362
521.354739	11427.675707
521.717743	11358.100222
522.080690	11336.730771
522.443580	11474.939045
522.806413	11430.118146
523.169189	11456.117897
523.531908	11518.814728
523.894569	11345.358706
524.257174	11335.034423
524.619722	11455.089502
524.982213	11408.945300
525.344647	11455.089502
525.707025	11405.429095
526.069345	11501.989877
526.431608	11418.609192
526.793815	11525.496777
527.155964	11323.046559
527.518057	11369.097500
527.880093	11319.623616
528.242072	11389.935109
528.603995	11293.770058
528.965860	11212.738551
529.327669	11274.863211
529.689421	11214.702081
530.051117	11189.271980
530.412755	11298.473455
530.774337	11182.257215
531.135862	11161.812815
531.497331	11191.641322
531.858743	11048.235619
532.220098	11211.137985
532.581396	11075.294012
532.942638	11062.199615
533.303824	11025.527742
533.664953	11028.370952
534.026025	10946.658890
534.387040	11048.845599
534.747999	11049.112780
535.108902	11109.581420
535.469748	10872.223733
535.830537	10966.649585
536.191270	10945.411204
536.551947	10968.116561
536.912567	10972.220060
537.273131	10894.389686
537.633638	10872.894206
537.994089	10866.358350
538.354483	10799.101796
538.714821	10958.515683
539.075103	10964.469286
539.435328	10934.242528
539.795497	10756.564540
540.155609	10917.367265
540.515665	11003.702066
540.875665	10737.355223
541.235609	10804.649586
541.595496	10805.178907
541.955328	10963.009872
542.315102	10839.657879
542.674821	10799.968874
543.034483	10792.956629
543.394090	10795.998966
543.753640	10725.921886
544.113134	10947.798190
544.472571	10807.941459
544.831953	10949.431524
545.191278	10747.069527
545.550548	10783.819538
545.909761	10918.642677
546.268918	10894.039326
546.628019	10969.306273
546.987064	10836.993629
547.346053	10762.351784
547.704986	10859.590601
548.063863	10852.790084
548.422684	10842.546460
548.781449	10754.976576
549.140158	10858.360559
549.498811	10735.260624
549.857408	10590.287121
550.215949	10823.369911
550.574434	10671.389204
550.932864	10763.518812
551.291237	10827.448204
551.649555	10772.610532
552.007817	10788.475044
552.366022	10750.820145
552.724173	10740.087528
553.082267	10728.462628
553.440305	10867.739626
553.798288	10669.755871
554.156215	10820.216669
554.514086	10798.960644
554.871902	10649.298868
555.229661	10681.521924
555.587365	10664.525673
555.945014	10560.090610
556.302606	10687.972080
556.660143	10570.785418
557.017625	10730.358102
557.375050	10626.918666
557.732421	10761.235169
558.089735	10673.650162
558.446994	10672.823413
558.804197	10710.392612
559.161345	10711.635256
559.518437	10562.981712
559.875474	10654.617286
560.232455	10677.988075
560.589381	10626.260795
560.946251	10627.374890
561.303065	10733.821374
561.659825	10671.490027
562.016528	10597.775755
562.373177	10478.580193
562.729770	10591.171844
563.086307	10512.512200
563.442789	10596.442370
563.799216	10477.045162
564.155587	10524.121977
564.511904	10476.888886
564.868164	10472.056940
565.224370	10485.887346
565.580520	10409.488659
565.936615	10416.637015
566.292654	10282.834710
566.648638	10421.615155
567.004567	10374.417352
567.360441	10358.835145
567.716260	10269.818451
568.072023	10365.955775
568.427732	10313.447117
568.783385	10225.022758
569.138982	10290.353591
569.494525	10313.535337
569.850013	10186.868785
570.205445	10263.862327
570.560823	10165.958079
570.916145	10079.845089
571.271412	10151.910903
571.626625	10097.048026
571.981782	10074.009953
572.336884	10043.644563
572.691931	10052.179236
573.046923	10000.865331
573.401860	9958.537283
573.756743	9885.342250
574.111570	9937.021638
574.466342	9918.472713
574.821059	9948.903638
575.175722	9841.713584
575.530330	9847.972176
575.884882	9843.964459
576.239380	9772.490980
576.593823	9754.778886
576.948211	9760.298949
577.302544	9644.496084
577.656823	9653.605449
578.011047	9658.114761
578.365216	9628.732396
578.719330	9550.808760
579.073389	9567.053878
579.427394	9510.718984
579.781344	9492.777518
580.135239	9431.885420
580.489080	9452.231517
580.842866	9354.438174
581.196597	9353.112350
581.550273	9397.749247
581.903895	9357.099903
582.257463	9433.977499
582.610975	9311.099374
582.964434	9331.236263
583.317837	9254.903112
583.671186	9236.964166
584.024481	9234.282272
584.377721	9153.104571
584.730906	9134.845512
585.084037	9166.249380
585.437113	9094.360006
585.790135	9119.467472
586.143103	9017.031226
586.496016	8985.939910
586.848874	9051.001041
587.201679	9030.707877
587.554428	8926.353471
587.907124	8969.064647
588.259765	8944.247047
588.612352	8946.540772
588.964884	8819.821288
589.317362	8832.023401
589.669786	8835.272424
590.022155	8882.049291
590.374470	8898.939677
590.726731	8842.564453
591.078937	8688.955454
591.431090	8797.206672
591.783188	8668.453082
592.135232	8664.279006
592.487222	8665.965272
592.839157	8717.170792
593.191038	8648.220411
593.542866	8594.302750
593.894639	8500.484356
594.246358	8542.517497
594.598022	8564.867453
594.949633	8462.771484
595.301190	8438.286600
595.652692	8466.484294
596.004141	8573.888597
596.355535	8350.447015
596.706876	8332.084612
597.058162	8268.855940
597.409395	8339.989141
597.760573	8400.039366
598.111698	8315.010224
598.462768	8299.143192
598.813785	8266.819314
599.164748	8230.573418
599.515657	8222.197540
599.866511	8130.524158
600.217312	8258.675330
600.568060	8113.212835
600.918753	8226.616112
601.269392	8192.094290
601.619978	8096.146009
601.970510	8164.481370
602.320988	8159.914085
602.671412	8221.365750
603.021783	8157.080956
603.372100	8130.020042
603.722363	8135.903069
604.072572	8105.210004
604.422728	8117.182744
604.772830	8047.882002
605.122878	8058.685195
605.472872	8046.790592
605.822813	8080.155469
606.172701	8023.518106
606.522534	8095.087367
606.872314	8098.848067
607.222041	8070.138696
607.571714	8124.890668
607.921333	8080.518432
608.270899	8089.695853
608.620411	8180.469389
608.969870	8080.427691
609.319276	8078.451559
609.668627	8095.697346
610.017926	8127.617932
610.367171	8173.623503
610.716362	8146.474368
611.065500	8141.458420
611.414585	8169.628388
611.763616	8157.370822
612.112594	8137.649829
612.461518	8153.474011
612.810389	8214.464410
613.159207	8156.765884
613.507971	8096.682892
613.856682	8220.574289
614.205340	8172.816918
614.553945	8257.752798
614.902496	8155.578692
615.250994	8200.223151
615.599439	8179.504008
615.947830	8204.389664
616.296169	8175.163575
616.644454	8191.643107
616.992686	8185.056839
617.340864	8243.078000
617.688990	8149.574678
618.037063	8244.030778
618.385082	8183.544493
618.733048	8276.014378
619.080961	8208.291518
619.428821	8231.385043
619.776628	8235.649859
620.124382	8181.049122
620.472083	8168.073192
620.819731	8205.430663
621.167326	8090.414217
621.514868	8094.429496
621.862357	7979.334913
622.209793	8004.984303
622.557176	7934.725742
622.904506	7910.641630
623.251783	7841.005651
623.599007	7794.745503
623.946179	7800.580638
624.293297	7755.946262
624.640363	7674.622368
624.987376	7654.926580
625.334336	7607.499405
625.681243	7554.363123
626.028097	7539.617748
626.374899	7520.300046
626.721647	7509.380907
627.068343	7442.250382
627.414987	7416.747185
627.761577	7369.153651
628.108115	7404.093888
628.454600	7300.606562
628.801032	7351.197061
629.147412	7311.434960
629.493739	7303.976573
629.840014	7238.307982
630.186236	7290.279758
630.532405	7175.429671
630.878521	7221.004222
631.224585	7189.267638
631.570597	7109.637572
631.916556	7142.014382
632.262462	7133.013402
632.608316	7099.719102
632.954117	7073.580719
633.299866	7062.417084
633.645562	7052.899385
633.991206	6972.739998
634.336797	6916.790752
634.682336	6876.453959
635.027823	6838.393248
635.373257	6834.022568
635.718639	6764.245437
636.063968	6776.558455
636.409245	6672.219173
636.754470	6670.174985
637.099642	6626.629498
637.444762	6568.540282
637.789829	6582.070739
638.134845	6520.367016
638.479808	6501.714747
638.824719	6511.978536
639.169577	6436.701507
639.514383	6461.579601
639.859137	6391.134517
640.203839	6399.081896
640.548489	6384.298712
640.893086	6362.092430
641.237632	6333.965312
641.582125	6354.921388
641.926566	6323.373847
642.270955	6337.673080
642.615292	6330.338202
642.959576	6348.690522
643.303809	6337.201732
643.647990	6342.250448
643.992118	6334.308110
644.336195	6279.510768
644.680219	6303.650333
645.024192	6295.839065
645.368112	6391.321040
645.711981	6415.422796
646.055797	6488.811914
646.399562	6445.503361
646.743274	6573.163021
647.086935	6628.918182
647.430544	6623.246884
647.774101	6647.333517
648.117606	6651.797459
648.461059	6640.802702
648.804460	6606.684173
649.147810	6507.179358
649.491108	6484.141285
649.834354	6454.877387
650.177548	6372.237752
650.520690	6288.930164
650.863781	6258.554691
651.206820	6285.265245
651.549807	6207.339089
651.892742	6144.314583
652.235626	6150.641232
652.578458	6136.087420
652.921238	6048.182300
653.263967	6084.249235
653.606644	6024.443507
653.949269	6030.656729
654.291843	5972.691021
654.634365	6016.972517
654.976836	5976.824767
655.319255	5973.147246
655.661622	5952.985151
656.003938	5944.445436
656.346203	5910.074849
656.688416	5932.281132
657.030577	5893.302931
657.372687	5863.187078
657.714746	5851.857084
658.056753	5889.501901
658.398708	5834.616338
658.740612	5823.639226
659.082465	5866.874682
659.424266	5868.016503
659.766016	5862.730853
660.107715	5835.105330
660.449362	5851.577300
660.790958	5848.403894
661.132503	5834.760011
661.473996	5876.702411
661.815438	5856.976376
662.156829	5856.580645
662.498168	5843.108162
662.839456	5821.945398
663.180693	5860.215317
663.521879	5861.510894
663.863013	5853.800449
664.204097	5868.079517
664.545129	5906.835908
664.886110	5903.906998
665.227040	5938.345640
665.567918	5904.355660
665.908746	5932.165186
666.249522	5936.319096
666.590248	5920.046252
666.930922	5950.595644
667.271545	5961.000586
667.612118	5971.776052
667.952639	5935.822543
668.293109	5959.097550
668.633528	5921.306540
668.973896	5921.031797
669.314213	5914.566518
669.654480	5893.791923
669.994695	5888.420573
670.334859	5877.642586
670.674973	5867.177151
671.015035	5869.448191
671.355047	5871.144539
671.695008	5858.808835
672.034918	5829.383620
672.374777	5844.681002
672.714585	5827.258774
673.054342	5829.721378
673.394049	5823.881201
673.733705	5855.269945
674.073310	5845.432134
674.412864	5801.253982
674.752368	5789.130007
675.091820	5797.747859
675.431223	5736.981791
675.770574	5738.383232
676.109875	5683.374161
676.449125	5691.941602
676.788324	5653.626312
677.127473	5600.152273
677.466571	5590.513587
677.805619	5581.820117
678.144616	5572.226801
678.483562	5546.980702
678.822458	5516.630436
679.161303	5510.893603
679.500098	5503.092417
679.838842	5483.441999
680.177535	5485.367720
680.516179	5503.649465
680.854771	5519.357700
681.193314	5598.506336
681.531805	5706.931473
681.870247	5854.228947
682.208638	5962.465041
682.546978	5971.332430
682.885268	5948.019614
683.223508	5860.863106
683.561697	5807.343696
683.899836	5780.330673
684.237925	5736.485237
684.575963	5699.334454
684.913951	5661.397251
685.251889	5725.787909
685.589776	5689.090829
685.927614	5657.442466
686.265401	5733.024485
686.603137	5715.889603
686.940824	5793.999762
687.278460	5816.359799
687.616046	5828.297252
687.953582	5892.501387
688.291068	5874.091093
688.628504	5941.468635
688.965889	5900.042953
689.303224	5843.622359
689.640510	5792.842817
689.977745	5717.759871
690.314930	5622.484584
690.652065	5563.702210
690.989150	5472.328776
691.326185	5404.666409
691.663170	5344.603581
692.000105	5265.885964
692.336990	5189.361249
692.673825	5164.067259
693.010610	5094.327937
693.347345	5029.435684
693.684030	5013.394733
694.020665	4973.365450
694.357251	4878.947159
694.693786	4888.643819
695.030272	4858.044015
695.366707	4821.256195
695.703093	4786.716729
696.039429	4808.335717
696.375716	4790.174961
696.711952	4767.388945
697.048139	4752.081482
697.384276	4735.755705
697.720363	4744.408846
698.056400	4756.918469
698.392388	4703.898133
698.728326	4687.542110
699.064214	4662.734592
699.400053	4656.516328
699.735842	4622.922079
700.071581	4597.106330
700.407270	4570.741096
700.742910	4551.975400
701.078501	4500.971526
701.414042	4496.361391
701.749533	4467.304180
702.084974	4406.954007
702.420366	4459.132470
702.755709	4401.103748
703.091002	4347.198690
703.426246	4395.858427
703.761440	4353.986604
704.096584	4314.748783
704.431679	4334.328624
704.766725	4320.762879
705.101721	4304.134633
705.436668	4339.452957
705.771565	4286.425060
706.106413	4310.728463
706.441212	4344.915047
706.775961	4355.350236
707.110661	4332.728058
707.445311	4361.669322
707.779913	4384.437693
708.114465	4398.978902
708.448967	4421.384310
708.783421	4481.870594
709.117825	4522.035988
709.452180	4529.401113
709.786485	4574.307712
710.120742	4661.872554
710.454949	4643.767250
710.789107	4710.028176
711.123216	4784.213796
711.457275	4777.430924
711.791286	4851.311554
712.125247	4868.794276
712.459159	4771.701652
712.793023	4843.674206
713.126837	4806.067198
713.460602	4797.454387
713.794318	4718.956060
714.127985	4725.791864
714.461602	4638.975633
714.795171	4608.695943
715.128691	4540.965520
715.462162	4485.260770
715.795584	4440.437351
716.128957	4417.973969
716.462281	4367.103686
716.795556	4341.184593
717.128782	4305.495745
717.461960	4231.025300
717.795088	4242.204058
718.128167	4202.646124
718.461198	4143.210920
718.794180	4140.110611
719.127113	4120.477837
719.459997	4099.773818
719.792833	4054.874781
720.125619	4045.899007
720.458357	4008.029859
720.791046	4016.425901
721.123686	3988.349195
721.456278	3948.362762
721.788821	3962.321717
722.121315	3937.322635
722.453761	3911.373296
722.786158	3922.884771
723.118506	3948.030046
723.450805	3898.639341
723.783056	3923.875357
724.115259	3937.597378
724.447412	3942.494859
724.779518	3935.787604
725.111574	3938.091411
725.443582	3970.574086
725.775542	3957.474648
726.107453	4006.845188
726.439315	4006.348634
726.771129	4018.260881
727.102895	4056.228331
727.434612	4101.906226
727.766281	4111.439048
728.097901	4120.109833
728.429473	4123.079072
728.760996	4132.208602
729.092471	4122.511943
729.423897	4110.188842
729.755276	4116.134883
730.086606	4114.660345
730.417887	4151.380110
730.749120	4216.441242
731.080305	4280.017753
731.411442	4307.517248
731.742530	4280.123618
732.073570	4282.021612
732.404562	4333.305270
732.735506	4329.791586
733.066401	4290.213487
733.397249	4225.301069
733.728048	4148.282321
734.058798	4063.043971
734.389501	3991.847755
734.720156	3930.736368
735.050762	3888.355387
735.381320	3878.759551
735.711831	3828.640400
736.042293	3798.610246
736.372707	3824.514215
736.703073	3794.436171
737.033391	3785.142804
737.363661	3801.466060
737.693883	3830.480421
738.024056	3833.860514
738.354182	3832.958148
738.684260	3897.464752
739.014290	3917.906631
739.344272	3913.556116
739.674207	3953.744194
740.004093	3961.885657
740.333931	3956.025316
740.663722	3955.064976
740.993464	3951.334522
741.323159	3926.695883
741.652806	3898.548601
741.982405	3871.344014
742.311956	3840.741689
742.641460	3832.663240
742.970915	3806.834889
743.300323	3764.504320
743.629683	3732.850915
743.958996	3722.806416
744.288260	3694.901109
744.617477	3662.478928
744.946647	3653.248575
745.275768	3624.357722
745.604842	3621.741363
745.933869	3575.017429
746.262847	3562.664082
746.591778	3602.968107
746.920662	3574.122624
747.249498	3544.369734
747.578286	3586.828852
747.907027	3606.386009
748.235720	3605.216461
748.564365	3629.514823
748.892963	3630.951552
749.221514	3610.910444
749.550017	3588.573092
749.878473	3586.874223
750.206881	3558.295922
750.535242	3551.341650
750.863555	3557.055798
751.191821	3550.018347
751.520039	3531.671068
751.848210	3506.316584
752.176334	3539.247922
752.504411	3550.638409
752.832440	3506.051924
753.160421	3491.203205
753.488356	3499.765605
753.816243	3513.911083
754.144082	3467.988692
754.471875	3454.536373
754.799620	3475.968838
755.127318	3466.695636
755.454969	3468.369299
755.782572	3470.620174
756.110129	3449.505301
756.437638	3438.392078
756.765100	3452.366156
757.092515	3465.387456
757.419882	3468.616315
757.747203	3443.034980
758.074477	3445.321143
758.401703	3458.871765
758.728882	3480.629385
759.056014	3488.594408
759.383099	3490.230263
759.710138	3489.705982
760.037129	3509.704240
760.364073	3535.257849
760.690970	3520.794778
761.017820	3499.584123
761.344623	3518.614479
761.671379	3565.376222
761.998088	3614.671145
762.324751	3742.776947
762.651366	3986.882219
762.977935	4464.919715
763.304456	4910.547632
763.630931	5010.682592
763.957359	4649.708250
764.283740	4300.953665
764.610074	4107.232205
764.936362	3910.937236
765.262602	3752.208946
765.588796	3638.674599
765.914943	3550.522462
766.241044	3460.963844
766.567097	3428.002259
766.893104	3381.921072
767.219064	3353.367977
767.544978	3322.916887
767.870845	3268.220368
768.196665	3250.457862
768.522438	3260.146960
768.848165	3254.329468
769.173846	3217.700444
769.499479	3202.536654
769.825066	3185.192564
770.150607	3165.509379
770.476101	3183.672656
770.801548	3177.915658
771.126949	3132.341107
771.452303	3115.344857
771.777611	3119.324848
772.102872	3126.226187
772.428087	3102.406735
772.753256	3091.142277
773.078378	3084.124991
773.403453	3050.702141
773.728482	3040.564381
774.053465	3056.199519
774.378401	3045.897921
774.703291	3015.156965
775.028135	3013.785771
775.352932	3009.891480
775.677683	3001.838237
776.002388	2995.627535
776.327046	3000.968638
776.651658	2989.963799
776.976224	2975.044504
777.300743	2975.500728
777.625216	2968.861529
777.949643	2960.410034
778.274024	2961.166208
778.598359	2954.700928
778.922647	2957.123202
779.246889	2956.455249
779.571086	2943.683486
779.895236	2935.874739
780.219339	2945.352108
780.543397	2958.343161
780.867409	2964.445478
781.191374	2955.822584
781.515294	2951.963581
781.839167	2953.022223
782.162995	2943.471758
782.486776	2953.609518
782.810511	2950.894857
783.134201	2936.003288
783.457844	2943.529731
783.781441	2933.092022
784.104993	2916.110895
784.428498	2913.040832
784.751958	2929.021290
785.075372	2926.939293
785.398739	2906.343659
785.722061	2924.186823
786.045337	2934.828699
786.368568	2922.561051
786.691752	2913.179464
787.014891	2961.541773
787.337983	2988.378356
787.661030	3019.434384
787.984031	3086.237234
788.306987	3134.448309
788.629897	3125.361629
788.952760	3107.699947
789.275579	3093.221753
789.598351	3033.642876
789.921078	2988.784169
790.243759	2979.556337
790.566395	2960.717545
790.888984	2939.675769
791.211529	2920.330341
791.534027	2912.067890
791.856480	2902.522465
792.178888	2888.581154
792.501249	2877.478013
792.823566	2875.277549
793.145836	2872.686396
793.468062	2869.001312
793.790241	2869.568442
794.112375	2872.560367
794.434464	2883.756770
794.756507	2887.772049
795.078505	2893.952503
795.400457	2908.889442
795.722364	2945.155503
796.044226	2969.519399
796.366042	2971.442600
796.687812	2961.037658
797.009538	2982.931389
797.331218	2968.974955
797.652852	2955.547842
797.974442	2938.748196
798.295986	2933.535643
798.617484	2930.485745
798.938938	2912.133425
799.260346	2897.287227
799.581709	2892.677091
799.903026	2886.335320
800.224299	2879.128990
800.545526	2870.470809
800.866708	2857.520084
801.187845	2845.257478
801.508936	2846.225379
801.829983	2853.968592
802.150984	2841.761437
802.471940	2827.106803
802.792851	2828.173007
803.113717	2828.248625
803.434538	2831.089315
803.755314	2824.268634
804.076045	2819.600525
804.396731	2817.407623
804.717372	2821.075063
805.037967	2814.493836
805.358518	2822.920125
805.679024	2830.595282
805.999485	2826.794252
806.319901	2833.670386
806.640272	2822.587409
806.960598	2829.965137
807.280879	2839.656756
807.601115	2848.791327
807.921306	2832.528564
808.241453	2828.324242
808.561554	2834.330777
808.881611	2836.261539
809.201623	2832.026969
809.521590	2830.141578
809.841513	2826.852225
810.161390	2830.383553
810.481223	2825.506237
810.801011	2813.954433
811.120755	2811.428815
811.440453	2813.972077
811.760107	2815.305462
812.079716	2811.789257
812.399281	2804.018319
812.718801	2797.555559
813.038276	2787.863941
813.357707	2794.939201
813.677093	2806.301961
813.996434	2799.715694
814.315731	2795.408028
814.634983	2791.155815
814.954191	2789.882923
815.273354	2802.871456
815.592473	2812.915955
815.911547	2812.472334
816.230577	2823.986329
816.549562	2830.643173
816.868502	2830.494459
817.187399	2841.280007
817.506250	2855.690146
817.825058	2851.531194
818.143821	2864.555015
818.462539	2879.522200
818.781213	2908.503794
819.099843	2942.947478
819.418429	3003.703464
819.736970	3065.772670
820.055466	3140.114566
820.373919	3245.399064
820.692327	3386.531207
821.010691	3556.050088
821.329011	4003.064323
821.647286	4913.106018
821.965517	6310.730634
822.283704	7078.165648
822.601847	7063.490849
822.919945	6420.857160
823.237999	5900.017748
823.556010	5311.841123
823.873976	4747.184001
824.191897	4329.985670
824.509775	4034.201009
824.827609	3755.331940
825.145398	3631.536325
825.463144	3621.335551
825.780845	3712.414077
826.098502	3817.048266
826.416116	4103.920167
826.733685	4423.577212
827.051210	4493.339219
827.368692	4377.443092
827.686129	4105.707256
828.003522	3774.392543
828.320872	3514.027029
828.638177	3314.354487
828.955439	3176.423477
829.272656	3093.980447
829.589830	3024.808254
829.906960	2975.397385
830.224046	2927.443409
830.541088	2894.393604
830.858086	2878.115718
831.175041	2858.046885
831.491952	2863.627442
831.808819	2874.289483
832.125642	2895.122051
832.442421	2942.602158
832.759157	3028.107689
833.075849	3204.638815
833.392497	3489.542145
833.709101	3698.409752
834.025662	3648.635919
834.342179	3484.748008
834.658653	3305.635812
834.975083	3156.067297
835.291469	3059.519119
835.607811	2972.034935
835.924110	2910.729463
836.240366	2860.292719
836.556578	2818.793941
836.872746	2796.998512
837.188871	2771.306271
837.504952	2755.086359
837.820990	2744.875502
838.136984	2733.046434
838.452935	2728.211968
838.768842	2724.436143
839.084706	2742.460789
839.400526	2820.061791
839.716303	2952.092131
840.032037	3039.210831
840.347727	3024.374715
840.663373	2961.234263
840.978977	2885.987480
841.294537	2812.575677
841.610054	2762.706063
841.925527	2741.381982
842.240957	2720.249465
842.556344	2696.319108
842.871687	2682.085410
843.186987	2670.289110
843.502244	2668.197031
843.817458	2663.299550
844.132629	2651.520894
844.447756	2640.629481
844.762840	2635.663945
845.077881	2636.193266
845.392879	2632.878707
845.707833	2628.984416
846.022745	2620.046450
846.337613	2626.274796
846.652438	2623.948303
846.967221	2624.215484
847.281960	2622.524177
847.596656	2622.340175
847.911309	2620.979064
848.225919	2620.658950
848.540485	2617.788013
848.855009	2615.718620
849.169490	2614.894391
849.483928	2614.614607
849.798323	2617.001593
850.112675	2611.879781
850.426984	2613.200563
850.741251	2611.602518
851.055474	2612.925820
851.369654	2616.079062
851.683792	2612.880450
851.997887	2610.785851
852.311938	2611.461365
852.625947	2615.748867
852.939914	2615.844648
853.253837	2615.582508
853.567718	2608.393823
853.881555	2612.310800
854.195350	2611.378186
854.509103	2614.614607
854.822812	2610.027157
855.136479	2608.419029
855.450103	2612.058742
855.763685	2616.366408
856.077224	2613.644185
856.390720	2607.620006
856.704173	2612.313320
857.017584	2615.723661
857.330953	2617.702314
857.644278	2619.393621
857.957561	2618.241717
858.270802	2619.791872
858.584000	2615.968157
858.897155	2618.725668
859.210268	2621.228601
859.523339	2615.390945
859.836367	2612.348608
860.149352	2609.702002
860.462295	2613.056890
860.775195	2609.391972
861.088054	2607.677979
861.400869	2607.138576
861.713642	2606.407608
862.026373	2605.101950
862.339062	2611.897425
862.651708	2616.038733
862.964312	2616.744494
863.276873	2615.010337
863.589392	2617.251130
863.901869	2621.145422
864.214303	2625.528705
864.526696	2628.888634
864.839045	2632.125055
865.151353	2634.539767
865.463619	2632.407359
865.775842	2630.761423
866.088023	2634.028090
866.400162	2633.874335
866.712258	2632.908954
867.024313	2632.558594
867.336325	2628.583644
867.648296	2629.417955
867.960224	2637.458596
868.272110	2634.905251
868.583954	2625.160701
868.895755	2625.150618
869.207515	2634.754017
869.519233	2642.696354
869.830909	2638.466826
870.142542	2632.170425
870.454134	2634.887607
870.765684	2639.185191
871.077191	2640.377424
871.388657	2645.146355
871.700081	2645.274905
872.011463	2643.679379
872.322803	2646.373876
872.634101	2648.644916
872.945357	2655.011893
873.256571	2659.778304
873.567744	2659.914415
873.878874	2655.420227
874.189963	2657.850063
874.501010	2665.013543
874.812015	2668.479336
875.122979	2666.462874
875.433900	2660.315187
875.744780	2657.870227
876.055618	2665.994047
876.366415	2669.117042
876.677169	2669.353976
876.987882	2663.213851
877.298554	2662.833243
877.609183	2672.630726
877.919771	2681.026768
878.230317	2685.583971
878.540822	2698.045703
878.851285	2711.344267
879.161707	2733.805128
879.472087	2776.236520
879.782425	2824.003973
880.092722	2943.086109
880.402977	3132.751961
880.713191	3400.938825
881.023363	3705.311091
881.333494	3906.206113
881.643583	4076.203903
881.953631	4075.674582
882.263637	3899.922315
882.573602	3671.747089
882.883526	3533.909340
883.193408	3420.019592
883.503248	3313.873057
883.813048	3195.922660
884.122806	3079.159454
884.432522	2989.999087
884.742197	2924.048192
885.051831	2885.894219
885.361424	2846.434587
885.670975	2812.338743
885.980485	2777.980759
886.289954	2760.251021
886.599382	2745.482961
886.908768	2734.798235
887.218113	2716.939948
887.527417	2701.302288
887.836680	2694.282482
888.145901	2685.034485
888.455082	2679.214473
888.764221	2669.225427
889.073319	2660.703356
889.382376	2660.519354
889.691392	2661.363747
890.000366	2659.995074
890.309300	2659.992553
890.618193	2660.985661
890.927044	2664.131341
891.235855	2662.036741
891.544625	2661.532626
891.853353	2660.375681
892.162041	2670.679799
892.470687	2690.652851
892.779293	2699.847916
893.087858	2715.165462
893.396381	2735.451065
893.704864	2778.381531
894.013306	2850.764938
894.321707	2945.591563
894.630068	3001.371930
894.938387	3021.909591
895.246665	3014.909949
895.554903	2967.543267
895.863100	2922.460228
896.171256	2866.125334
896.479371	2801.684264
896.787446	2760.482914
897.095480	2742.485995
897.403473	2734.301682
897.711425	2718.641337
898.019336	2701.274562
898.327207	2687.149249
898.635038	2684.595905
898.942827	2681.467869
899.250576	2671.088133
899.558284	2661.895589
899.865952	2655.374856
900.173579	2652.793786
900.481165	2648.806233
900.788711	2641.133597
901.096216	2637.183853
901.403681	2631.200003
901.711105	2637.171250
902.018489	2632.674541
902.325832	2633.481125
902.633135	2636.899027
902.940397	2650.356388
903.247619	2691.880372
903.554800	2761.019797
903.861941	2894.933008
904.169041	3027.427134
904.476101	3091.608584
904.783121	3083.532655
905.090100	3026.796989
905.397039	2946.481326
905.703938	2871.935264
906.010796	2803.350366
906.317614	2751.250041
906.624391	2712.907025
906.931129	2685.362160
907.237826	2660.350475
907.544483	2643.570995
907.851099	2631.479787
908.157675	2619.164248
908.464211	2610.153186
908.770707	2602.478029
909.077163	2597.522575
909.383578	2594.374374
909.689954	2594.119796
909.996289	2591.024527
910.302584	2590.011256
910.608839	2585.844742
910.915054	2588.166193
911.221229	2588.143508
911.527363	2590.558221
911.833458	2590.149887
912.139513	2591.518561
912.445527	2595.054930
912.751502	2599.266814
913.057436	2604.156733
913.363331	2610.995058
913.669186	2621.031996
913.975000	2634.549850
914.280775	2655.377377
914.586510	2673.180212
914.892205	2710.351160
915.197859	2778.351284
915.503475	2868.129193
915.809050	2936.129317
916.114585	2958.784262
916.420081	2970.394040
916.725536	2978.303610
917.030952	2947.691203
917.336328	2902.996333
917.641665	2851.316945
917.946961	2800.207206
918.252218	2762.708583
918.557435	2735.191445
918.862612	2711.966849
919.167750	2693.579241
919.472848	2677.359328
919.777906	2659.788387
920.082925	2647.498053
920.387904	2637.317443
920.692843	2632.364510
920.997743	2625.538787
921.302603	2617.102416
921.607423	2612.640995
921.912204	2607.037753
922.216946	2605.139758
922.521647	2601.431990
922.826310	2595.730445
923.130932	2593.260279
923.435516	2587.835998
923.740059	2584.788620
924.044564	2585.464135
924.349028	2581.388362
924.653454	2573.509038
924.957840	2571.374110
925.262186	2570.375961
925.566493	2571.341342
925.870761	2562.277348
926.174989	2565.352452
926.479178	2565.889334
926.783328	2559.348437
927.087438	2561.712738
927.391509	2561.616957
927.695541	2557.387428
927.999533	2556.409445
928.303486	2557.631924
928.607400	2558.335165
928.911275	2556.812737
929.215110	2556.422048
929.518906	2555.557490
929.822663	2554.939948
930.126381	2555.426420
930.430060	2555.696121
930.733699	2554.995401
931.037299	2556.187634
931.340861	2557.677295
931.644383	2558.188972
931.947866	2555.060936
932.251309	2553.777962
932.554714	2554.783672
932.858080	2556.064126
933.161407	2555.817109
933.464694	2552.331151
933.767943	2554.307283
934.071153	2556.396842
934.374323	2552.341233
934.677455	2552.769732
934.980548	2552.005997
935.283602	2552.976419
935.586617	2550.077755
935.889593	2552.764690
936.192530	2553.092365
936.495428	2552.711758
936.798287	2553.014227
937.101108	2555.459187
937.403890	2557.231153
937.706632	2563.094015
938.009336	2564.787842
938.312002	2568.969479
938.614628	2573.209090
938.917216	2572.140365
939.219765	2576.253947
939.522275	2577.410892
939.824747	2577.887281
940.127179	2570.723801
940.429573	2568.752710
940.731929	2566.542164
941.034246	2565.347410
941.336524	2569.844120
941.638763	2567.116855
941.940964	2566.199365
942.243126	2564.218192
942.545250	2563.146947
942.847335	2559.913047
943.149381	2559.940773
943.451389	2557.768036
943.753359	2557.243756
944.055290	2556.149825
944.357182	2557.979764
944.659036	2554.763508
944.960851	2556.074208
945.262628	2553.815771
945.564367	2557.460525
945.866067	2556.641338
946.167729	2559.098900
946.469352	2555.577654
946.770937	2554.251831
947.072484	2555.912891
947.373992	2555.398693
947.675462	2558.438509
947.976893	2553.251162
948.278286	2555.068498
948.579641	2553.344423
948.880958	2554.231666
949.182236	2555.015566
949.483476	2550.072714
949.784678	2550.685214
950.085841	2551.065822
950.386967	2555.045813
950.688054	2552.699155
950.989103	2555.991029
951.290114	2553.334341
951.591087	2558.441030
951.892021	2558.309960
952.192917	2557.765515
952.493776	2560.611246
952.794596	2561.637121
953.095378	2560.943962
953.396122	2562.121072
953.696828	2557.800803
953.997496	2558.307439
954.298126	2553.079762
954.598718	2555.481872
954.899272	2551.017931
955.199788	2552.505071
955.500266	2550.327293
955.800706	2547.418547
956.101108	2544.275387
956.401472	2543.249513
956.701798	2541.212886
957.002087	2544.353525
957.302337	2545.679349
957.602550	2544.129194
957.902724	2543.516694
958.202861	2542.092568
958.502960	2540.917979
958.803022	2542.868905
959.103045	2541.459903
959.403031	2542.758000
959.702979	2541.117104
960.002889	2540.673483
960.302762	2543.539379
960.602596	2536.506969
960.902393	2536.685930
961.202153	2539.148534
961.501875	2538.155427
961.801559	2538.513348
962.101205	2538.929244
962.400814	2536.350693
962.700385	2536.706095
962.999918	2534.818183
963.299414	2536.794315
963.598873	2535.773481
963.898293	2536.088553
964.197677	2538.137782
964.497022	2536.138965
964.796331	2535.849099
965.095601	2537.641229
965.394835	2535.450847
965.694030	2536.887576
965.993189	2536.572504
966.292309	2535.990251
966.591393	2536.280117
966.890439	2535.891948
967.189447	2536.443955
967.488419	2536.133924
967.787353	2538.730118
968.086249	2538.447813
968.385108	2537.048893
968.683930	2536.368338
968.982714	2539.541744
969.281462	2538.142824
969.580172	2536.353214
969.878844	2536.960673
970.177480	2534.238450
970.476078	2537.414377
970.774639	2536.620395
971.073162	2535.294572
971.371649	2536.055786
971.670098	2532.441279
971.968510	2535.632329
972.266885	2530.220650
972.565223	2538.649460
972.863524	2536.063348
973.161788	2539.241795
973.460014	2536.234747
973.758204	2540.257588
974.056356	2535.791125
974.354471	2539.108205
974.652550	2535.894469
974.950591	2538.137782
975.248595	2537.038811
975.546563	2539.370345
975.844493	2534.893800
976.142386	2539.788760
976.440243	2535.725590
976.738062	2537.149716
977.035845	2532.234591
977.333590	2538.142824
977.631299	2535.012267
977.928971	2536.282638
978.226606	2536.093595
978.524204	2534.687113
978.821765	2535.738193
979.119290	2533.857843
979.416777	2537.159799
979.714228	2535.148378
980.011642	2538.548637
980.309020	2536.632998
980.606360	2535.218954
980.903664	2537.001002
981.200931	2537.099305
981.498162	2538.798174
981.795356	2540.214738
982.092513	2542.266487
982.389633	2543.284801
982.686717	2549.505584
982.983764	2551.201933
983.280775	2551.995914
983.577749	2552.454659
983.874686	2551.733774
984.171587	2547.244627
984.468451	2547.093392
984.765279	2545.507949
985.062070	2539.246836
985.358824	2538.901517
985.655543	2538.838503
985.952224	2538.344470
986.248869	2535.720549
986.545478	2530.873480
986.842050	2532.537061
987.138586	2528.914992
987.435086	2532.917668
987.731549	2529.320804
988.027975	2534.571166
988.324366	2531.105373
988.620719	2535.670138
988.917037	2532.423635
989.213318	2531.571680
989.509563	2531.997657
989.805772	2534.303985
990.101944	2534.203162
990.398080	2531.342307
990.694180	2531.806093
990.990244	2534.165353
991.286271	2530.276103
991.582262	2532.592513
991.878217	2534.626619
992.174136	2533.341125
992.470019	2532.332894
992.765865	2533.946063
993.061676	2532.640404
993.357450	2531.914478
993.653188	2530.160157
993.948890	2532.587472
994.244556	2533.966228
994.540186	2532.821886
994.835780	2532.259797
995.131337	2535.718029
995.426859	2536.920344
995.722345	2533.913296
996.017795	2535.531506
996.313208	2535.841537
996.608586	2536.466640
996.903928	2535.271887
997.199234	2539.146013
997.494504	2537.472350
997.789738	2535.803728
998.084936	2534.339273
998.380099	2534.397246
998.675225	2532.786598
998.970316	2532.229550
999.265371	2532.766433
999.560390	2532.872297
999.855373	2533.053779
1000.150320	2534.127545
1000.445232	2532.809283
1000.740108	2532.872297
1001.034948	2533.820034
1001.329752	2531.606968
1001.624521	2531.967410
1001.919254	2528.274765
1002.213951	2528.032790
1002.508613	2527.261493
1002.803239	2529.651000
1003.097829	2526.734693
1003.392384	2529.683767
1003.686903	2529.804755
1003.981386	2530.722245
1004.275834	2530.989426
1004.570246	2531.533871
1004.864623	2529.640918
1005.158964	2528.887265
1005.453270	2532.431196
1005.747540	2531.100332
1006.041775	2530.528161
1006.335974	2532.753830
1006.630138	2529.651000
1006.924266	2528.579755
1007.218359	2530.094622
1007.512416	2531.314581
1007.806438	2529.719056
1008.100425	2529.391381
1008.394376	2530.634025
1008.688292	2528.118489
1008.982172	2530.349200
1009.276017	2529.333407
1009.569827	2529.643438
1009.863602	2529.159488
1010.157341	2531.377595
1010.451045	2530.039169
1010.744714	2529.313243
1011.038347	2530.749972
1011.331945	2528.035310
1011.625508	2530.089580
1011.919036	2528.284847
1012.212528	2529.230064
1012.505986	2528.252080
1012.799408	2529.020856
1013.092795	2529.537574
1013.386147	2530.470188
1013.679464	2531.216278
1013.972745	2529.656041
1014.265992	2528.456247
1014.559204	2530.888603
1014.852380	2529.726617
1015.145521	2532.955476
1015.438628	2528.698222
1015.731699	2530.059333
1016.024736	2528.594878
1016.317737	2530.225692
1016.610703	2530.833151
1016.903635	2527.148067
1017.196531	2525.671009
1017.489393	2527.949611
1017.782219	2526.598581
1018.075011	2531.047400
1018.367768	2529.424148
1018.660490	2531.682585
1018.953177	2531.682585
1019.245829	2531.682585
