Dividing Wavelength (nm)	Counts (n)	Blue Motor Position (mm): 0.000000	Red Motor Position (mm): 31.500000	
326.493990	2126.237705
326.888308	2126.237705
327.282561	2126.237705
327.676750	2095.768971
328.070874	2093.737386
328.464933	2096.028590
328.858929	2101.808273
329.252859	2111.542741
329.646726	2124.911881
330.040528	2137.998717
330.434265	2152.829791
330.827938	2170.738490
331.221547	2187.737261
331.615091	2210.656867
332.008571	2228.525237
332.401986	2246.938051
332.795338	2266.810280
333.188625	2285.076901
333.581847	2304.681948
333.975006	2322.499906
334.368100	2341.938595
334.761129	2357.971985
335.154095	2376.853627
335.546996	2393.249980
335.939833	2413.298649
336.332606	2426.065371
336.725315	2442.219748
337.117960	2447.525563
337.510540	2457.088632
337.903056	2468.098512
338.295508	2475.330047
338.687896	2482.390183
339.080220	2495.209837
339.472480	2501.367606
339.864676	2504.951867
340.256807	2508.447907
340.648875	2510.454286
341.040879	2513.370594
341.432818	2512.193484
341.824694	2517.995852
342.216506	2516.864113
342.608253	2519.825791
342.999937	2516.148269
343.391557	2516.528877
343.783113	2513.741118
344.174605	2514.157014
344.566033	2512.853875
344.957397	2512.995028
345.348697	2509.466220
345.739934	2510.310613
346.131106	2508.210973
346.522215	2506.383554
346.913260	2504.891373
347.304241	2502.811897
347.695159	2499.560353
348.086012	2496.923829
348.476802	2496.341576
348.867528	2494.892244
349.258191	2493.674806
349.648789	2494.388129
350.039324	2490.198930
350.429796	2493.924343
350.820203	2487.799341
351.210548	2489.125164
351.600828	2488.134578
351.991045	2488.184989
352.381198	2484.683908
352.771288	2487.905205
353.161314	2485.309011
353.551276	2483.474031
353.941175	2486.254227
354.331010	2486.123157
354.720782	2487.023003
355.110490	2487.106182
355.500135	2486.735657
355.889717	2483.514360
356.279235	2487.786738
356.668689	2485.891264
357.058080	2486.178610
357.447408	2483.897488
357.836672	2483.592498
358.225873	2488.542911
358.615010	2485.334217
359.004084	2487.408651
359.393095	2489.856132
359.782043	2489.382263
360.170927	2489.354537
360.559748	2491.522233
360.948505	2492.255721
361.337199	2493.084991
361.725830	2492.490134
362.114398	2494.826709
362.502903	2493.755464
362.891344	2496.049189
363.279722	2495.068685
363.668037	2498.869715
364.056289	2496.265959
364.444478	2498.884838
364.832603	2498.930208
365.220665	2499.865343
365.608665	2501.680158
365.996601	2502.451454
366.384474	2500.402225
366.772284	2501.445744
367.160031	2502.862308
367.547715	2507.747187
367.935336	2508.672238
368.322893	2512.057373
368.710388	2515.571057
369.097820	2521.315452
369.485189	2525.456760
369.872495	2529.091432
370.259738	2537.369007
370.646918	2545.308824
371.034035	2551.428785
371.421090	2561.475804
371.808081	2571.159861
372.195010	2582.676377
372.581875	2597.031062
372.968678	2611.030347
373.355418	2615.663167
373.742096	2638.252577
374.128710	2652.329999
374.515262	2665.386588
374.901751	2680.837724
375.288177	2695.648634
375.674540	2714.799978
376.060841	2736.832341
376.447079	2755.230032
376.833254	2775.916407
377.219367	2786.205402
377.605417	2826.857266
377.991404	2834.953359
378.377329	2858.722400
378.763191	2873.354349
379.148991	2912.632499
379.534727	2938.821293
379.920402	2965.554532
380.306013	2977.905359
380.691563	3030.416538
381.077049	3047.841286
381.462474	3066.085222
381.847835	3106.149792
382.233134	3128.116620
382.618371	3129.717186
383.003545	3197.576158
383.388657	3204.175029
383.773706	3235.770460
384.158693	3252.920466
384.543618	3277.967439
384.928480	3315.950012
385.313280	3362.003473
385.698017	3360.075232
386.082692	3411.598345
386.467305	3418.567740
386.851856	3449.722071
387.236344	3472.434989
387.620770	3504.645442
388.005133	3528.848022
388.389435	3556.531518
388.773674	3569.600709
389.157851	3611.596041
389.541965	3625.396200
389.926018	3590.224070
390.310008	3665.170904
390.693936	3681.010209
391.077802	3721.624265
391.461606	3710.843758
391.845348	3770.543622
392.229027	3774.193418
392.612645	3786.579533
392.996200	3863.505020
393.379694	3906.112852
393.763125	3967.446050
394.146494	3936.735341
394.529801	4000.808406
394.913047	4049.969739
395.296230	4015.047145
395.679351	4068.009508
396.062410	4089.792333
396.445408	4071.271134
396.828343	4103.393367
397.211217	4133.988129
397.594028	4048.210376
397.976778	4114.829224
398.359466	4141.580107
398.742092	4171.385929
399.124656	4090.397272
399.507158	4173.175539
399.889598	4199.684446
400.271977	4264.738016
400.654294	4228.610587
401.036549	4239.628029
401.418742	4208.619891
401.800874	4309.337104
402.182944	4334.994057
402.564952	4397.370774
402.946898	4386.678486
403.328783	4381.216396
403.710606	4297.162717
404.092367	4488.963498
404.474067	4450.565029
404.855705	4457.594918
405.237282	4387.099423
405.618797	4498.791227
406.000250	4529.761556
406.381642	4613.878249
406.762972	4574.907609
407.144240	4586.078806
407.525447	4583.283486
407.906593	4644.377230
408.287677	4691.325496
408.668700	4615.506542
409.049661	4670.006456
409.430560	4712.074885
409.811399	4635.290550
410.192176	4799.009583
410.572891	4733.686311
410.953545	4839.890820
411.334138	4720.763313
411.714669	4782.618271
412.095139	4677.525337
412.475547	4825.195857
412.855894	4804.625428
413.236180	4817.228313
413.616405	4770.148977
413.996568	4853.292727
414.376670	4796.090755
414.756711	4749.646604
415.136691	4783.187922
415.516609	4859.286659
415.896466	4901.201333
416.276262	4933.310962
416.655997	4909.894803
417.035670	5095.678966
417.415283	5182.527965
417.794834	5129.802537
418.174324	5085.851237
418.553753	4994.245910
418.933121	5181.040824
419.312428	5245.083643
419.691674	5185.469478
420.070859	5307.636800
420.449983	5220.266042
420.829045	5336.051264
421.208047	5238.371346
421.586988	5314.084436
421.965867	5322.392258
422.344686	5457.709430
422.723444	5311.400022
423.102141	5131.612311
423.480777	5428.468217
423.859352	5195.801323
424.237866	5452.438903
424.616319	5449.293223
424.994712	5560.715326
425.373044	5435.437612
425.751314	5577.353654
426.129524	5386.404829
426.507673	5576.552111
426.885762	5659.128732
427.263789	5590.352270
427.641756	5471.297860
428.019662	5590.218679
428.397508	5596.323516
428.775292	5545.823758
429.153016	5644.436289
429.530679	5572.587243
429.908282	5654.574049
430.285824	5529.180388
430.663305	5803.746833
431.040726	5536.142222
431.418086	5537.331934
431.795385	5645.187421
432.172624	5657.722250
432.549802	5651.882073
432.926920	5666.907232
433.303977	5668.233055
433.680974	5710.631680
434.057910	5728.006017
434.434786	5730.725719
434.811601	5699.258837
435.188355	5938.043171
435.565050	5811.595909
435.941683	5791.176715
436.318257	6007.873234
436.694770	5992.754814
437.071222	6031.117994
437.447614	5954.676458
437.823946	5867.895515
438.200218	6022.663979
438.576429	5884.780860
438.952580	5988.127034
439.328670	6030.545823
439.704700	5938.887564
440.080670	5925.059679
440.456580	6199.437080
440.832429	6079.918884
441.208218	5928.480102
441.583947	6080.770839
441.959616	6085.736376
442.335224	6012.881620
442.710773	6149.186859
443.086261	6175.242062
443.461689	5970.649354
443.837057	6118.892045
444.212365	6276.491117
444.587612	6168.406258
444.962800	6318.773795
445.337927	6297.643798
445.712995	5914.672382
446.088002	6491.539178
446.462949	6317.851263
446.837837	6249.861222
447.212664	6424.501914
447.587431	6559.768675
447.962139	7106.474248
448.336786	8039.226341
448.711374	7768.486132
449.085901	6851.694332
449.460369	6767.101250
449.834776	6702.272012
450.209124	7098.534430
450.583412	7247.079590
450.957640	7388.927577
451.331808	7159.194635
451.705917	6709.823660
452.079965	6632.300796
452.453954	6841.493557
452.827883	6718.504527
453.201752	6813.910884
453.575562	6611.579133
453.949311	6813.368960
454.323001	6702.657660
454.696632	6778.958044
455.070202	6919.717142
455.443713	7071.448311
455.817164	7171.704258
456.190556	7255.415138
456.563888	7329.764596
456.937160	7375.525670
457.310373	7031.703854
457.683526	7052.725465
458.056619	6941.623476
458.429653	6931.263905
458.802628	6864.443410
459.175542	6974.607745
459.548398	7329.605799
459.921194	7490.131261
460.293930	7494.239802
460.666607	8026.643621
461.039224	8334.045621
461.411782	8457.531205
461.784280	8478.683886
462.156719	8366.006536
462.529099	8245.195284
462.901419	7832.912079
463.273680	7728.149340
463.645882	7742.511587
464.018024	7608.119467
464.390106	7770.986545
464.762130	8159.281420
465.134094	8627.836505
465.505999	9646.479778
465.877845	10871.165090
466.249631	11522.585511
466.621358	11139.135185
466.993026	10508.834678
467.364634	10249.815152
467.736184	9883.499708
468.107674	9556.984173
468.479105	9586.999203
468.850477	9346.528603
469.221790	9120.430333
469.593043	8787.812481
469.964238	8650.196543
470.335373	8663.863111
470.706449	8716.283549
471.077467	8702.070016
471.448425	10001.624025
471.819324	11077.754095
472.190164	11100.845101
472.560945	9849.529893
472.931667	9062.474708
473.302330	8927.775077
473.672934	8570.100170
474.043479	8921.496320
474.413965	8862.003142
474.784393	8738.623423
475.154761	8894.523626
475.525070	8972.462385
475.895321	8802.681365
476.265513	8972.109504
476.635645	9131.067167
477.005719	9128.836457
477.375734	9234.264628
477.745691	9462.611253
478.115588	9588.781251
478.485427	9824.724895
478.855207	10340.011477
479.224928	11135.555965
479.594591	11744.219840
479.964194	11546.326825
480.333739	11479.798718
480.703226	11385.297247
481.072653	11460.657456
481.442022	11675.413131
481.811333	11847.039213
482.180584	11647.926239
482.549777	11351.110663
482.918912	11156.650674
483.287988	11160.512197
483.657005	11145.469394
484.025964	10831.670170
484.394864	10948.022522
484.763706	10897.421940
485.132489	10652.731894
485.501213	10592.114540
485.869879	10646.889197
486.238487	10464.406989
486.607036	10546.895390
486.975527	10320.101440
487.343959	10477.072888
487.712333	10490.202573
488.080648	10402.730992
488.448905	10414.481922
488.817104	10325.611421
489.185244	10544.021932
489.553326	10646.228806
489.921350	11102.493558
490.289315	11993.434321
490.657222	12268.787185
491.025070	12137.245837
491.392861	11995.007161
491.760593	11636.039199
492.128267	11289.742176
492.495883	10959.801178
492.863440	10622.721905
493.230939	10283.618609
493.598380	10173.318163
493.965763	10009.515951
494.333088	9887.262929
494.700354	9763.222818
495.067563	9788.408423
495.434713	9585.146579
495.801805	9644.463316
496.168839	9533.734372
496.535815	9422.138349
496.902733	9381.736022
497.269593	9263.773022
497.636395	9297.122775
498.003139	9222.216270
498.369825	9070.825379
498.736453	9133.746541
499.103023	9031.443885
499.469535	8986.794385
499.835989	8929.413452
500.202385	8832.066250
500.568723	8661.231629
500.935003	8782.486502
501.301226	8548.002272
501.667390	8699.017598
502.033497	8697.507772
502.399546	8537.667907
502.765537	8407.865757
503.131470	8385.553610
503.497345	8448.696583
503.863163	8116.585367
504.228923	8254.249197
504.594625	8240.045746
504.960269	7997.006677
505.325856	8073.959891
505.691385	7865.339301
506.056856	7901.260042
506.422270	7841.416505
506.787625	7722.465439
507.152924	7706.648819
507.518164	7630.592931
507.883347	7507.296390
508.248472	7386.807772
508.613540	7448.788758
508.978550	7311.813047
509.343503	7230.733649
509.708398	7235.207673
510.073236	7211.804116
510.438016	7150.579303
510.802738	7041.922273
511.167403	6997.507187
511.532010	6866.449790
511.896561	6922.136896
512.261053	6884.600464
512.625488	6738.835501
512.989866	6655.535474
513.354186	6577.720224
513.718449	6452.064423
514.082655	6476.536704
514.446803	6365.343974
514.810894	6348.206571
515.174927	6209.232042
515.538904	6161.285628
515.902822	6142.900540
516.266684	6038.021855
516.630488	5937.400424
516.994235	5903.818778
517.357925	5848.640828
517.721558	5812.946938
518.085133	5746.559983
518.448651	5694.769689
518.812112	5588.570222
519.175516	5512.635321
519.538863	5489.594728
519.902152	5410.657820
520.265385	5382.157657
520.628560	5301.521881
520.991678	5220.356783
521.354739	5182.527965
521.717743	5106.119196
522.080690	5036.377353
522.443580	5001.991643
522.806413	4933.535294
523.169189	4881.019074
523.531908	4835.865459
523.894569	4736.002722
524.257174	4676.015511
524.619722	4643.454699
524.982213	4591.074590
525.344647	4538.591137
525.707025	4482.651973
526.069345	4444.377013
526.431608	4370.554356
526.793815	4348.600131
527.155964	4257.209053
527.518057	4220.665728
527.880093	4160.776821
528.242072	4124.407416
528.603995	4060.228487
528.965860	4004.614477
529.327669	3968.295485
529.689421	3920.785130
530.051117	3871.467522
530.412755	3843.398377
530.774337	3797.798620
531.135862	3745.940271
531.497331	3716.000858
531.858743	3653.803102
532.220098	3642.959580
532.581396	3587.557299
532.942638	3556.100499
533.303824	3522.675129
533.664953	3487.787823
534.026025	3448.628140
534.387040	3425.892537
534.747999	3396.237949
535.108902	3377.068962
535.469748	3325.936538
535.830537	3310.944147
536.191270	3281.889456
536.551947	3257.959099
536.912567	3231.321642
537.273131	3206.035214
537.633638	3180.469003
537.994089	3152.546052
538.354483	3127.287350
538.714821	3118.505660
539.075103	3099.429934
539.435328	3076.412026
539.795497	3051.223900
540.155609	3035.923998
540.515665	3024.193233
540.875665	2994.636948
541.235609	2981.038436
541.595496	2968.528813
541.955328	2956.273768
542.315102	2938.168464
542.674821	2920.781524
543.034483	2904.924575
543.394090	2891.696587
543.753640	2877.110008
544.113134	2871.927702
544.472571	2858.316587
544.831953	2846.858044
545.191278	2831.071671
545.550548	2821.642192
545.909761	2820.235711
546.268918	2806.435552
546.628019	2801.366672
546.987064	2786.364198
547.346053	2777.398506
547.704986	2769.637649
548.063863	2765.624891
548.422684	2758.839498
548.781449	2747.116295
549.140158	2744.421798
549.498811	2735.788822
549.857408	2726.845815
550.215949	2723.064950
550.574434	2716.977756
550.932864	2712.977601
551.291237	2705.942671
551.649555	2703.848071
552.007817	2703.517876
552.366022	2698.360775
552.724173	2691.436750
553.082267	2690.708304
553.440305	2687.555062
553.798288	2684.595905
554.156215	2679.020388
554.514086	2680.038702
554.871902	2673.989317
555.229661	2673.152485
555.587365	2669.885818
555.945014	2668.585200
556.302606	2666.677123
556.660143	2664.837102
557.017625	2662.651762
557.375050	2658.016421
557.732421	2659.153201
558.089735	2653.761687
558.446994	2650.863024
558.804197	2654.560710
559.161345	2651.397386
559.518437	2649.098620
559.875474	2649.154072
560.232455	2648.995276
560.589381	2645.950419
560.946251	2645.753814
561.303065	2643.996972
561.659825	2641.710809
562.016528	2641.622589
562.373177	2637.607310
562.729770	2640.107722
563.086307	2637.314923
563.442789	2636.720067
563.799216	2636.583955
564.155587	2633.017339
564.511904	2635.240488
564.868164	2636.231075
565.224370	2632.445168
565.580520	2628.858387
565.936615	2633.869294
566.292654	2626.088273
566.648638	2628.049282
567.004567	2625.654734
567.360441	2628.563480
567.716260	2622.995525
568.072023	2625.253962
568.427732	2621.911677
568.783385	2624.240690
569.138982	2618.367746
569.494525	2619.197016
569.850013	2615.927827
570.205445	2620.313631
570.560823	2619.711213
570.916145	2617.848507
571.271412	2619.907818
571.626625	2621.394959
571.981782	2618.327417
572.336884	2616.971346
572.691931	2617.830863
573.046923	2615.756428
573.401860	2616.000924
573.756743	2614.027312
574.111570	2615.794237
574.466342	2615.766511
574.821059	2613.034205
575.175722	2615.234669
575.530330	2615.186778
575.884882	2615.232148
576.239380	2611.295007
576.593823	2614.871706
576.948211	2609.734770
577.302544	2609.702002
577.656823	2610.642178
578.011047	2613.465224
578.365216	2612.235182
578.719330	2608.494646
579.073389	2608.300562
579.427394	2609.507918
579.781344	2605.711929
580.135239	2610.911879
580.489080	2608.620675
580.842866	2609.356683
581.196597	2608.718977
581.550273	2607.705706
581.903895	2605.467433
582.257463	2605.860643
582.610975	2605.248143
582.964434	2606.619337
583.317837	2607.012547
583.671186	2607.874584
584.024481	2603.904676
584.377721	2605.870726
584.730906	2601.621033
585.084037	2604.134048
585.437113	2605.091867
585.790135	2603.014912
586.143103	2603.219079
586.496016	2604.174377
586.848874	2600.189345
587.201679	2601.966352
587.554428	2598.109869
587.907124	2598.634149
588.259765	2598.775302
588.612352	2601.195055
588.964884	2600.443923
589.317362	2598.167842
589.669786	2600.350662
590.022155	2602.838472
590.374470	2600.053234
590.726731	2598.712287
591.078937	2598.782863
591.431090	2597.883017
591.783188	2600.643049
592.135232	2595.990064
592.487222	2602.442741
592.839157	2600.038111
593.191038	2597.588110
593.542866	2598.747575
593.894639	2595.732965
594.246358	2596.375712
594.598022	2595.077615
594.949633	2593.756833
595.301190	2598.119952
595.652692	2595.445619
596.004141	2598.366968
596.355535	2597.121803
596.706876	2597.646083
597.058162	2595.047368
597.409395	2593.464446
597.760573	2597.152050
598.111698	2592.816658
598.462768	2596.779005
598.813785	2593.232553
599.164748	2592.168869
599.515657	2595.916967
599.866511	2592.433530
600.217312	2595.128027
600.568060	2595.014601
600.918753	2596.179107
601.269392	2592.756164
601.619978	2592.226843
601.970510	2593.524940
602.320988	2594.933942
602.671412	2598.598861
603.021783	2591.163159
603.372100	2594.344127
603.722363	2591.296750
604.072572	2594.596185
604.422728	2592.793973
604.772830	2587.616707
605.122878	2585.761563
605.472872	2588.012438
605.822813	2589.033272
606.172701	2588.987901
606.522534	2592.551997
606.872314	2592.456215
607.222041	2590.830443
607.571714	2592.763726
607.921333	2594.137440
608.270899	2590.109558
608.620411	2592.993098
608.969870	2592.466297
609.319276	2595.795980
609.668627	2599.695312
610.017926	2599.012236
610.367171	2600.524582
610.716362	2599.997781
611.065500	2596.169025
611.414585	2599.559201
611.763616	2596.995774
612.112594	2595.591813
612.461518	2596.113572
612.810389	2594.245825
613.159207	2593.867738
613.507971	2594.838160
613.856682	2597.046186
614.205340	2595.511154
614.553945	2595.438058
614.902496	2595.218767
615.250994	2594.439909
615.599439	2593.222471
615.947830	2595.054930
616.296169	2592.239446
616.644454	2591.387491
616.992686	2594.349168
617.340864	2595.959817
617.688990	2591.397573
618.037063	2595.503593
618.385082	2594.828078
618.733048	2595.730445
619.080961	2594.240784
619.428821	2591.992429
619.776628	2596.136258
620.124382	2591.432861
620.472083	2594.891092
620.819731	2593.940835
621.167326	2594.046699
621.514868	2593.076277
621.862357	2591.430340
622.209793	2594.228181
622.557176	2592.446133
622.904506	2588.514033
623.251783	2586.139649
623.599007	2588.393045
623.946179	2586.437077
624.293297	2586.338775
624.640363	2589.010587
624.987376	2588.909763
625.334336	2589.771801
625.681243	2587.195771
626.028097	2587.899012
626.374899	2584.294587
626.721647	2585.902715
627.068343	2585.756522
627.414987	2585.257447
627.761577	2587.901533
628.108115	2586.217787
628.454600	2586.739547
628.801032	2585.141501
629.147412	2585.320462
629.493739	2584.912128
629.840014	2586.202664
630.186236	2587.074783
630.532405	2583.069587
630.878521	2583.815677
631.224585	2584.992787
631.570597	2582.094123
631.916556	2584.390369
632.262462	2587.646954
632.608316	2582.479772
632.954117	2582.779720
633.299866	2580.067580
633.645562	2584.027406
633.991206	2581.486664
634.336797	2580.952302
634.682336	2582.270564
635.027823	2582.754515
635.373257	2581.441294
635.718639	2576.138000
636.063968	2579.911304
636.409245	2577.544482
636.754470	2577.002558
637.099642	2579.858372
637.444762	2577.559606
637.789829	2577.078175
638.134845	2576.470716
638.479808	2579.026581
638.824719	2577.113463
639.169577	2576.158165
639.514383	2575.570870
639.859137	2576.495922
640.203839	2575.225551
640.548489	2574.474419
640.893086	2573.027608
641.237632	2570.156671
641.582125	2575.588514
641.926566	2572.962073
642.270955	2575.069276
642.615292	2573.319995
642.959576	2577.577250
643.303809	2575.931313
643.647990	2574.970973
643.992118	2574.391240
644.336195	2573.677917
644.680219	2576.697568
645.024192	2578.277970
645.368112	2577.284863
645.711981	2579.659246
646.055797	2575.661611
646.399562	2575.737228
646.743274	2574.139183
647.086935	2578.346026
647.430544	2576.223700
647.774101	2577.975501
648.117606	2577.841910
648.461059	2579.886098
648.804460	2581.053125
649.147810	2576.669842
649.491108	2578.772003
649.834354	2578.255285
650.177548	2576.992476
650.520690	2576.843762
650.863781	2574.401323
651.206820	2578.134297
651.549807	2572.147927
651.892742	2575.046590
652.235626	2575.170099
652.578458	2576.987435
652.921238	2572.503328
653.263967	2576.435428
653.606644	2572.566343
653.949269	2572.833524
654.291843	2571.210272
654.634365	2572.992320
654.976836	2570.809501
655.319255	2573.529203
655.661622	2574.063565
656.003938	2571.787484
656.346203	2570.547361
656.688416	2573.582135
657.030577	2569.753379
657.372687	2571.220355
657.714746	2572.551219
658.056753	2570.567525
658.398708	2565.657441
658.740612	2566.937894
659.082465	2567.477298
659.424266	2568.724983
659.766016	2565.861608
660.107715	2569.294634
660.449362	2571.333781
660.790958	2573.367886
661.132503	2570.479305
661.473996	2570.310426
661.815438	2569.176167
662.156829	2571.288410
662.498168	2570.305385
662.839456	2572.586507
663.180693	2570.910324
663.521879	2572.561302
663.863013	2569.801270
664.204097	2570.355797
664.545129	2570.048286
664.886110	2574.655901
665.227040	2570.078533
665.567918	2573.798905
665.908746	2572.800756
666.249522	2573.950139
666.590248	2571.734552
666.930922	2572.936868
667.271545	2569.266907
667.612118	2574.983576
667.952639	2570.512072
668.293109	2571.759758
668.633528	2571.013667
668.973896	2570.685992
669.314213	2573.546847
669.654480	2570.315467
669.994695	2572.601631
670.334859	2572.462999
670.674973	2570.650704
671.015035	2569.982751
671.355047	2568.414952
671.695008	2569.692885
672.034918	2569.836558
672.374777	2571.588359
672.714585	2571.321178
673.054342	2571.104408
673.394049	2572.662125
673.733705	2571.996692
674.073310	2570.890159
674.412864	2571.860581
674.752368	2569.400498
675.091820	2570.880077
675.431223	2570.771692
675.770574	2570.779254
676.109875	2563.323387
676.449125	2567.931002
676.788324	2567.058882
677.127473	2566.680796
677.466571	2567.570559
677.805619	2569.188770
678.144616	2566.166598
678.483562	2568.838409
678.822458	2569.985272
679.161303	2568.004098
679.500098	2568.830848
679.838842	2569.458471
680.177535	2568.765313
680.516179	2567.966290
680.854771	2570.146589
681.193314	2567.615930
681.531805	2569.458471
681.870247	2570.469223
682.208638	2571.986610
682.546978	2571.669017
682.885268	2574.910479
683.223508	2571.122052
683.561697	2571.855540
683.899836	2573.304872
684.237925	2571.235478
684.575963	2569.854202
684.913951	2569.372772
685.251889	2572.311764
685.589776	2570.630540
685.927614	2569.967628
686.265401	2572.904100
686.603137	2571.984089
686.940824	2571.162381
687.278460	2571.399316
687.616046	2570.675910
687.953582	2574.040880
688.291068	2573.239337
688.628504	2572.309244
688.965889	2571.079202
689.303224	2574.018195
689.640510	2570.065930
689.977745	2569.337484
690.314930	2567.439489
690.652065	2568.636763
690.989150	2568.982082
691.326185	2567.825138
691.663170	2566.524520
692.000105	2566.940415
692.336990	2567.545353
692.673825	2566.070816
693.010610	2567.237843
693.347345	2560.785166
693.684030	2561.342214
694.020665	2561.175856
694.357251	2559.197203
694.693786	2562.108469
695.030272	2561.538819
695.366707	2560.472615
695.703093	2560.603685
696.039429	2561.571586
696.375716	2562.597461
696.711952	2560.666699
697.048139	2562.690722
697.384276	2560.006308
697.720363	2560.593602
698.056400	2560.757440
698.392388	2561.891699
698.728326	2561.831206
699.064214	2557.805844
699.400053	2560.991853
699.735842	2558.957748
700.071581	2559.771894
700.407270	2559.615618
700.742910	2560.694425
701.078501	2560.573438
701.414042	2558.836760
701.749533	2556.943807
702.084974	2558.133519
702.420366	2555.219732
702.755709	2555.002963
703.091002	2559.169476
703.426246	2557.954558
703.761440	2557.566389
704.096584	2558.725855
704.431679	2557.720145
704.766725	2556.918601
705.101721	2557.863817
705.436668	2558.151163
705.771565	2560.003787
706.106413	2556.986657
706.441212	2558.872048
706.775961	2557.994887
707.110661	2557.054712
707.445311	2557.982285
707.779913	2556.661502
708.114465	2559.401369
708.448967	2558.950186
708.783421	2560.021431
709.117825	2559.902964
709.452180	2560.916236
709.786485	2560.409600
710.120742	2562.947821
710.454949	2562.526885
710.789107	2560.187789
711.123216	2559.108982
711.457275	2559.106462
711.791286	2560.283571
712.125247	2558.458674
712.459159	2563.885476
712.793023	2562.446226
713.126837	2559.701318
713.460602	2562.267265
713.794318	2561.349775
714.127985	2566.136351
714.461602	2560.182748
714.795171	2560.344065
715.128691	2559.935732
715.462162	2558.740978
715.795584	2559.464384
716.128957	2558.055381
716.462281	2560.460012
716.795556	2556.878272
717.128782	2557.710062
717.461960	2558.819116
717.795088	2555.323076
718.128167	2555.930535
718.461198	2555.943138
718.794180	2556.810216
719.127113	2553.964485
719.459997	2556.550597
719.792833	2552.910884
720.125619	2555.401214
720.458357	2554.405586
720.791046	2555.623025
721.123686	2553.856100
721.456278	2554.919784
721.788821	2553.921635
722.121315	2555.373488
722.453761	2552.588250
722.786158	2552.205122
723.118506	2552.696635
723.450805	2554.332489
723.783056	2554.181255
724.115259	2555.088662
724.447412	2553.200750
724.779518	2554.844166
725.111574	2552.590771
725.443582	2553.903991
725.775542	2556.180072
726.107453	2554.297201
726.439315	2556.787531
726.771129	2558.977913
727.102895	2557.919270
727.434612	2556.505227
727.766281	2553.709907
728.097901	2550.980122
728.429473	2553.382232
728.760996	2554.453477
729.092471	2552.399207
729.423897	2558.168807
729.755276	2555.005483
730.086606	2557.868859
730.417887	2558.486400
730.749120	2558.269630
731.080305	2557.594116
731.411442	2560.621329
731.742530	2555.469269
732.073570	2560.278530
732.404562	2558.473797
732.735506	2559.547563
733.066401	2559.630742
733.397249	2558.725855
733.728048	2555.749053
734.058798	2558.123437
734.389501	2553.467931
734.720156	2556.202757
735.050762	2555.396173
735.381320	2552.081614
735.711831	2549.586243
736.042293	2553.568754
736.372707	2550.155893
736.703073	2554.173693
737.033391	2552.247972
737.363661	2554.201419
737.693883	2553.757798
738.024056	2553.846018
738.354182	2553.170503
738.684260	2556.623694
739.014290	2553.800648
739.344272	2555.494475
739.674207	2553.500699
740.004093	2555.865000
740.333931	2552.379042
740.663722	2554.856769
740.993464	2557.929353
741.323159	2555.461708
741.652806	2553.344423
741.982405	2554.236707
742.311956	2551.267468
742.641460	2556.172510
742.970915	2554.536656
743.300323	2550.932231
743.629683	2553.873744
743.958996	2550.793599
744.288260	2551.595143
744.617477	2550.654967
744.946647	2547.746222
745.275768	2549.770245
745.604842	2545.150027
745.933869	2548.134391
746.262847	2546.831252
746.591778	2548.212528
746.920662	2552.026161
747.249498	2549.903836
747.578286	2550.223949
747.907027	2553.188147
748.235720	2550.009700
748.564365	2550.811243
748.892963	2550.087838
749.221514	2549.939124
749.550017	2551.302756
749.878473	2550.339895
750.206881	2547.574822
750.535242	2551.511964
750.863555	2549.664381
751.191821	2549.369473
751.520039	2551.340564
751.848210	2551.280071
752.176334	2552.121943
752.504411	2548.373845
752.832440	2548.499874
753.160421	2547.869730
753.488356	2551.176727
753.816243	2550.982643
754.144082	2547.718495
754.471875	2549.878630
754.799620	2546.801005
755.127318	2548.638506
755.454969	2547.920142
755.782572	2552.041285
756.110129	2548.797302
756.437638	2549.911397
756.765100	2550.639844
757.092515	2548.772097
757.419882	2549.513146
757.747203	2550.105482
758.074477	2549.694628
758.401703	2547.365615
758.728882	2550.773435
759.056014	2553.513302
759.383099	2548.847714
759.710138	2551.643034
760.037129	2551.421223
760.364073	2548.774617
760.690970	2551.585060
761.017820	2551.406099
761.344623	2552.018600
761.671379	2550.806202
761.998088	2548.482230
762.324751	2552.106820
762.651366	2555.131512
762.977935	2565.168449
763.304456	2568.283882
763.630931	2573.448545
763.957359	2569.229099
764.283740	2566.078378
764.610074	2563.199879
764.936362	2558.168807
765.262602	2553.228477
765.588796	2553.470452
765.914943	2550.271840
766.241044	2550.796120
766.567097	2548.777138
766.893104	2549.369473
767.219064	2548.762014
767.544978	2547.554658
767.870845	2545.724719
768.196665	2546.680018
768.522438	2545.376879
768.848165	2547.408464
769.173846	2547.421067
769.499479	2545.104657
769.825066	2546.659853
770.150607	2546.443083
770.476101	2544.734132
770.801548	2547.428629
771.126949	2544.464431
771.452303	2545.084493
771.777611	2543.690613
772.102872	2547.688248
772.428087	2541.996786
772.753256	2542.158103
773.078378	2545.049204
773.403453	2542.407640
773.728482	2544.608103
774.053465	2540.071065
774.378401	2543.925027
774.703291	2544.303114
775.028135	2542.702547
775.352932	2543.050387
775.677683	2542.198432
776.002388	2541.719522
776.327046	2541.492670
776.651658	2542.783206
776.976224	2541.636343
777.300743	2540.302958
777.625216	2542.226158
777.949643	2545.240768
778.274024	2544.862682
778.598359	2537.684079
778.922647	2536.696013
779.246889	2539.493853
779.571086	2535.823893
779.895236	2540.973432
780.219339	2540.214738
780.543397	2541.117104
780.867409	2541.754810
781.191374	2542.090047
781.515294	2540.670962
781.839167	2540.033256
782.162995	2539.551826
782.486776	2543.128525
782.810511	2539.196425
783.134201	2542.732794
783.457844	2541.734646
783.781441	2541.921168
784.104993	2543.708257
784.428498	2543.620037
784.751958	2540.764224
785.075372	2542.798329
785.398739	2541.107022
785.722061	2540.035777
786.045337	2543.302445
786.368568	2543.544420
786.691752	2541.185160
787.014891	2542.775644
787.337983	2541.164995
787.661030	2544.482075
787.984031	2544.991231
788.306987	2545.117260
788.629897	2545.462579
788.952760	2545.760007
789.275579	2545.351674
789.598351	2543.153731
789.921078	2543.272198
790.243759	2541.946374
790.566395	2543.990562
790.888984	2543.264636
791.211529	2541.187681
791.534027	2540.867567
791.856480	2540.653318
792.178888	2541.354039
792.501249	2540.497043
792.823566	2540.512166
793.145836	2540.146682
793.468062	2537.865560
793.790241	2541.351518
794.112375	2542.422763
794.434464	2540.736497
794.756507	2540.549975
795.078505	2539.413194
795.400457	2540.802032
795.722364	2538.919161
796.044226	2541.182639
796.366042	2539.831610
796.687812	2541.452341
797.009538	2543.430994
797.331218	2542.594163
797.652852	2542.269008
797.974442	2541.515356
798.295986	2540.688606
798.617484	2541.696837
798.938938	2542.571477
799.260346	2541.734646
799.581709	2542.871426
799.903026	2540.187012
800.224299	2540.169368
800.545526	2541.467465
800.866708	2540.915458
801.187845	2541.863195
801.508936	2540.063503
801.829983	2539.304810
802.150984	2537.948739
802.471940	2541.659028
802.792851	2542.483257
803.113717	2539.728267
803.434538	2538.394881
803.755314	2539.377906
804.076045	2537.182484
804.396731	2538.755324
804.717372	2539.728267
805.037967	2539.158616
805.358518	2539.748431
805.679024	2539.846734
805.999485	2538.389840
806.319901	2537.880684
806.640272	2540.590304
806.960598	2540.151723
807.280879	2538.939326
807.601115	2539.166178
807.921306	2540.744059
808.241453	2537.772299
808.561554	2539.161137
808.881611	2541.585932
809.201623	2541.036446
809.521590	2542.054759
809.841513	2542.226158
810.161390	2542.878988
810.481223	2539.508976
810.801011	2539.183822
811.120755	2539.546785
811.440453	2539.070396
811.760107	2540.693648
812.079716	2537.968904
812.399281	2540.262629
812.718801	2536.443955
813.038276	2536.368337
813.357707	2538.445293
813.677093	2540.744059
813.996434	2542.140459
814.315731	2538.231044
814.634983	2538.994779
814.954191	2540.265149
815.273354	2539.413194
815.592473	2536.436393
815.911547	2541.265818
816.230577	2542.362269
816.549562	2541.275901
816.868502	2541.588452
817.187399	2538.843544
817.506250	2543.544420
817.825058	2541.706919
818.143821	2542.500901
818.462539	2542.334543
818.781213	2542.710109
819.099843	2545.838145
819.418429	2546.803526
819.736970	2547.279915
820.055466	2549.218239
820.373919	2550.564227
820.692327	2557.765515
821.010691	2562.897410
821.329011	2580.538927
821.647286	2611.539503
821.965517	2644.735501
822.283704	2665.028666
822.601847	2674.072496
822.919945	2657.013231
823.237999	2635.348873
823.556010	2618.284567
823.873976	2600.867380
824.191897	2590.144846
824.509775	2577.809143
824.827609	2570.345714
825.145398	2564.336659
825.463144	2569.103070
825.780845	2565.846485
826.098502	2569.854202
826.416116	2582.656212
826.733685	2590.137284
827.051210	2593.403952
827.368692	2588.309866
827.686129	2582.815008
828.003522	2570.083574
828.320872	2559.812223
828.638177	2555.265103
828.955439	2550.133208
829.272656	2548.983825
829.589830	2543.708257
829.906960	2542.609286
830.224046	2546.864020
830.541088	2543.612476
830.858086	2541.268339
831.175041	2544.507280
831.491952	2542.682383
831.808819	2542.190870
832.125642	2542.100129
832.442421	2547.103475
832.759157	2550.559186
833.075849	2554.289639
833.392497	2564.538305
833.709101	2567.946125
834.025662	2566.700960
834.342179	2561.291802
834.658653	2556.296019
834.975083	2552.830225
835.291469	2556.192675
835.607811	2547.456355
835.924110	2543.632640
836.240366	2540.847403
836.556578	2542.009389
836.872746	2543.269677
837.188871	2541.671631
837.504952	2540.781868
837.820990	2536.869932
838.136984	2537.139634
838.452935	2538.228523
838.768842	2536.622916
839.084706	2540.179450
839.400526	2539.430838
839.716303	2544.204811
840.032037	2551.751418
840.347727	2551.234700
840.663373	2545.933927
840.978977	2541.296065
841.294537	2541.195242
841.610054	2538.846065
841.925527	2540.209697
842.240957	2536.146527
842.556344	2541.475026
842.871687	2536.237268
843.186987	2536.053265
843.502244	2537.850437
843.817458	2534.581248
844.132629	2536.373379
844.447756	2535.854140
844.762840	2532.441279
845.077881	2532.297606
845.392879	2529.134282
845.707833	2532.998326
846.022745	2526.192768
846.337613	2535.954963
846.652438	2533.789787
846.967221	2534.735004
847.281960	2534.906403
847.596656	2535.256763
847.911309	2532.721063
848.225919	2534.982020
848.540485	2532.842050
848.855009	2534.619057
849.169490	2535.970086
849.483928	2531.730476
849.798323	2531.359951
850.112675	2533.883049
850.426984	2533.366330
850.741251	2532.476567
851.055474	2534.503111
851.369654	2535.342463
851.683792	2534.130065
851.997887	2532.668131
852.311938	2532.458923
852.625947	2534.745086
852.939914	2533.497400
853.253837	2534.742565
853.567718	2531.526309
853.881555	2531.538912
854.195350	2531.743079
854.509103	2534.243491
854.822812	2533.419263
855.136479	2533.633512
855.450103	2535.362627
855.763685	2532.345497
856.077224	2535.171063
856.390720	2533.590662
856.704173	2531.564118
857.017584	2536.340611
857.330953	2535.536547
857.644278	2538.757844
857.957561	2539.738349
858.270802	2533.487318
858.584000	2533.058820
858.897155	2535.861702
859.210268	2533.925898
859.523339	2532.872297
859.836367	2534.361958
860.149352	2533.416742
860.462295	2533.383974
860.775195	2533.106711
861.088054	2527.800897
861.400869	2530.553367
861.713642	2529.010773
862.026373	2532.847092
862.339062	2533.406660
862.651708	2533.835158
862.964312	2534.288862
863.276873	2532.451361
863.589392	2531.823737
863.901869	2535.312216
864.214303	2536.007895
864.526696	2535.528985
864.839045	2532.781557
865.151353	2536.559901
865.463619	2535.496218
865.775842	2534.697195
866.088023	2533.144520
866.400162	2533.290713
866.712258	2530.782739
867.024313	2535.574356
867.336325	2534.059489
867.648296	2535.826413
867.960224	2532.942873
868.272110	2533.983872
868.583954	2533.021011
868.895755	2536.925385
869.207515	2535.413039
869.519233	2535.952442
869.830909	2535.105528
870.142542	2533.741896
870.454134	2535.120652
870.765684	2535.055117
871.077191	2536.222144
871.388657	2536.184335
871.700081	2535.150899
872.011463	2536.383461
872.322803	2535.284489
872.634101	2534.273738
872.945357	2535.087884
873.256571	2536.201979
873.567744	2537.240457
873.878874	2538.936805
874.189963	2537.890766
874.501010	2538.263811
874.812015	2534.959335
875.122979	2538.639377
875.433900	2535.622247
875.744780	2539.098122
876.055618	2537.311033
876.366415	2536.998482
876.677169	2536.713657
876.987882	2536.524613
877.298554	2531.400280
877.609183	2536.325488
877.919771	2534.974458
878.230317	2535.952442
878.540822	2541.049049
878.851285	2542.228679
879.161707	2544.287990
879.472087	2544.204811
879.782425	2547.748742
880.092722	2553.641851
880.402977	2562.844477
880.713191	2581.446335
881.023363	2597.756988
881.333494	2612.517487
881.643583	2615.511932
881.953631	2612.096551
882.263637	2608.066148
882.573602	2605.480036
882.883526	2592.128540
883.193408	2585.577561
883.503248	2576.659760
883.813048	2566.254818
884.122806	2560.359189
884.432522	2559.655948
884.742197	2555.433981
885.051831	2551.811912
885.361424	2547.980635
885.670975	2546.488454
885.980485	2546.017106
886.289954	2545.848227
886.599382	2540.000489
886.908768	2541.575849
887.218113	2540.391178
887.527417	2543.158772
887.836680	2538.886394
888.145901	2537.275745
888.455082	2541.192722
888.764221	2539.241795
889.073319	2539.234233
889.382376	2537.389171
889.691392	2534.606454
890.000366	2534.087215
890.309300	2536.567463
890.618193	2540.870088
890.927044	2537.497556
891.235855	2537.308513
891.544625	2537.865560
891.853353	2539.740869
892.162041	2539.209028
892.470687	2540.522248
892.779293	2538.525951
893.087858	2541.477547
893.396381	2540.877650
893.704864	2544.850079
894.013306	2544.988711
894.321707	2557.359702
894.630068	2558.594785
894.938387	2564.298850
895.246665	2560.628890
895.554903	2560.878427
895.863100	2553.881306
896.171256	2551.849721
896.479371	2550.992725
896.787446	2547.289997
897.095480	2545.248330
897.403473	2542.735315
897.711425	2543.909904
898.019336	2542.344625
898.327207	2541.255736
898.635038	2537.610982
898.942827	2539.939995
899.250576	2538.412525
899.558284	2536.451517
899.865952	2540.156765
900.173579	2536.237268
900.481165	2535.914634
900.788711	2534.861033
901.096216	2535.521424
901.403681	2537.658873
901.711105	2537.477391
902.018489	2536.060827
902.325832	2539.254398
902.633135	2537.885725
902.940397	2539.181301
903.247619	2540.978473
903.554800	2546.536345
903.861941	2554.461039
904.169041	2567.862946
904.476101	2573.123390
904.783121	2572.198338
905.090100	2569.045097
905.397039	2559.824826
905.703938	2555.028168
906.010796	2548.247817
906.317614	2545.722198
906.624391	2544.885367
906.931129	2543.163813
907.237826	2537.648791
907.544483	2535.516382
907.851099	2535.534027
908.157675	2532.373223
908.464211	2536.290200
908.770707	2532.292565
909.077163	2533.273069
909.383578	2531.213758
909.689954	2530.896165
909.996289	2527.745444
910.302584	2534.193080
910.608839	2532.348017
910.915054	2534.435055
911.221229	2531.400280
911.527363	2533.767102
911.833458	2530.616381
912.139513	2534.077133
912.445527	2532.791639
912.751502	2533.963707
913.057436	2535.294572
913.363331	2534.677030
913.669186	2533.273069
913.975000	2538.283976
914.280775	2539.534182
914.586510	2542.326981
914.892205	2545.457538
915.197859	2552.646223
915.503475	2556.081770
915.809050	2564.180383
916.114585	2566.562328
916.420081	2571.467371
916.725536	2568.898903
917.030952	2566.365723
917.336328	2560.699467
917.641665	2554.942469
917.946961	2554.347613
918.252218	2549.929041
918.557435	2546.168341
918.862612	2546.090203
919.167750	2543.970397
919.472848	2540.121477
919.777906	2540.844882
920.082925	2538.422608
920.387904	2538.483102
920.692843	2540.912938
920.997743	2533.948584
921.302603	2536.345652
921.607423	2535.115611
921.912204	2536.643080
922.216946	2533.111752
922.521647	2534.389685
922.826310	2533.928419
923.130932	2533.764582
923.435516	2533.119314
923.740059	2533.205013
924.044564	2530.024045
924.349028	2531.836340
924.653454	2528.965403
924.957840	2533.600744
925.262186	2527.783253
925.566493	2531.244005
925.870761	2522.931142
926.174989	2533.676361
926.479178	2529.466998
926.783328	2530.364323
927.087438	2532.489170
927.391509	2529.134282
927.695541	2527.717717
927.999533	2530.482790
928.303486	2531.586803
928.607400	2532.597554
928.911275	2528.836854
929.215110	2530.281144
929.518906	2525.902902
929.822663	2532.768954
930.126381	2530.472708
930.430060	2530.697039
930.733699	2530.432379
931.037299	2530.152595
931.340861	2530.402132
931.644383	2527.727800
931.947866	2531.743079
932.251309	2529.716535
932.554714	2530.727286
932.858080	2530.311391
933.161407	2528.141174
933.464694	2531.175949
933.767943	2528.186545
934.071153	2529.197296
934.374323	2530.008922
934.677455	2530.739889
934.980548	2530.026566
935.283602	2529.635877
935.586617	2528.156298
935.889593	2529.146885
936.192530	2529.338448
936.495428	2529.771988
936.798287	2529.494724
937.101108	2529.056144
937.403890	2531.755682
937.706632	2531.937163
938.009336	2533.812473
938.312002	2531.054961
938.614628	2531.876669
938.917216	2532.080836
939.219765	2531.738038
939.522275	2533.709129
939.824747	2535.108049
940.127179	2529.378778
940.429573	2529.935825
940.731929	2527.001874
941.034246	2528.161339
941.336524	2529.724097
941.638763	2531.029756
941.940964	2530.533202
942.243126	2530.318953
942.545250	2529.920702
942.847335	2530.321473
943.149381	2530.959179
943.451389	2529.333407
943.753359	2532.741227
944.055290	2529.824920
944.357182	2530.797863
944.659036	2531.070085
944.960851	2531.188552
945.262628	2529.867770
945.564367	2529.547656
945.866067	2529.774508
946.167729	2532.789118
946.469352	2532.547143
946.770937	2531.249046
947.072484	2533.318439
947.373992	2530.341638
947.675462	2529.794673
947.976893	2529.746782
948.278286	2530.618902
948.579641	2528.604961
948.880958	2526.273427
949.182236	2528.612522
949.483476	2530.170239
949.784678	2528.264683
950.085841	2528.942718
950.386967	2528.844415
950.688054	2528.945238
950.989103	2528.231915
951.290114	2527.369878
951.591087	2529.638397
951.892021	2529.809796
952.192917	2532.242153
952.493776	2529.048582
952.794596	2531.206196
953.095378	2529.237625
953.396122	2531.150743
953.696828	2529.257790
953.997496	2531.044879
954.298126	2532.547143
954.598718	2531.554036
954.899272	2527.115300
955.199788	2527.382481
955.500266	2530.316432
955.800706	2527.543798
956.101108	2523.215967
956.401472	2526.132275
956.701798	2525.287881
957.002087	2524.035155
957.302337	2528.945238
957.602550	2527.316946
957.902724	2529.855167
958.202861	2527.637059
958.502960	2527.498427
958.803022	2529.598068
959.103045	2526.550690
959.403031	2525.769312
959.702979	2528.194107
960.002889	2527.543798
960.302762	2527.495907
960.602596	2527.788294
960.902393	2529.136802
961.202153	2527.516071
961.501875	2524.980371
961.801559	2529.401463
962.101205	2529.502286
962.400814	2530.598737
962.700385	2527.183355
962.999918	2527.246370
963.299414	2528.670496
963.598873	2529.744261
963.898293	2522.820237
964.197677	2528.625125
964.497022	2525.393746
964.796331	2528.352903
965.095601	2525.688653
965.394835	2526.207892
965.694030	2526.230577
965.993189	2526.706966
966.292309	2526.603623
966.591393	2526.323838
966.890439	2526.492717
967.189447	2527.818541
967.488419	2527.730320
967.787353	2525.774353
968.086249	2527.584127
968.385108	2527.541277
968.683930	2526.903571
968.982714	2527.011956
969.281462	2526.555732
969.580172	2525.055988
969.878844	2529.391381
970.177480	2523.571368
970.476078	2528.073119
970.774639	2530.276103
971.073162	2527.458098
971.371649	2525.252593
971.670098	2523.725124
971.968510	2523.982223
972.266885	2520.652540
972.565223	2526.888448
972.863524	2527.455577
973.161788	2527.632018
973.460014	2527.102697
973.758204	2524.861904
974.056356	2525.930628
974.354471	2527.032121
974.652550	2528.499096
974.950591	2526.013807
975.248595	2525.033303
975.546563	2527.632018
975.844493	2525.842408
976.142386	2526.033972
976.440243	2525.703777
976.738062	2526.853160
977.035845	2526.412059
977.333590	2525.620598
977.631299	2527.160670
977.928971	2528.816689
978.226606	2527.274096
978.524204	2529.673685
978.821765	2523.457942
979.119290	2526.467511
979.416777	2523.727644
979.714228	2527.238808
980.011642	2527.843746
980.309020	2529.179652
980.606360	2525.963396
980.903664	2529.267872
981.200931	2526.759898
981.498162	2526.336441
981.795356	2524.924918
982.092513	2528.637728
982.389633	2528.788963
982.686717	2528.494055
982.983764	2528.307532
983.280775	2529.225022
983.577749	2526.470032
983.874686	2530.152595
984.171587	2527.856349
984.468451	2528.920033
984.765279	2528.920033
985.062070	2526.044054
985.358824	2526.439785
985.655543	2528.647810
985.952224	2525.025741
986.248869	2526.520443
986.545478	2519.795544
986.842050	2523.800741
987.138586	2523.727644
987.435086	2524.395597
987.731549	2521.827129
988.027975	2526.328880
988.324366	2524.778725
988.620719	2527.339631
988.917037	2524.521626
989.213318	2525.582789
989.509563	2526.618746
989.805772	2524.289733
990.101944	2526.951462
990.398080	2526.096987
990.694180	2522.752181
990.990244	2525.371060
991.286271	2524.042716
991.582262	2525.282840
991.878217	2526.364168
992.174136	2527.009435
992.470019	2523.788138
992.765865	2526.157480
993.061676	2525.229908
993.357450	2528.123530
993.653188	2527.629497
993.948890	2523.150432
994.244556	2524.703108
994.540186	2527.004394
994.835780	2526.449867
995.131337	2526.759898
995.426859	2525.912984
995.722345	2524.642614
996.017795	2526.001205
996.313208	2526.454908
996.608586	2524.108251
996.903928	2529.300640
997.199234	2527.090094
997.494504	2526.618746
997.789738	2524.718231
998.084936	2527.710156
998.380099	2525.260155
998.675225	2526.754857
998.970316	2526.235618
999.265371	2524.191430
999.560390	2521.575072
999.855373	2526.843077
1000.150320	2525.819723
1000.445232	2526.538088
1000.740108	2525.494569
1001.034948	2524.302336
1001.329752	2526.094466
1001.624521	2526.838036
1001.919254	2520.342509
1002.213951	2523.972140
1002.508613	2522.152284
1002.803239	2523.155473
1003.097829	2520.828981
1003.392384	2526.689322
1003.686903	2524.589682
1003.981386	2526.379291
1004.275834	2525.214785
1004.570246	2528.088242
1004.864623	2523.241173
1005.158964	2526.545649
1005.453270	2525.938190
1005.747540	2527.024559
1006.041775	2524.148581
1006.335974	2526.699404
1006.630138	2525.860052
1006.924266	2524.597243
1007.218359	2527.773170
1007.512416	2527.463139
1007.806438	2525.517254
1008.100425	2524.995494
1008.394376	2524.365350
1008.688292	2525.003056
1008.982172	2523.397449
1009.276017	2523.621780
1009.569827	2524.783766
1009.863602	2525.607995
1010.157341	2524.632531
1010.451045	2525.290402
1010.744714	2525.242511
1011.038347	2522.805113
1011.331945	2525.671009
1011.625508	2524.529188
1011.919036	2523.352078
1012.212528	2525.161853
1012.505986	2526.533046
1012.799408	2523.934332
1013.092795	2525.799558
1013.386147	2524.614887
1013.679464	2526.712007
1013.972745	2524.509023
1014.265992	2523.967099
1014.559204	2526.102028
1014.852380	2524.466173
1015.145521	2521.338137
1015.438628	2525.149250
1015.731699	2524.007428
1016.024736	2522.691687
1016.317737	2524.067922
1016.610703	2526.457429
1016.903635	2523.130268
1017.196531	2520.811337
1017.489393	2523.175638
1017.782219	2520.362674
1018.075011	2525.015659
1018.367768	2523.946934
1018.660490	2523.450381
1018.953177	2523.450381
1019.245829	2523.450381
