Dividing Wavelength (nm)	Counts (n)	Blue Motor Position (mm): 0.000000	Red Motor Position (mm): 19.600000	
326.493990	2128.269290
326.888308	2128.269290
327.282561	2128.269290
327.676750	2095.529516
328.070874	2093.258476
328.464933	2097.009095
328.858929	2101.631833
329.252859	2111.333533
329.646726	2126.393980
330.040528	2137.976031
330.434265	2155.927580
330.827938	2171.275373
331.221547	2189.489062
331.615091	2209.769624
332.008571	2229.067161
332.401986	2249.095665
332.795338	2269.507297
333.188625	2288.094031
333.581847	2303.275466
333.975006	2322.688949
334.368100	2340.859788
334.761129	2360.553056
335.154095	2375.701723
335.546996	2391.964486
335.939833	2407.219017
336.332606	2422.866759
336.725315	2436.593821
337.117960	2447.858279
337.510540	2452.443208
337.903056	2466.991978
338.295508	2474.571353
338.687896	2481.455049
339.080220	2489.321769
339.472480	2496.581031
339.864676	2502.516989
340.256807	2504.740138
340.648875	2511.638957
341.040879	2510.454286
341.432818	2513.584843
341.824694	2513.731036
342.216506	2513.834380
342.608253	2514.731705
342.999937	2515.071983
343.391557	2512.823628
343.783113	2515.450070
344.174605	2511.959071
344.566033	2510.933196
344.957397	2509.592249
345.348697	2506.955725
345.739934	2508.334481
346.131106	2504.021774
346.522215	2503.189983
346.913260	2499.656135
347.304241	2501.859119
347.695159	2498.085815
348.086012	2496.293685
348.476802	2494.327635
348.867528	2494.763695
349.258191	2490.400576
349.648789	2490.846718
350.039324	2488.366471
350.429796	2488.742037
350.820203	2486.743219
351.210548	2485.346819
351.600828	2484.678867
351.991045	2485.009062
352.381198	2482.851448
352.771288	2482.503609
353.161314	2482.919504
353.551276	2484.023517
353.941175	2482.513691
354.331010	2482.186016
354.720782	2482.753146
355.110490	2482.662405
355.500135	2482.165851
355.889717	2484.265492
356.279235	2482.720378
356.668689	2484.199957
357.058080	2483.610142
357.447408	2483.358084
357.836672	2479.501602
358.225873	2484.817498
358.615010	2478.987404
359.004084	2485.677015
359.393095	2486.166007
359.782043	2488.832777
360.170927	2488.036275
360.559748	2489.382263
360.948505	2489.916625
361.337199	2490.559372
361.725830	2490.745895
362.114398	2492.969044
362.502903	2490.370329
362.891344	2493.805876
363.279722	2493.324445
363.668037	2491.567603
364.056289	2493.984837
364.444478	2497.140599
364.832603	2496.094559
365.220665	2495.726555
365.608665	2500.553460
365.996601	2499.366268
366.384474	2497.533809
366.772284	2499.441886
367.160031	2501.964983
367.547715	2505.145951
367.935336	2503.958759
368.322893	2507.101919
368.710388	2511.901097
369.097820	2518.384021
369.485189	2519.246058
369.872495	2528.171421
370.259738	2534.573687
370.646918	2544.489636
371.034035	2548.386448
371.421090	2557.412634
371.808081	2570.073492
372.195010	2579.686972
372.581875	2590.994281
372.968678	2604.839810
373.355418	2613.757611
373.742096	2631.147071
374.128710	2646.842703
374.515262	2663.160918
374.901751	2675.962929
375.288177	2690.249559
375.674540	2712.743187
376.060841	2731.050137
376.447079	2750.720720
376.833254	2770.411467
377.219367	2784.113323
377.605417	2819.993735
377.991404	2830.396156
378.377329	2851.954651
378.763191	2869.160109
379.148991	2909.171747
379.534727	2930.684871
379.920402	2961.206537
380.306013	2972.344966
380.691563	3024.208357
381.077049	3045.640822
381.462474	3060.371074
381.847835	3101.194338
382.233134	3123.846763
382.618371	3122.747791
383.003545	3187.743388
383.388657	3198.884338
383.773706	3231.119996
384.158693	3243.818662
384.543618	3274.463837
384.928480	3307.125473
385.313280	3355.460056
385.698017	3352.886547
386.082692	3408.417377
386.467305	3410.708581
386.851856	3445.979014
387.236344	3465.389977
387.620770	3497.681088
388.005133	3522.458359
388.389435	3548.634550
388.773674	3560.004873
389.157851	3605.191255
389.541965	3616.916979
389.926018	3586.561671
390.310008	3652.878050
390.693936	3673.531658
391.077802	3716.865416
391.461606	3705.936194
391.845348	3767.556738
392.229027	3764.806789
392.612645	3778.574180
392.996200	3857.448073
393.379694	3896.262437
393.763125	3959.216367
394.146494	3930.181841
394.529801	3989.579236
394.913047	4035.022717
395.296230	4000.763036
395.679351	4056.644226
396.062410	4082.696909
396.445408	4061.824012
396.828343	4098.256431
397.211217	4116.707054
397.594028	4040.981361
397.976778	4104.230198
398.359466	4133.720948
398.742092	4161.086852
399.124656	4079.279007
399.507158	4160.726409
399.889598	4183.381355
400.271977	4249.286879
400.654294	4217.081468
401.036549	4228.741657
401.418742	4193.556924
401.800874	4298.639776
402.182944	4320.992252
402.564952	4387.769896
402.946898	4372.868245
403.328783	4367.572513
403.710606	4280.841982
404.092367	4472.075632
404.474067	4439.446764
404.855705	4448.069658
405.237282	4370.168708
405.618797	4481.754648
406.000250	4516.286552
406.381642	4595.173048
406.762972	4556.149476
407.144240	4564.815219
407.525447	4564.994180
407.906593	4620.903097
408.287677	4661.219725
408.668700	4587.097119
409.049661	4634.947752
409.430560	4672.337990
409.811399	4596.004838
410.192176	4753.523252
410.572891	4683.244526
410.953545	4781.426038
411.334138	4655.200587
411.714669	4716.180905
412.095139	4606.535808
412.475547	4736.947938
412.855894	4702.032906
413.236180	4699.335889
413.616405	4644.188187
413.996568	4714.776943
414.376670	4643.880676
414.756711	4589.060649
415.136691	4604.390797
415.516609	4662.666536
415.896466	4676.222199
416.276262	4689.165361
416.655997	4651.666738
417.035670	4791.483140
417.415283	4849.655535
417.794834	4773.178711
418.174324	4712.929360
418.553753	4606.457671
418.933121	4739.619749
419.312428	4767.346096
419.691674	4686.448179
420.070859	4755.786730
420.449983	4648.687416
420.829045	4709.597158
421.208047	4601.749233
421.586988	4615.577118
421.965867	4589.786575
422.344686	4638.244666
422.723444	4502.307432
423.102141	4335.530939
423.480777	4500.273327
423.859352	4300.610867
424.237866	4424.988735
424.616319	4380.860995
424.994712	4403.629366
425.373044	4277.368627
425.751314	4312.051765
426.129524	4147.543792
426.507673	4212.078123
426.885762	4213.918144
427.263789	4119.172178
427.641756	4017.066127
428.019662	4022.651726
428.397508	3980.091785
428.775292	3900.693612
429.153016	3895.259248
429.530679	3817.151610
429.908282	3801.337510
430.285824	3706.783108
430.663305	3762.059360
431.040726	3610.988582
431.418086	3569.782191
431.795385	3560.415727
432.172624	3520.560365
432.549802	3472.540854
432.926920	3433.008125
433.303977	3390.178482
433.680974	3360.725541
434.057910	3320.872699
434.434786	3282.386010
434.811601	3236.105697
435.188355	3248.612800
435.565050	3185.525280
435.941683	3144.197901
436.318257	3147.706544
436.694770	3105.300358
437.071222	3077.455544
437.447614	3028.808410
437.823946	2988.426247
438.200218	2979.720174
438.576429	2933.616302
438.952580	2917.167017
439.328670	2893.521485
439.704700	2861.134592
440.080670	2836.347238
440.456580	2835.870849
440.832429	2802.621919
441.208218	2772.763165
441.583947	2764.566249
441.959616	2746.912128
442.335224	2725.882955
442.710773	2715.299052
443.086261	2704.778164
443.461689	2681.324196
443.837057	2674.614420
444.212365	2666.677123
444.587612	2655.863848
444.962800	2645.693320
445.337927	2638.320633
445.712995	2618.418158
446.088002	2622.383025
446.462949	2612.363732
446.837837	2606.558843
447.212664	2599.236567
447.587431	2596.784046
447.962139	2600.166660
448.336786	2611.262240
448.711374	2599.743203
449.085901	2589.222315
449.460369	2580.294432
449.834776	2576.390058
450.209124	2576.402661
450.583412	2576.390058
450.957640	2575.444842
451.331808	2571.638770
451.705917	2565.836402
452.079965	2563.530074
452.453954	2564.137533
452.827883	2561.710218
453.201752	2560.049158
453.575562	2560.422203
453.949311	2559.277861
454.323001	2555.991029
454.696632	2557.301729
455.070202	2559.713921
455.443713	2558.251986
455.817164	2555.055895
456.190556	2555.391132
456.563888	2555.378529
456.937160	2553.949362
457.310373	2555.169321
457.683526	2556.716955
458.056619	2553.538507
458.429653	2554.705535
458.802628	2550.614638
459.175542	2554.597150
459.548398	2554.836605
459.921194	2552.747046
460.293930	2555.307953
460.666607	2555.486913
461.039224	2557.339537
461.411782	2558.942624
461.784280	2562.675599
462.156719	2556.719476
462.529099	2555.728889
462.901419	2557.654610
463.273680	2554.743343
463.645882	2558.473797
464.018024	2554.844166
464.390106	2555.035730
464.762130	2559.156873
465.134094	2561.276679
465.505999	2565.312122
465.877845	2571.273287
466.249631	2572.921744
466.621358	2574.718915
466.993026	2572.644481
467.364634	2574.421487
467.736184	2567.752041
468.107674	2568.634243
468.479105	2566.915209
468.850477	2566.738769
469.221790	2563.981258
469.593043	2562.478994
469.964238	2562.791545
470.335373	2561.339693
470.706449	2564.170301
471.077467	2563.794735
471.448425	2568.356979
471.819324	2577.121025
472.190164	2576.092630
472.560945	2568.704819
472.931667	2565.360013
473.302330	2564.213151
473.672934	2563.787173
474.043479	2566.494273
474.413965	2566.229612
474.784393	2561.082594
475.154761	2560.371792
475.525070	2562.854560
475.895321	2563.945970
476.265513	2561.700136
476.635645	2568.457802
477.005719	2566.189283
477.375734	2568.120045
477.745691	2569.803790
478.115588	2572.899059
478.485427	2572.152968
478.855207	2574.378638
479.224928	2578.736715
479.594591	2582.285687
479.964194	2580.198650
480.333739	2582.142014
480.703226	2579.553382
481.072653	2583.228383
481.442022	2584.269381
481.811333	2583.896336
482.180584	2580.365008
482.549777	2580.667477
482.918912	2579.450038
483.287988	2582.671336
483.657005	2580.846438
484.025964	2579.679411
484.394864	2582.036150
484.763706	2581.194278
485.132489	2578.267888
485.501213	2577.922569
485.869879	2578.892991
486.238487	2578.177147
486.607036	2577.426015
486.975527	2577.247054
487.343959	2577.204204
487.712333	2581.302662
488.080648	2575.996848
488.448905	2576.753021
488.817104	2577.078175
489.185244	2578.797209
489.553326	2580.748135
489.921350	2581.587487
490.289315	2583.293918
490.657222	2587.914136
491.025070	2586.515215
491.392861	2585.701069
491.760593	2581.421129
492.128267	2581.809298
492.495883	2582.638568
492.863440	2579.518094
493.230939	2576.422825
493.598380	2577.093299
493.965763	2571.752196
494.333088	2572.868812
494.700354	2573.808987
495.067563	2570.940571
495.434713	2569.965107
495.801805	2574.870150
496.168839	2576.508525
496.535815	2571.026270
496.902733	2572.062227
497.269593	2572.286559
497.636395	2575.467527
498.003139	2575.296128
498.369825	2573.403174
498.736453	2571.817731
499.103023	2574.116497
499.469535	2574.479461
499.835989	2571.301013
500.202385	2574.771848
500.568723	2570.123904
500.935003	2572.972156
501.301226	2571.762279
501.667390	2572.894018
502.033497	2571.989131
502.399546	2573.609862
502.765537	2571.842937
503.131470	2571.401836
503.497345	2572.783112
503.863163	2573.067938
504.228923	2571.676579
504.594625	2574.282856
504.960269	2572.490725
505.325856	2578.794688
505.691385	2571.910993
506.056856	2574.398802
506.422270	2575.810325
506.787625	2573.262022
507.152924	2575.550706
507.518164	2573.032649
507.883347	2574.348391
508.248472	2575.953998
508.613540	2576.574060
508.978550	2572.765468
509.343503	2572.702454
509.708398	2574.257650
510.073236	2575.480130
510.438016	2575.200346
510.802738	2578.260326
511.167403	2577.645305
511.532010	2575.152455
511.896561	2577.657908
512.261053	2577.947774
512.625488	2574.050963
512.989866	2573.904769
513.354186	2574.723957
513.718449	2573.178843
514.082655	2574.907959
514.446803	2577.007599
514.810894	2576.437949
515.174927	2578.472054
515.538904	2576.871488
515.902822	2578.048598
516.266684	2577.083217
516.630488	2579.591191
516.994235	2577.284863
517.357925	2578.948443
517.721558	2577.060531
518.085133	2577.867116
518.448651	2577.231931
518.812112	2577.279822
519.175516	2579.863413
519.538863	2578.114132
519.902152	2576.803432
520.265385	2579.553382
520.628560	2577.867116
520.991678	2579.233269
521.354739	2581.763928
521.717743	2577.703278
522.080690	2578.272929
522.443580	2579.301324
522.806413	2578.981211
523.169189	2581.831983
523.531908	2579.911304
523.894569	2579.697055
524.257174	2580.034812
524.619722	2579.651684
524.982213	2581.032961
525.344647	2578.948443
525.707025	2580.874164
526.069345	2579.838207
526.431608	2581.985739
526.793815	2580.296952
527.155964	2580.102868
527.518057	2579.477765
527.880093	2580.402816
528.242072	2578.593042
528.603995	2581.645461
528.965860	2579.129925
529.327669	2578.083886
529.689421	2580.458269
530.051117	2579.843248
530.412755	2575.457444
530.774337	2579.878536
531.135862	2580.672518
531.497331	2577.345357
531.858743	2573.514080
532.220098	2577.408371
532.581396	2573.269584
532.942638	2578.403999
533.303824	2580.372569
533.664953	2578.255285
534.026025	2575.217990
534.387040	2579.515573
534.747999	2580.775862
535.108902	2579.147569
535.469748	2575.941395
535.830537	2578.328382
536.191270	2576.107753
536.551947	2580.733012
536.912567	2577.695717
537.273131	2578.998855
537.633638	2578.346026
537.994089	2577.307548
538.354483	2578.913155
538.714821	2579.266036
539.075103	2577.181519
539.435328	2579.656726
539.795497	2577.534400
540.155609	2579.994483
540.515665	2578.240161
540.875665	2578.656057
541.235609	2580.793506
541.595496	2581.746284
541.955328	2581.993300
542.315102	2580.198650
542.674821	2578.756880
543.034483	2579.576067
543.394090	2578.731674
543.753640	2576.889132
544.113134	2579.573547
544.472571	2577.741087
544.831953	2578.794688
545.191278	2576.909297
545.550548	2576.521128
545.909761	2579.744946
546.268918	2577.693196
546.628019	2581.148907
546.987064	2577.879719
547.346053	2577.791499
547.704986	2576.480799
548.063863	2578.439287
548.422684	2574.718915
548.781449	2579.172775
549.140158	2581.874833
549.498811	2577.428536
549.857408	2579.150090
550.215949	2576.584142
550.574434	2574.602969
550.932864	2575.270922
551.291237	2576.095150
551.649555	2577.589852
552.007817	2577.020202
552.366022	2577.095819
552.724173	2576.014492
553.082267	2578.507342
553.440305	2579.961715
553.798288	2576.879050
554.156215	2579.490368
554.514086	2576.392578
554.871902	2576.821077
555.229661	2577.221848
555.587365	2578.015830
555.945014	2575.384348
556.302606	2578.930799
556.660143	2580.904411
557.017625	2575.800243
557.375050	2578.633371
557.732421	2577.383165
558.089735	2578.497260
558.446994	2579.031622
558.804197	2576.722774
559.161345	2578.469534
559.518437	2576.863926
559.875474	2576.836200
560.232455	2576.843762
560.589381	2576.848803
560.946251	2577.814184
561.303065	2576.863926
561.659825	2577.594894
562.016528	2577.042887
562.373177	2578.081365
562.729770	2576.737897
563.086307	2577.945254
563.442789	2579.553382
563.799216	2579.956674
564.155587	2577.380645
564.511904	2576.967270
564.868164	2577.050449
565.224370	2580.133115
565.580520	2575.286045
565.936615	2577.390727
566.292654	2577.370562
566.648638	2574.008113
567.004567	2577.988104
567.360441	2580.082703
567.716260	2574.630695
568.072023	2579.399627
568.427732	2571.028791
568.783385	2571.301013
569.138982	2575.273442
569.494525	2575.989286
569.850013	2570.464182
570.205445	2573.698082
570.560823	2576.044739
570.916145	2574.764286
571.271412	2573.776220
571.626625	2576.994996
571.981782	2575.843093
572.336884	2577.052970
572.691931	2576.606828
573.046923	2574.270253
573.401860	2572.205900
573.756743	2574.711354
574.111570	2572.767989
574.466342	2575.044070
574.821059	2575.775037
575.175722	2575.465006
575.530330	2573.188925
575.884882	2573.347722
576.239380	2571.931157
576.593823	2575.306210
576.948211	2574.489543
577.302544	2573.509038
577.656823	2573.745973
578.011047	2574.953329
578.365216	2574.925603
578.719330	2574.023236
579.073389	2572.105077
579.427394	2569.972669
579.781344	2573.740932
580.135239	2571.139696
580.489080	2571.326219
580.842866	2570.116342
581.196597	2571.953842
581.550273	2573.544327
581.903895	2571.411918
582.257463	2571.910993
582.610975	2572.828483
582.964434	2571.926116
583.317837	2570.625498
583.671186	2573.410736
584.024481	2572.445355
584.377721	2570.917885
584.730906	2571.595921
585.084037	2573.075499
585.437113	2570.179356
585.790135	2570.207083
586.143103	2570.161712
586.496016	2570.358317
586.848874	2566.355641
587.201679	2569.917216
587.554428	2566.053172
587.907124	2568.137689
588.259765	2562.814231
588.612352	2569.592062
588.964884	2570.769171
589.317362	2568.165415
589.669786	2568.064592
590.022155	2568.203224
590.374470	2568.185580
590.726731	2572.778071
591.078937	2566.577452
591.431090	2567.875549
591.783188	2568.230950
592.135232	2568.493090
592.487222	2567.409242
592.839157	2571.573235
593.191038	2570.426373
593.542866	2568.314129
593.894639	2567.827658
594.246358	2566.090981
594.598022	2567.313460
594.949633	2565.990158
595.301190	2566.451423
595.652692	2566.257339
596.004141	2568.059551
596.355535	2568.830848
596.706876	2565.357493
597.058162	2564.810528
597.409395	2564.071998
597.760573	2567.162226
598.111698	2564.288768
598.462768	2564.742472
598.813785	2570.280179
599.164748	2566.206927
599.515657	2565.150805
599.866511	2564.646690
600.217312	2567.099211
600.568060	2567.615930
600.918753	2569.997875
601.269392	2568.379664
601.619978	2565.569221
601.970510	2567.202555
602.320988	2564.956721
602.671412	2566.010322
603.021783	2565.077709
603.372100	2567.860426
603.722363	2565.370096
604.072572	2565.412945
604.422728	2566.897565
604.772830	2563.010836
605.122878	2562.413459
605.472872	2559.514795
605.822813	2560.722152
606.172701	2563.925805
606.522534	2565.511248
606.872314	2566.559808
607.222041	2564.747513
607.571714	2567.265569
607.921333	2567.036197
608.270899	2564.833213
608.620411	2563.514951
608.969870	2566.728687
609.319276	2566.733728
609.668627	2570.849830
610.017926	2569.203893
610.367171	2571.974007
610.716362	2574.983576
611.065500	2570.292782
611.414585	2570.902762
611.763616	2568.132648
612.112594	2567.313460
612.461518	2566.315312
612.810389	2570.282700
613.159207	2566.217009
613.507971	2566.441341
613.856682	2565.266752
614.205340	2567.648697
614.553945	2565.987637
614.902496	2564.868501
615.250994	2565.619633
615.599439	2564.830692
615.947830	2563.875393
616.296169	2564.651731
616.644454	2567.610888
616.992686	2564.238357
617.340864	2565.710373
617.688990	2564.566032
618.037063	2566.655590
618.385082	2566.043090
618.733048	2564.278686
619.080961	2564.679457
619.428821	2565.730538
619.776628	2563.759447
620.124382	2568.629202
620.472083	2568.404870
620.819731	2565.717935
621.167326	2564.394632
621.514868	2565.589386
621.862357	2562.816751
622.209793	2564.500497
622.557176	2563.225085
622.904506	2563.308264
623.251783	2560.802810
623.599007	2559.509754
623.946179	2559.358520
624.293297	2559.088818
624.640363	2562.862122
624.987376	2562.322718
625.334336	2563.194838
625.681243	2560.026473
626.028097	2562.620146
626.374899	2563.527554
626.721647	2562.489076
627.068343	2563.366237
627.414987	2560.709549
627.761577	2562.073181
628.108115	2564.387071
628.454600	2562.415979
628.801032	2561.284240
629.147412	2559.129147
629.493739	2561.064950
629.840014	2562.040413
630.186236	2560.709549
630.532405	2559.300546
630.878521	2562.300033
631.224585	2563.099056
631.570597	2557.294167
631.916556	2563.023438
632.262462	2559.454302
632.608316	2559.424055
632.954117	2559.628221
633.299866	2559.572769
633.645562	2559.469425
633.991206	2557.488252
634.336797	2555.610422
634.682336	2561.319528
635.027823	2557.538663
635.373257	2557.762994
635.718639	2557.092521
636.063968	2560.701987
636.409245	2557.773077
636.754470	2556.051523
637.099642	2558.612429
637.444762	2559.529919
637.789829	2557.636966
638.134845	2556.001111
638.479808	2557.122768
638.824719	2557.231153
639.169577	2558.803993
639.514383	2556.275854
639.859137	2556.338868
640.203839	2559.048489
640.548489	2556.759805
640.893086	2550.463404
641.237632	2550.269319
641.582125	2553.059598
641.926566	2551.746377
642.270955	2555.920453
642.615292	2555.597819
642.959576	2555.118909
643.303809	2554.183775
643.647990	2557.889023
643.992118	2554.887016
644.336195	2558.251986
644.680219	2555.146636
645.024192	2556.104455
645.368112	2554.521532
645.711981	2553.409958
646.055797	2555.625545
646.399562	2560.102090
646.743274	2557.624363
647.086935	2558.007490
647.430544	2556.873231
647.774101	2555.146636
648.117606	2553.455328
648.461059	2553.558672
648.804460	2557.294167
649.147810	2555.733930
649.491108	2556.018755
649.834354	2556.147305
650.177548	2553.402396
650.520690	2557.352140
650.863781	2553.578837
651.206820	2558.655279
651.549807	2554.382901
651.892742	2554.065308
652.235626	2553.662016
652.578458	2555.176883
652.921238	2553.314176
653.263967	2554.965154
653.606644	2554.085473
653.949269	2555.849877
654.291843	2555.118909
654.634365	2553.488096
654.976836	2554.340051
655.319255	2551.935421
655.661622	2553.294012
656.003938	2553.926676
656.346203	2553.656975
656.688416	2551.025492
657.030577	2554.009855
657.372687	2555.005483
657.714746	2554.753426
658.056753	2554.067829
658.398708	2550.055070
658.740612	2551.459032
659.082465	2549.039278
659.424266	2551.885009
659.766016	2548.527601
660.107715	2555.701162
660.449362	2555.915412
660.790958	2554.128322
661.132503	2551.945503
661.473996	2553.994732
661.815438	2552.328631
662.156829	2552.242931
662.498168	2554.360216
662.839456	2554.420709
663.180693	2550.922149
663.521879	2551.600184
663.863013	2551.748898
664.204097	2551.937941
664.545129	2553.442726
664.886110	2553.220915
665.227040	2553.326779
665.567918	2554.627397
665.908746	2552.961295
666.249522	2551.562375
666.590248	2553.825853
666.930922	2549.961809
667.271545	2552.878116
667.612118	2554.355174
667.952639	2553.316697
668.293109	2554.065308
668.633528	2551.489278
668.973896	2549.649257
669.314213	2552.558003
669.654480	2551.801830
669.994695	2552.726882
670.334859	2553.651933
670.674973	2550.914587
671.015035	2553.160421
671.355047	2551.428785
671.695008	2550.236552
672.034918	2553.351985
672.374777	2548.323434
672.714585	2553.563713
673.054342	2554.755946
673.394049	2552.303425
673.733705	2552.189999
674.073310	2553.127653
674.412864	2553.989691
674.752368	2552.280740
675.091820	2553.026830
675.431223	2551.864844
675.770574	2550.574309
676.109875	2547.080789
676.449125	2548.588094
676.788324	2549.523228
677.127473	2549.739998
677.466571	2550.901984
677.805619	2549.709751
678.144616	2548.615821
678.483562	2552.033723
678.822458	2548.883002
679.161303	2549.979453
679.500098	2548.903167
679.838842	2549.230842
680.177535	2550.813764
680.516179	2550.448280
680.854771	2554.723179
681.193314	2551.552293
681.531805	2552.023641
681.870247	2553.941800
682.208638	2551.070863
682.546978	2552.280740
682.885268	2554.975236
683.223508	2551.577499
683.561697	2552.505071
683.899836	2551.398538
684.237925	2552.172355
684.575963	2553.321738
684.913951	2551.413661
685.251889	2552.779814
685.589776	2553.798127
685.927614	2552.202602
686.265401	2552.048847
686.603137	2553.059598
686.940824	2551.166645
687.278460	2552.189999
687.616046	2551.683363
687.953582	2549.687066
688.291068	2551.617828
688.628504	2552.555482
688.965889	2554.093034
689.303224	2554.125802
689.640510	2549.550955
689.977745	2551.428785
690.314930	2548.555327
690.652065	2551.496840
690.989150	2551.461552
691.326185	2547.317724
691.663170	2550.506253
692.000105	2551.721172
692.336990	2549.245965
692.673825	2548.477189
693.010610	2549.036757
693.347345	2546.858979
693.684030	2544.839997
694.020665	2545.850748
694.357251	2542.558874
694.693786	2545.873433
695.030272	2544.683721
695.366707	2548.083979
695.703093	2547.726057
696.039429	2547.894936
696.375716	2549.467776
696.711952	2549.349309
697.048139	2546.488454
697.384276	2548.441901
697.720363	2546.957281
698.056400	2548.600697
698.392388	2546.299411
698.728326	2547.186654
699.064214	2548.109185
699.400053	2549.319062
699.735842	2545.628937
700.071581	2548.003321
700.407270	2547.635316
700.742910	2548.799823
701.078501	2542.488298
701.414042	2547.340409
701.749533	2543.272198
702.084974	2547.794113
702.420366	2546.899308
702.755709	2548.399051
703.091002	2546.395193
703.426246	2547.582384
703.761440	2545.215563
704.096584	2548.862837
704.431679	2545.782692
704.766725	2547.892415
705.101721	2543.844369
705.436668	2545.586087
705.771565	2545.424770
706.106413	2545.467620
706.441212	2543.889739
706.775961	2544.683721
707.110661	2545.727240
707.445311	2544.966025
707.779913	2544.199770
708.114465	2545.248330
708.448967	2546.695141
708.783421	2547.468958
709.117825	2546.460728
709.452180	2548.467107
709.786485	2545.926365
710.120742	2547.471479
710.454949	2548.512477
710.789107	2547.685728
711.123216	2545.235727
711.457275	2545.850748
711.791286	2541.986703
712.125247	2547.400903
712.459159	2548.860317
712.793023	2552.240410
713.126837	2546.117929
713.460602	2547.431150
713.794318	2547.272353
714.127985	2548.464586
714.461602	2546.007024
714.795171	2546.475851
715.128691	2547.138763
715.462162	2543.650284
715.795584	2546.579195
716.128957	2548.704041
716.462281	2547.196736
716.795556	2545.533155
717.128782	2545.656663
717.461960	2547.882333
717.795088	2546.443083
718.128167	2546.392672
718.461198	2548.673794
718.794180	2545.873433
719.127113	2543.163813
719.459997	2545.482744
719.792833	2543.413350
720.125619	2545.071890
720.458357	2543.158772
720.791046	2542.337064
721.123686	2545.835624
721.456278	2543.516694
721.788821	2545.013916
722.121315	2542.546272
722.453761	2544.587939
722.786158	2543.037784
723.118506	2543.234389
723.450805	2542.332023
723.783056	2543.491488
724.115259	2546.985008
724.447412	2543.017619
724.779518	2544.038453
725.111574	2544.076262
725.443582	2544.461910
725.775542	2545.011396
726.107453	2541.825387
726.439315	2540.723894
726.771129	2548.686397
727.102895	2545.288659
727.434612	2546.067518
727.766281	2543.317568
728.097901	2544.096426
728.429473	2543.189019
728.760996	2541.018802
729.092471	2538.004192
729.423897	2544.358566
729.755276	2545.281098
730.086606	2543.856972
730.417887	2542.291693
730.749120	2545.099616
731.080305	2545.686910
731.411442	2545.152548
731.742530	2545.026519
732.073570	2546.818649
732.404562	2544.109029
732.735506	2546.415357
733.066401	2544.184647
733.397249	2547.020296
733.728048	2544.726571
734.058798	2543.494008
734.389501	2543.151210
734.720156	2543.529297
735.050762	2542.047197
735.381320	2545.412167
735.711831	2543.141128
736.042293	2544.093906
736.372707	2543.637681
736.703073	2542.732794
737.033391	2540.139121
737.363661	2545.394523
737.693883	2542.279090
738.024056	2546.357384
738.354182	2543.438556
738.684260	2545.225645
739.014290	2543.919986
739.344272	2540.371014
739.674207	2543.060469
740.004093	2543.189019
740.333931	2544.605583
740.663722	2543.083154
740.993464	2541.648946
741.323159	2544.996272
741.652806	2540.779347
741.982405	2546.294369
742.311956	2543.957795
742.641460	2542.775644
742.970915	2545.056766
743.300323	2542.747918
743.629683	2541.976621
743.958996	2543.680531
744.288260	2541.717002
744.617477	2542.972249
744.946647	2536.844727
745.275768	2540.441590
745.604842	2540.212217
745.933869	2539.483771
746.262847	2535.642411
746.591778	2543.849410
746.920662	2540.189532
747.249498	2541.386806
747.578286	2541.023843
747.907027	2541.686755
748.235720	2540.698689
748.564365	2543.078113
748.892963	2539.728267
749.221514	2542.316899
749.550017	2541.064172
749.878473	2540.368493
750.206881	2542.513504
750.535242	2541.986703
750.863555	2540.547454
751.191821	2541.573329
751.520039	2541.641384
751.848210	2543.158772
752.176334	2541.159954
752.504411	2542.243802
752.832440	2537.452186
753.160421	2538.949408
753.488356	2540.862526
753.816243	2541.953936
754.144082	2539.017464
754.471875	2542.120294
754.799620	2539.640046
755.127318	2539.173740
755.454969	2540.310520
755.782572	2541.570808
756.110129	2541.812784
756.437638	2541.714481
756.765100	2538.218441
757.092515	2539.677855
757.419882	2541.774975
757.747203	2541.774975
758.074477	2538.596527
758.401703	2540.340767
758.728882	2542.221117
759.056014	2541.285983
759.383099	2542.763041
759.710138	2543.340253
760.037129	2543.327650
760.364073	2541.928730
760.690970	2541.502753
761.017820	2542.238761
761.344623	2541.616179
761.671379	2539.534182
761.998088	2538.074768
762.324751	2539.481250
762.651366	2541.724563
762.977935	2549.397200
763.304456	2548.976263
763.630931	2553.518343
763.957359	2550.314690
764.283740	2546.707744
764.610074	2549.054401
764.936362	2544.272867
765.262602	2541.333874
765.588796	2546.218752
765.914943	2542.387475
766.241044	2542.619368
766.567097	2540.975952
766.893104	2540.660880
767.219064	2541.396888
767.544978	2539.816487
767.870845	2540.980993
768.196665	2540.842362
768.522438	2539.813966
768.848165	2539.398071
769.173846	2537.424459
769.499479	2539.166178
769.825066	2538.863709
770.150607	2537.656352
770.476101	2539.140972
770.801548	2540.970911
771.126949	2543.478885
771.452303	2540.539892
771.777611	2540.870088
772.102872	2537.411856
772.428087	2537.585776
772.753256	2537.346321
773.078378	2538.256250
773.403453	2539.955118
773.728482	2537.051414
774.053465	2536.489325
774.378401	2538.475540
774.703291	2539.592155
775.028135	2535.879346
775.352932	2537.666435
775.677683	2537.850437
776.002388	2537.207690
776.327046	2537.545447
776.651658	2539.740869
776.976224	2535.135775
777.300743	2536.970755
777.625216	2538.669624
777.949643	2537.283307
778.274024	2538.276414
778.598359	2533.696526
778.922647	2534.369520
779.246889	2536.711136
779.571086	2534.092257
779.895236	2537.716846
780.219339	2536.569984
780.543397	2536.834644
780.867409	2538.036959
781.191374	2536.922864
781.515294	2535.339942
781.839167	2536.990920
782.162995	2535.342463
782.486776	2540.088709
782.810511	2536.373379
783.134201	2538.813297
783.457844	2536.975797
783.781441	2538.508307
784.104993	2533.804911
784.428498	2537.590817
784.751958	2536.242309
785.075372	2537.802546
785.398739	2538.256250
785.722061	2537.719367
786.045337	2539.662732
786.368568	2536.126362
786.691752	2537.300951
787.014891	2538.392361
787.337983	2539.178781
787.661030	2537.898328
787.984031	2539.105684
788.306987	2539.067875
788.629897	2538.238606
788.952760	2539.685417
789.275579	2538.934285
789.598351	2540.020653
789.921078	2537.553009
790.243759	2537.598379
790.566395	2537.794984
790.888984	2539.574511
791.211529	2535.723070
791.534027	2538.488143
791.856480	2538.299099
792.178888	2533.487318
792.501249	2534.097298
792.823566	2538.099974
793.145836	2538.674665
793.468062	2535.712987
793.790241	2536.053265
794.112375	2536.985879
794.434464	2537.497556
794.756507	2535.768440
795.078505	2537.583256
795.400457	2536.698533
795.722364	2534.498069
796.044226	2534.843388
796.366042	2536.242309
796.687812	2532.058151
797.009538	2536.683410
797.331218	2536.920344
797.652852	2539.635005
797.974442	2536.174253
798.295986	2536.365817
798.617484	2536.398584
798.938938	2537.893287
799.260346	2538.798174
799.581709	2536.900179
799.903026	2536.872453
800.224299	2536.259953
800.545526	2532.673172
800.866708	2536.632998
801.187845	2535.181146
801.508936	2537.137113
801.829983	2537.053934
802.150984	2535.213913
802.471940	2535.435724
802.792851	2534.339273
803.113717	2536.141486
803.434538	2535.208872
803.755314	2536.789274
804.076045	2533.855322
804.396731	2536.998482
804.717372	2537.066537
805.037967	2539.082999
805.358518	2533.366330
805.679024	2536.295241
805.999485	2535.105528
806.319901	2535.586959
806.640272	2536.791794
806.960598	2535.188708
807.280879	2537.482432
807.601115	2537.895807
807.921306	2536.685930
808.241453	2539.647608
808.561554	2534.760209
808.881611	2536.867412
809.201623	2534.109901
809.521590	2538.561239
809.841513	2534.119983
810.161390	2540.272711
810.481223	2537.061496
810.801011	2535.781043
811.120755	2533.252904
811.440453	2536.441434
811.760107	2533.401618
812.079716	2534.697195
812.399281	2532.078316
812.718801	2532.574869
813.038276	2530.724766
813.357707	2535.385313
813.677093	2535.995292
813.996434	2535.728111
814.315731	2533.880528
814.634983	2538.271373
814.954191	2533.522606
815.273354	2535.511341
815.592473	2534.661907
815.911547	2537.469830
816.230577	2536.625436
816.549562	2535.745755
816.868502	2536.522093
817.187399	2535.728111
817.506250	2535.854140
817.825058	2537.996630
818.143821	2537.487474
818.462539	2538.931764
818.781213	2537.575694
819.099843	2540.713812
819.418429	2537.013605
819.736970	2539.708102
820.055466	2540.877650
820.373919	2540.519728
820.692327	2546.112888
821.010691	2547.161448
821.329011	2553.432643
821.647286	2570.955694
821.965517	2584.934814
822.283704	2596.574838
822.601847	2603.176229
822.919945	2590.749785
823.237999	2581.277457
823.556010	2576.211097
823.873976	2564.555949
824.191897	2561.037224
824.509775	2554.874413
824.827609	2552.026161
825.145398	2549.659340
825.463144	2546.773279
825.780845	2547.655481
826.098502	2551.635472
826.416116	2553.639331
826.733685	2559.338355
827.051210	2562.990671
827.368692	2557.062274
827.686129	2553.714948
828.003522	2550.423074
828.320872	2541.323792
828.638177	2544.754297
828.955439	2541.054090
829.272656	2536.164171
829.589830	2533.162164
829.906960	2540.250026
830.224046	2535.712987
830.541088	2536.925385
830.858086	2539.748431
831.175041	2538.956970
831.491952	2537.426980
831.808819	2538.440252
832.125642	2537.328677
832.442421	2538.846065
832.759157	2540.625592
833.075849	2543.791437
833.392497	2545.122301
833.709101	2547.504246
834.025662	2547.322765
834.342179	2549.699669
834.658653	2540.814635
834.975083	2545.283618
835.291469	2541.724563
835.607811	2537.618544
835.924110	2534.664427
836.240366	2537.043852
836.556578	2538.727598
836.872746	2537.089222
837.188871	2535.849099
837.504952	2536.302803
837.820990	2535.763399
838.136984	2536.101156
838.452935	2533.590662
838.768842	2533.746938
839.084706	2535.377751
839.400526	2536.091074
839.716303	2537.351362
840.032037	2537.409336
840.347727	2540.106353
840.663373	2540.920499
840.978977	2537.154758
841.294537	2535.997813
841.610054	2535.760878
841.925527	2538.460416
842.240957	2534.147709
842.556344	2536.063348
842.871687	2532.113604
843.186987	2534.976979
843.502244	2532.116124
843.817458	2532.957997
844.132629	2533.567977
844.447756	2533.799870
844.762840	2529.802235
845.077881	2529.277955
845.392879	2531.198634
845.707833	2535.039993
846.022745	2527.586648
846.337613	2531.148223
846.652438	2531.460774
846.967221	2533.225178
847.281960	2532.829447
847.596656	2533.104190
847.911309	2531.589324
848.225919	2533.850281
848.540485	2535.274407
848.855009	2530.744930
849.169490	2533.467153
849.483928	2530.356762
849.798323	2531.455733
850.112675	2533.943543
850.426984	2531.354910
850.741251	2533.736855
851.055474	2534.553522
851.369654	2531.990095
851.683792	2532.322812
851.997887	2533.517565
852.311938	2531.571680
852.625947	2532.438758
852.939914	2532.905065
853.253837	2532.080836
853.567718	2533.643594
853.881555	2531.422966
854.195350	2534.064530
854.509103	2533.084026
854.822812	2530.812986
855.136479	2534.921526
855.450103	2534.916485
855.763685	2533.504962
856.077224	2533.431865
856.390720	2535.481094
856.704173	2532.675692
857.017584	2532.360620
857.330953	2530.618902
857.644278	2533.772143
857.957561	2534.828265
858.270802	2533.134437
858.584000	2533.434386
858.897155	2534.346835
859.210268	2533.290713
859.523339	2531.415404
859.836367	2528.594878
860.149352	2532.045548
860.462295	2534.399767
860.775195	2528.299971
861.088054	2529.976154
861.400869	2532.040507
861.713642	2530.639066
862.026373	2529.943387
862.339062	2532.834489
862.651708	2530.044210
862.964312	2534.382123
863.276873	2530.225692
863.589392	2529.739220
863.901869	2531.725435
864.214303	2534.845909
864.526696	2532.779036
864.839045	2532.345497
865.151353	2533.371372
865.463619	2535.523944
865.775842	2533.434386
866.088023	2533.290713
866.400162	2533.847761
866.712258	2532.060672
867.024313	2534.717360
867.336325	2532.524458
867.648296	2534.951773
867.960224	2535.017308
868.272110	2533.986392
868.583954	2533.315919
868.895755	2534.855991
869.207515	2532.219468
869.519233	2533.003367
869.830909	2532.244674
870.142542	2535.712987
870.454134	2534.261135
870.765684	2534.072092
871.077191	2531.866587
871.388657	2536.466640
871.700081	2531.516227
872.011463	2534.145189
872.322803	2533.772143
872.634101	2533.593182
872.945357	2534.228368
873.256571	2535.410518
873.567744	2533.847761
873.878874	2536.053265
874.189963	2534.916485
874.501010	2535.723070
874.812015	2533.787267
875.122979	2534.566125
875.433900	2534.190559
875.744780	2533.850281
876.055618	2532.164015
876.366415	2532.569828
876.677169	2535.201310
876.987882	2531.889272
877.298554	2530.873480
877.609183	2531.841381
877.919771	2530.250897
878.230317	2531.453212
878.540822	2536.764068
878.851285	2534.702236
879.161707	2535.919675
879.472087	2538.382278
879.782425	2538.001671
880.092722	2544.330840
880.402977	2545.150028
880.713191	2551.413661
881.023363	2562.100907
881.333494	2570.882597
881.643583	2570.824624
881.953631	2567.855384
882.263637	2568.861095
882.573602	2564.629046
882.883526	2560.591082
883.193408	2556.840463
883.503248	2550.435677
883.813048	2551.537169
884.122806	2544.892929
884.432522	2544.550130
884.742197	2544.270346
885.051831	2540.136600
885.361424	2539.700540
885.670975	2539.350180
885.980485	2539.516538
886.289954	2537.303472
886.599382	2536.872453
886.908768	2538.435211
887.218113	2533.837678
887.527417	2538.173071
887.836680	2536.416228
888.145901	2534.069571
888.455082	2535.239119
888.764221	2535.904551
889.073319	2533.240302
889.382376	2533.623429
889.691392	2533.381454
890.000366	2534.679551
890.309300	2533.933460
890.618193	2534.314067
890.927044	2536.885056
891.235855	2532.421114
891.544625	2533.217616
891.853353	2534.896321
892.162041	2536.451517
892.470687	2535.523944
892.779293	2533.562935
893.087858	2533.983872
893.396381	2534.059489
893.704864	2536.912782
894.013306	2536.433873
894.321707	2542.450490
894.630068	2546.475851
894.938387	2545.707075
895.246665	2543.161292
895.554903	2544.373690
895.863100	2539.992927
896.171256	2540.456713
896.479371	2542.760521
896.787446	2538.097453
897.095480	2535.743234
897.403473	2537.414377
897.711425	2534.840868
898.019336	2536.380940
898.327207	2536.610313
898.635038	2535.304654
898.942827	2535.657535
899.250576	2531.690147
899.558284	2533.777184
899.865952	2533.615867
900.173579	2535.556712
900.481165	2532.239633
900.788711	2535.120652
901.096216	2533.852802
901.403681	2533.331042
901.711105	2534.306506
902.018489	2535.367668
902.325832	2536.315405
902.633135	2534.195600
902.940397	2533.983872
903.247619	2536.723739
903.554800	2535.801208
903.861941	2541.628782
904.169041	2546.112888
904.476101	2550.914587
904.783121	2552.046326
905.090100	2548.598177
905.397039	2546.175902
905.703938	2541.555685
906.010796	2539.637526
906.317614	2535.392874
906.624391	2535.861702
906.931129	2535.871784
907.237826	2535.039993
907.544483	2534.089736
907.851099	2533.830117
908.157675	2531.407842
908.464211	2532.380785
908.770707	2530.132430
909.077163	2529.555218
909.383578	2531.944725
909.689954	2530.923891
909.996289	2527.937008
910.302584	2532.970600
910.608839	2530.676875
910.915054	2532.461443
911.221229	2534.450178
911.527363	2531.906916
911.833458	2529.343490
912.139513	2534.430014
912.445527	2529.398942
912.751502	2531.443130
913.057436	2532.947915
913.363331	2534.729962
913.669186	2533.401618
913.975000	2532.494211
914.280775	2536.811959
914.586510	2536.340611
914.892205	2537.124511
915.197859	2537.898328
915.503475	2543.310006
915.809050	2547.690769
916.114585	2548.295708
916.420081	2547.622713
916.725536	2549.059442
917.030952	2547.408464
917.336328	2545.011396
917.641665	2545.064328
917.946961	2539.009902
918.252218	2540.630633
918.557435	2537.305992
918.862612	2537.106867
919.167750	2535.874304
919.472848	2533.711649
919.777906	2535.851619
920.082925	2533.187369
920.387904	2536.146527
920.692843	2532.781557
920.997743	2534.858512
921.302603	2532.484128
921.607423	2532.945394
921.912204	2533.202493
922.216946	2530.702081
922.521647	2533.925898
922.826310	2529.048582
923.130932	2534.230888
923.435516	2533.515044
923.740059	2533.628470
924.044564	2532.635363
924.349028	2529.991278
924.653454	2526.691843
924.957840	2527.700073
925.262186	2526.575896
925.566493	2530.954138
925.870761	2525.494569
926.174989	2530.210568
926.479178	2527.684950
926.783328	2528.587317
927.087438	2529.262831
927.391509	2533.522606
927.695541	2530.187883
927.999533	2531.690147
928.303486	2528.151257
928.607400	2531.801052
928.911275	2529.431710
929.215110	2533.177287
929.518906	2527.982378
929.822663	2531.642256
930.126381	2530.939015
930.430060	2528.801566
930.733699	2533.696526
931.037299	2531.123017
931.340861	2531.238963
931.644383	2532.539581
931.947866	2528.877183
932.251309	2528.897348
932.554714	2530.389529
932.858080	2533.003367
933.161407	2528.857018
933.464694	2529.225022
933.767943	2527.468180
934.071153	2527.800897
934.374323	2527.889117
934.677455	2530.031607
934.980548	2526.971627
935.283602	2531.385157
935.586617	2528.093283
935.889593	2528.310053
936.192530	2530.031607
936.495428	2528.720907
936.798287	2529.409025
937.101108	2527.783253
937.403890	2532.285003
937.706632	2531.675023
938.009336	2530.918850
938.312002	2529.310722
938.614628	2532.174097
938.917216	2529.285516
939.219765	2531.649818
939.522275	2531.851464
939.824747	2532.242153
940.127179	2526.545649
940.429573	2524.655217
940.731929	2529.194776
941.034246	2526.192768
941.336524	2529.955990
941.638763	2530.772657
941.940964	2530.495393
942.243126	2528.161339
942.545250	2532.587472
942.847335	2530.596216
943.149381	2529.124199
943.451389	2529.530012
943.753359	2529.187214
944.055290	2526.878365
944.357182	2531.982534
944.659036	2528.163860
944.960851	2531.007070
945.262628	2529.847605
945.564367	2532.221988
945.866067	2529.953469
946.167729	2528.814168
946.469352	2529.023376
946.770937	2530.913809
947.072484	2529.537574
947.373992	2531.639735
947.675462	2532.695857
947.976893	2528.070598
948.278286	2530.109745
948.579641	2529.300640
948.880958	2529.046062
949.182236	2530.205527
949.483476	2531.274252
949.784678	2528.436082
950.085841	2529.663603
950.386967	2529.915661
950.688054	2528.161339
950.989103	2529.310722
951.290114	2527.382481
951.591087	2532.181659
951.892021	2529.078829
952.192917	2528.244518
952.493776	2529.459436
952.794596	2531.370033
953.095378	2528.544467
953.396122	2531.201155
953.696828	2532.375744
953.997496	2530.482790
954.298126	2530.818027
954.598718	2532.000178
954.899272	2529.472039
955.199788	2530.061854
955.500266	2527.884076
955.800706	2525.693694
956.101108	2527.485824
956.401472	2527.039682
956.701798	2524.975330
957.002087	2527.284178
957.302337	2527.521112
957.602550	2531.672503
957.902724	2529.466998
958.202861	2528.922553
958.502960	2526.762419
958.803022	2527.992460
959.103045	2527.508510
959.403031	2527.979857
959.702979	2527.994981
960.002889	2530.253418
960.302762	2526.628828
960.602596	2526.880886
960.902393	2527.886596
961.202153	2529.078829
961.501875	2526.603623
961.801559	2533.583100
962.101205	2525.348375
962.400814	2528.952800
962.700385	2529.197296
962.999918	2532.002698
963.299414	2527.536236
963.598873	2527.301822
963.898293	2530.782739
964.197677	2529.043541
964.497022	2528.839374
964.796331	2526.893489
965.095601	2526.873324
965.394835	2529.053623
965.694030	2528.443644
965.993189	2529.754344
966.292309	2529.971113
966.591393	2529.482121
966.890439	2527.110258
967.189447	2530.321473
967.488419	2526.417100
967.787353	2527.533715
968.086249	2523.848632
968.385108	2526.641431
968.683930	2526.485155
968.982714	2528.093283
969.281462	2527.417769
969.580172	2526.843077
969.878844	2526.333921
970.177480	2529.111597
970.476078	2525.436595
970.774639	2528.274765
971.073162	2526.293592
971.371649	2525.429034
971.670098	2524.914836
971.968510	2523.301667
972.266885	2522.762263
972.565223	2525.368540
972.863524	2530.044210
973.161788	2528.673016
973.460014	2528.267203
973.758204	2527.264014
974.056356	2528.829292
974.354471	2528.219312
974.652550	2529.192255
974.950591	2529.698891
975.248595	2529.257790
975.546563	2529.247708
975.844493	2526.762419
976.142386	2528.748633
976.440243	2524.609846
976.738062	2529.711494
977.035845	2527.211082
977.333590	2527.321987
977.631299	2528.158818
977.928971	2527.697553
978.226606	2527.440454
978.524204	2526.709487
978.821765	2528.637728
979.119290	2529.267872
979.416777	2527.853829
979.714228	2526.296112
980.011642	2527.190917
980.309020	2529.537574
980.606360	2530.266021
980.903664	2527.556401
981.200931	2526.190248
981.498162	2527.037162
981.795356	2527.972296
982.092513	2528.920033
982.389633	2528.368026
982.686717	2528.713345
982.983764	2529.393901
983.280775	2529.756864
983.577749	2531.077647
983.874686	2531.485980
984.171587	2527.659744
984.468451	2531.201155
984.765279	2526.911133
985.062070	2528.287368
985.358824	2529.628315
985.655543	2527.763088
985.952224	2527.942049
986.248869	2527.143026
986.545478	2523.405010
986.842050	2525.350896
987.138586	2521.597757
987.435086	2524.995494
987.731549	2521.872500
988.027975	2526.815351
988.324366	2526.447347
988.620719	2528.453726
988.917037	2526.505320
989.213318	2525.290402
989.509563	2529.852646
989.805772	2527.430372
990.101944	2528.189065
990.398080	2525.018180
990.694180	2528.118489
990.990244	2527.253931
991.286271	2526.023890
991.582262	2526.381812
991.878217	2528.239477
992.174136	2527.246370
992.470019	2530.954138
992.765865	2528.673016
993.061676	2526.941380
993.357450	2526.883407
993.653188	2527.049765
993.948890	2528.756195
994.244556	2527.337110
994.540186	2525.865093
994.835780	2527.332069
995.131337	2528.181504
995.426859	2526.840557
995.722345	2526.578417
996.017795	2527.894158
996.313208	2526.422141
996.608586	2530.815507
996.903928	2527.705115
997.199234	2529.961031
997.494504	2527.173273
997.789738	2527.097656
998.084936	2526.664116
998.380099	2529.663603
998.675225	2525.928108
998.970316	2527.962213
999.265371	2526.777542
999.560390	2525.550021
999.855373	2528.247039
1000.150320	2526.374250
1000.445232	2529.172090
1000.740108	2524.549352
1001.034948	2524.574558
1001.329752	2529.058664
1001.624521	2527.430372
1001.919254	2522.197654
1002.213951	2524.133457
1002.508613	2521.781759
1002.803239	2523.531039
1003.097829	2521.839732
1003.392384	2526.805269
1003.686903	2525.058509
1003.981386	2525.948273
1004.275834	2524.380474
1004.570246	2530.321473
1004.864623	2525.371060
1005.158964	2524.781245
1005.453270	2524.561955
1005.747540	2527.077491
1006.041775	2528.249559
1006.335974	2528.549508
1006.630138	2525.698735
1006.924266	2525.066071
1007.218359	2528.645290
1007.512416	2528.637728
1007.806438	2526.210412
1008.100425	2526.044054
1008.394376	2527.107738
1008.688292	2527.523633
1008.982172	2525.565145
1009.276017	2528.040351
1009.569827	2527.745444
1009.863602	2529.925743
1010.157341	2526.464991
1010.451045	2526.696884
1010.744714	2525.219826
1011.038347	2528.315094
1011.331945	2525.802079
1011.625508	2529.235105
1011.919036	2524.400638
1012.212528	2526.704446
1012.505986	2525.068591
1012.799408	2526.646472
1013.092795	2526.109589
1013.386147	2525.706297
1013.679464	2527.241328
1013.972745	2526.318797
1014.265992	2524.151101
1014.559204	2525.623118
1014.852380	2527.354754
1015.145521	2530.112266
1015.438628	2524.448529
1015.731699	2525.003056
1016.024736	2529.041020
1016.317737	2526.510361
1016.610703	2528.781401
1016.903635	2523.611698
1017.196531	2522.444671
1017.489393	2523.238652
1017.782219	2521.905267
1018.075011	2523.110103
1018.367768	2526.603623
1018.660490	2526.056657
1018.953177	2526.056657
1019.245829	2526.056657
