Dividing Wavelength (nm)	Counts (n)	Blue Motor Position (mm): 0.000000	Red Motor Position (mm): 23.700000	
326.493990	2124.957252
326.888308	2124.957252
327.282561	2124.957252
327.676750	2093.581110
328.070874	2093.082036
328.464933	2096.013467
328.858929	2103.507142
329.252859	2114.307814
329.646726	2124.604371
330.040528	2136.705661
330.434265	2153.868269
330.827938	2170.244457
331.221547	2190.908147
331.615091	2206.790302
332.008571	2228.782336
332.401986	2248.843607
332.795338	2264.672830
333.188625	2287.486572
333.581847	2305.375107
333.975006	2323.384629
334.368100	2339.299551
334.761129	2358.811337
335.154095	2375.137114
335.546996	2394.336348
335.939833	2407.892011
336.332606	2426.433375
336.725315	2438.128852
337.117960	2445.612445
337.510540	2452.622169
337.903056	2464.980558
338.295508	2473.459779
338.687896	2480.562764
339.080220	2488.684063
339.472480	2495.424086
339.864676	2501.823831
340.256807	2505.645025
340.648875	2507.066631
341.040879	2512.508556
341.432818	2509.309944
341.824694	2514.315810
342.216506	2514.053670
342.608253	2513.128618
342.999937	2511.089472
343.391557	2512.415295
343.783113	2511.139883
344.174605	2513.728516
344.566033	2511.018895
344.957397	2509.680469
345.348697	2507.953874
345.739934	2506.892711
346.131106	2502.615292
346.522215	2502.179232
346.913260	2499.903151
347.304241	2498.872235
347.695159	2498.572287
348.086012	2493.586585
348.476802	2495.212357
348.867528	2494.103304
349.258191	2489.919146
349.648789	2489.606594
350.039324	2491.272696
350.429796	2484.966212
350.820203	2486.022334
351.210548	2486.012252
351.600828	2485.061994
351.991045	2483.806747
352.381198	2484.757004
352.771288	2480.850110
353.161314	2484.255410
353.551276	2483.345481
353.941175	2482.740543
354.331010	2481.858341
354.720782	2481.878506
355.110490	2482.246510
355.500135	2481.802888
355.889717	2482.211222
356.279235	2483.511839
356.668689	2485.283805
357.058080	2482.959833
357.447408	2483.955461
357.836672	2480.618217
358.225873	2485.520739
358.615010	2480.950933
359.004084	2487.121306
359.393095	2485.586274
359.782043	2485.321614
360.170927	2488.736995
360.559748	2489.536018
360.948505	2490.385453
361.337199	2489.157932
361.725830	2489.473004
362.114398	2491.706235
362.502903	2490.960144
362.891344	2490.019969
363.279722	2494.181442
363.668037	2493.314363
364.056289	2493.324445
364.444478	2492.341420
364.832603	2494.433499
365.220665	2495.272851
365.608665	2494.824189
365.996601	2497.337204
366.384474	2498.746206
366.772284	2498.542040
367.160031	2501.435662
367.547715	2502.746362
367.935336	2505.115704
368.322893	2509.355315
368.710388	2512.972342
369.097820	2518.956192
369.485189	2521.265041
369.872495	2526.356606
370.259738	2534.603934
370.646918	2541.946374
371.034035	2547.050542
371.421090	2558.856925
371.808081	2571.860581
372.195010	2577.446180
372.581875	2590.979157
372.968678	2604.537340
373.355418	2614.307097
373.742096	2630.164046
374.128710	2646.820018
374.515262	2662.238387
374.901751	2679.917714
375.288177	2692.003880
375.674540	2714.847869
376.060841	2732.111300
376.447079	2750.261975
376.833254	2771.182763
377.219367	2782.154834
377.605417	2818.738488
377.991404	2832.062257
378.377329	2853.081348
378.763191	2868.754296
379.148991	2906.459606
379.534727	2933.311312
379.920402	2962.882720
380.306013	2974.018629
380.691563	3021.695342
381.077049	3046.021430
381.462474	3063.176476
381.847835	3101.398505
382.233134	3125.066722
382.618371	3119.947430
383.003545	3190.692463
383.388657	3199.214533
383.773706	3231.233422
384.158693	3252.083634
384.543618	3276.999537
384.928480	3308.950370
385.313280	3355.442412
385.698017	3353.698172
386.082692	3406.804208
386.467305	3412.823345
386.851856	3443.529013
387.236344	3463.996098
387.620770	3500.617560
388.005133	3526.508926
388.389435	3553.479099
388.773674	3564.304977
389.157851	3603.373919
389.541965	3620.828915
389.926018	3584.643512
390.310008	3656.235459
390.693936	3676.321936
391.077802	3716.245354
391.461606	3703.040052
391.845348	3769.167387
392.229027	3769.540433
392.612645	3776.766927
392.996200	3857.732898
393.379694	3899.682860
393.763125	3963.143425
394.146494	3929.949948
394.529801	3991.046212
394.913047	4041.455230
395.296230	4005.889889
395.679351	4062.307963
396.062410	4081.567691
396.445408	4066.716452
396.828343	4099.383129
397.211217	4120.278711
397.594028	4046.980334
397.976778	4108.968883
398.359466	4133.909991
398.742092	4163.761184
399.124656	4086.863423
399.507158	4162.735309
399.889598	4192.407541
400.271977	4253.859206
400.654294	4222.470462
401.036549	4232.346082
401.418742	4203.876166
401.800874	4302.826454
402.182944	4326.535000
402.564952	4390.217376
402.946898	4375.608113
403.328783	4373.742886
403.710606	4287.839103
404.092367	4478.248525
404.474067	4446.111170
404.855705	4448.102425
405.237282	4381.470974
405.618797	4490.362418
406.000250	4521.809136
406.381642	4598.870734
406.762972	4561.467893
407.144240	4575.000871
407.525447	4574.363165
407.906593	4637.554028
408.287677	4678.243701
408.668700	4604.456333
409.049661	4657.973222
409.430560	4700.092062
409.811399	4625.253613
410.192176	4786.081544
410.572891	4729.141711
410.953545	4827.998738
411.334138	4705.173545
411.714669	4778.784474
412.095139	4671.917053
412.475547	4813.039114
412.855894	4794.023882
413.236180	4800.736178
413.616405	4756.104322
413.996568	4843.041541
414.376670	4778.413949
414.756711	4740.685953
415.136691	4770.786683
415.516609	4846.073795
415.896466	4885.475454
416.276262	4918.547943
416.655997	4899.734357
417.035670	5081.616668
417.415283	5172.100338
417.794834	5115.536071
418.174324	5067.990429
418.553753	4976.639680
418.933121	5161.982742
419.312428	5225.125715
419.691674	5170.340975
420.070859	5292.427639
420.449983	5206.481007
420.829045	5319.864119
421.208047	5227.711827
421.586988	5296.415192
421.965867	5306.535308
422.344686	5435.772849
422.723444	5296.382424
423.102141	5111.601451
423.480777	5409.274023
423.859352	5180.579559
424.237866	5433.655564
424.616319	5425.209111
424.994712	5536.495102
425.373044	5412.626391
425.751314	5551.749634
426.129524	5355.535323
426.507673	5545.980033
426.885762	5622.338391
427.263789	5549.052617
427.641756	5430.918218
428.019662	5552.291558
428.397508	5550.441455
428.775292	5495.414740
429.153016	5585.903451
429.530679	5506.787583
429.908282	5584.444037
430.285824	5449.320950
430.663305	5708.887441
431.040726	5441.076142
431.418086	5431.311427
431.795385	5520.539851
432.172624	5522.394995
432.549802	5502.227859
432.926920	5504.975288
433.303977	5497.806767
433.680974	5520.050859
434.057910	5521.190159
434.434786	5516.043141
434.811601	5468.805009
435.188355	5671.280433
435.565050	5534.256830
435.941683	5495.006406
436.318257	5665.868754
436.694770	5629.363239
437.071222	5632.738291
437.447614	5554.915479
437.823946	5452.801866
438.200218	5568.284619
438.576429	5418.900107
438.952580	5473.967151
439.328670	5482.862267
439.704700	5371.210791
440.080670	5334.952292
440.456580	5519.277042
440.832429	5387.221496
441.208218	5231.636365
441.583947	5319.569211
441.959616	5285.485970
442.335224	5187.254046
442.710773	5258.379686
443.086261	5232.523608
443.461689	5042.288106
443.837057	5109.748827
444.212365	5174.192417
444.587612	5056.733532
444.962800	5116.927430
445.337927	5052.846803
445.712995	4746.082509
446.088002	5074.748095
446.462949	4917.012912
446.837837	4825.029498
447.212664	4885.450248
447.587431	4903.071601
447.962139	5158.804295
448.336786	5622.257732
448.711374	5426.492084
449.085901	4857.958315
449.460369	4746.657200
449.834776	4651.777644
450.209124	4791.470537
450.583412	4793.597904
450.957640	4816.232685
451.331808	4640.165346
451.705917	4378.274883
452.079965	4286.772899
452.453954	4315.691478
452.827883	4212.456209
453.201752	4197.451215
453.575562	4065.892223
453.949311	4078.641301
454.323001	3997.241790
454.696632	3969.550732
455.070202	3961.870534
455.443713	3962.520843
455.817164	3937.289868
456.190556	3903.451123
456.563888	3874.058675
456.937160	3835.655165
457.310373	3693.476983
457.683526	3645.517966
458.056619	3570.780339
458.429653	3519.400899
458.802628	3470.363075
459.175542	3447.042698
459.548398	3475.744507
459.921194	3469.380050
460.293930	3437.187242
460.666607	3488.856548
461.039224	3508.154085
461.411782	3484.599294
461.784280	3434.633897
462.156719	3364.745861
462.529099	3295.417393
462.901419	3198.602033
463.273680	3146.378200
463.645882	3115.365021
464.018024	3062.478276
464.390106	3049.467058
464.762130	3061.472566
465.134094	3080.956626
465.505999	3165.058195
465.877845	3246.639188
466.249631	3255.942637
466.621358	3160.722803
466.993026	3068.883062
467.364634	3013.659742
467.736184	2954.952985
468.107674	2909.270049
468.479105	2886.327758
468.850477	2855.309538
469.221790	2821.047336
469.593043	2787.788324
469.964238	2766.282762
470.335373	2748.676532
470.706449	2737.722104
471.077467	2725.116699
471.448425	2753.029568
471.819324	2772.304420
472.190164	2757.785897
472.560945	2714.197560
472.931667	2684.724454
473.302330	2673.124759
473.672934	2658.354178
474.043479	2657.469456
474.413965	2649.799340
474.784393	2640.148051
475.154761	2637.259470
475.525070	2634.204531
475.895321	2628.326545
476.265513	2622.781276
476.635645	2626.312604
477.005719	2621.425206
477.375734	2619.759104
477.745691	2619.474279
478.115588	2620.936214
478.485427	2620.522839
478.855207	2625.178345
479.224928	2631.699077
479.594591	2636.359624
479.964194	2629.460805
480.333739	2627.789662
480.703226	2625.669857
481.072653	2625.241359
481.442022	2623.471914
481.811333	2623.499641
482.180584	2620.747171
482.549777	2617.362036
482.918912	2612.348608
483.287988	2615.612755
483.657005	2611.657970
484.025964	2607.753597
484.394864	2608.172012
484.763706	2605.487598
485.132489	2606.609255
485.501213	2603.219079
485.869879	2601.116917
486.238487	2600.549788
486.607036	2601.868049
486.975527	2600.542226
487.343959	2601.341249
487.712333	2601.384099
488.080648	2598.908892
488.448905	2598.717328
488.817104	2600.703543
489.185244	2598.019128
489.553326	2598.082143
489.921350	2602.548605
490.289315	2613.301386
490.657222	2611.973042
491.025070	2611.962960
491.392861	2608.845006
491.760593	2605.754779
492.128267	2603.017432
492.495883	2600.872422
492.863440	2600.494335
493.230939	2597.414190
493.598380	2599.357555
493.965763	2590.462439
494.333088	2590.049064
494.700354	2588.324990
495.067563	2591.642069
495.434713	2587.972109
495.801805	2593.063674
496.168839	2592.065526
496.535815	2588.826584
496.902733	2590.613673
497.269593	2590.389342
497.636395	2587.473035
498.003139	2590.079311
498.369825	2589.149218
498.736453	2591.931935
499.103023	2588.766091
499.469535	2591.823550
499.835989	2586.815164
500.202385	2589.013107
500.568723	2584.370204
500.935003	2588.382963
501.301226	2586.084197
501.667390	2586.487489
502.033497	2590.341451
502.399546	2587.094948
502.765537	2586.351378
503.131470	2586.772314
503.497345	2585.683425
503.863163	2585.023034
504.228923	2588.178796
504.594625	2587.803230
504.960269	2586.132088
505.325856	2585.479258
505.691385	2584.193764
506.056856	2589.297932
506.422270	2585.265009
506.787625	2584.597056
507.152924	2584.218970
507.518164	2584.082859
507.883347	2584.433219
508.248472	2583.929103
508.613540	2586.578230
508.978550	2584.357602
509.343503	2587.110072
509.708398	2587.331882
510.073236	2586.719382
510.438016	2587.883889
510.802738	2587.155442
511.167403	2586.167376
511.532010	2586.681573
511.896561	2587.238621
512.261053	2588.803899
512.625488	2585.217118
512.989866	2583.490523
513.354186	2586.542942
513.718449	2582.910790
514.082655	2586.011100
514.446803	2583.961871
514.810894	2588.763570
515.174927	2587.228539
515.538904	2588.317428
515.902822	2589.376070
516.266684	2586.794999
516.630488	2591.480752
516.994235	2586.530339
517.357925	2587.881368
517.721558	2588.796337
518.085133	2587.868765
518.448651	2588.982860
518.812112	2589.701225
519.175516	2587.944382
519.538863	2589.733992
519.902152	2589.386152
520.265385	2589.313056
520.628560	2591.543766
520.991678	2590.404466
521.354739	2588.534197
521.717743	2587.929259
522.080690	2588.753488
522.443580	2591.485793
522.806413	2590.734661
523.169189	2589.733992
523.531908	2589.686101
523.894569	2589.849939
524.257174	2588.743405
524.619722	2590.374219
524.982213	2589.386152
525.344647	2588.871955
525.707025	2589.466811
526.069345	2591.750454
526.431608	2589.940679
526.793815	2590.026379
527.155964	2589.066039
527.518057	2588.879517
527.880093	2588.831626
528.242072	2589.784404
528.603995	2589.544949
528.965860	2588.072932
529.327669	2590.888416
529.689421	2588.234249
530.051117	2590.903540
530.412755	2591.362285
530.774337	2589.456729
531.135862	2588.564444
531.497331	2588.929928
531.858743	2582.888105
532.220098	2587.687284
532.581396	2585.988415
532.942638	2586.631162
533.303824	2588.937490
533.664953	2590.734661
534.026025	2590.623756
534.387040	2589.146698
534.747999	2587.467993
535.108902	2588.957654
535.469748	2587.415061
535.830537	2587.503282
536.191270	2587.233580
536.551947	2590.921184
536.912567	2588.050247
537.273131	2591.178283
537.633638	2588.894640
537.994089	2587.420102
538.354483	2588.183837
538.714821	2586.744588
539.075103	2589.802048
539.435328	2589.532346
539.795497	2585.839701
540.155609	2589.136615
540.515665	2587.909094
540.875665	2587.868765
541.235609	2590.396904
541.595496	2592.743561
541.955328	2589.333220
542.315102	2591.200968
542.674821	2589.897830
543.034483	2590.041502
543.394090	2590.228025
543.753640	2587.019331
544.113134	2587.725092
544.472571	2590.288519
544.831953	2587.173086
545.191278	2588.508992
545.550548	2589.166862
545.909761	2589.741554
546.268918	2590.543097
546.628019	2594.099631
546.987064	2589.537387
547.346053	2592.511668
547.704986	2589.038313
548.063863	2589.176945
548.422684	2591.309353
548.781449	2587.435226
549.140158	2585.980853
549.498811	2592.499065
549.857408	2587.964547
550.215949	2587.505802
550.574434	2585.953127
550.932864	2586.255596
551.291237	2584.700400
551.649555	2590.699373
552.007817	2587.853642
552.366022	2590.926225
552.724173	2589.154259
553.082267	2590.228025
553.440305	2592.551997
553.798288	2590.737182
554.156215	2590.545618
554.514086	2591.291709
554.871902	2589.003025
555.229661	2588.997984
555.587365	2591.203488
555.945014	2589.547469
556.302606	2586.991604
556.660143	2590.543097
557.017625	2588.733323
557.375050	2588.778693
557.732421	2590.628797
558.089735	2590.056626
558.446994	2591.422779
558.804197	2591.263982
559.161345	2589.043354
559.518437	2590.091914
559.875474	2589.060998
560.232455	2590.442274
560.589381	2588.236769
560.946251	2593.905547
561.303065	2590.822881
561.659825	2589.852459
562.016528	2589.701225
562.373177	2591.415217
562.729770	2588.047726
563.086307	2588.093097
563.442789	2590.918663
563.799216	2592.065526
564.155587	2588.703076
564.511904	2589.686101
564.868164	2589.396235
565.224370	2593.328335
565.580520	2588.556883
565.936615	2587.702407
566.292654	2588.403127
566.648638	2588.466142
567.004567	2589.711307
567.360441	2587.679722
567.716260	2588.819023
568.072023	2592.728437
568.427732	2584.166038
568.783385	2588.380442
569.138982	2586.094279
569.494525	2586.532859
569.850013	2582.129412
570.205445	2590.157449
570.560823	2589.176945
570.916145	2584.730647
571.271412	2586.351378
571.626625	2590.578385
571.981782	2587.493199
572.336884	2585.963209
572.691931	2588.468662
573.046923	2587.672160
573.401860	2586.091758
573.756743	2586.979002
574.111570	2586.701738
574.466342	2587.568817
574.821059	2586.573189
575.175722	2586.860534
575.530330	2586.575709
575.884882	2588.372881
576.239380	2585.456573
576.593823	2588.919846
576.948211	2587.659557
577.302544	2587.072263
577.656823	2585.113775
578.011047	2587.523446
578.365216	2587.016810
578.719330	2586.132088
579.073389	2586.182499
579.427394	2583.510688
579.781344	2584.902046
580.135239	2584.186202
580.489080	2585.237283
580.842866	2582.353743
581.196597	2591.004363
581.550273	2584.748291
581.903895	2582.605801
582.257463	2586.490010
582.610975	2584.002200
582.964434	2583.160328
583.317837	2584.408013
583.671186	2584.095462
584.024481	2583.533373
584.377721	2582.971284
584.730906	2585.882551
585.084037	2582.943558
585.437113	2581.216963
585.790135	2585.159145
586.143103	2583.077148
586.496016	2583.107395
586.848874	2576.810994
587.201679	2579.485326
587.554428	2580.259143
587.907124	2580.778382
588.259765	2578.386355
588.612352	2581.985739
588.964884	2580.140676
589.317362	2580.491037
589.669786	2579.155131
590.022155	2578.698906
590.374470	2580.778382
590.726731	2584.226532
591.078937	2578.464493
591.431090	2578.961046
591.783188	2580.047415
592.135232	2580.339802
592.487222	2581.637899
592.839157	2580.929617
593.191038	2583.092272
593.542866	2581.668146
593.894639	2577.549523
594.246358	2579.326530
594.598022	2577.773855
594.949633	2580.054977
595.301190	2576.795871
595.652692	2579.175295
596.004141	2576.130438
596.355535	2578.542631
596.706876	2578.371231
597.058162	2577.766293
597.409395	2576.329564
597.760573	2579.518094
598.111698	2576.140521
598.462768	2579.689493
598.813785	2581.340471
599.164748	2580.181006
599.515657	2578.494740
599.866511	2575.827969
600.217312	2576.720253
600.568060	2575.132290
600.918753	2579.165213
601.269392	2577.531879
601.619978	2576.400140
601.970510	2578.751838
602.320988	2576.697568
602.671412	2575.792681
603.021783	2575.863257
603.372100	2579.145048
603.722363	2576.379976
604.072572	2576.364852
604.422728	2577.095819
604.772830	2570.451579
605.122878	2573.357804
605.472872	2572.442834
605.822813	2569.771023
606.172701	2574.988617
606.522534	2575.769996
606.872314	2576.243864
607.222041	2578.827456
607.571714	2578.154462
607.921333	2576.440469
608.270899	2575.656570
608.620411	2575.959039
608.969870	2578.832497
609.319276	2577.972980
609.668627	2581.332909
610.017926	2579.581108
610.367171	2583.402303
610.716362	2583.616552
611.065500	2583.064546
611.414585	2581.002714
611.763616	2581.622776
612.112594	2577.221848
612.461518	2577.899883
612.810389	2578.109091
613.159207	2578.610686
613.507971	2574.950808
613.856682	2578.638412
614.205340	2579.397106
614.553945	2576.125397
614.902496	2578.119174
615.250994	2577.889801
615.599439	2577.103381
615.947830	2576.543813
616.296169	2578.754359
616.644454	2575.144893
616.992686	2577.978021
617.340864	2574.844944
617.688990	2574.625654
618.037063	2576.206056
618.385082	2576.211097
618.733048	2576.558937
619.080961	2576.004410
619.428821	2578.522466
619.776628	2575.545665
620.124382	2579.157651
620.472083	2577.894842
620.819731	2579.944071
621.167326	2575.308730
621.514868	2575.822928
621.862357	2576.221179
622.209793	2576.327043
622.557176	2575.273442
622.904506	2573.060376
623.251783	2569.914696
623.599007	2571.595921
623.946179	2570.688513
624.293297	2570.023081
624.640363	2570.880077
624.987376	2572.498287
625.334336	2572.520972
625.681243	2571.666497
626.028097	2570.751527
626.374899	2570.260015
626.721647	2571.674058
627.068343	2573.824111
627.414987	2571.124573
627.761577	2568.682134
628.108115	2570.764130
628.454600	2568.793039
628.801032	2570.260015
629.147412	2570.383523
629.493739	2569.589541
629.840014	2570.731363
630.186236	2572.939388
630.532405	2569.138358
630.878521	2570.590210
631.224585	2573.793864
631.570597	2566.897565
631.916556	2566.469067
632.262462	2565.937225
632.608316	2567.757082
632.954117	2567.936043
633.299866	2567.031156
633.645562	2569.332442
633.991206	2568.157854
634.336797	2567.976372
634.682336	2566.837071
635.027823	2567.487380
635.373257	2568.132648
635.718639	2564.349262
636.063968	2567.028635
636.409245	2563.729200
636.754470	2563.988819
637.099642	2564.429920
637.444762	2564.467729
637.789829	2563.416648
638.134845	2565.627194
638.479808	2564.888665
638.824719	2565.632236
639.169577	2563.051165
639.514383	2562.516803
639.859137	2564.659293
640.203839	2563.610733
640.548489	2561.954714
640.893086	2562.196689
641.237632	2560.868345
641.582125	2562.226936
641.926566	2555.933056
642.270955	2564.908830
642.615292	2563.693912
642.959576	2563.683830
643.303809	2565.168449
643.647990	2563.830023
643.992118	2564.946639
644.336195	2562.501679
644.680219	2563.000753
645.024192	2557.818447
645.368112	2564.366906
645.711981	2562.451268
646.055797	2562.935218
646.399562	2565.833882
646.743274	2562.690722
647.086935	2565.223902
647.430544	2563.451937
647.774101	2563.431772
648.117606	2564.573593
648.461059	2564.790363
648.804460	2567.222720
649.147810	2564.737431
649.491108	2564.165260
649.834354	2563.237688
650.177548	2562.937739
650.520690	2565.279355
650.863781	2559.850032
651.206820	2561.904302
651.549807	2561.427913
651.892742	2559.761812
652.235626	2559.507234
652.578458	2562.685681
652.921238	2560.699467
653.263967	2558.708211
653.606644	2560.114693
653.949269	2562.141237
654.291843	2561.811041
654.634365	2561.253993
654.976836	2558.579661
655.319255	2560.936401
655.661622	2560.008828
656.003938	2559.305587
656.346203	2558.975392
656.688416	2561.730383
657.030577	2559.872717
657.372687	2559.033365
657.714746	2557.538663
658.056753	2557.664692
658.398708	2554.801317
658.740612	2558.083108
659.082465	2555.713765
659.424266	2557.193344
659.766016	2555.257541
660.107715	2560.545711
660.449362	2560.220557
660.790958	2556.991698
661.132503	2561.485887
661.473996	2559.842470
661.815438	2557.611760
662.156829	2559.590413
662.498168	2560.006308
662.839456	2558.524209
663.180693	2556.379198
663.521879	2563.043603
663.863013	2557.987326
664.204097	2559.265258
664.545129	2560.268448
664.886110	2561.100238
665.227040	2557.762994
665.567918	2558.556976
665.908746	2560.984292
666.249522	2560.311298
666.590248	2558.521688
666.930922	2557.853735
667.271545	2559.441699
667.612118	2559.597974
667.952639	2562.189127
668.293109	2556.333827
668.633528	2558.675443
668.973896	2557.946997
669.314213	2557.906667
669.654480	2558.733417
669.994695	2559.250135
670.334859	2558.909857
670.674973	2558.430947
671.015035	2556.114537
671.355047	2556.885834
671.695008	2559.164435
672.034918	2556.482541
672.374777	2557.077397
672.714585	2558.415824
673.054342	2558.292316
673.394049	2559.948335
673.733705	2555.786862
674.073310	2559.338355
674.412864	2559.666030
674.752368	2558.514126
675.091820	2559.134188
675.431223	2557.352140
675.770574	2560.349106
676.109875	2551.857283
676.449125	2554.289639
676.788324	2553.909032
677.127473	2555.060936
677.466571	2553.397355
677.805619	2558.708211
678.144616	2554.887016
678.483562	2557.291647
678.822458	2553.825853
679.161303	2557.531101
679.500098	2557.276523
679.838842	2556.076728
680.177535	2555.958261
680.516179	2556.439692
680.854771	2556.220401
681.193314	2556.976574
681.531805	2560.092008
681.870247	2558.592264
682.208638	2557.452963
682.546978	2559.885320
682.885268	2561.561504
683.223508	2559.101421
683.561697	2558.468756
683.899836	2558.090669
684.237925	2557.500854
684.575963	2555.943138
684.913951	2557.054712
685.251889	2556.469938
685.589776	2557.626883
685.927614	2558.705690
686.265401	2557.621842
686.603137	2558.246945
686.940824	2556.999260
687.278460	2561.911864
687.616046	2558.451112
687.953582	2558.602347
688.291068	2558.478838
688.628504	2557.417675
688.965889	2560.656617
689.303224	2561.518654
689.640510	2556.714434
689.977745	2558.728375
690.314930	2556.434650
690.652065	2555.421378
690.989150	2557.614280
691.326185	2556.734599
691.663170	2553.926676
692.000105	2555.345761
692.336990	2551.985832
692.673825	2554.970195
693.010610	2553.480534
693.347345	2550.765873
693.684030	2550.206305
694.020665	2549.573640
694.357251	2548.386448
694.693786	2550.208825
695.030272	2552.459701
695.366707	2551.569937
695.703093	2552.200081
696.039429	2552.648744
696.375716	2552.232849
696.711952	2549.568599
697.048139	2552.822664
697.384276	2550.377704
697.720363	2553.215874
698.056400	2550.443239
698.392388	2551.418702
698.728326	2550.060111
699.064214	2549.525749
699.400053	2551.953065
699.735842	2551.151521
700.071581	2549.871068
700.407270	2550.551624
700.742910	2551.816953
701.078501	2550.541542
701.414042	2551.272509
701.749533	2548.928372
702.084974	2551.582540
702.420366	2549.863506
702.755709	2548.063814
703.091002	2550.355019
703.426246	2549.989535
703.761440	2550.907025
704.096584	2547.814277
704.431679	2545.966694
704.766725	2548.026006
705.101721	2546.964843
705.436668	2548.091541
705.771565	2546.990049
706.106413	2549.422405
706.441212	2548.424257
706.775961	2547.204298
707.110661	2549.621531
707.445311	2548.199926
707.779913	2549.815615
708.114465	2550.864175
708.448967	2547.557178
708.783421	2550.909546
709.117825	2551.816953
709.452180	2550.276881
709.786485	2549.298897
710.120742	2550.382745
710.454949	2553.024310
710.789107	2552.305945
711.123216	2547.451314
711.457275	2547.496685
711.791286	2549.034237
712.125247	2548.865358
712.459159	2550.453321
712.793023	2554.682849
713.126837	2549.092210
713.460602	2552.308466
713.794318	2550.556665
714.127985	2552.792417
714.461602	2550.276881
714.795171	2549.112374
715.128691	2551.680842
715.462162	2548.562889
715.795584	2546.254040
716.128957	2549.790410
716.462281	2548.146993
716.795556	2550.443239
717.128782	2549.067004
717.461960	2547.821839
717.795088	2548.333516
718.128167	2550.821326
718.461198	2546.803526
718.794180	2545.875954
719.127113	2546.947199
719.459997	2546.632127
719.792833	2545.976777
720.125619	2547.650440
720.458357	2545.641540
720.791046	2547.244627
721.123686	2547.141283
721.456278	2547.486602
721.788821	2547.713454
722.121315	2547.600028
722.453761	2545.926365
722.786158	2544.955943
723.118506	2545.081972
723.450805	2546.236396
723.783056	2542.861344
724.115259	2545.802857
724.447412	2545.139945
724.779518	2546.682538
725.111574	2544.600542
725.443582	2544.492157
725.775542	2547.335368
726.107453	2548.572971
726.439315	2545.613814
726.771129	2551.821995
727.102895	2547.748742
727.434612	2549.707231
727.766281	2545.754966
728.097901	2544.852599
728.429473	2542.798329
728.760996	2546.594318
729.092471	2538.588966
729.423897	2548.877961
729.755276	2547.574822
730.086606	2549.256047
730.417887	2548.794782
730.749120	2547.806716
731.080305	2549.520708
731.411442	2546.070038
731.742530	2549.389638
732.073570	2549.003990
732.404562	2548.013403
732.735506	2546.858979
733.066401	2549.243444
733.397249	2547.552137
733.728048	2548.215049
734.058798	2546.387631
734.389501	2546.032229
734.720156	2543.211704
735.050762	2545.785213
735.381320	2544.897970
735.711831	2546.420398
736.042293	2545.971736
736.372707	2544.051056
736.703073	2546.120450
737.033391	2544.494678
737.363661	2547.027857
737.693883	2547.973074
738.024056	2547.456355
738.354182	2543.375541
738.684260	2547.463917
739.014290	2546.725388
739.344272	2544.550130
739.674207	2546.430481
740.004093	2546.680018
740.333931	2543.062990
740.663722	2546.884184
740.993464	2546.765717
741.323159	2548.426778
741.652806	2546.485933
741.982405	2546.924514
742.311956	2543.027702
742.641460	2544.502239
742.970915	2546.062476
743.300323	2541.664070
743.629683	2544.658515
743.958996	2545.326468
744.288260	2542.884029
744.617477	2543.632640
744.946647	2540.078627
745.275768	2540.799512
745.604842	2537.290869
745.933869	2541.134748
746.262847	2539.244316
746.591778	2542.526107
746.920662	2541.265818
747.249498	2543.277239
747.578286	2539.758513
747.907027	2542.566436
748.235720	2542.077444
748.564365	2542.969728
748.892963	2545.041643
749.221514	2542.130376
749.550017	2543.766231
749.878473	2546.254040
750.206881	2545.238248
750.535242	2541.943854
750.863555	2543.362938
751.191821	2542.334543
751.520039	2544.466951
751.848210	2542.720191
752.176334	2545.949050
752.504411	2544.303114
752.832440	2543.846889
753.160421	2543.864533
753.488356	2541.585932
753.816243	2544.222455
754.144082	2542.924358
754.471875	2544.285470
754.799620	2540.272711
755.127318	2541.860675
755.454969	2544.562733
755.782572	2540.761703
756.110129	2542.430325
756.437638	2542.205994
756.765100	2541.603576
757.092515	2541.621220
757.419882	2540.194573
757.747203	2543.098278
758.074477	2542.987373
758.401703	2543.569626
758.728882	2542.906714
759.056014	2542.382434
759.383099	2545.177754
759.710138	2545.533155
760.037129	2543.824204
760.364073	2543.073072
760.690970	2540.010571
761.017820	2547.438711
761.344623	2543.461241
761.671379	2543.955274
761.998088	2539.140972
762.324751	2540.902855
762.651366	2545.959133
762.977935	2551.161603
763.304456	2551.025492
763.630931	2555.978426
763.957359	2556.646379
764.283740	2552.137067
764.610074	2547.330327
764.936362	2549.646737
765.262602	2544.870243
765.588796	2543.128525
765.914943	2542.329502
766.241044	2542.586601
766.567097	2541.845551
766.893104	2541.568288
767.219064	2541.648946
767.544978	2544.721529
767.870845	2541.480067
768.196665	2540.711292
768.522438	2541.623740
768.848165	2538.636857
769.173846	2542.833617
769.499479	2540.930582
769.825066	2539.070396
770.150607	2538.294058
770.476101	2538.987217
770.801548	2538.823379
771.126949	2539.753472
771.452303	2538.520910
771.777611	2539.952598
772.102872	2540.794471
772.428087	2538.233564
772.753256	2538.208359
773.078378	2540.239944
773.403453	2539.753472
773.728482	2539.261960
774.053465	2539.587114
774.378401	2538.155427
774.703291	2539.589635
775.028135	2538.258770
775.352932	2538.412525
775.677683	2536.433872
776.002388	2540.091230
776.327046	2536.562422
776.651658	2539.519059
776.976224	2537.459747
777.300743	2536.746424
777.625216	2538.853626
777.949643	2537.868081
778.274024	2541.147351
778.598359	2536.075951
778.922647	2533.492359
779.246889	2536.045704
779.571086	2535.105528
779.895236	2536.068389
780.219339	2538.190715
780.543397	2538.410005
780.867409	2538.110056
781.191374	2541.333874
781.515294	2537.454706
781.839167	2534.424973
782.162995	2539.640046
782.486776	2537.792463
782.810511	2538.684748
783.134201	2538.047042
783.457844	2536.834644
783.781441	2539.072917
784.104993	2538.649460
784.428498	2537.618544
784.751958	2535.423121
785.075372	2535.891948
785.398739	2537.076620
785.722061	2535.166022
786.045337	2536.396064
786.368568	2539.027546
786.691752	2535.299613
787.014891	2536.834644
787.337983	2540.597866
787.661030	2537.280786
787.984031	2538.352032
788.306987	2539.599717
788.629897	2539.816487
788.952760	2542.047197
789.275579	2538.210879
789.598351	2538.881353
789.921078	2538.291538
790.243759	2538.543595
790.566395	2535.957483
790.888984	2539.511497
791.211529	2537.573173
791.534027	2536.045704
791.856480	2537.600900
792.178888	2538.180632
792.501249	2540.365973
792.823566	2538.291538
793.145836	2536.965714
793.468062	2539.148534
793.790241	2533.449509
794.112375	2538.034439
794.434464	2537.966383
794.756507	2533.477236
795.078505	2537.353883
795.400457	2538.427649
795.722364	2531.153264
796.044226	2535.826413
796.366042	2534.639222
796.687812	2535.017308
797.009538	2538.241126
797.331218	2538.669624
797.652852	2537.489994
797.974442	2537.953780
798.295986	2534.795498
798.617484	2538.465457
798.938938	2537.338760
799.260346	2537.774819
799.581709	2537.414377
799.903026	2538.442772
800.224299	2536.905220
800.545526	2536.055786
800.866708	2538.283976
801.187845	2535.977648
801.508936	2537.074099
801.829983	2534.366999
802.150984	2534.666948
802.471940	2536.479243
802.792851	2537.868081
803.113717	2537.121990
803.434538	2532.239633
803.755314	2536.635519
804.076045	2533.835158
804.396731	2534.997144
804.717372	2534.664427
805.037967	2536.345652
805.358518	2536.685930
805.679024	2537.210210
805.999485	2534.949253
806.319901	2536.859850
806.640272	2535.501259
806.960598	2535.907072
807.280879	2537.099305
807.601115	2537.048893
807.921306	2538.354552
808.241453	2537.454706
808.561554	2536.950591
808.881611	2533.794828
809.201623	2538.538554
809.521590	2537.061496
809.841513	2536.091074
810.161390	2535.287010
810.481223	2535.806249
810.801011	2537.265663
811.120755	2538.306661
811.440453	2536.310364
811.760107	2533.699047
812.079716	2531.400280
812.399281	2530.059333
812.718801	2534.606454
813.038276	2532.040507
813.357707	2532.461443
813.677093	2535.589479
813.996434	2533.814993
814.315731	2537.855478
814.634983	2535.594520
814.954191	2536.065868
815.273354	2534.044366
815.592473	2534.513193
815.911547	2537.502597
816.230577	2536.426311
816.549562	2539.844213
816.868502	2534.921526
817.187399	2538.014274
817.506250	2535.246681
817.825058	2537.353883
818.143821	2536.748945
818.462539	2541.038967
818.781213	2536.822041
819.099843	2540.822197
819.418429	2540.696168
819.736970	2539.461085
820.055466	2543.584749
820.373919	2544.247661
820.692327	2545.908721
821.010691	2551.413661
821.329011	2560.301215
821.647286	2582.709144
821.965517	2601.484922
822.283704	2613.404730
822.601847	2619.688528
822.919945	2608.691251
823.237999	2594.760022
823.556010	2584.511357
823.873976	2574.436611
824.191897	2565.906978
824.509775	2559.126627
824.827609	2556.094373
825.145398	2548.187323
825.463144	2554.695452
825.780845	2552.641182
826.098502	2555.985988
826.416116	2559.156873
826.733685	2567.386557
827.051210	2567.056362
827.368692	2566.655590
827.686129	2560.195351
828.003522	2556.091852
828.320872	2546.546427
828.638177	2541.790098
828.955439	2540.754141
829.272656	2542.485778
829.589830	2537.689120
829.906960	2540.078627
830.224046	2537.210210
830.541088	2541.185160
830.858086	2538.538554
831.175041	2540.774306
831.491952	2537.951260
831.808819	2536.121321
832.125642	2539.355221
832.442421	2539.269522
832.759157	2541.780016
833.075849	2545.253371
833.392497	2550.218908
833.709101	2554.569423
834.025662	2552.200081
834.342179	2550.443239
834.658653	2547.574823
834.975083	2545.596170
835.291469	2547.143804
835.607811	2539.758513
835.924110	2537.800025
836.240366	2539.100643
836.556578	2538.404964
836.872746	2539.168698
837.188871	2533.147040
837.504952	2536.645601
837.820990	2535.521424
838.136984	2534.500590
838.452935	2536.630477
838.768842	2536.005374
839.084706	2532.073274
839.400526	2536.287679
839.716303	2540.688606
840.032037	2540.731456
840.347727	2541.951415
840.663373	2540.428987
840.978977	2536.280117
841.294537	2536.333049
841.610054	2535.193749
841.925527	2535.297092
842.240957	2533.510003
842.556344	2534.961856
842.871687	2532.950435
843.186987	2533.822555
843.502244	2532.955476
843.817458	2533.283151
844.132629	2532.363141
844.447756	2535.362627
844.762840	2528.635207
845.077881	2529.199817
845.392879	2525.638242
845.707833	2530.094622
846.022745	2529.023376
846.337613	2530.674354
846.652438	2533.094108
846.967221	2530.616381
847.281960	2532.799201
847.596656	2531.135620
847.911309	2535.418080
848.225919	2530.661751
848.540485	2531.175949
848.855009	2534.465302
849.169490	2531.717873
849.483928	2532.529499
849.798323	2534.729962
850.112675	2532.176618
850.426984	2533.320960
850.741251	2533.875487
851.055474	2531.599406
851.369654	2535.067720
851.683792	2532.685775
851.997887	2534.402288
852.311938	2531.163346
852.625947	2534.487987
852.939914	2532.257277
853.253837	2534.989582
853.567718	2531.314581
853.881555	2534.929088
854.195350	2529.517409
854.509103	2529.885414
854.822812	2529.492204
855.136479	2534.762730
855.450103	2531.521268
855.763685	2531.143182
856.077224	2534.795498
856.390720	2533.772143
856.704173	2528.524302
857.017584	2531.717873
857.330953	2531.395239
857.644278	2529.774508
857.957561	2535.833975
858.270802	2533.857843
858.584000	2534.868594
858.897155	2530.981865
859.210268	2532.002698
859.523339	2534.200641
859.836367	2532.552184
860.149352	2533.820034
860.462295	2531.125538
860.775195	2527.120341
861.088054	2530.928932
861.400869	2528.373067
861.713642	2527.163191
862.026373	2530.122348
862.339062	2530.243336
862.651708	2530.404653
862.964312	2532.839530
863.276873	2531.443130
863.589392	2531.054961
863.901869	2533.091588
864.214303	2534.104859
864.526696	2530.886083
864.839045	2532.713501
865.151353	2533.358769
865.463619	2534.251053
865.775842	2533.585621
866.088023	2533.063861
866.400162	2533.404139
866.712258	2532.647966
867.024313	2533.005888
867.336325	2530.684437
867.648296	2532.874818
867.960224	2532.058151
868.272110	2534.314067
868.583954	2531.841381
868.895755	2533.053779
869.207515	2529.217461
869.519233	2529.751823
869.830909	2531.506145
870.142542	2532.947915
870.454134	2534.046886
870.765684	2534.152750
871.077191	2532.786598
871.388657	2534.518234
871.700081	2534.142668
872.011463	2531.420445
872.322803	2535.975128
872.634101	2536.038142
872.945357	2532.738707
873.256571	2533.794828
873.567744	2534.868594
873.878874	2534.709798
874.189963	2531.362472
874.501010	2536.703574
874.812015	2534.056968
875.122979	2533.628470
875.433900	2532.887421
875.744780	2534.729963
876.055618	2534.712318
876.366415	2535.405477
876.677169	2532.206865
876.987882	2534.742565
877.298554	2527.972296
877.609183	2530.790301
877.919771	2530.029087
878.230317	2530.162677
878.540822	2533.875487
878.851285	2534.455220
879.161707	2536.995961
879.472087	2538.190715
879.782425	2542.110212
880.092722	2545.069369
880.402977	2551.821995
880.713191	2558.168807
881.023363	2572.997361
881.333494	2580.869123
881.643583	2583.316603
881.953631	2580.659915
882.263637	2578.782085
882.573602	2574.610531
882.883526	2566.259859
883.193408	2562.042934
883.503248	2559.552604
883.813048	2554.050185
884.122806	2552.444577
884.432522	2546.690100
884.742197	2544.708927
885.051831	2543.027702
885.361424	2542.112732
885.670975	2540.484440
885.980485	2539.841692
886.289954	2538.704912
886.599382	2539.609799
886.908768	2540.164326
887.218113	2536.874973
887.527417	2537.437062
887.836680	2535.831455
888.145901	2535.549150
888.455082	2536.237267
888.764221	2537.520241
889.073319	2535.055117
889.382376	2534.309026
889.691392	2533.444468
890.000366	2535.506300
890.309300	2532.791639
890.618193	2534.268697
890.927044	2532.781557
891.235855	2533.867925
891.544625	2536.874973
891.853353	2532.080836
892.162041	2534.510672
892.470687	2535.513862
892.779293	2535.362627
893.087858	2535.876825
893.396381	2533.535209
893.704864	2538.946888
894.013306	2538.619213
894.321707	2543.367980
894.630068	2549.515667
894.938387	2549.452652
895.246665	2549.876109
895.554903	2549.311500
895.863100	2542.521066
896.171256	2545.674307
896.479371	2542.992414
896.787446	2539.554347
897.095480	2538.397402
897.403473	2538.445293
897.711425	2535.158461
898.019336	2535.597041
898.327207	2535.281969
898.635038	2534.545960
898.942827	2537.326157
899.250576	2534.082174
899.558284	2535.594520
899.865952	2534.399767
900.173579	2533.908254
900.481165	2535.559232
900.788711	2533.930940
901.096216	2532.854653
901.403681	2533.681402
901.711105	2534.520755
902.018489	2534.097298
902.325832	2535.768440
902.633135	2532.821886
902.940397	2536.640560
903.247619	2535.637370
903.554800	2539.362783
903.861941	2546.173382
904.169041	2552.437015
904.476101	2555.980947
904.783121	2557.899106
905.090100	2551.204453
905.397039	2549.435008
905.703938	2543.766231
906.010796	2544.164482
906.317614	2539.229192
906.624391	2537.805066
906.931129	2537.119469
907.237826	2537.248019
907.544483	2534.641742
907.851099	2532.731145
908.157675	2534.190559
908.464211	2533.769623
908.770707	2529.598068
909.077163	2531.914478
909.383578	2528.869621
909.689954	2530.712163
909.996289	2528.834333
910.302584	2532.330373
910.608839	2530.104704
910.915054	2533.010929
911.221229	2531.221319
911.527363	2530.024045
911.833458	2532.738707
912.139513	2534.765251
912.445527	2530.626463
912.751502	2533.429345
913.057436	2533.298275
913.363331	2536.328008
913.669186	2533.671320
913.975000	2534.475384
914.280775	2534.568646
914.586510	2539.332536
914.892205	2537.840354
915.197859	2539.526620
915.503475	2542.614327
915.809050	2548.477189
916.114585	2552.784855
916.420081	2554.952551
916.725536	2554.342572
917.030952	2551.471634
917.336328	2545.462579
917.641665	2547.741181
917.946961	2542.763041
918.252218	2539.017464
918.557435	2539.103163
918.862612	2539.405633
919.167750	2536.015457
919.472848	2535.776002
919.777906	2532.897503
920.082925	2533.628470
920.387904	2532.877338
920.692843	2536.161650
920.997743	2534.364479
921.302603	2531.496062
921.607423	2533.923378
921.912204	2532.385826
922.216946	2533.129396
922.521647	2532.337935
922.826310	2532.423635
923.130932	2529.961031
923.435516	2530.616381
923.740059	2531.911958
924.044564	2529.522451
924.349028	2532.118645
924.653454	2528.131092
924.957840	2526.593540
925.262186	2526.306194
925.566493	2528.673016
925.870761	2523.372243
926.174989	2531.420445
926.479178	2531.017153
926.783328	2530.878521
927.087438	2531.768285
927.391509	2531.604447
927.695541	2528.103366
927.999533	2532.146371
928.303486	2530.654190
928.607400	2529.361134
928.911275	2531.087729
929.215110	2528.307532
929.518906	2527.672347
929.822663	2528.635207
930.126381	2525.000536
930.430060	2527.490866
930.733699	2530.361803
931.037299	2527.523633
931.340861	2529.076308
931.644383	2531.909437
931.947866	2526.081863
932.251309	2532.668131
932.554714	2527.740403
932.858080	2531.100332
933.161407	2528.012625
933.464694	2528.148736
933.767943	2527.236287
934.071153	2528.408356
934.374323	2526.129754
934.677455	2528.138654
934.980548	2526.775022
935.283602	2530.293747
935.586617	2528.037831
935.889593	2529.305681
936.192530	2527.614374
936.495428	2529.214940
936.798287	2528.783922
937.101108	2528.950280
937.403890	2529.305681
937.706632	2530.465146
938.009336	2527.853829
938.312002	2530.593696
938.614628	2529.681247
938.917216	2529.361134
939.219765	2528.839374
939.522275	2531.548994
939.824747	2531.332225
940.127179	2531.319622
940.429573	2526.331400
940.731929	2528.252080
941.034246	2525.978519
941.336524	2528.647810
941.638763	2526.953983
941.940964	2528.536905
942.243126	2531.687626
942.545250	2528.073119
942.847335	2530.495393
943.149381	2531.775846
943.451389	2531.024714
943.753359	2531.420445
944.055290	2527.029600
944.357182	2529.759385
944.659036	2529.013294
944.960851	2531.972451
945.262628	2529.325846
945.564367	2530.709642
945.866067	2528.239477
946.167729	2529.542615
946.469352	2529.852646
946.770937	2529.852646
947.072484	2529.983716
947.373992	2529.998840
947.675462	2528.680578
947.976893	2528.483973
948.278286	2526.694363
948.579641	2528.564631
948.880958	2529.595547
949.182236	2529.151926
949.483476	2529.260311
949.784678	2527.702594
950.085841	2529.083870
950.386967	2531.110414
950.688054	2528.504138
950.989103	2529.046062
951.290114	2530.097142
951.591087	2527.924405
951.892021	2526.187727
952.192917	2529.557739
952.493776	2526.482635
952.794596	2530.719725
953.095378	2526.575896
953.396122	2528.279806
953.696828	2528.524302
953.997496	2531.813655
954.298126	2530.122348
954.598718	2531.186031
954.899272	2525.575227
955.199788	2527.831143
955.500266	2530.611340
955.800706	2527.390043
956.101108	2524.251924
956.401472	2526.477594
956.701798	2522.701769
957.002087	2525.723941
957.302337	2525.481966
957.602550	2528.408356
957.902724	2525.582789
958.202861	2527.674868
958.502960	2528.093283
958.803022	2528.909950
959.103045	2527.377440
959.403031	2526.943900
959.702979	2527.067409
960.002889	2528.786442
960.302762	2527.823582
960.602596	2527.281658
960.902393	2526.351565
961.202153	2528.063037
961.501875	2524.360309
961.801559	2525.096318
962.101205	2526.364168
962.400814	2526.913653
962.700385	2525.950793
962.999918	2528.531864
963.299414	2527.407687
963.598873	2527.407687
963.898293	2528.978006
964.197677	2524.262007
964.497022	2525.910464
964.796331	2529.141843
965.095601	2526.114631
965.394835	2528.143695
965.694030	2525.834847
965.993189	2526.459950
966.292309	2526.210413
966.591393	2526.447347
966.890439	2525.323169
967.189447	2527.274096
967.488419	2524.992974
967.787353	2527.208561
968.086249	2523.039527
968.385108	2527.251411
968.683930	2525.038344
968.982714	2527.783252
969.281462	2525.514733
969.580172	2527.654703
969.878844	2523.163035
970.177480	2524.750998
970.476078	2524.335103
970.774639	2529.197296
971.073162	2526.308715
971.371649	2523.513395
971.670098	2521.239835
971.968510	2524.756040
972.266885	2523.445340
972.565223	2527.279137
972.863524	2525.393746
973.161788	2526.074301
973.460014	2530.087060
973.758204	2524.730834
974.056356	2526.578417
974.354471	2526.263345
974.652550	2527.755526
974.950591	2527.206040
975.248595	2526.729651
975.546563	2527.221164
975.844493	2525.721421
976.142386	2527.684950
976.440243	2523.836029
976.738062	2526.366688
977.035845	2528.267203
977.333590	2525.597912
977.631299	2525.058509
977.928971	2527.780732
978.226606	2526.769981
978.524204	2527.039682
978.821765	2525.988602
979.119290	2527.599250
979.416777	2524.501461
979.714228	2526.896009
980.011642	2524.967768
980.309020	2529.371216
980.606360	2525.537418
980.903664	2527.087573
981.200931	2523.999867
981.498162	2527.475742
981.795356	2527.813499
982.092513	2530.160157
982.389633	2529.114117
982.686717	2528.766277
982.983764	2529.593027
983.280775	2527.831143
983.577749	2529.653521
983.874686	2528.065557
984.171587	2527.153108
984.468451	2524.652696
984.765279	2528.776360
985.062070	2527.942049
985.358824	2525.388704
985.655543	2526.467511
985.952224	2526.316277
986.248869	2527.367357
986.545478	2520.647499
986.842050	2523.858714
987.138586	2520.408044
987.435086	2522.873169
987.731549	2521.774197
988.027975	2525.797038
988.324366	2524.831657
988.620719	2528.531864
988.917037	2528.496576
989.213318	2526.782583
989.509563	2525.025741
989.805772	2524.183869
990.101944	2524.967768
990.398080	2523.465504
990.694180	2525.035824
990.990244	2526.641431
991.286271	2527.962213
991.582262	2526.795186
991.878217	2525.260155
992.174136	2527.654703
992.470019	2523.851152
992.765865	2527.652183
993.061676	2525.489528
993.357450	2525.444157
993.653188	2526.286030
993.948890	2525.655886
994.244556	2525.086235
994.540186	2527.034641
994.835780	2527.566483
995.131337	2526.603623
995.426859	2524.869466
995.722345	2526.797707
996.017795	2526.603623
996.313208	2527.621936
996.608586	2527.085053
996.903928	2527.163191
997.199234	2523.823426
997.494504	2525.487007
997.789738	2524.453570
998.084936	2527.695032
998.380099	2524.680422
998.675225	2526.666637
998.970316	2526.565814
999.265371	2528.584796
999.560390	2524.546832
999.855373	2526.948942
1000.150320	2525.683612
1000.445232	2524.831657
1000.740108	2523.364681
1001.034948	2522.721934
1001.329752	2526.016328
1001.624521	2524.609846
1001.919254	2520.523991
1002.213951	2523.316790
1002.508613	2524.756040
1002.803239	2523.188241
1003.097829	2522.800072
1003.392384	2526.212933
1003.686903	2524.642614
1003.981386	2524.080525
1004.275834	2523.997346
1004.570246	2528.345341
1004.864623	2524.922398
1005.158964	2524.186389
1005.453270	2524.982892
1005.747540	2524.814013
1006.041775	2525.635721
1006.335974	2525.295443
1006.630138	2528.010104
1006.924266	2526.286030
1007.218359	2524.201513
1007.512416	2525.948273
1007.806438	2522.548014
1008.100425	2525.245032
1008.394376	2524.357788
1008.688292	2524.330062
1008.982172	2524.942562
1009.276017	2521.648168
1009.569827	2525.050947
1009.863602	2527.185876
1010.157341	2525.857532
1010.451045	2524.549352
1010.744714	2524.143539
1011.038347	2526.306194
1011.331945	2524.503982
1011.625508	2525.575227
1011.919036	2523.858714
1012.212528	2524.748478
1012.505986	2524.733354
1012.799408	2525.986081
1013.092795	2527.120341
1013.386147	2524.090607
1013.679464	2525.487007
1013.972745	2526.691843
1014.265992	2526.916174
1014.559204	2528.163860
1014.852380	2523.629342
1015.145521	2526.578417
1015.438628	2524.781245
1015.731699	2523.972140
1016.024736	2524.277130
1016.317737	2525.683612
1016.610703	2526.349044
1016.903635	2520.554238
1017.196531	2521.360822
1017.489393	2520.581964
1017.782219	2520.854187
1018.075011	2524.539270
1018.367768	2521.305370
1018.660490	2526.200330
1018.953177	2526.200330
1019.245829	2526.200330
