Dividing Wavelength (nm)	Counts (n)	Blue Motor Position (mm): 0.000000	Red Motor Position (mm): 21.600000	
326.493990	2128.997736
326.888308	2128.997736
327.282561	2128.997736
327.676750	2092.119175
328.070874	2092.381315
328.464933	2095.816862
328.858929	2103.386154
329.252859	2110.884871
329.646726	2125.463888
330.040528	2136.743469
330.434265	2156.328352
330.827938	2169.934426
331.221547	2189.181552
331.615091	2206.805425
332.008571	2226.392829
332.401986	2245.264388
332.795338	2264.564446
333.188625	2281.772424
333.581847	2304.051804
333.975006	2322.194916
334.368100	2340.496825
334.761129	2359.234794
335.154095	2375.058976
335.546996	2392.123282
335.939833	2409.442166
336.332606	2424.369023
336.725315	2435.527617
337.117960	2443.774944
337.510540	2452.667540
337.903056	2466.205558
338.295508	2472.317957
338.687896	2480.862713
339.080220	2489.344454
339.472480	2496.563387
339.864676	2499.651093
340.256807	2502.217041
340.648875	2505.062772
341.040879	2509.572084
341.432818	2510.769358
341.824694	2512.226252
342.216506	2513.244565
342.608253	2513.816736
342.999937	2515.621469
343.391557	2513.678104
343.783113	2511.344050
344.174605	2511.124760
344.566033	2507.255674
344.957397	2509.937568
345.348697	2504.329284
345.739934	2506.539830
346.131106	2499.083964
346.522215	2504.291476
346.913260	2501.057575
347.304241	2498.607575
347.695159	2495.088849
348.086012	2496.447440
348.476802	2491.565083
348.867528	2491.068529
349.258191	2491.076091
349.648789	2488.787407
350.039324	2486.511326
350.429796	2485.440081
350.820203	2485.125009
351.210548	2484.278095
351.600828	2483.859679
351.991045	2483.811788
352.381198	2481.208032
352.771288	2483.615183
353.161314	2483.106027
353.551276	2480.887919
353.941175	2480.630820
354.331010	2481.291211
354.720782	2481.407158
355.110490	2480.406489
355.500135	2479.519246
355.889717	2481.591160
356.279235	2481.565954
356.668689	2481.994452
357.058080	2482.551500
357.447408	2481.828094
357.836672	2480.275419
358.225873	2480.610655
358.615010	2482.959833
359.004084	2483.247179
359.393095	2485.669453
359.782043	2489.220946
360.170927	2485.624083
360.559748	2489.344454
360.948505	2487.365802
361.337199	2489.218426
361.725830	2491.454177
362.114398	2492.616163
362.502903	2490.627428
362.891344	2490.088025
363.279722	2492.205309
363.668037	2493.231184
364.056289	2493.195896
364.444478	2494.103304
364.832603	2492.104486
365.220665	2492.568272
365.608665	2495.277892
365.996601	2495.663541
366.384474	2497.311998
366.772284	2498.113542
367.160031	2500.440034
367.547715	2501.095384
367.935336	2505.471106
368.322893	2508.558812
368.710388	2510.234996
369.097820	2518.449556
369.485189	2518.767149
369.872495	2526.742254
370.259738	2531.049920
370.646918	2539.937474
371.034035	2546.737991
371.421090	2558.556976
371.808081	2568.379664
372.195010	2579.248392
372.581875	2589.749116
372.968678	2602.951897
373.355418	2611.915069
373.742096	2631.746968
374.128710	2648.128198
374.515262	2659.122954
374.901751	2676.328412
375.288177	2690.778880
375.674540	2714.119422
376.060841	2728.088459
376.447079	2748.852972
376.833254	2771.497835
377.219367	2785.605504
377.605417	2817.125319
377.991404	2827.285764
378.377329	2851.566482
378.763191	2868.776981
379.148991	2906.404153
379.534727	2930.016918
379.920402	2959.729479
380.306013	2970.096612
380.691563	3022.131402
381.077049	3042.384237
381.462474	3058.251269
381.847835	3098.434306
382.233134	3120.539766
382.618371	3117.946092
383.003545	3187.060311
383.388657	3194.969882
383.773706	3230.903226
384.158693	3244.111049
384.543618	3272.129782
384.928480	3303.579021
385.313280	3354.615662
385.698017	3351.064169
386.082692	3406.746234
386.467305	3409.365114
386.851856	3442.712346
387.236344	3461.992239
387.620770	3493.774194
388.005133	3519.763862
388.389435	3547.706978
388.773674	3560.897157
389.157851	3602.088425
389.541965	3615.031588
389.926018	3584.532607
390.310008	3657.357115
390.693936	3674.983510
391.077802	3712.363666
391.461606	3704.035679
391.845348	3763.707817
392.229027	3765.091614
392.612645	3777.255918
392.996200	3854.067980
393.379694	3894.611459
393.763125	3963.009835
394.146494	3927.189916
394.529801	3985.495902
394.913047	4034.810989
395.296230	4000.674816
395.679351	4056.556006
396.062410	4081.590376
396.445408	4057.521387
396.828343	4092.998507
397.211217	4115.739152
397.594028	4037.951628
397.976778	4105.379581
398.359466	4132.090135
398.742092	4157.810102
399.124656	4083.201025
399.507158	4160.900329
399.889598	4186.877395
400.271977	4251.079010
400.654294	4221.676480
401.036549	4227.035226
401.418742	4200.458263
401.800874	4299.617759
402.182944	4321.491326
402.564952	4383.318557
402.946898	4369.891444
403.328783	4366.355075
403.710606	4284.461530
404.092367	4474.276096
404.474067	4437.710087
404.855705	4443.532619
405.237282	4374.945201
405.618797	4482.951922
406.000250	4519.137324
406.381642	4595.556175
406.762972	4559.070824
407.144240	4568.928801
407.525447	4572.248401
407.906593	4628.676556
408.287677	4673.532743
408.668700	4598.064149
409.049661	4650.756810
409.430560	4689.452707
409.811399	4618.566522
410.192176	4779.381850
410.572891	4718.973704
410.953545	4818.448272
411.334138	4701.697670
411.714669	4769.433133
412.095139	4662.154859
412.475547	4804.141477
412.855894	4784.042397
413.236180	4794.195281
413.616405	4747.380606
413.996568	4836.465356
414.376670	4774.433958
414.756711	4729.494592
415.136691	4760.969036
415.516609	4837.269420
415.896466	4873.154874
416.276262	4906.219802
416.655997	4882.216348
417.035670	5060.572371
417.415283	5148.656452
417.794834	5088.086988
418.174324	5037.483886
418.553753	4943.738589
418.933121	5117.628150
419.312428	5174.305843
419.691674	5109.053147
420.070859	5225.828956
420.449983	5134.377384
420.829045	5232.437908
421.208047	5132.343278
421.586988	5192.159089
421.965867	5189.426784
422.344686	5300.682528
422.723444	5151.746679
423.102141	4966.000325
423.480777	5230.383638
423.859352	4999.647506
424.237866	5221.422987
424.616319	5198.387435
424.994712	5278.239312
425.373044	5150.549405
425.751314	5257.799953
426.129524	5053.318150
426.507673	5204.749371
426.885762	5255.705354
427.263789	5163.386703
427.641756	5040.488414
428.019662	5114.578252
428.397508	5092.616465
428.775292	5011.776522
429.153016	5063.317279
429.530679	4974.466943
429.908282	5010.634701
430.285824	4873.666551
430.663305	5049.658273
431.040726	4808.023166
431.418086	4770.380870
431.795385	4809.427127
432.172624	4783.296306
432.549802	4737.981374
432.926920	4701.667423
433.303977	4665.756763
433.680974	4653.171523
434.057910	4612.154174
434.434786	4574.075819
434.811601	4511.658772
435.188355	4607.365078
435.565050	4482.755317
435.941683	4421.893467
436.318257	4487.539372
436.694770	4427.254734
437.071222	4394.789703
437.447614	4304.497596
437.823946	4216.930233
438.200218	4238.478646
438.576429	4126.943117
438.952580	4112.414511
439.328670	4084.552054
439.704700	3995.132067
440.080670	3940.967390
440.456580	3993.279443
440.832429	3894.074577
441.208218	3789.016930
441.583947	3796.518167
441.959616	3749.723657
442.335224	3675.911082
442.710773	3675.462419
443.086261	3631.085142
443.461689	3528.777445
443.837057	3523.196888
444.212365	3519.443749
444.587612	3451.025209
444.962800	3443.700413
445.337927	3396.958834
445.712995	3269.795728
446.088002	3348.528469
446.462949	3280.828293
446.837837	3226.242680
447.212664	3226.179665
447.587431	3207.177036
447.962139	3260.325921
448.336786	3367.916747
448.711374	3292.904378
449.085901	3114.881071
449.460369	3063.584810
449.834776	3026.244983
450.209124	3037.963145
450.583412	3023.389169
450.957640	3015.867768
451.331808	2958.834674
451.705917	2889.420506
452.079965	2859.128212
452.453954	2851.110257
452.827883	2822.358036
453.201752	2808.736839
453.575562	2778.719288
453.949311	2767.926178
454.323001	2748.411871
454.696632	2737.848133
455.070202	2729.091649
455.443713	2720.181410
455.817164	2708.642208
456.190556	2697.975127
456.563888	2687.686132
456.937160	2677.772703
457.310373	2659.180927
457.683526	2650.026192
458.056619	2642.025881
458.429653	2630.705970
458.802628	2622.022582
459.175542	2620.172479
459.548398	2617.722478
459.921194	2616.862962
460.293930	2611.826849
460.666607	2616.348764
461.039224	2617.830863
461.411782	2614.564195
461.784280	2610.385079
462.156719	2603.259408
462.529099	2596.025352
462.901419	2591.372367
463.273680	2587.329362
463.645882	2582.527663
464.018024	2577.736046
464.390106	2580.191088
464.762130	2580.531366
465.134094	2584.365163
465.505999	2592.224322
465.877845	2602.291506
466.249631	2603.730756
466.621358	2599.755806
466.993026	2598.508120
467.364634	2595.271700
467.736184	2587.142839
468.107674	2583.407344
468.479105	2580.861561
468.850477	2578.739236
469.221790	2577.405850
469.593043	2575.722105
469.964238	2574.144224
470.335373	2575.749831
470.706449	2575.568350
471.077467	2574.978535
471.448425	2579.951633
471.819324	2590.233066
472.190164	2590.558221
472.560945	2578.610686
472.931667	2575.323854
473.302330	2573.388051
473.672934	2573.509038
474.043479	2573.587176
474.413965	2574.408884
474.784393	2566.209448
475.154761	2571.600962
475.525070	2568.397308
475.895321	2567.999057
476.265513	2569.937381
476.635645	2575.775037
477.005719	2571.532906
477.375734	2576.102712
477.745691	2577.141190
478.115588	2579.969277
478.485427	2578.744277
478.855207	2584.168558
479.224928	2586.371542
479.594591	2591.064857
479.964194	2590.679208
480.333739	2589.275247
480.703226	2588.077973
481.072653	2589.043354
481.442022	2590.059147
481.811333	2592.539394
482.180584	2593.661051
482.549777	2587.258786
482.918912	2587.785586
483.287988	2589.822212
483.657005	2589.371029
484.025964	2586.666450
484.394864	2588.148549
484.763706	2588.700556
485.132489	2584.569330
485.501213	2583.989597
485.869879	2583.430029
486.238487	2582.263002
486.607036	2585.638055
486.975527	2583.172930
487.343959	2584.871799
487.712333	2585.612849
488.080648	2585.322982
488.448905	2583.939186
488.817104	2581.637899
489.185244	2586.744588
489.553326	2585.938003
489.921350	2588.748447
490.289315	2594.586103
490.657222	2596.726072
491.025070	2593.814806
491.392861	2593.167018
491.760593	2592.589806
492.128267	2588.778693
492.495883	2589.595360
492.863440	2586.671491
493.230939	2583.384659
493.598380	2584.947417
493.965763	2577.640264
494.333088	2579.939030
494.700354	2578.635892
495.067563	2582.220152
495.434713	2576.949626
495.801805	2580.264185
496.168839	2576.979873
496.535815	2578.167065
496.902733	2578.003227
497.269593	2580.188567
497.636395	2579.787796
498.003139	2581.295101
498.369825	2577.352918
498.736453	2579.810481
499.103023	2577.446180
499.469535	2578.139338
499.835989	2575.714543
500.202385	2578.948443
500.568723	2575.769996
500.935003	2578.454410
501.301226	2577.582291
501.667390	2577.632702
502.033497	2580.785944
502.399546	2576.994996
502.765537	2576.150603
503.131470	2578.270408
503.497345	2579.966757
503.863163	2576.871488
504.228923	2576.425346
504.594625	2580.054977
504.960269	2578.416602
505.325856	2578.658577
505.691385	2577.085737
506.056856	2578.020871
506.422270	2579.026581
506.787625	2577.408371
507.152924	2576.032136
507.518164	2578.656057
507.883347	2579.329051
508.248472	2578.005748
508.613540	2580.304514
508.978550	2583.185533
509.343503	2578.928279
509.708398	2579.359297
510.073236	2580.362487
510.438016	2580.367528
510.802738	2579.518094
511.167403	2577.728484
511.532010	2577.574729
511.896561	2582.608321
512.261053	2581.287539
512.625488	2576.526169
512.989866	2577.625141
513.354186	2579.896180
513.718449	2573.877043
514.082655	2577.917527
514.446803	2577.652867
514.810894	2580.727971
515.174927	2582.157138
515.538904	2581.910121
515.902822	2582.875502
516.266684	2580.433063
516.630488	2580.410378
516.994235	2583.062025
517.357925	2579.402147
517.721558	2582.116809
518.085133	2583.031778
518.448651	2582.540266
518.812112	2583.538414
519.175516	2582.232755
519.538863	2584.100503
519.902152	2583.455235
520.265385	2581.620255
520.628560	2582.613362
520.991678	2582.328537
521.354739	2583.147725
521.717743	2582.575554
522.080690	2581.932807
522.443580	2583.384659
522.806413	2584.801223
523.169189	2584.251737
523.531908	2584.314752
523.894569	2584.332396
524.257174	2584.750812
524.619722	2585.630493
524.982213	2584.009762
525.344647	2582.610842
525.707025	2583.039340
526.069345	2584.115626
526.431608	2582.585636
526.793815	2585.562437
527.155964	2584.203846
527.518057	2583.982036
527.880093	2585.640575
528.242072	2581.577405
528.603995	2583.722416
528.965860	2583.810636
529.327669	2584.529001
529.689421	2582.147056
530.051117	2583.306521
530.412755	2585.254927
530.774337	2583.755184
531.135862	2581.988259
531.497331	2583.528332
531.858743	2579.255954
532.220098	2581.630337
532.581396	2579.336612
532.942638	2579.976839
533.303824	2583.321644
533.664953	2582.406675
534.026025	2584.448342
534.387040	2582.774679
534.747999	2581.905080
535.108902	2583.598908
535.469748	2581.504308
535.830537	2585.257447
536.191270	2582.764597
536.551947	2584.435739
536.912567	2579.855851
537.273131	2583.503126
537.633638	2580.624627
537.994089	2580.964905
538.354483	2580.526325
538.714821	2582.482292
539.075103	2581.889957
539.435328	2586.250555
539.795497	2583.150245
540.155609	2583.440112
540.515665	2583.997159
540.875665	2581.695872
541.235609	2584.229052
541.595496	2583.198136
541.955328	2583.535893
542.315102	2587.531008
542.674821	2583.160327
543.034483	2585.660740
543.394090	2581.705955
543.753640	2583.571182
544.113134	2582.021027
544.472571	2581.511870
544.831953	2582.913311
545.191278	2584.788620
545.550548	2584.665112
545.909761	2584.040009
546.268918	2585.721234
546.628019	2587.364650
546.987064	2586.280802
547.346053	2581.607652
547.704986	2583.336768
548.063863	2582.681418
548.422684	2583.540935
548.781449	2583.654361
549.140158	2582.000862
549.498811	2583.266192
549.857408	2582.371387
550.215949	2579.800398
550.574434	2578.537589
550.932864	2582.772159
551.291237	2579.893660
551.649555	2582.731829
552.007817	2583.737540
552.366022	2584.178641
552.724173	2579.283680
553.082267	2583.077148
553.440305	2586.966399
553.798288	2581.370718
554.156215	2585.159145
554.514086	2584.380287
554.871902	2585.499423
555.229661	2585.486820
555.587365	2583.404823
555.945014	2581.640420
556.302606	2584.849114
556.660143	2583.782910
557.017625	2584.886923
557.375050	2585.010431
557.732421	2583.447673
558.089735	2582.000862
558.446994	2583.440112
558.804197	2583.205698
559.161345	2588.488827
559.518437	2583.687128
559.875474	2583.871130
560.232455	2585.431367
560.589381	2584.579412
560.946251	2585.315421
561.303065	2583.218301
561.659825	2583.999680
562.016528	2583.898857
562.373177	2582.159658
562.729770	2585.128898
563.086307	2583.828280
563.442789	2582.646130
563.799216	2583.971953
564.155587	2585.806933
564.511904	2586.011100
564.868164	2583.359453
565.224370	2585.169227
565.580520	2582.106726
565.936615	2581.017837
566.292654	2580.861561
566.648638	2582.109247
567.004567	2583.112437
567.360441	2584.150914
567.716260	2583.475400
568.072023	2586.880699
568.427732	2577.289904
568.783385	2581.380800
569.138982	2580.022209
569.494525	2580.153279
569.850013	2576.453072
570.205445	2582.043712
570.560823	2584.120667
570.916145	2581.348033
571.271412	2578.588001
571.626625	2581.421129
571.981782	2582.086562
572.336884	2581.511870
572.691931	2582.111767
573.046923	2579.994483
573.401860	2579.439956
573.756743	2581.244689
574.111570	2581.264854
574.466342	2580.523804
574.821059	2581.421129
575.175722	2581.032961
575.530330	2581.494226
575.884882	2581.446335
576.239380	2577.622620
576.593823	2581.960533
576.948211	2577.806622
577.302544	2581.146387
577.656823	2579.273598
578.011047	2582.023547
578.365216	2580.244020
578.719330	2579.558423
579.073389	2579.525656
579.427394	2577.075655
579.781344	2578.184709
580.135239	2579.447518
580.489080	2575.848134
580.842866	2575.475088
581.196597	2582.048753
581.550273	2577.940213
581.903895	2581.559761
582.257463	2576.785788
582.610975	2575.812846
582.964434	2576.367373
583.317837	2575.422156
583.671186	2579.210583
584.024481	2576.349729
584.377721	2576.218659
584.730906	2573.725808
585.084037	2577.037846
585.437113	2573.801425
585.790135	2578.855182
586.143103	2575.379307
586.496016	2574.923082
586.848874	2570.421332
587.201679	2575.013823
587.554428	2569.987793
587.907124	2573.067938
588.259765	2569.438307
588.612352	2573.839234
588.964884	2575.288566
589.317362	2572.853688
589.669786	2574.355952
590.022155	2576.180850
590.374470	2574.073648
590.726731	2575.651529
591.078937	2573.370407
591.431090	2573.685479
591.783188	2571.974007
592.135232	2573.887125
592.487222	2570.847309
592.839157	2573.461147
593.191038	2572.498287
593.542866	2571.777402
593.894639	2570.655745
594.246358	2574.303020
594.598022	2570.791857
594.949633	2573.103226
595.301190	2569.410580
595.652692	2569.103070
596.004141	2572.233627
596.355535	2571.810170
596.706876	2573.909810
597.058162	2573.234296
597.409395	2571.661456
597.760573	2569.904613
598.111698	2570.539799
598.462768	2571.865622
598.813785	2570.915365
599.164748	2571.522824
599.515657	2571.958884
599.866511	2568.238512
600.217312	2568.629202
600.568060	2568.704819
600.918753	2572.896538
601.269392	2569.831517
601.619978	2568.067113
601.970510	2572.243709
602.320988	2570.028122
602.671412	2571.938719
603.021783	2569.549212
603.372100	2570.388564
603.722363	2572.210941
604.072572	2573.075499
604.422728	2569.700447
604.772830	2565.349931
605.122878	2566.706001
605.472872	2568.404870
605.822813	2565.097873
606.172701	2568.137689
606.522534	2568.339335
606.872314	2569.430745
607.222041	2570.864953
607.571714	2567.293296
607.921333	2567.978893
608.270899	2568.692216
608.620411	2570.444017
608.969870	2573.360324
609.319276	2569.483677
609.668627	2574.333267
610.017926	2574.653380
610.367171	2576.327043
610.716362	2575.916189
611.065500	2576.213617
611.414585	2573.478792
611.763616	2575.407033
612.112594	2570.295303
612.461518	2573.146075
612.810389	2571.394274
613.159207	2571.396795
613.507971	2573.302351
613.856682	2570.191959
614.205340	2571.865622
614.553945	2573.572053
614.902496	2570.136507
615.250994	2569.549212
615.599439	2567.807493
615.947830	2570.045766
616.296169	2572.142886
616.644454	2572.054666
616.992686	2568.457802
617.340864	2569.529047
617.688990	2571.192628
618.037063	2571.001064
618.385082	2569.299675
618.733048	2570.355797
619.080961	2568.049469
619.428821	2568.513255
619.776628	2571.618606
620.124382	2571.134655
620.472083	2568.941753
620.819731	2569.150961
621.167326	2568.316650
621.514868	2570.073492
621.862357	2567.172308
622.209793	2569.216496
622.557176	2570.479305
622.904506	2562.995712
623.251783	2563.393963
623.599007	2564.555949
623.946179	2562.461350
624.293297	2561.957234
624.640363	2565.785991
624.987376	2566.272462
625.334336	2567.010991
625.681243	2563.338511
626.028097	2566.433779
626.374899	2566.955538
626.721647	2562.577296
627.068343	2564.732390
627.414987	2565.380178
627.761577	2564.656772
628.108115	2564.581155
628.454600	2563.928326
628.801032	2563.048644
629.147412	2565.294478
629.493739	2563.701474
629.840014	2564.361865
630.186236	2566.227092
630.532405	2565.072667
630.878521	2565.049982
631.224585	2565.327246
631.570597	2561.692574
631.916556	2562.342883
632.262462	2559.877758
632.608316	2564.223233
632.954117	2563.484704
633.299866	2561.876576
633.645562	2564.878583
633.991206	2561.768191
634.336797	2560.880948
634.682336	2563.015877
635.027823	2558.609908
635.373257	2561.231308
635.718639	2556.606050
636.063968	2560.447409
636.409245	2559.998746
636.754470	2558.236863
637.099642	2558.456153
637.444762	2558.080587
637.789829	2559.923129
638.134845	2560.018911
638.479808	2557.228632
638.824719	2558.378015
639.169577	2556.255689
639.514383	2557.926832
639.859137	2556.490103
640.203839	2561.309446
640.548489	2558.534291
640.893086	2557.092521
641.237632	2557.140412
641.582125	2555.474311
641.926566	2555.560010
642.270955	2558.075546
642.615292	2557.077397
642.959576	2555.328117
643.303809	2557.894064
643.647990	2559.018242
643.992118	2559.174517
644.336195	2556.815258
644.680219	2556.984136
645.024192	2555.192006
645.368112	2555.791903
645.711981	2556.248128
646.055797	2557.105124
646.399562	2555.958261
646.743274	2560.999415
647.086935	2559.930691
647.430544	2559.179559
647.774101	2557.536143
648.117606	2557.435319
648.461059	2559.320711
648.804460	2560.442368
649.147810	2561.470763
649.491108	2557.851215
649.834354	2559.260217
650.177548	2554.332489
650.520690	2558.274672
650.863781	2557.639486
651.206820	2558.627552
651.549807	2556.858107
651.892742	2557.210988
652.235626	2556.311142
652.578458	2554.508930
652.921238	2556.853066
653.263967	2553.818292
653.606644	2556.714434
653.949269	2554.725699
654.291843	2553.871224
654.634365	2556.356513
654.976836	2554.640000
655.319255	2555.461708
655.661622	2554.609753
656.003938	2551.418702
656.346203	2554.345092
656.688416	2555.126471
657.030577	2555.615463
657.372687	2555.378529
657.714746	2552.462221
658.056753	2554.473642
658.398708	2548.628424
658.740612	2553.470452
659.082465	2550.596994
659.424266	2553.561193
659.766016	2548.416695
660.107715	2553.233518
660.449362	2552.184958
660.790958	2554.314845
661.132503	2555.333158
661.473996	2552.694114
661.815438	2554.501368
662.156829	2554.992880
662.498168	2553.949362
662.839456	2552.399207
663.180693	2555.454146
663.521879	2558.703170
663.863013	2556.855587
664.204097	2555.242418
664.545129	2553.518343
664.886110	2556.485062
665.227040	2553.861141
665.567918	2555.020607
665.908746	2554.907181
666.249522	2556.147305
666.590248	2553.999773
666.930922	2556.386759
667.271545	2553.014228
667.612118	2554.463559
667.952639	2556.162428
668.293109	2556.530432
668.633528	2553.256203
668.973896	2553.525905
669.314213	2556.197716
669.654480	2553.165462
669.994695	2555.643189
670.334859	2556.333827
670.674973	2554.884496
671.015035	2552.936090
671.355047	2554.488765
671.695008	2554.403065
672.034918	2555.242418
672.374777	2556.371636
672.714585	2554.539177
673.054342	2550.652447
673.394049	2554.271995
673.733705	2556.558159
674.073310	2555.459187
674.412864	2555.181924
674.752368	2552.958775
675.091820	2555.446584
675.431223	2555.282747
675.770574	2552.474824
676.109875	2547.665563
676.449125	2551.645554
676.788324	2549.180430
677.127473	2551.010369
677.466571	2549.160265
677.805619	2553.858621
678.144616	2551.348126
678.483562	2553.374670
678.822458	2552.910884
679.161303	2553.220915
679.500098	2550.231511
679.838842	2555.207129
680.177535	2551.509443
680.516179	2552.444577
680.854771	2554.062788
681.193314	2551.955585
681.531805	2553.755277
681.870247	2552.903322
682.208638	2553.238559
682.546978	2556.648899
682.885268	2552.537838
683.223508	2554.524053
683.561697	2551.950544
683.899836	2554.148487
684.237925	2554.057746
684.575963	2555.489434
684.913951	2552.023641
685.251889	2554.418189
685.589776	2552.482386
685.927614	2553.369629
686.265401	2553.964485
686.603137	2555.136553
686.940824	2552.550441
687.278460	2555.746533
687.616046	2554.002294
687.953582	2557.216029
688.291068	2554.302242
688.628504	2557.561348
688.965889	2553.404917
689.303224	2554.655123
689.640510	2554.299722
689.977745	2554.690411
690.314930	2553.326779
690.652065	2553.374670
690.989150	2551.731254
691.326185	2551.885009
691.663170	2550.090358
692.000105	2552.926007
692.336990	2553.467931
692.673825	2551.199412
693.010610	2549.440049
693.347345	2548.353681
693.684030	2546.402754
694.020665	2547.151366
694.357251	2542.891591
694.693786	2548.310831
695.030272	2549.341747
695.366707	2549.792930
695.703093	2548.199926
696.039429	2547.849565
696.375716	2551.388455
696.711952	2548.383928
697.048139	2546.493495
697.384276	2547.219421
697.720363	2546.677497
698.056400	2547.509288
698.392388	2546.811088
698.728326	2544.572815
699.064214	2548.416695
699.400053	2550.012220
699.735842	2548.525080
700.071581	2546.175902
700.407270	2548.426777
700.742910	2549.455173
701.078501	2543.713299
701.414042	2548.152035
701.749533	2544.832435
702.084974	2545.306303
702.420366	2545.971736
702.755709	2547.607590
703.091002	2546.019627
703.426246	2544.829914
703.761440	2547.181612
704.096584	2545.281097
704.431679	2547.234545
704.766725	2546.861499
705.101721	2542.836138
705.436668	2547.952909
705.771565	2547.955430
706.106413	2549.732436
706.441212	2544.517363
706.775961	2546.125491
707.110661	2543.357897
707.445311	2545.336550
707.779913	2545.210521
708.114465	2549.490461
708.448967	2545.628937
708.783421	2548.603218
709.117825	2546.488454
709.452180	2544.809750
709.786485	2544.610624
710.120742	2549.016593
710.454949	2546.450645
710.789107	2546.294369
711.123216	2546.410316
711.457275	2546.516180
711.791286	2544.678680
712.125247	2544.983669
712.459159	2548.141952
712.793023	2550.342416
713.126837	2548.116747
713.460602	2545.893598
713.794318	2550.947354
714.127985	2545.797816
714.461602	2545.664225
714.795171	2550.261757
715.128691	2546.037271
715.462162	2549.777807
715.795584	2546.735470
716.128957	2548.010882
716.462281	2547.499205
716.795556	2547.625234
717.128782	2545.303783
717.461960	2546.581715
717.795088	2544.509801
718.128167	2543.312527
718.461198	2544.587939
718.794180	2547.239586
719.127113	2544.953423
719.459997	2544.451828
719.792833	2544.918134
720.125619	2546.274205
720.458357	2544.686241
720.791046	2545.097095
721.123686	2542.521066
721.456278	2542.682383
721.788821	2544.252702
722.121315	2545.581046
722.453761	2545.079451
722.786158	2543.579708
723.118506	2542.291693
723.450805	2543.758669
723.783056	2542.077444
724.115259	2544.625747
724.447412	2545.696993
724.779518	2544.613145
725.111574	2543.781354
725.443582	2542.687424
725.775542	2544.005686
726.107453	2542.321940
726.439315	2543.168854
726.771129	2549.508105
727.102895	2544.751776
727.434612	2545.661705
727.766281	2542.674821
728.097901	2544.882846
728.429473	2539.786240
728.760996	2541.212886
729.092471	2538.778009
729.423897	2544.920655
729.755276	2543.617517
730.086606	2546.485933
730.417887	2547.484082
730.749120	2547.174051
731.080305	2546.639688
731.411442	2546.735470
731.742530	2545.447456
732.073570	2548.036088
732.404562	2544.136756
732.735506	2547.758825
733.066401	2546.561551
733.397249	2546.117929
733.728048	2544.701365
734.058798	2545.412168
734.389501	2543.907383
734.720156	2544.373690
735.050762	2545.457538
735.381320	2544.880326
735.711831	2542.135417
736.042293	2545.581046
736.372707	2540.449152
736.703073	2542.639533
737.033391	2542.072403
737.363661	2543.236910
737.693883	2542.800850
738.024056	2546.632127
738.354182	2543.451159
738.684260	2543.849410
739.014290	2546.062476
739.344272	2543.872095
739.674207	2545.144986
740.004093	2545.235727
740.333931	2545.613814
740.663722	2546.407795
740.993464	2545.124822
741.323159	2544.335881
741.652806	2541.984183
741.982405	2544.275387
742.311956	2543.005017
742.641460	2543.831766
742.970915	2543.735984
743.300323	2542.311858
743.629683	2544.240099
743.958996	2541.890922
744.288260	2542.400078
744.617477	2539.017464
744.946647	2539.627443
745.275768	2538.536034
745.604842	2536.353214
745.933869	2537.207690
746.262847	2536.028060
746.591778	2543.461241
746.920662	2540.933102
747.249498	2540.575180
747.578286	2539.856816
747.907027	2540.698689
748.235720	2542.359749
748.564365	2543.572146
748.892963	2541.626261
749.221514	2543.446118
749.550017	2541.527958
749.878473	2543.325130
750.206881	2542.526107
750.535242	2542.629451
750.863555	2539.249357
751.191821	2539.395550
751.520039	2540.658359
751.848210	2542.919317
752.176334	2541.391847
752.504411	2543.350336
752.832440	2541.464944
753.160421	2543.065510
753.488356	2542.064841
753.816243	2542.677342
754.144082	2540.086188
754.471875	2541.659028
754.799620	2540.973432
755.127318	2538.525951
755.454969	2541.845551
755.782572	2538.725077
756.110129	2539.698020
756.437638	2541.197763
756.765100	2541.596014
757.092515	2541.412012
757.419882	2539.332536
757.747203	2543.148689
758.074477	2539.125849
758.401703	2541.568288
758.728882	2543.352856
759.056014	2539.819007
759.383099	2540.766744
759.710138	2540.514687
760.037129	2541.626261
760.364073	2542.919317
760.690970	2540.877650
761.017820	2541.354039
761.344623	2540.923020
761.671379	2542.936961
761.998088	2538.770447
762.324751	2539.690458
762.651366	2541.129707
762.977935	2545.787733
763.304456	2549.646737
763.630931	2551.693445
763.957359	2552.147149
764.283740	2549.235883
764.610074	2546.493495
764.936362	2543.977959
765.262602	2541.404450
765.588796	2544.066179
765.914943	2541.333874
766.241044	2542.815973
766.567097	2538.457896
766.893104	2542.959646
767.219064	2540.355890
767.544978	2538.604089
767.870845	2539.677855
768.196665	2538.296579
768.522438	2539.259439
768.848165	2540.623071
769.173846	2538.031918
769.499479	2540.189532
769.825066	2536.993441
770.150607	2538.709953
770.476101	2538.543595
770.801548	2538.778009
771.126949	2537.900848
771.452303	2537.573173
771.777611	2538.152906
772.102872	2536.413708
772.428087	2538.374717
772.753256	2535.612164
773.078378	2539.468647
773.403453	2537.409336
773.728482	2538.152906
774.053465	2540.204656
774.378401	2533.930940
774.703291	2538.392361
775.028135	2537.686599
775.352932	2536.262473
775.677683	2538.815818
776.002388	2537.734490
776.327046	2538.485622
776.651658	2535.647452
776.976224	2539.082999
777.300743	2536.050745
777.625216	2536.943029
777.949643	2537.923533
778.274024	2539.382947
778.598359	2535.324819
778.922647	2531.793490
779.246889	2534.571166
779.571086	2531.949766
779.895236	2537.162319
780.219339	2534.359438
780.543397	2536.171733
780.867409	2537.268183
781.191374	2537.928575
781.515294	2534.898841
781.839167	2535.718029
782.162995	2536.872453
782.486776	2538.238606
782.810511	2538.972093
783.134201	2535.375230
783.457844	2535.987730
783.781441	2538.470499
784.104993	2535.833975
784.428498	2537.968904
784.751958	2537.525282
785.075372	2537.182484
785.398739	2537.716846
785.722061	2537.283307
786.045337	2536.103677
786.368568	2536.958153
786.691752	2536.822041
787.014891	2535.221475
787.337983	2538.629295
787.661030	2538.354552
787.984031	2538.956970
788.306987	2541.427135
788.629897	2538.833462
788.952760	2536.282638
789.275579	2537.129552
789.598351	2539.367824
789.921078	2538.924203
790.243759	2536.965714
790.566395	2534.891279
790.888984	2536.791794
791.211529	2534.989582
791.534027	2534.712318
791.856480	2536.025539
792.178888	2536.418749
792.501249	2535.266845
792.823566	2536.365817
793.145836	2536.753986
793.468062	2535.284489
793.790241	2536.101156
794.112375	2536.723739
794.434464	2534.311547
794.756507	2537.434542
795.078505	2535.856660
795.400457	2534.818183
795.722364	2533.139478
796.044226	2537.179963
796.366042	2532.511855
796.687812	2535.367668
797.009538	2534.238450
797.331218	2538.107536
797.652852	2534.777853
797.974442	2537.580735
798.295986	2536.007895
798.617484	2535.077802
798.938938	2535.695343
799.260346	2536.922864
799.581709	2535.523944
799.903026	2536.474202
800.224299	2535.082843
800.545526	2535.803728
800.866708	2534.936650
801.187845	2538.326826
801.508936	2534.858512
801.829983	2533.988913
802.150984	2535.302133
802.471940	2535.188708
802.792851	2537.469830
803.113717	2535.849099
803.434538	2535.002185
803.755314	2533.951104
804.076045	2535.128214
804.396731	2536.169212
804.717372	2533.809952
805.037967	2535.740714
805.358518	2535.425642
805.679024	2537.038811
805.999485	2533.073943
806.319901	2536.811959
806.640272	2534.452699
806.960598	2536.484284
807.280879	2534.692154
807.601115	2534.462781
807.921306	2532.348017
808.241453	2534.543440
808.561554	2534.724921
808.881611	2536.456558
809.201623	2535.912113
809.521590	2534.125024
809.841513	2532.506814
810.161390	2535.753317
810.481223	2535.639891
810.801011	2536.743903
811.120755	2534.515713
811.440453	2536.111239
811.760107	2535.312216
812.079716	2536.096115
812.399281	2530.676875
812.718801	2533.696526
813.038276	2530.013963
813.357707	2535.428162
813.677093	2531.969931
813.996434	2533.757020
814.315731	2537.386651
814.634983	2536.264994
814.954191	2535.803728
815.273354	2536.958153
815.592473	2535.574356
815.911547	2535.715508
816.230577	2536.035621
816.549562	2533.930940
816.868502	2536.776671
817.187399	2537.855478
817.506250	2533.147040
817.825058	2537.346321
818.143821	2537.285827
818.462539	2538.425128
818.781213	2539.304810
819.099843	2539.302289
819.418429	2538.982176
819.736970	2540.169367
820.055466	2540.199614
820.373919	2539.534182
820.692327	2542.952084
821.010691	2549.611449
821.329011	2556.467418
821.647286	2571.553071
821.965517	2591.359764
822.283704	2604.149172
822.601847	2607.970366
822.919945	2599.135744
823.237999	2586.893302
823.556010	2574.688668
823.873976	2569.115673
824.191897	2560.351627
824.509775	2557.954558
824.827609	2554.609753
825.145398	2549.039278
825.463144	2550.894422
825.780845	2551.582540
826.098502	2551.484237
826.416116	2556.381718
826.733685	2560.197872
827.051210	2566.476629
827.368692	2562.597461
827.686129	2558.350289
828.003522	2551.771583
828.320872	2543.055428
828.638177	2542.397557
828.955439	2540.360931
829.272656	2537.497556
829.589830	2534.939170
829.906960	2538.213400
830.224046	2536.290200
830.541088	2540.116435
830.858086	2537.656352
831.175041	2538.256250
831.491952	2536.564942
831.808819	2537.532844
832.125642	2535.851619
832.442421	2536.665766
832.759157	2540.502084
833.075849	2539.652649
833.392497	2547.196736
833.709101	2552.563044
834.025662	2549.084648
834.342179	2548.721685
834.658653	2545.780172
834.975083	2541.522917
835.291469	2541.898483
835.607811	2539.186342
835.924110	2537.321116
836.240366	2536.549819
836.556578	2534.971938
836.872746	2537.676517
837.188871	2536.247350
837.504952	2534.777853
837.820990	2531.906916
838.136984	2533.976310
838.452935	2535.904551
838.768842	2535.279448
839.084706	2535.448327
839.400526	2535.781043
839.716303	2536.320447
840.032037	2540.549975
840.347727	2538.669624
840.663373	2537.507638
840.978977	2537.928575
841.294537	2534.331711
841.610054	2532.733666
841.925527	2537.026208
842.240957	2533.595703
842.556344	2536.471681
842.871687	2530.802904
843.186987	2534.424973
843.502244	2531.778367
843.817458	2533.797349
844.132629	2532.075795
844.447756	2535.072761
844.762840	2528.630166
845.077881	2530.873480
845.392879	2530.439941
845.707833	2532.574869
846.022745	2529.167049
846.337613	2531.261649
846.652438	2533.358769
846.967221	2533.431865
847.281960	2534.016639
847.596656	2534.674510
847.911309	2531.697708
848.225919	2531.417924
848.540485	2531.556556
848.855009	2533.557894
849.169490	2532.625281
849.483928	2533.182328
849.798323	2531.750641
850.112675	2532.461443
850.426984	2529.459436
850.741251	2533.053779
851.055474	2530.598737
851.369654	2533.232740
851.683792	2529.837523
851.997887	2533.615867
852.311938	2531.334745
852.625947	2530.974303
852.939914	2532.869777
853.253837	2535.075282
853.567718	2534.608975
853.881555	2530.195445
854.195350	2530.732328
854.509103	2530.729807
854.822812	2533.326001
855.136479	2532.537061
855.450103	2530.495393
855.763685	2532.332894
856.077224	2531.387677
856.390720	2532.103521
856.704173	2529.255269
857.017584	2532.995806
857.330953	2531.927081
857.644278	2530.843233
857.957561	2533.978831
858.270802	2531.301978
858.584000	2529.751823
858.897155	2532.068233
859.210268	2532.547143
859.523339	2531.816176
859.836367	2530.387008
860.149352	2531.047400
860.462295	2531.672503
860.775195	2528.216792
861.088054	2528.988088
861.400869	2528.877183
861.713642	2525.865093
862.026373	2532.660569
862.339062	2531.543953
862.651708	2532.675692
862.964312	2532.277441
863.276873	2530.639066
863.589392	2531.110414
863.901869	2531.324663
864.214303	2530.608819
864.526696	2530.381967
864.839045	2532.317770
865.151353	2533.119314
865.463619	2531.881711
865.775842	2531.727955
866.088023	2531.284334
866.400162	2533.535209
866.712258	2532.108563
867.024313	2532.925229
867.336325	2532.884900
867.648296	2530.243336
867.960224	2531.458254
868.272110	2533.605785
868.583954	2529.693850
868.895755	2531.175949
869.207515	2531.153264
869.519233	2529.645959
869.830909	2531.521268
870.142542	2533.041176
870.454134	2532.658048
870.765684	2533.290713
871.077191	2532.469005
871.388657	2531.614529
871.700081	2530.210568
872.011463	2533.709129
872.322803	2532.653007
872.634101	2532.161495
872.945357	2533.406660
873.256571	2533.315919
873.567744	2532.199303
873.878874	2532.693336
874.189963	2533.527647
874.501010	2535.402957
874.812015	2533.744417
875.122979	2532.428676
875.433900	2536.451517
875.744780	2531.279293
876.055618	2533.046217
876.366415	2534.014119
876.677169	2531.463295
876.987882	2531.165867
877.298554	2527.647141
877.609183	2529.822399
877.919771	2528.967924
878.230317	2530.886083
878.540822	2535.413039
878.851285	2535.392874
879.161707	2535.649973
879.472087	2535.413039
879.782425	2538.422608
880.092722	2543.904862
880.402977	2547.847045
880.713191	2556.341389
881.023363	2567.988975
881.333494	2576.697568
881.643583	2578.073803
881.953631	2573.811508
882.263637	2569.360169
882.573602	2567.389078
882.883526	2564.860939
883.193408	2558.856925
883.503248	2554.405586
883.813048	2549.019113
884.122806	2550.002138
884.432522	2545.044163
884.742197	2542.011909
885.051831	2541.107022
885.361424	2538.523431
885.670975	2540.759182
885.980485	2536.975797
886.289954	2537.308513
886.599382	2537.106867
886.908768	2535.823893
887.218113	2533.711649
887.527417	2537.260622
887.836680	2535.954963
888.145901	2536.527134
888.455082	2531.803573
888.764221	2531.178470
889.073319	2534.699716
889.382376	2532.335414
889.691392	2531.312060
890.000366	2531.866587
890.309300	2535.218954
890.618193	2534.311547
890.927044	2535.652494
891.235855	2534.430014
891.544625	2532.136289
891.853353	2532.663089
892.162041	2531.634694
892.470687	2535.758358
892.779293	2535.753317
893.087858	2532.161495
893.396381	2534.709798
893.704864	2536.227185
894.013306	2535.375230
894.321707	2542.362269
894.630068	2543.781354
894.938387	2550.327293
895.246665	2545.724719
895.554903	2545.195398
895.863100	2538.732639
896.171256	2541.036446
896.479371	2540.335726
896.787446	2538.901517
897.095480	2535.362627
897.403473	2534.188038
897.711425	2533.260466
898.019336	2534.840868
898.327207	2536.832124
898.635038	2535.085364
898.942827	2535.430683
899.250576	2533.106711
899.558284	2536.965714
899.865952	2533.636032
900.173579	2532.348017
900.481165	2534.762730
900.788711	2533.988913
901.096216	2532.564787
901.403681	2533.525127
901.711105	2535.604603
902.018489	2532.358100
902.325832	2538.369676
902.633135	2532.554705
902.940397	2535.105528
903.247619	2536.451517
903.554800	2539.418236
903.861941	2544.529966
904.169041	2550.221428
904.476101	2555.925494
904.783121	2548.673794
905.090100	2550.362581
905.397039	2546.251520
905.703938	2544.547610
906.010796	2542.168185
906.317614	2536.012936
906.624391	2536.552340
906.931129	2535.985210
907.237826	2534.717360
907.544483	2532.227030
907.851099	2531.314581
908.157675	2533.731814
908.464211	2530.097142
908.770707	2527.120341
909.077163	2530.427338
909.383578	2526.283509
909.689954	2527.795855
909.996289	2525.439116
910.302584	2532.597554
910.608839	2528.937677
910.915054	2529.078829
911.221229	2532.481608
911.527363	2529.585465
911.833458	2528.849457
912.139513	2528.642769
912.445527	2531.675023
912.751502	2531.075126
913.057436	2532.060672
913.363331	2532.242153
913.669186	2531.972451
913.975000	2534.949253
914.280775	2532.000178
914.586510	2533.268028
914.892205	2535.844058
915.197859	2539.025026
915.503475	2543.947712
915.809050	2547.635316
916.114585	2548.567930
916.420081	2550.879299
916.725536	2551.748898
917.030952	2547.111036
917.336328	2543.698175
917.641665	2542.818494
917.946961	2542.909235
918.252218	2538.198276
918.557435	2537.885725
918.862612	2536.322967
919.167750	2535.380271
919.472848	2535.491177
919.777906	2533.431865
920.082925	2532.733666
920.387904	2532.821886
920.692843	2533.603265
920.997743	2532.544622
921.302603	2532.413552
921.607423	2532.279962
921.912204	2532.310209
922.216946	2532.678213
922.521647	2529.610671
922.826310	2530.548325
923.130932	2531.042358
923.435516	2531.037317
923.740059	2530.996988
924.044564	2531.261649
924.349028	2529.214940
924.653454	2526.452388
924.957840	2527.821061
925.262186	2526.286030
925.566493	2528.378109
925.870761	2525.663447
926.174989	2529.595547
926.479178	2530.747451
926.783328	2528.289888
927.087438	2530.147554
927.391509	2530.926412
927.695541	2527.894158
927.999533	2527.095135
928.303486	2530.792821
928.607400	2529.466998
928.911275	2525.313087
929.215110	2530.213089
929.518906	2528.216792
929.822663	2529.038500
930.126381	2528.274765
930.430060	2529.464477
930.733699	2531.281813
931.037299	2530.172759
931.340861	2529.048582
931.644383	2528.549508
931.947866	2525.648324
932.251309	2526.903571
932.554714	2530.558408
932.858080	2532.158974
933.161407	2528.456247
933.464694	2527.911802
933.767943	2529.018335
934.071153	2527.722759
934.374323	2527.385001
934.677455	2527.989940
934.980548	2528.095804
935.283602	2528.244518
935.586617	2527.863911
935.889593	2526.490197
936.192530	2527.548839
936.495428	2531.370033
936.798287	2528.670496
937.101108	2530.450023
937.403890	2527.931967
937.706632	2529.411545
938.009336	2531.533871
938.312002	2528.914992
938.614628	2531.135620
938.917216	2529.769467
939.219765	2529.945907
939.522275	2527.808458
939.824747	2533.840199
940.127179	2527.468180
940.429573	2526.681760
940.731929	2525.892820
941.034246	2522.641276
941.336524	2529.363654
941.638763	2527.453057
941.940964	2530.923891
942.243126	2530.583613
942.545250	2533.313398
942.847335	2529.555218
943.149381	2527.566483
943.451389	2527.919364
943.753359	2529.149405
944.055290	2526.263345
944.357182	2527.866432
944.659036	2530.734848
944.960851	2527.831143
945.262628	2528.138654
945.564367	2528.294930
945.866067	2525.706297
946.167729	2525.103879
946.469352	2526.714528
946.770937	2528.040351
947.072484	2525.968437
947.373992	2531.896834
947.675462	2526.694363
947.976893	2529.676206
948.278286	2526.966586
948.579641	2530.548325
948.880958	2526.051616
949.182236	2530.258459
949.483476	2528.468849
949.784678	2525.408869
950.085841	2530.371885
950.386967	2527.828623
950.688054	2526.835516
950.989103	2529.225023
951.290114	2528.685619
951.591087	2526.530526
951.892021	2527.614374
952.192917	2528.642769
952.493776	2528.373068
952.794596	2529.913140
953.095378	2527.132944
953.396122	2530.165198
953.696828	2532.017822
953.997496	2529.817358
954.298126	2529.681247
954.598718	2531.191073
954.899272	2526.772501
955.199788	2527.753006
955.500266	2528.909950
955.800706	2526.848118
956.101108	2521.970802
956.401472	2525.237470
956.701798	2522.318642
957.002087	2523.405010
957.302337	2526.318797
957.602550	2529.366175
957.902724	2527.780732
958.202861	2528.121010
958.502960	2527.531195
958.803022	2527.450536
959.103045	2525.791997
959.403031	2527.574045
959.702979	2527.143026
960.002889	2528.867101
960.302762	2523.513395
960.602596	2526.906092
960.902393	2526.596061
961.202153	2529.398942
961.501875	2526.827954
961.801559	2528.105886
962.101205	2526.996833
962.400814	2529.535053
962.700385	2529.575383
962.999918	2526.830474
963.299414	2526.265865
963.598873	2527.016997
963.898293	2527.717718
964.197677	2525.492048
964.497022	2526.016328
964.796331	2529.638397
965.095601	2522.789990
965.394835	2526.154960
965.694030	2525.204702
965.993189	2527.490866
966.292309	2524.443488
966.591393	2526.898530
966.890439	2524.698066
967.189447	2527.100176
967.488419	2526.538088
967.787353	2526.412059
968.086249	2525.050947
968.385108	2527.042203
968.683930	2526.401976
968.982714	2529.817358
969.281462	2526.764939
969.580172	2528.168901
969.878844	2524.420803
970.177480	2525.570186
970.476078	2524.483817
970.774639	2527.868952
971.073162	2524.637573
971.371649	2525.250073
971.670098	2523.213447
971.968510	2523.256296
972.266885	2522.449712
972.565223	2526.790145
972.863524	2527.707635
973.161788	2526.853160
973.460014	2527.679909
973.758204	2527.639580
974.056356	2527.112779
974.354471	2525.839888
974.652550	2523.846111
974.950591	2527.695032
975.248595	2527.579086
975.546563	2525.489528
975.844493	2526.706966
976.142386	2527.198479
976.440243	2524.693025
976.738062	2528.380629
977.035845	2525.940711
977.333590	2524.382994
977.631299	2524.201513
977.928971	2528.068078
978.226606	2526.512882
978.524204	2525.638242
978.821765	2527.979858
979.119290	2526.714528
979.416777	2528.385670
979.714228	2526.084384
980.011642	2525.892820
980.309020	2529.900537
980.606360	2525.429034
980.903664	2526.661596
981.200931	2528.277286
981.498162	2527.188396
981.795356	2525.255114
982.092513	2527.422810
982.389633	2526.354085
982.686717	2526.235618
982.983764	2528.627646
983.280775	2528.612522
983.577749	2528.685619
983.874686	2528.670496
984.171587	2526.918695
984.468451	2529.207378
984.765279	2524.693025
985.062070	2526.404497
985.358824	2527.899199
985.655543	2526.520443
985.952224	2523.082377
986.248869	2527.831143
986.545478	2520.687828
986.842050	2524.798889
987.138586	2521.575072
987.435086	2522.545494
987.731549	2521.121368
988.027975	2523.531039
988.324366	2524.831657
988.620719	2528.383150
988.917037	2524.531708
989.213318	2527.964734
989.509563	2525.441637
989.805772	2524.070443
990.101944	2526.117151
990.398080	2526.855680
990.694180	2525.431554
990.990244	2524.511544
991.286271	2523.092459
991.582262	2525.935670
991.878217	2524.970289
992.174136	2525.988602
992.470019	2523.843591
992.765865	2525.000536
993.061676	2524.085566
993.357450	2525.907943
993.653188	2524.796369
993.948890	2527.929446
994.244556	2527.722759
994.540186	2524.347706
994.835780	2525.151770
995.131337	2524.355268
995.426859	2526.573376
995.722345	2526.114631
996.017795	2525.010618
996.313208	2524.012469
996.608586	2525.731503
996.903928	2528.473891
997.199234	2526.601102
997.494504	2525.948272
997.789738	2525.141688
998.084936	2525.577748
998.380099	2526.207892
998.675225	2526.522964
998.970316	2526.989271
999.265371	2525.129085
999.560390	2523.130268
999.855373	2525.292922
1000.150320	2524.486338
1000.445232	2526.901051
1000.740108	2524.972809
1001.034948	2526.293592
1001.329752	2525.275278
1001.624521	2526.006246
1001.919254	2521.748991
1002.213951	2522.159845
1002.508613	2520.849145
1002.803239	2521.817047
1003.097829	2520.864269
1003.392384	2524.977850
1003.686903	2522.525329
1003.981386	2527.160670
1004.275834	2525.562624
1004.570246	2527.679909
1004.864623	2525.524816
1005.158964	2525.713859
1005.453270	2523.616739
1005.747540	2525.033303
1006.041775	2521.494413
1006.335974	2525.902902
1006.630138	2521.965761
1006.924266	2528.123530
1007.218359	2526.391894
1007.512416	2525.373581
1007.806438	2525.519774
1008.100425	2526.550690
1008.394376	2522.979033
1008.688292	2525.895340
1008.982172	2525.759229
1009.276017	2529.255269
1009.569827	2524.992974
1009.863602	2525.779394
1010.157341	2522.490041
1010.451045	2525.053468
1010.744714	2526.964065
1011.038347	2527.405166
1011.331945	2524.627490
1011.625508	2525.607995
1011.919036	2525.487007
1012.212528	2524.612367
1012.505986	2523.939373
1012.799408	2526.855680
1013.092795	2525.348375
1013.386147	2525.618077
1013.679464	2523.228570
1013.972745	2523.939373
1014.265992	2524.461132
1014.559204	2524.491379
1014.852380	2526.036493
1015.145521	2524.052799
1015.438628	2525.270237
1015.731699	2524.524147
1016.024736	2523.646986
1016.317737	2526.858201
1016.610703	2524.403159
1016.903635	2521.660771
1017.196531	2522.845442
1017.489393	2522.951307
1017.782219	2518.724299
1018.075011	2522.921060
1018.367768	2523.094979
1018.660490	2525.633200
1018.953177	2525.633200
1019.245829	2525.633200
