Dividing Wavelength (nm)	Counts (n)	Blue Motor Position (mm): 0.000000	Red Motor Position (mm): 40.500000	
326.493990	2127.089660
326.888308	2127.089660
327.282561	2127.089660
327.676750	2096.676378
328.070874	2095.509351
328.464933	2095.655545
328.858929	2101.931781
329.252859	2111.958636
329.646726	2124.352313
330.040528	2137.272790
330.434265	2153.515388
330.827938	2170.168840
331.221547	2190.562828
331.615091	2209.512525
332.008571	2229.210834
332.401986	2248.629358
332.795338	2266.346493
333.188625	2285.875923
333.581847	2306.655560
333.975006	2323.775318
334.368100	2341.847855
334.761129	2358.468539
335.154095	2376.102495
335.546996	2397.913047
335.939833	2417.961716
336.332606	2432.729776
336.725315	2446.620676
337.117960	2455.412448
337.510540	2460.927470
337.903056	2475.972794
338.295508	2480.507312
338.687896	2491.234887
339.080220	2499.910713
339.472480	2504.215858
339.864676	2506.582680
340.256807	2513.423526
340.648875	2515.515605
341.040879	2517.211953
341.432818	2522.941224
341.824694	2521.875020
342.216506	2521.819568
342.608253	2523.324352
342.999937	2523.581451
343.391557	2522.275792
343.783113	2521.827129
344.174605	2522.918539
344.566033	2517.902591
344.957397	2518.484844
345.348697	2517.905112
345.739934	2516.816222
346.131106	2513.637775
346.522215	2512.921931
346.913260	2509.501508
347.304241	2508.342043
347.695159	2504.649398
348.086012	2504.752741
348.476802	2499.189828
348.867528	2502.441372
349.258191	2501.105466
349.648789	2500.112359
350.039324	2495.335866
350.429796	2497.717811
350.820203	2493.153046
351.210548	2491.499548
351.600828	2492.595999
351.991045	2492.454846
352.381198	2492.427120
352.771288	2490.735813
353.161314	2493.155567
353.551276	2489.946872
353.941175	2491.260093
354.331010	2493.982316
354.720782	2491.033241
355.110490	2492.540546
355.500135	2494.897285
355.889717	2492.127171
356.279235	2493.914260
356.668689	2494.297388
357.058080	2491.870073
357.447408	2490.839157
357.836672	2488.689104
358.225873	2490.224136
358.615010	2491.043323
359.004084	2495.855105
359.393095	2495.081288
359.782043	2495.648417
360.170927	2497.427945
360.559748	2497.551453
360.948505	2497.795949
361.337199	2499.514982
361.725830	2498.219406
362.114398	2502.695950
362.502903	2502.897597
362.891344	2502.353152
363.279722	2500.187976
363.668037	2500.003974
364.056289	2503.540344
364.444478	2503.068996
364.832603	2502.799294
365.220665	2505.030005
365.608665	2504.757782
365.996601	2507.122083
366.384474	2507.235509
366.772284	2511.898577
367.160031	2510.567712
367.547715	2511.918741
367.935336	2514.469565
368.322893	2519.107427
368.710388	2521.252438
369.097820	2528.819210
369.485189	2530.220650
369.872495	2534.409849
370.259738	2543.567105
370.646918	2550.743188
371.034035	2554.917263
371.421090	2569.012329
371.808081	2581.325347
372.195010	2586.323652
372.581875	2601.873091
372.968678	2614.294494
373.355418	2624.311266
373.742096	2643.281128
374.128710	2656.551966
374.515262	2670.780622
374.901751	2687.310566
375.288177	2698.880014
375.674540	2720.355329
376.060841	2739.988103
376.447079	2759.451998
376.833254	2779.540996
377.219367	2791.606998
377.605417	2832.657114
377.991404	2841.267404
378.377329	2862.538553
378.763191	2878.808877
379.148991	2918.087027
379.534727	2940.515121
379.920402	2970.527630
380.306013	2982.999445
380.691563	3031.437372
381.077049	3052.219528
381.462474	3070.385326
381.847835	3113.454424
382.233134	3135.038124
382.618371	3132.081488
383.003545	3200.573124
383.388657	3205.019422
383.773706	3242.397057
384.158693	3257.855755
384.543618	3281.677728
384.928480	3315.927327
385.313280	3365.305429
385.698017	3361.973226
386.082692	3416.306783
386.467305	3421.715941
386.851856	3453.671815
387.236344	3478.633088
387.620770	3505.943539
388.005133	3536.198024
388.389435	3560.128381
388.773674	3572.819486
389.157851	3616.584263
389.541965	3631.430461
389.926018	3595.267744
390.310008	3664.523116
390.693936	3684.934747
391.077802	3727.542580
391.461606	3713.588666
391.845348	3776.635857
392.229027	3778.743059
392.612645	3791.648413
392.996200	3868.755381
393.379694	3908.033532
393.763125	3974.649859
394.146494	3937.675516
394.529801	3998.386132
394.913047	4051.101478
395.296230	4017.945809
395.679351	4072.735589
396.062410	4095.569496
396.445408	4077.948142
396.828343	4110.985344
397.211217	4130.867655
397.594028	4051.590470
397.976778	4121.067652
398.359466	4146.026405
398.742092	4175.696116
399.124656	4099.423458
399.507158	4175.123945
399.889598	4202.981361
400.271977	4263.185341
400.654294	4235.852204
401.036549	4242.178853
401.418742	4212.914954
401.800874	4317.637364
402.182944	4336.972709
402.564952	4402.613574
402.946898	4391.263416
403.328783	4385.977766
403.710606	4298.218839
404.092367	4489.699506
404.474067	4454.585349
404.855705	4465.819561
405.237282	4391.497829
405.618797	4502.083101
406.000250	4537.358575
406.381642	4618.669866
406.762972	4577.932302
407.144240	4587.008899
407.525447	4585.385648
407.906593	4649.995596
408.287677	4690.599569
408.668700	4618.896718
409.049661	4669.159542
409.430560	4711.369123
409.811399	4638.859687
410.192176	4800.274912
410.572891	4737.726796
410.953545	4839.507692
411.334138	4723.344384
411.714669	4791.379797
412.095139	4685.563457
412.475547	4827.577802
412.855894	4805.956293
413.236180	4819.128828
413.616405	4769.879275
413.996568	4859.102657
414.376670	4799.516219
414.756711	4756.915948
415.136691	4789.136483
415.516609	4866.245972
415.896466	4899.429367
416.276262	4935.158545
416.655997	4916.355042
417.035670	5098.343216
417.415283	5187.556516
417.794834	5133.532990
418.174324	5085.818469
418.553753	4993.262885
418.933121	5181.824724
419.312428	5249.943315
419.691674	5185.182132
420.070859	5308.360206
420.449983	5219.225044
420.829045	5340.978992
421.208047	5245.116410
421.586988	5317.772040
421.965867	5330.044729
422.344686	5462.344771
422.723444	5317.900589
423.102141	5137.961644
423.480777	5433.113640
423.859352	5201.754925
424.237866	5459.877126
424.616319	5449.043686
424.994712	5563.215738
425.373044	5436.491213
425.751314	5583.095529
426.129524	5387.627309
426.507673	5580.403552
426.885762	5663.512015
427.263789	5594.866623
427.641756	5472.686698
428.019662	5601.425164
428.397508	5603.718889
428.775292	5551.502617
429.153016	5647.846629
429.530679	5574.616308
429.908282	5660.230224
430.285824	5535.897726
430.663305	5808.261186
431.040726	5544.626484
431.418086	5542.012645
431.795385	5648.277648
432.172624	5665.372201
432.549802	5652.340818
432.926920	5666.629968
433.303977	5669.599208
433.680974	5713.038831
434.057910	5728.462241
434.434786	5736.243262
434.811601	5706.079518
435.188355	5944.720179
435.565050	5814.907947
435.941683	5797.636954
436.318257	6007.432133
436.694770	5999.144476
437.071222	6031.521287
437.447614	5961.913034
437.823946	5869.758222
438.200218	6026.341501
438.576429	5893.587756
438.952580	5992.154916
439.328670	6037.043871
439.704700	5943.167504
440.080670	5931.847593
440.456580	6195.688982
440.832429	6084.690336
441.208218	5926.624958
441.583947	6087.256284
441.959616	6088.803918
442.335224	6017.063258
442.710773	6154.023846
443.086261	6179.600140
443.461689	5974.284026
443.837057	6127.867819
444.212365	6281.781808
444.587612	6168.597822
444.962800	6326.978272
445.337927	6302.858872
445.712995	5911.637607
446.088002	6495.551937
446.462949	6325.435679
446.837837	6255.237612
447.212664	6424.065854
447.587431	6570.216466
447.962139	7108.137828
448.336786	8034.459930
448.711374	7776.720857
449.085901	6852.589137
449.460369	6773.732888
449.834776	6709.374998
450.209124	7101.312106
450.583412	7254.331290
450.957640	7397.265646
451.331808	7164.991962
451.705917	6712.205605
452.079965	6635.461600
452.453954	6846.766604
452.827883	6722.608026
453.201752	6820.368602
453.575562	6618.964424
453.949311	6817.961451
454.323001	6706.315017
454.696632	6787.739734
455.070202	6925.002792
455.443713	7079.834270
455.817164	7174.129053
456.190556	7264.930316
456.563888	7334.694844
456.937160	7381.514560
457.310373	7032.129831
457.683526	7060.090591
458.056619	6949.782583
458.429653	6941.701614
458.802628	6876.249793
459.175542	6985.234498
459.548398	7335.917324
459.921194	7500.652149
460.293930	7499.654001
460.666607	8036.458747
461.039224	8341.130963
461.411782	8464.457750
461.784280	8485.428950
462.156719	8384.119402
462.529099	8254.357581
462.901419	7844.330292
463.273680	7734.675114
463.645882	7752.230932
464.018024	7614.914942
464.390106	7779.929552
464.762130	8166.916247
465.134094	8642.077765
465.505999	9660.559720
465.877845	10883.314271
466.249631	11537.746781
466.621358	11146.686833
466.993026	10523.257419
467.364634	10264.719324
467.736184	9896.049661
468.107674	9569.143437
468.479105	9607.032749
468.850477	9357.195685
469.221790	9130.958782
469.593043	8809.675966
469.964238	8668.753030
470.335373	8682.013786
470.706449	8738.482270
471.077467	8718.075680
471.448425	10029.771308
471.819324	11106.748292
472.190164	11132.417847
472.560945	9883.676148
472.931667	9094.947300
473.302330	8953.933624
473.672934	8595.931043
474.043479	8959.010066
474.413965	8895.736023
474.784393	8781.311913
475.154761	8934.676416
475.525070	9018.457873
475.895321	8853.564251
476.265513	9029.215695
476.635645	9195.147794
477.005719	9199.062250
477.375734	9311.981576
477.745691	9553.024347
478.115588	9678.987658
478.485427	9929.525443
478.855207	10462.937493
479.224928	11277.887903
479.594591	11910.295612
479.964194	11715.281096
480.333739	11657.640543
480.703226	11575.762122
481.072653	11672.537153
481.442022	11905.940055
481.811333	12090.963004
482.180584	11896.767676
482.549777	11609.316042
482.918912	11431.227200
483.287988	11454.040942
483.657005	11465.161727
484.025964	11146.144909
484.394864	11280.113572
484.763706	11248.122410
485.132489	11004.775832
485.501213	10966.589091
485.869879	11046.302337
486.238487	10885.229909
486.607036	10996.503298
486.975527	10765.923442
487.343959	10965.419544
487.712333	11006.658703
488.080648	10941.199320
488.448905	10983.981072
488.817104	10923.048646
489.185244	11190.010509
489.553326	11343.405259
489.921350	11882.821323
490.289315	12939.830297
490.657222	13291.523875
491.025070	13199.227910
491.392861	13075.404568
491.760593	12693.224613
492.128267	12341.450377
492.495883	12014.715552
492.863440	11674.220898
493.230939	11339.016935
493.598380	11278.956628
493.965763	11141.769187
494.333088	11046.342666
494.700354	10963.072887
495.067563	11020.426094
495.434713	10854.864519
495.801805	10974.685184
496.168839	10905.790255
496.535815	10835.209060
496.902733	10842.460760
497.269593	10777.689495
497.636395	10873.168949
498.003139	10865.735768
498.369825	10731.089069
498.736453	10891.115457
499.103023	10809.141254
499.469535	10837.349030
499.835989	10834.387352
500.202385	10789.576536
500.568723	10643.357868
500.935003	10866.131498
501.301226	10678.610657
501.667390	10930.176837
502.033497	11025.366425
502.399546	10886.407019
502.765537	10793.196084
503.131470	10867.580830
503.497345	11044.452233
503.863163	10652.827676
504.228923	10964.262599
504.594625	11035.418485
504.960269	10778.299475
505.325856	10999.424647
505.691385	10795.933431
506.056856	10942.787283
506.422270	10966.475665
506.787625	10857.969870
507.152924	10976.469753
507.518164	10955.886722
507.883347	10872.357323
508.248472	10795.721702
508.613540	11029.754749
508.978550	10911.073385
509.343503	10882.268232
509.708398	11003.666778
510.073236	11119.883018
510.438016	11124.929213
510.802738	11070.472149
511.167403	11125.158586
511.532010	11021.827535
511.896561	11259.162537
512.261053	11317.760909
512.625488	11192.606703
512.989866	11174.713128
513.354186	11165.661736
513.718449	11058.164172
514.082655	11258.096333
514.446803	11156.239820
514.810894	11277.298088
515.174927	11144.587193
515.538904	11164.035964
515.902822	11316.382154
516.266684	11201.844618
516.630488	11151.828810
516.994235	11204.140863
517.357925	11266.736871
517.721558	11350.495642
518.085133	11370.826615
518.448651	11386.479398
518.812112	11261.670511
519.175516	11282.397215
519.538863	11395.351829
519.902152	11313.458285
520.265385	11475.727986
520.628560	11385.723225
520.991678	11359.478978
521.354739	11424.789647
521.717743	11360.058711
522.080690	11332.269350
522.443580	11468.650206
522.806413	11423.436097
523.169189	11456.553957
523.531908	11512.359530
523.894569	11327.215593
524.257174	11337.126502
524.619722	11463.722478
524.982213	11397.675801
525.344647	11457.421036
525.707025	11404.753581
526.069345	11492.157106
526.431608	11410.944118
526.793815	11521.673062
527.155964	11310.184055
527.518057	11367.973322
527.880093	11315.338635
528.242072	11388.906714
528.603995	11288.675972
528.965860	11207.215967
529.327669	11262.388876
529.689421	11216.819365
530.051117	11182.491628
530.412755	11287.584562
530.774337	11175.446616
531.135862	11152.645477
531.497331	11182.431134
531.858743	11032.615604
532.220098	11199.984432
532.581396	11069.239587
532.942638	11050.592358
533.303824	11010.255566
533.664953	11027.214008
534.026025	10936.828640
534.387040	11039.832016
534.747999	11041.835874
535.108902	11100.804771
535.469748	10855.489622
535.830537	10960.481733
536.191270	10938.325862
536.551947	10957.457041
536.912567	10957.729263
537.273131	10888.045394
537.633638	10857.425425
537.994089	10850.219096
538.354483	10806.172014
538.714821	10946.079157
539.075103	10954.167688
539.435328	10923.237689
539.795497	10743.802859
540.155609	10902.758001
540.515665	10987.136834
540.875665	10730.156455
541.235609	10789.984869
541.595496	10791.797164
541.955328	10943.271234
542.315102	10824.184057
542.674821	10781.976996
543.034483	10781.709815
543.394090	10784.195104
543.753640	10709.815400
544.113134	10930.660788
544.472571	10787.514704
544.831953	10936.385018
545.191278	10736.533515
545.550548	10764.320355
545.909761	10903.594833
546.268918	10879.011646
546.628019	10959.896960
546.987064	10822.696917
547.346053	10744.357386
547.704986	10843.542088
548.063863	10829.477268
548.422684	10824.221866
548.781449	10735.046375
549.140158	10845.122489
549.498811	10718.234127
549.857408	10582.339742
550.215949	10802.940635
550.574434	10650.092850
550.932864	10753.988510
551.291237	10810.857767
551.649555	10756.100754
552.007817	10767.476117
552.366022	10731.394059
552.724173	10728.598739
553.082267	10710.558970
553.440305	10851.436535
553.798288	10644.736624
554.156215	10799.855448
554.514086	10776.096490
554.871902	10629.310693
555.229661	10665.836373
555.587365	10642.687395
555.945014	10531.010714
556.302606	10666.000211
556.660143	10552.622140
557.017625	10709.011336
557.375050	10604.881262
557.732421	10743.218085
558.089735	10654.304734
558.446994	10652.563015
558.804197	10688.982831
559.161345	10690.807729
559.518437	10542.950687
559.875474	10628.110899
560.232455	10651.806842
560.589381	10606.731365
560.946251	10601.614594
561.303065	10713.240864
561.659825	10644.343414
562.016528	10569.280633
562.373177	10451.436100
562.729770	10566.928935
563.086307	10485.594959
563.442789	10577.827910
563.799216	10450.027098
564.155587	10493.713737
564.511904	10454.889291
564.868164	10438.220716
565.224370	10456.532707
565.580520	10376.080933
565.936615	10382.367252
566.292654	10257.500391
566.648638	10391.101051
567.004567	10345.334935
567.360441	10320.867695
567.716260	10226.661133
568.072023	10330.012348
568.427732	10270.640159
568.783385	10180.605151
569.138982	10250.795657
569.494525	10271.320715
569.850013	10149.763372
570.205445	10226.749353
570.560823	10121.479978
570.916145	10038.240446
571.271412	10106.868194
571.626625	10051.599504
571.981782	10031.964209
572.336884	10003.050672
572.691931	10007.007977
573.046923	9950.635274
573.401860	9905.937884
573.756743	9830.686060
574.111570	9877.982165
574.466342	9861.285864
574.821059	9883.570284
575.175722	9781.486919
575.530330	9780.728225
575.884882	9775.732442
576.239380	9706.361124
576.593823	9688.432260
576.948211	9694.476603
577.302544	9575.157533
577.656823	9584.876878
578.011047	9587.972146
578.365216	9555.887722
578.719330	9475.042738
579.073389	9483.143873
579.427394	9428.142363
579.781344	9399.765708
580.135239	9350.543882
580.489080	9356.852886
580.842866	9252.518646
581.196597	9254.817412
581.550273	9291.393504
581.903895	9256.985108
582.257463	9325.214605
582.610975	9196.917239
582.964434	9218.090086
583.317837	9139.259042
583.671186	9116.263819
584.024481	9105.662273
584.377721	9028.341055
584.730906	9005.706274
585.084037	9024.408955
585.437113	8960.575344
585.790135	8975.456830
586.143103	8866.247794
586.496016	8839.696037
586.848874	8894.377432
587.201679	8878.896049
587.554428	8756.733768
587.907124	8794.335734
588.259765	8767.098380
588.612352	8758.535980
588.964884	8638.853947
589.317362	8647.418867
589.669786	8638.632136
590.022155	8681.086213
590.374470	8692.915281
590.726731	8623.309549
591.078937	8478.809915
591.431090	8577.220800
591.783188	8449.377138
592.135232	8430.692102
592.487222	8427.170856
592.839157	8467.878173
593.191038	8399.678923
593.542866	8341.317485
593.894639	8234.104746
594.246358	8284.932179
594.598022	8290.895864
594.949633	8181.580964
595.301190	8146.716344
595.652692	8172.839603
596.004141	8264.467615
596.355535	8051.012559
596.706876	8017.372939
597.058162	7947.053884
597.409395	8016.054677
597.760573	8065.515958
598.111698	7970.568346
598.462768	7949.317362
598.813785	7907.493429
599.164748	7869.483129
599.515657	7850.873710
599.866511	7754.781756
600.217312	7869.271401
600.568060	7722.402425
600.918753	7812.119840
601.269392	7772.821525
601.619978	7678.171341
601.970510	7725.381747
602.320988	7712.829273
602.671412	7754.277640
603.021783	7689.007301
603.372100	7654.188051
603.722363	7647.334603
604.072572	7611.222297
604.422728	7612.497709
604.772830	7531.183898
605.122878	7525.739451
605.472872	7513.078593
605.822813	7526.898917
606.172701	7468.018240
606.522534	7522.659306
606.872314	7507.084662
607.222041	7464.829710
607.571714	7500.132910
607.921333	7454.565921
608.270899	7445.680887
608.620411	7513.345775
608.969870	7408.114209
609.319276	7390.079481
609.668627	7385.713842
610.017926	7402.861326
610.367171	7427.192455
610.716362	7397.396716
611.065500	7374.167079
611.414585	7377.335444
611.763616	7358.355500
612.112594	7323.793349
612.461518	7321.381157
612.810389	7357.034717
613.159207	7284.152236
613.507971	7231.232723
613.856682	7310.893036
614.205340	7251.016731
614.553945	7305.118394
614.902496	7203.115687
615.250994	7227.227526
615.599439	7195.622012
615.947830	7195.064965
616.296169	7146.773232
616.644454	7144.174517
616.992686	7118.560414
617.340864	7147.030330
617.688990	7054.590692
618.037063	7109.584640
618.385082	7051.724796
618.733048	7093.054696
619.080961	7034.688217
619.428821	7026.413163
619.776628	7012.272726
620.124382	6954.364992
620.472083	6920.687564
620.819731	6930.041425
621.167326	6825.124931
621.514868	6820.121586
621.862357	6712.129988
622.209793	6721.660289
622.557176	6649.924670
622.904506	6609.860100
623.251783	6548.269803
623.599007	6485.630946
623.946179	6474.789944
624.293297	6423.319764
624.640363	6350.361665
624.987376	6321.566594
625.334336	6272.221259
625.681243	6207.326486
626.028097	6191.315781
626.374899	6160.526934
626.721647	6129.342357
627.068343	6068.803140
627.414987	6030.271081
627.761577	5972.983408
628.108115	5987.466643
628.454600	5896.768724
628.801032	5907.093007
629.147412	5875.212750
629.493739	5839.740671
629.840014	5778.765395
630.186236	5799.517304
630.532405	5704.776380
630.878521	5722.632147
631.224585	5678.685888
631.570597	5614.199448
631.916556	5616.238595
632.262462	5599.164207
632.608316	5557.415891
632.954117	5527.403382
633.299866	5506.812789
633.645562	5476.989322
633.991206	5413.632101
634.336797	5363.069328
634.682336	5316.877235
635.027823	5278.635042
635.373257	5264.318165
635.718639	5199.806519
636.063968	5197.865675
636.409245	5114.631184
636.754470	5098.292804
637.099642	5057.424170
637.444762	5010.695195
637.789829	5002.425182
638.134845	4950.259322
638.479808	4925.192184
638.824719	4914.489815
639.169577	4861.237586
639.514383	4859.294221
639.859137	4803.763391
640.203839	4795.695024
640.548489	4771.346251
640.893086	4743.229216
641.237632	4707.464750
641.582125	4716.339701
641.926566	4677.984082
642.270955	4681.069268
642.615292	4661.136546
642.959576	4655.213190
643.303809	4636.455057
643.647990	4623.176657
643.992118	4606.621508
644.336195	4568.500303
644.680219	4556.789702
645.024192	4548.807035
645.368112	4580.583948
645.711981	4580.377261
646.055797	4606.515644
646.399562	4575.499945
646.743274	4618.604331
647.086935	4636.989419
647.430544	4620.572901
647.774101	4615.753558
648.117606	4605.159573
648.461059	4589.592490
648.804460	4551.945153
649.147810	4497.044467
649.491108	4465.265034
649.834354	4436.699335
650.177548	4382.806880
650.520690	4328.581709
650.863781	4300.144560
651.206820	4300.749498
651.549807	4255.868106
651.892742	4214.424780
652.235626	4204.014797
652.578458	4185.521324
652.921238	4134.406545
653.263967	4139.987102
653.606644	4105.200620
653.949269	4088.932817
654.291843	4055.073907
654.634365	4065.504054
654.976836	4025.396634
655.319255	4024.239689
655.661622	3995.149711
656.003938	3984.974142
656.346203	3963.881954
656.688416	3958.291315
657.030577	3933.120834
657.372687	3911.017895
657.714746	3894.740009
658.056753	3900.565062
658.398708	3859.275492
658.740612	3850.516487
659.082465	3854.254502
659.424266	3847.101105
659.766016	3832.895133
660.107715	3812.985096
660.449362	3811.006443
660.790958	3799.936070
661.132503	3784.903349
661.473996	3782.375210
661.815438	3773.701905
662.156829	3764.292591
662.498168	3746.588059
662.839456	3736.394846
663.180693	3733.942325
663.521879	3725.853793
663.863013	3713.394582
664.204097	3706.757903
664.545129	3715.915158
664.886110	3703.884445
665.227040	3702.992161
665.567918	3688.057742
665.908746	3681.942823
666.249522	3673.224147
666.590248	3662.420954
666.930922	3661.319462
667.271545	3654.057680
667.612118	3646.652225
667.952639	3626.893423
668.293109	3621.857310
668.633528	3601.942232
668.973896	3593.231118
669.314213	3577.601020
669.654480	3563.170717
669.994695	3552.082700
670.334859	3540.672048
670.674973	3528.764842
671.015035	3523.741333
671.355047	3506.936646
671.695008	3496.693022
672.034918	3482.270281
672.374777	3477.264415
672.714585	3466.700677
673.054342	3464.648927
673.394049	3451.115950
673.733705	3450.216104
674.073310	3435.906789
674.412864	3425.247269
674.752368	3407.174732
675.091820	3401.306829
675.431223	3379.282028
675.770574	3367.473125
676.109875	3346.993438
676.449125	3335.179494
676.788324	3317.729540
677.127473	3300.841674
677.466571	3288.206022
677.805619	3277.775875
678.144616	3267.378495
678.483562	3252.870054
678.822458	3238.442272
679.161303	3231.016652
679.500098	3217.392934
679.838842	3212.913869
680.177535	3208.495297
680.516179	3208.086964
680.854771	3201.682178
681.193314	3214.340515
681.531805	3239.085019
681.870247	3266.997888
682.208638	3287.835497
682.546978	3281.002213
682.885268	3267.141561
683.223508	3240.446131
683.561697	3220.793192
683.899836	3210.819269
684.237925	3196.709080
684.575963	3187.057791
684.913951	3176.874660
685.251889	3177.386337
685.589776	3174.031449
685.927614	3164.158349
686.265401	3169.259997
686.603137	3163.797907
686.940824	3174.502797
687.278460	3179.107891
687.616046	3177.749300
687.953582	3189.729602
688.291068	3186.558717
688.628504	3190.982329
688.965889	3182.445135
689.303224	3165.343021
689.640510	3142.796460
689.977745	3119.854169
690.314930	3097.731065
690.652065	3079.870257
690.989150	3051.770866
691.326185	3029.241949
691.663170	3013.097654
692.000105	2992.146618
692.336990	2974.742035
692.673825	2963.311218
693.010610	2948.989300
693.347345	2936.036056
693.684030	2919.811102
694.020665	2912.919845
694.357251	2896.273955
694.693786	2893.912174
695.030272	2885.644682
695.366707	2874.796119
695.703093	2867.710777
696.039429	2867.509131
696.375716	2861.600898
696.711952	2855.060001
697.048139	2852.312572
697.384276	2848.231758
697.720363	2844.748321
698.056400	2845.280163
698.392388	2834.038390
698.728326	2829.569407
699.064214	2824.888696
699.400053	2816.580874
699.735842	2806.052424
700.071581	2802.190900
700.407270	2796.091104
700.742910	2789.093983
701.078501	2782.263219
701.414042	2772.755603
701.749533	2770.565222
702.084974	2762.827051
702.420366	2762.025507
702.755709	2753.606780
703.091002	2744.623444
703.426246	2745.435070
703.761440	2741.855851
704.096584	2737.258318
704.431679	2734.147926
704.766725	2731.332442
705.101721	2725.441854
705.436668	2726.402193
705.771565	2720.652757
706.106413	2723.211143
706.441212	2723.155690
706.775961	2722.747357
707.110661	2719.389948
707.445311	2719.548745
707.779913	2719.916749
708.114465	2722.066801
708.448967	2722.414641
708.783421	2726.200547
709.117825	2728.794221
709.452180	2730.301526
709.786485	2733.245560
710.120742	2741.656725
710.454949	2741.011457
710.789107	2746.178640
711.123216	2751.350864
711.457275	2756.150042
711.791286	2760.586258
712.125247	2761.889396
712.459159	2759.058788
712.793023	2762.837133
713.126837	2752.013776
713.460602	2750.849269
713.794318	2736.877711
714.127985	2733.855539
714.461602	2720.554455
714.795171	2719.049671
715.128691	2707.757486
715.462162	2699.910930
715.795584	2690.879703
716.128957	2688.868282
716.462281	2681.961902
716.795556	2680.232786
717.128782	2676.396468
717.461960	2666.077226
717.795088	2665.900786
718.128167	2663.596978
718.461198	2654.832932
718.794180	2656.980464
719.127113	2651.319248
719.459997	2647.354381
719.792833	2647.225831
720.125619	2643.981849
720.458357	2641.247023
720.791046	2640.453041
721.123686	2636.304171
721.456278	2633.282000
721.788821	2633.773512
722.121315	2635.800056
722.453761	2627.101545
722.786158	2628.205558
723.118506	2632.798049
723.450805	2626.103397
723.783056	2625.531226
724.115259	2627.479632
724.447412	2626.612553
724.779518	2629.092801
725.111574	2625.700104
725.443582	2629.506175
725.775542	2629.276803
726.107453	2632.457771
726.439315	2629.211268
726.771129	2633.546660
727.102895	2632.268728
727.434612	2636.515900
727.766281	2635.411887
728.097901	2636.631846
728.429473	2630.307719
728.760996	2631.164715
729.092471	2629.798562
729.423897	2630.186731
729.755276	2628.261010
730.086606	2628.051802
730.417887	2631.958697
730.749120	2634.310395
731.080305	2634.383492
731.411442	2634.375930
731.742530	2632.253604
732.073570	2632.437606
732.404562	2636.034470
732.735506	2636.972124
733.066401	2633.042545
733.397249	2626.398304
733.728048	2621.493261
734.058798	2614.115533
734.389501	2610.982456
734.720156	2609.709564
735.050762	2604.688575
735.381320	2604.701178
735.711831	2600.249839
736.042293	2598.787904
736.372707	2598.334201
736.703073	2597.782194
737.033391	2595.554004
737.363661	2597.724221
737.693883	2595.380084
738.024056	2600.398553
738.354182	2600.388471
738.684260	2605.195211
739.014290	2605.661518
739.344272	2604.265118
739.674207	2607.320057
740.004093	2602.838472
740.333931	2604.335694
740.663722	2604.716301
740.993464	2606.238730
741.323159	2603.390478
741.652806	2601.053903
741.982405	2600.638008
742.311956	2596.310177
742.641460	2593.850094
742.970915	2595.440578
743.300323	2588.720720
743.629683	2587.397417
743.958996	2590.409507
744.288260	2588.140987
744.617477	2585.844742
744.946647	2580.811150
745.275768	2580.324678
745.604842	2577.534400
745.933869	2577.743608
746.262847	2576.251426
746.591778	2580.667477
746.920662	2579.197981
747.249498	2576.947105
747.578286	2580.894329
747.907027	2583.392221
748.235720	2579.818042
748.564365	2581.471541
748.892963	2580.407857
749.221514	2579.412230
749.550017	2578.325861
749.878473	2577.980542
750.206881	2578.464493
750.535242	2576.989955
750.863555	2579.190419
751.191821	2574.734039
751.520039	2577.400809
751.848210	2574.981055
752.176334	2572.712536
752.504411	2574.459296
752.832440	2570.073492
753.160421	2576.107753
753.488356	2572.389902
753.816243	2574.998699
754.144082	2573.824111
754.471875	2574.209759
754.799620	2570.297823
755.127318	2572.848647
755.454969	2573.284707
755.782572	2573.476271
756.110129	2572.767989
756.437638	2575.104564
756.765100	2570.514593
757.092515	2572.921744
757.419882	2573.801425
757.747203	2572.178174
758.074477	2571.568194
758.401703	2569.834037
758.728882	2570.219686
759.056014	2572.591548
759.383099	2574.461817
759.710138	2575.865778
760.037129	2572.599110
760.364073	2572.115159
760.690970	2570.456620
761.017820	2573.256981
761.344623	2568.931671
761.671379	2574.567681
761.998088	2569.478636
762.324751	2575.870819
762.651366	2581.143866
762.977935	2601.847885
763.304456	2614.705348
763.630931	2620.225411
763.957359	2610.795933
764.283740	2599.791094
764.610074	2589.224836
764.936362	2584.670153
765.262602	2580.251582
765.588796	2573.362845
765.914943	2571.343863
766.241044	2570.660787
766.567097	2568.150292
766.893104	2564.571073
767.219064	2565.642318
767.544978	2565.380178
767.870845	2562.635270
768.196665	2563.146947
768.522438	2563.363716
768.848165	2565.077709
769.173846	2561.614436
769.499479	2561.347255
769.825066	2559.345917
770.150607	2558.672923
770.476101	2557.959599
770.801548	2560.767522
771.126949	2558.219219
771.452303	2555.560010
771.777611	2555.403734
772.102872	2557.919270
772.428087	2558.012532
772.753256	2555.983467
773.078378	2555.731409
773.403453	2553.891388
773.728482	2554.922304
774.053465	2555.635627
774.378401	2556.275854
774.703291	2552.489947
775.028135	2552.411810
775.352932	2554.120761
775.677683	2551.806871
776.002388	2551.093548
776.327046	2552.779814
776.651658	2548.923331
776.976224	2549.866027
777.300743	2554.728220
777.625216	2552.563044
777.949643	2552.457180
778.274024	2553.868703
778.598359	2549.150183
778.922647	2546.196067
779.246889	2552.026161
779.571086	2546.833773
779.895236	2549.860986
780.219339	2551.126315
780.543397	2550.654967
780.867409	2548.729247
781.191374	2551.721172
781.515294	2551.287632
781.839167	2554.879454
782.162995	2551.138918
782.486776	2552.621017
782.810511	2549.228321
783.134201	2550.014741
783.457844	2550.097920
783.781441	2551.968188
784.104993	2549.934082
784.428498	2549.682025
784.751958	2548.257899
785.075372	2549.563558
785.398739	2550.725544
785.722061	2549.230842
786.045337	2551.348126
786.368568	2550.458362
786.691752	2550.796120
787.014891	2549.850903
787.337983	2551.143959
787.661030	2550.859134
787.984031	2555.711245
788.306987	2558.451112
788.629897	2557.929352
788.952760	2559.408931
789.275579	2557.016904
789.598351	2554.148487
789.921078	2554.413148
790.243759	2551.111192
790.566395	2548.613300
790.888984	2548.235214
791.211529	2549.099772
791.534027	2552.247972
791.856480	2549.341747
792.178888	2549.283774
792.501249	2551.655637
792.823566	2549.200595
793.145836	2548.918290
793.468062	2549.462735
793.790241	2547.554658
794.112375	2548.973743
794.434464	2547.476520
794.756507	2554.345092
795.078505	2551.113712
795.400457	2550.665050
795.722364	2549.218239
796.044226	2548.719164
796.366042	2547.055584
796.687812	2548.615821
797.009538	2552.915925
797.331218	2551.214536
797.652852	2548.671273
797.974442	2548.341078
798.295986	2551.983312
798.617484	2548.303269
798.938938	2550.544062
799.260346	2550.029864
799.581709	2550.145811
799.903026	2554.241748
800.224299	2547.277394
800.545526	2547.229503
800.866708	2548.855276
801.187845	2549.901315
801.508936	2547.259750
801.829983	2545.979297
802.150984	2547.983156
802.471940	2545.931406
802.792851	2547.496685
803.113717	2548.736808
803.434538	2547.138763
803.755314	2546.904349
804.076045	2546.359904
804.396731	2546.226314
804.717372	2545.258412
805.037967	2548.371325
805.358518	2546.753114
805.679024	2547.804195
805.999485	2547.239586
806.319901	2549.056922
806.640272	2550.065152
806.960598	2546.475851
807.280879	2546.322096
807.601115	2547.272353
807.921306	2545.497867
808.241453	2545.941489
808.561554	2548.696479
808.881611	2548.255378
809.201623	2548.179761
809.521590	2548.300749
809.841513	2547.824360
810.161390	2547.080789
810.481223	2550.271840
810.801011	2544.897970
811.120755	2546.697662
811.440453	2548.605738
811.760107	2545.568443
812.079716	2542.899152
812.399281	2544.156920
812.718801	2544.018288
813.038276	2541.641384
813.357707	2547.209339
813.677093	2546.576674
813.996434	2545.487785
814.315731	2544.923176
814.634983	2550.188661
814.954191	2549.689587
815.273354	2545.129863
815.592473	2545.074410
815.911547	2547.673125
816.230577	2548.378887
816.549562	2549.435008
816.868502	2548.492313
817.187399	2550.551624
817.506250	2551.549772
817.825058	2550.498692
818.143821	2546.619524
818.462539	2549.591284
818.781213	2554.040102
819.099843	2553.180586
819.418429	2553.024310
819.736970	2557.707542
820.055466	2562.678119
820.373919	2566.947977
820.692327	2571.081723
821.010691	2580.158320
821.329011	2600.093563
821.647286	2644.934627
821.965517	2695.633511
822.283704	2725.041082
822.601847	2731.113152
822.919945	2710.714123
823.237999	2681.956861
823.556010	2654.308652
823.873976	2632.830816
824.191897	2614.886829
824.509775	2600.602720
824.827609	2589.066039
825.145398	2587.029413
825.463144	2582.283167
825.780845	2585.070925
826.098502	2590.364136
826.416116	2603.871908
826.733685	2615.700976
827.051210	2624.338993
827.368692	2617.205760
827.686129	2604.673452
828.003522	2591.160639
828.320872	2575.727146
828.638177	2569.481157
828.955439	2562.809189
829.272656	2560.949004
829.589830	2553.178065
829.906960	2556.074208
830.224046	2554.178734
830.541088	2554.491286
830.858086	2552.505071
831.175041	2553.291491
831.491952	2552.777293
831.808819	2551.965668
832.125642	2552.678991
832.442421	2557.417675
832.759157	2560.147460
833.075849	2569.710529
833.392497	2576.727815
833.709101	2586.036306
834.025662	2585.766604
834.342179	2578.993814
834.658653	2572.049624
834.975083	2564.397153
835.291469	2566.869839
835.607811	2552.936090
835.924110	2555.239897
836.240366	2551.819474
836.556578	2550.707900
836.872746	2548.646068
837.188871	2545.576005
837.504952	2548.552806
837.820990	2544.305634
838.136984	2542.193391
838.452935	2546.795964
838.768842	2548.192364
839.084706	2547.388300
839.400526	2547.761345
839.716303	2556.283416
840.032037	2560.747357
840.347727	2560.535629
840.663373	2558.125957
840.978977	2551.307797
841.294537	2547.186654
841.610054	2547.660522
841.925527	2547.985677
842.240957	2546.438042
842.556344	2546.531304
842.871687	2543.370500
843.186987	2542.992414
843.502244	2539.682896
843.817458	2540.116435
844.132629	2539.761034
844.447756	2540.749100
844.762840	2538.825900
845.077881	2536.204500
845.392879	2537.699202
845.707833	2540.716333
846.022745	2537.270704
846.337613	2539.226672
846.652438	2539.113246
846.967221	2541.759852
847.281960	2539.108205
847.596656	2541.500232
847.911309	2539.458565
848.225919	2538.785571
848.540485	2540.035777
848.855009	2538.911600
849.169490	2538.404964
849.483928	2540.751621
849.798323	2541.969059
850.112675	2541.444779
850.426984	2540.875129
850.741251	2540.164326
851.055474	2539.456044
851.369654	2538.788091
851.683792	2539.405633
851.997887	2539.851775
852.311938	2537.066537
852.625947	2538.407484
852.939914	2541.444779
853.253837	2541.084337
853.567718	2540.136600
853.881555	2542.145500
854.195350	2540.537372
854.509103	2538.999820
854.822812	2538.525951
855.136479	2540.973432
855.450103	2539.483771
855.763685	2541.737166
856.077224	2539.019984
856.390720	2541.618699
856.704173	2540.073586
857.017584	2539.758513
857.330953	2538.183153
857.644278	2541.522917
857.957561	2542.800850
858.270802	2541.739687
858.584000	2541.328833
858.897155	2539.670293
859.210268	2541.994265
859.523339	2541.427135
859.836367	2539.677855
860.149352	2540.817156
860.462295	2541.401930
860.775195	2535.468492
861.088054	2537.800025
861.400869	2536.791794
861.713642	2537.439583
862.026373	2537.658873
862.339062	2539.778678
862.651708	2541.578370
862.964312	2538.974614
863.276873	2540.492001
863.589392	2540.313040
863.901869	2541.631302
864.214303	2540.224820
864.526696	2540.350849
864.839045	2541.772454
865.151353	2541.071734
865.463619	2539.705581
865.775842	2541.401930
866.088023	2542.498381
866.400162	2539.413194
866.712258	2543.430994
867.024313	2541.202804
867.336325	2542.294214
867.648296	2539.692978
867.960224	2540.088709
868.272110	2541.464944
868.583954	2540.131559
868.895755	2539.788760
869.207515	2543.189019
869.519233	2543.388144
869.830909	2542.505942
870.142542	2545.003834
870.454134	2541.361600
870.765684	2542.001827
871.077191	2539.451003
871.388657	2542.684903
871.700081	2542.752959
872.011463	2542.556354
872.322803	2540.897814
872.634101	2542.805891
872.945357	2542.223638
873.256571	2544.466951
873.567744	2542.720191
873.878874	2544.784544
874.189963	2543.849410
874.501010	2544.600542
874.812015	2542.233720
875.122979	2544.519883
875.433900	2543.816642
875.744780	2544.403937
876.055618	2543.544420
876.366415	2543.655325
876.677169	2542.949564
876.987882	2544.179605
877.298554	2539.960160
877.609183	2541.497712
877.919771	2539.690458
878.230317	2543.955274
878.540822	2546.427960
878.851285	2547.259750
879.161707	2548.623383
879.472087	2554.713096
879.782425	2557.710062
880.092722	2569.592062
880.402977	2581.040522
880.713191	2599.435693
881.023363	2624.840587
881.333494	2640.057310
881.643583	2644.433032
881.953631	2641.922537
882.263637	2635.623616
882.573602	2627.184724
882.883526	2614.022271
883.193408	2600.791763
883.503248	2592.995619
883.813048	2585.481779
884.122806	2581.373238
884.432522	2572.631878
884.742197	2568.515776
885.051831	2562.657955
885.361424	2559.242573
885.670975	2559.204764
885.980485	2555.325597
886.289954	2552.051367
886.599382	2550.602035
886.908768	2554.188816
887.218113	2548.930893
887.527417	2553.893909
887.836680	2547.650440
888.145901	2549.724875
888.455082	2545.621375
888.764221	2546.541386
889.073319	2545.553320
889.382376	2545.150028
889.691392	2545.230686
890.000366	2545.729760
890.309300	2544.613145
890.618193	2547.347971
890.927044	2547.537014
891.235855	2543.214224
891.544625	2543.869574
891.853353	2545.593649
892.162041	2546.790923
892.470687	2549.059442
892.779293	2548.073897
893.087858	2548.749411
893.396381	2551.753939
893.704864	2551.123795
894.013306	2558.466235
894.321707	2570.449058
894.630068	2578.051118
894.938387	2577.872157
895.246665	2579.306365
895.554903	2572.394943
895.863100	2568.646846
896.171256	2562.239539
896.479371	2558.758622
896.787446	2558.375495
897.095480	2553.941800
897.403473	2550.894422
897.711425	2551.310317
898.019336	2548.809905
898.327207	2548.676315
898.635038	2549.934083
898.942827	2547.040460
899.250576	2546.485933
899.558284	2546.306972
899.865952	2548.068856
900.173579	2544.590459
900.481165	2545.157589
900.788711	2543.733463
901.096216	2546.223793
901.403681	2542.498381
901.711105	2543.430994
902.018489	2544.708927
902.325832	2544.648433
902.633135	2545.576005
902.940397	2548.799823
903.247619	2549.009031
903.554800	2556.210319
903.861941	2567.636094
904.169041	2582.114288
904.476101	2589.920515
904.783121	2593.426637
905.090100	2583.762745
905.397039	2575.883422
905.703938	2567.565518
906.010796	2561.669889
906.317614	2555.544887
906.624391	2552.366439
906.931129	2551.277550
907.237826	2549.820657
907.544483	2546.498536
907.851099	2544.824873
908.157675	2545.074410
908.464211	2543.826725
908.770707	2538.455375
909.077163	2538.475540
909.383578	2536.781712
909.689954	2535.264325
909.996289	2533.457071
910.302584	2538.616692
910.608839	2541.570808
910.915054	2540.383617
911.221229	2540.645757
911.527363	2538.518390
911.833458	2538.331867
912.139513	2538.359593
912.445527	2541.901004
912.751502	2541.177598
913.057436	2542.165664
913.363331	2544.981149
913.669186	2543.083154
913.975000	2548.124308
914.280775	2549.931562
914.586510	2548.041129
914.892205	2553.956923
915.197859	2561.112841
915.503475	2571.565674
915.809050	2580.733012
916.114585	2584.183682
916.420081	2587.800710
916.725536	2583.704772
917.030952	2581.499267
917.336328	2570.393605
917.641665	2571.275807
917.946961	2563.575445
918.252218	2561.317008
918.557435	2557.372305
918.862612	2555.953220
919.167750	2552.865513
919.472848	2551.607746
919.777906	2549.578681
920.082925	2545.439894
920.387904	2548.136911
920.692843	2545.283618
920.997743	2541.038967
921.302603	2543.884698
921.607423	2545.772610
921.912204	2542.546272
922.216946	2540.194573
922.521647	2542.508463
922.826310	2542.992414
923.130932	2539.579553
923.435516	2542.326981
923.740059	2539.282124
924.044564	2540.171888
924.349028	2540.925541
924.653454	2533.131917
924.957840	2537.684079
925.262186	2535.236598
925.566493	2537.263142
925.870761	2533.883049
926.174989	2535.002185
926.479178	2538.359593
926.783328	2537.510159
927.087438	2537.270704
927.391509	2538.432690
927.695541	2538.276414
927.999533	2532.471526
928.303486	2537.449665
928.607400	2537.701723
928.911275	2533.109232
929.215110	2535.294572
929.518906	2533.615868
929.822663	2535.786084
930.126381	2536.859850
930.430060	2537.545447
930.733699	2535.450847
931.037299	2537.212731
931.340861	2535.362627
931.644383	2535.889428
931.947866	2538.087371
932.251309	2536.096115
932.554714	2534.021680
932.858080	2536.322967
933.161407	2534.114942
933.464694	2537.336239
933.767943	2537.530323
934.071153	2536.116280
934.374323	2531.995137
934.677455	2537.641229
934.980548	2537.091743
935.283602	2537.661393
935.586617	2534.004036
935.889593	2537.457227
936.192530	2537.079140
936.495428	2535.327339
936.798287	2536.786753
937.101108	2533.888090
937.403890	2538.036959
937.706632	2538.261291
938.009336	2536.678368
938.312002	2539.360262
938.614628	2539.337577
938.917216	2540.537372
939.219765	2536.988399
939.522275	2539.229192
939.824747	2540.151723
940.127179	2535.324819
940.429573	2534.694674
940.731929	2535.876825
941.034246	2536.101156
941.336524	2539.380427
941.638763	2536.469161
941.940964	2536.305323
942.243126	2539.347659
942.545250	2537.714326
942.847335	2537.114428
943.149381	2538.082330
943.451389	2537.515200
943.753359	2536.678368
944.055290	2537.114428
944.357182	2535.072761
944.659036	2535.990251
944.960851	2536.398584
945.262628	2536.025539
945.564367	2535.259284
945.866067	2537.764737
946.167729	2538.606610
946.469352	2534.614016
946.770937	2538.684748
947.072484	2534.251053
947.373992	2534.798018
947.675462	2536.275076
947.976893	2535.153419
948.278286	2534.740045
948.579641	2535.839016
948.880958	2536.635519
949.182236	2534.621578
949.483476	2533.530168
949.784678	2537.051414
950.085841	2536.368337
950.386967	2538.107536
950.688054	2534.737524
950.989103	2536.317926
951.290114	2533.726773
951.591087	2536.174253
951.892021	2536.133924
952.192917	2536.552340
952.493776	2534.908923
952.794596	2535.206352
953.095378	2537.827752
953.396122	2538.631816
953.696828	2536.184335
953.997496	2535.128214
954.298126	2535.584438
954.598718	2535.019829
954.899272	2533.409180
955.199788	2532.653007
955.500266	2533.421783
955.800706	2531.170908
956.101108	2526.913653
956.401472	2532.431196
956.701798	2528.695701
957.002087	2532.952956
957.302337	2533.134437
957.602550	2532.136289
957.902724	2533.855322
958.202861	2534.263656
958.502960	2533.162164
958.803022	2533.842719
959.103045	2531.077647
959.403031	2531.112935
959.702979	2532.433717
960.002889	2534.119983
960.302762	2530.497914
960.602596	2532.547143
960.902393	2531.548994
961.202153	2533.835158
961.501875	2530.538243
961.801559	2533.046217
962.101205	2531.395239
962.400814	2530.911288
962.700385	2532.153933
962.999918	2532.683254
963.299414	2531.153264
963.598873	2530.170239
963.898293	2531.337266
964.197677	2534.976979
964.497022	2531.743079
964.796331	2531.612009
965.095601	2530.893644
965.394835	2532.224509
965.694030	2531.405322
965.993189	2531.675023
966.292309	2531.942204
966.591393	2531.624612
966.890439	2530.432379
967.189447	2531.700229
967.488419	2532.453882
967.787353	2532.554705
968.086249	2531.145702
968.385108	2532.126207
968.683930	2531.440610
968.982714	2531.123017
969.281462	2531.440610
969.580172	2529.482121
969.878844	2529.272913
970.177480	2530.717204
970.476078	2531.843902
970.774639	2532.557225
971.073162	2530.059333
971.371649	2531.009591
971.670098	2525.290402
971.968510	2526.341482
972.266885	2527.291740
972.565223	2531.732997
972.863524	2528.073119
973.161788	2528.872142
973.460014	2530.082019
973.758204	2534.238450
974.056356	2532.279962
974.354471	2532.055630
974.652550	2530.467667
974.950591	2532.196783
975.248595	2530.437420
975.546563	2530.218130
975.844493	2530.563449
976.142386	2531.428007
976.440243	2531.601927
976.738062	2531.715352
977.035845	2532.552184
977.333590	2530.722245
977.631299	2527.803417
977.928971	2531.422966
978.226606	2531.685106
978.524204	2527.763088
978.821765	2531.528830
979.119290	2530.886083
979.416777	2532.325332
979.714228	2529.754344
980.011642	2529.330887
980.309020	2534.913965
980.606360	2527.921884
980.903664	2529.366175
981.200931	2531.067564
981.498162	2531.226361
981.795356	2531.445651
982.092513	2530.298788
982.389633	2534.213244
982.686717	2533.308357
982.983764	2533.283151
983.280775	2532.663089
983.577749	2534.339273
983.874686	2533.323481
984.171587	2532.554705
984.468451	2532.816845
984.765279	2529.832482
985.062070	2533.441948
985.358824	2530.689478
985.655543	2532.935312
985.952224	2532.045548
986.248869	2528.189065
986.545478	2524.425844
986.842050	2527.591689
987.138586	2528.216792
987.435086	2524.166225
987.731549	2526.424662
988.027975	2530.137471
988.324366	2530.994468
988.620719	2531.014632
988.917037	2529.073788
989.213318	2527.909281
989.509563	2529.560259
989.805772	2530.812986
990.101944	2528.897347
990.398080	2525.900382
990.694180	2528.610002
990.990244	2528.864580
991.286271	2529.900537
991.582262	2529.852646
991.878217	2531.380116
992.174136	2527.047244
992.470019	2528.375588
992.765865	2529.993798
993.061676	2529.595547
993.357450	2530.414735
993.653188	2531.191072
993.948890	2529.608150
994.244556	2529.068747
994.540186	2531.092770
994.835780	2529.608150
995.131337	2531.266690
995.426859	2529.862728
995.722345	2530.896165
996.017795	2528.423479
996.313208	2530.941535
996.608586	2530.719725
996.903928	2531.990095
997.199234	2530.397091
997.494504	2528.761236
997.789738	2525.847449
998.084936	2527.309384
998.380099	2528.864580
998.675225	2529.131761
998.970316	2527.790814
999.265371	2530.281144
999.560390	2530.021525
999.855373	2527.465660
1000.150320	2529.598068
1000.445232	2531.080167
1000.740108	2527.402645
1001.034948	2528.373067
1001.329752	2526.454908
1001.624521	2530.104704
1001.919254	2524.201513
1002.213951	2525.958355
1002.508613	2526.510361
1002.803239	2526.631349
1003.097829	2523.460463
1003.392384	2530.097142
1003.686903	2528.420958
1003.981386	2527.828623
1004.275834	2526.759898
1004.570246	2529.613191
1004.864623	2525.655886
1005.158964	2526.981709
1005.453270	2530.419776
1005.747540	2528.184024
1006.041775	2527.969775
1006.335974	2529.436751
1006.630138	2525.524816
1006.924266	2531.531350
1007.218359	2525.933149
1007.512416	2528.476411
1007.806438	2526.936339
1008.100425	2529.575383
1008.394376	2528.927594
1008.688292	2529.789632
1008.982172	2527.750485
1009.276017	2528.481452
1009.569827	2527.223684
1009.863602	2528.635207
1010.157341	2526.001205
1010.451045	2527.122861
1010.744714	2527.321987
1011.038347	2528.373068
1011.331945	2525.613036
1011.625508	2527.291740
1011.919036	2527.231246
1012.212528	2529.431710
1012.505986	2524.841739
1012.799408	2531.586803
1013.092795	2527.833664
1013.386147	2526.533046
1013.679464	2529.041020
1013.972745	2529.134282
1014.265992	2528.947759
1014.559204	2528.882224
1014.852380	2525.151770
1015.145521	2529.429189
1015.438628	2527.337110
1015.731699	2526.971627
1016.024736	2527.634538
1016.317737	2527.223684
1016.610703	2525.703777
1016.903635	2525.063550
1017.196531	2526.296112
1017.489393	2524.612367
1017.782219	2521.915349
1018.075011	2524.836698
1018.367768	2527.420289
1018.660490	2529.356092
1018.953177	2529.356092
1019.245829	2529.356092
