Dividing Wavelength (nm)	Counts (n)	Blue Motor Position (mm): 0.000000	Red Motor Position (mm): 32.400000	
326.493990	2129.670730
326.888308	2129.670730
327.282561	2129.670730
327.676750	2094.407859
328.070874	2093.422314
328.464933	2097.011615
328.858929	2104.636360
329.252859	2113.707917
329.646726	2123.185286
330.040528	2138.951495
330.434265	2154.246355
330.827938	2172.034067
331.221547	2188.485872
331.615091	2209.043698
332.008571	2227.380895
332.401986	2246.658267
332.795338	2265.053438
333.188625	2286.160749
333.581847	2305.170940
333.975006	2323.757674
334.368100	2341.071517
334.761129	2359.007942
335.154095	2374.688451
335.546996	2390.784856
335.939833	2413.344019
336.332606	2425.410021
336.725315	2441.829059
337.117960	2448.889195
337.510540	2457.234825
337.903056	2470.815693
338.295508	2476.678555
338.687896	2487.577530
339.080220	2492.656493
339.472480	2501.657473
339.864676	2505.685355
340.256807	2510.484533
340.648875	2511.437311
341.040879	2512.947137
341.432818	2514.635923
341.824694	2516.372601
342.216506	2515.500481
342.608253	2516.876716
342.999937	2516.390245
343.391557	2518.189937
343.783113	2518.338651
344.174605	2513.012672
344.566033	2515.321520
344.957397	2513.390758
345.348697	2510.492095
345.739934	2510.257681
346.131106	2507.676610
346.522215	2507.606034
346.913260	2503.615961
347.304241	2502.751403
347.695159	2503.111846
348.086012	2500.276197
348.476802	2498.582369
348.867528	2497.611947
349.258191	2493.763026
349.648789	2495.983654
350.039324	2494.511637
350.429796	2495.436689
350.820203	2490.236739
351.210548	2491.244969
351.600828	2488.129536
351.991045	2489.031903
352.381198	2485.253558
352.771288	2487.970740
353.161314	2487.486789
353.551276	2487.998466
353.941175	2488.676502
354.331010	2486.415544
354.720782	2487.580051
355.110490	2486.163486
355.500135	2485.770276
355.889717	2488.444608
356.279235	2487.237252
356.668689	2487.711121
357.058080	2488.152222
357.447408	2488.202633
357.836672	2483.322796
358.225873	2483.753815
358.615010	2484.290698
359.004084	2492.331338
359.393095	2490.158601
359.782043	2490.420741
360.170927	2492.475011
360.559748	2490.289671
360.948505	2492.772439
361.337199	2494.889724
361.725830	2495.897954
362.114398	2495.998778
362.502903	2494.443582
362.891344	2495.887872
363.279722	2496.187821
363.668037	2498.544560
364.056289	2497.276710
364.444478	2500.989520
364.832603	2498.960455
365.220665	2501.037411
365.608665	2503.285765
365.996601	2499.925836
366.384474	2501.312154
366.772284	2506.136538
367.160031	2505.826507
367.547715	2507.701816
367.935336	2509.267094
368.322893	2512.667353
368.710388	2514.404030
369.097820	2523.324352
369.485189	2524.209074
369.872495	2529.353572
370.259738	2537.673996
370.646918	2545.712116
371.034035	2551.305276
371.421090	2561.727862
371.808081	2573.304872
372.195010	2580.972467
372.581875	2598.682040
372.968678	2613.392127
373.355418	2615.953033
373.742096	2639.694347
374.128710	2651.236069
374.515262	2664.549756
374.901751	2683.680935
375.288177	2697.372709
375.674540	2716.957592
376.060841	2735.967783
376.447079	2755.298087
376.833254	2776.717950
377.219367	2786.359157
377.605417	2827.237873
377.991404	2835.707012
378.377329	2859.637369
378.763191	2875.426263
379.148991	2911.692324
379.534727	2938.531427
379.920402	2967.926395
380.306013	2981.063642
380.691563	3027.555683
381.077049	3050.303890
381.462474	3067.748803
381.847835	3106.792539
382.233134	3126.289202
382.618371	3125.938842
383.003545	3198.067671
383.388657	3204.321222
383.773706	3235.503279
384.158693	3252.108840
384.543618	3280.480454
384.928480	3315.589570
385.313280	3359.205633
385.698017	3360.498689
386.082692	3411.976431
386.467305	3417.259561
386.851856	3451.814150
387.236344	3470.869711
387.620770	3505.618385
388.005133	3532.079401
388.389435	3555.646795
388.773674	3569.827561
389.157851	3609.609827
389.541965	3626.152373
389.926018	3593.770521
390.310008	3660.911129
390.693936	3681.075744
391.077802	3724.061663
391.461606	3716.555385
391.845348	3776.288017
392.229027	3774.442955
392.612645	3787.232362
392.996200	3864.253631
393.379694	3903.221750
393.763125	3969.396977
394.146494	3937.473870
394.529801	4002.091380
394.913047	4044.457237
395.296230	4012.990355
395.679351	4069.897420
396.062410	4091.977674
396.445408	4072.334818
396.828343	4105.500569
397.211217	4129.078045
397.594028	4048.890932
397.976778	4118.476499
398.359466	4141.194459
398.742092	4172.484901
399.124656	4093.714351
399.507158	4177.203421
399.889598	4199.760063
400.271977	4259.291049
400.654294	4231.045464
401.036549	4239.070981
401.418742	4209.577711
401.800874	4314.705933
402.182944	4336.478676
402.564952	4397.900095
402.946898	4384.485584
403.328783	4381.410481
403.710606	4291.735915
404.092367	4489.563395
404.474067	4453.791367
404.855705	4460.796051
405.237282	4389.204104
405.618797	4499.943131
406.000250	4532.186351
406.381642	4613.618630
406.762972	4573.594389
407.144240	4584.027057
407.525447	4582.595369
407.906593	4642.060820
408.287677	4689.762738
408.668700	4617.349083
409.049661	4668.630221
409.430560	4710.529771
409.811399	4634.683091
410.192176	4800.521929
410.572891	4734.185386
410.953545	4839.815203
411.334138	4720.304568
411.714669	4784.554074
412.095139	4680.930636
412.475547	4824.928675
412.855894	4805.671468
413.236180	4817.598838
413.616405	4769.924646
413.996568	4854.903376
414.376670	4802.805572
414.756711	4748.744238
415.136691	4785.446358
415.516609	4863.092731
415.896466	4900.233432
416.276262	4936.759112
416.655997	4915.329167
417.035670	5094.544707
417.415283	5189.315878
417.794834	5131.952589
418.174324	5082.841668
418.553753	4990.591073
418.933121	5176.319784
419.312428	5240.327314
419.691674	5182.626267
420.070859	5309.658303
420.449983	5222.960539
420.829045	5340.028734
421.208047	5248.481380
421.586988	5316.746165
421.965867	5326.110108
422.344686	5462.967353
422.723444	5314.260876
423.102141	5131.609790
423.480777	5430.572898
423.859352	5199.698135
424.237866	5456.078616
424.616319	5449.348676
424.994712	5559.444955
425.373044	5431.646664
425.751314	5578.858439
426.129524	5383.382657
426.507673	5574.893571
426.885762	5661.777858
427.263789	5590.886632
427.641756	5475.645855
428.019662	5599.438949
428.397508	5603.711327
428.775292	5550.325508
429.153016	5641.956041
429.530679	5577.434313
429.908282	5654.788298
430.285824	5527.564698
430.663305	5805.720444
431.040726	5538.337644
431.418086	5536.575761
431.795385	5643.531402
432.172624	5661.147714
432.549802	5651.778729
432.926920	5662.322302
433.303977	5673.385115
433.680974	5714.432710
434.057910	5727.509463
434.434786	5735.003138
434.811601	5702.787644
435.188355	5940.034427
435.565050	5813.453574
435.941683	5796.164937
436.318257	6009.619994
436.694770	5993.125338
437.071222	6030.404671
437.447614	5958.578311
437.823946	5869.150763
438.200218	6025.539958
438.576429	5887.742538
438.952580	5986.680223
439.328670	6034.825763
439.704700	5942.439057
440.080670	5925.200832
440.456580	6203.601073
440.832429	6080.672537
441.208218	5926.554381
441.583947	6081.993319
441.959616	6085.209575
442.335224	6016.339852
442.710773	6152.995450
443.086261	6178.009656
443.461689	5973.883254
443.837057	6118.503876
444.212365	6275.152690
444.587612	6168.620507
444.962800	6321.768240
445.337927	6304.162010
445.712995	5911.070477
446.088002	6489.580690
446.462949	6321.213713
446.837837	6248.754688
447.212664	6423.937305
447.587431	6565.961732
447.962139	7109.282170
448.336786	8036.166361
448.711374	7776.481402
449.085901	6849.859352
449.460369	6774.032837
449.834776	6704.779986
450.209124	7097.001920
450.583412	7248.546566
450.957640	7392.708443
451.331808	7162.549522
451.705917	6708.384411
452.079965	6633.906404
452.453954	6845.649989
452.827883	6719.361523
453.201752	6811.405431
453.575562	6614.097190
453.949311	6816.524723
454.323001	6707.902981
454.696632	6778.559793
455.070202	6922.641011
455.443713	7074.243631
455.817164	7177.670463
456.190556	7255.876404
456.563888	7326.896179
456.937160	7377.731174
457.310373	7037.596963
457.683526	7053.895013
458.056619	6943.849145
458.429653	6931.732732
458.802628	6869.444235
459.175542	6981.642676
459.548398	7333.096798
459.921194	7493.793659
460.293930	7493.939853
460.666607	8023.452571
461.039224	8334.148964
461.411782	8464.384653
461.784280	8481.799319
462.156719	8373.371662
462.529099	8252.769618
462.901419	7835.692275
463.273680	7731.305102
463.645882	7744.588543
464.018024	7614.962833
464.390106	7777.139273
464.762130	8161.522213
465.134094	8636.406467
465.505999	9653.297938
465.877845	10876.085256
466.249631	11520.987465
466.621358	11143.490742
466.993026	10514.742910
467.364634	10257.311348
467.736184	9886.607579
468.107674	9560.686901
468.479105	9591.274102
468.850477	9357.606539
469.221790	9134.832909
469.593043	8800.380078
469.964238	8663.056527
470.335373	8675.465327
470.706449	8733.000016
471.077467	8712.432108
471.448425	10023.976501
471.819324	11097.351581
472.190164	11117.208686
472.560945	9873.281289
472.931667	9083.191329
473.302330	8940.768651
473.672934	8592.558511
474.043479	8943.251419
474.413965	8887.763439
474.784393	8765.591075
475.154761	8921.685363
475.525070	9014.435032
475.895321	8840.346346
476.265513	9008.368003
476.635645	9185.632617
477.005719	9181.440897
477.375734	9292.694121
477.745691	9527.299339
478.115588	9664.819495
478.485427	9903.762626
478.855207	10431.352143
479.224928	11247.739282
479.594591	11873.991743
479.964194	11689.850995
480.333739	11626.095523
480.703226	11533.020699
481.072653	11620.209976
481.442022	11853.358300
481.811333	12042.603215
482.180584	11836.621669
482.549777	11551.246991
482.918912	11364.978877
483.287988	11381.080322
483.657005	11390.479554
484.025964	11070.419217
484.394864	11192.188288
484.763706	11159.924903
485.132489	10909.036758
485.501213	10864.432629
485.869879	10929.455952
486.238487	10768.869996
486.607036	10868.788186
486.975527	10644.545060
487.343959	10822.638943
487.712333	10862.456497
488.080648	10777.301326
488.448905	10807.707046
488.817104	10737.695501
489.185244	10985.644653
489.553326	11119.865374
489.921350	11632.787654
490.289315	12620.649642
490.657222	12956.239253
491.025070	12834.765089
491.392861	12698.059079
491.760593	12318.603868
492.128267	11975.306332
492.495883	11642.368367
492.863440	11304.301029
493.230939	10955.269180
493.598380	10872.679957
493.965763	10723.706299
494.333088	10606.433937
494.700354	10514.591676
495.067563	10555.399816
495.434713	10366.996773
495.801805	10452.383837
496.168839	10363.707421
496.535815	10264.409293
496.902733	10249.096788
497.269593	10156.112705
497.636395	10224.735412
498.003139	10173.013173
498.369825	10028.863900
498.736453	10142.173915
499.103023	10042.255725
499.469535	10035.644252
499.835989	9993.260751
500.202385	9921.981356
500.568723	9747.048276
500.935003	9912.599769
501.301226	9686.042753
501.667390	9894.131502
502.033497	9934.637173
502.399546	9775.177915
502.765537	9652.725767
503.131470	9671.647738
503.497345	9774.361248
503.863163	9410.210979
504.228923	9613.956774
504.594625	9627.958578
504.960269	9372.495587
505.325856	9507.001133
505.691385	9284.842524
506.056856	9365.216161
506.422270	9330.419596
506.787625	9192.329789
507.152924	9225.694666
507.518164	9168.553187
507.883347	9048.288901
508.248472	8932.639790
508.613540	9056.962206
508.978550	8904.101818
509.343503	8836.197476
509.708398	8867.150161
510.073236	8882.480309
510.438016	8831.811672
510.802738	8727.961382
511.167403	8708.666366
511.532010	8564.960714
511.896561	8687.788427
512.261053	8667.885952
512.625488	8500.169284
512.989866	8428.544570
513.354186	8353.128909
513.718449	8223.372129
514.082655	8290.853015
514.446803	8154.943507
514.810894	8165.471957
515.174927	8010.501846
515.538904	7970.795198
515.902822	7987.763722
516.266684	7853.767332
516.630488	7739.532265
516.994235	7723.924853
517.357925	7676.764859
517.721558	7662.455544
518.085133	7596.771830
518.448651	7538.420474
518.812112	7400.698671
519.175516	7338.805905
519.538863	7328.504307
519.902152	7226.131075
520.265385	7224.893472
520.628560	7123.974613
520.991678	7028.530447
521.354739	7003.208732
521.717743	6899.829790
522.080690	6824.812379
522.443580	6802.359080
522.806413	6717.818930
523.169189	6668.642474
523.531908	6624.303006
523.894569	6480.647765
524.257174	6402.038533
524.619722	6383.073712
524.982213	6308.494882
525.344647	6249.591520
525.707025	6171.730899
526.069345	6139.439788
526.431608	6037.028747
526.793815	6014.630901
527.155964	5868.487851
527.518057	5831.720195
527.880093	5743.106793
528.242072	5708.892482
528.603995	5608.117296
528.965860	5522.016909
529.327669	5482.516948
529.689421	5406.425772
530.051117	5342.337583
530.412755	5305.461542
530.774337	5220.911310
531.135862	5146.130834
531.497331	5104.755564
531.858743	4995.990149
532.220098	4994.626517
532.581396	4899.124378
532.942638	4848.503631
533.303824	4786.477274
533.664953	4736.005242
534.026025	4664.322555
534.387040	4639.265500
534.747999	4591.959312
535.108902	4555.050504
535.469748	4457.022747
535.830537	4432.341258
536.191270	4383.250502
536.551947	4339.291640
536.912567	4293.732212
537.273131	4241.135334
537.633638	4192.147921
537.994089	4144.400633
538.354483	4098.609312
538.714821	4081.338318
539.075103	4046.892114
539.435328	3996.246162
539.795497	3934.111420
540.155609	3912.043769
540.515665	3896.128847
540.875665	3819.730160
541.235609	3786.909728
541.595496	3755.757918
541.955328	3736.677151
542.315102	3694.137374
542.674821	3650.516270
543.034483	3624.221611
543.394090	3589.452773
543.753640	3547.737225
544.113134	3544.528531
544.472571	3502.210565
544.831953	3484.231289
545.191278	3435.475770
545.550548	3412.783016
545.909761	3401.420255
546.268918	3368.844319
546.628019	3353.410827
546.987064	3314.339364
547.346053	3288.558903
547.704986	3268.225409
548.063863	3244.393354
548.422684	3226.015828
548.781449	3194.294367
549.140158	3183.496216
549.498811	3151.426915
549.857408	3124.764253
550.215949	3114.409723
550.574434	3089.614807
550.932864	3077.263981
551.291237	3061.724624
551.649555	3044.221738
552.007817	3031.984337
552.366022	3014.554547
552.724173	2998.500993
553.082267	2984.723519
553.440305	2971.182980
553.798288	2952.008952
554.156215	2941.702313
554.514086	2929.452309
554.871902	2913.187026
555.229661	2902.434245
555.587365	2889.564179
555.945014	2875.302755
556.302606	2865.182638
556.660143	2854.646627
557.017625	2846.452231
557.375050	2834.373627
557.732421	2831.290961
558.089735	2819.313179
558.446994	2808.484781
558.804197	2798.972124
559.161345	2793.812503
559.518437	2781.877571
559.875474	2775.830707
560.232455	2772.019595
560.589381	2761.949890
560.946251	2758.564755
561.303065	2751.968405
561.659825	2746.095461
562.016528	2738.848802
562.373177	2731.150960
562.729770	2727.223902
563.086307	2721.282902
563.442789	2719.649568
563.799216	2711.061962
564.155587	2707.202959
564.511904	2702.832279
564.868164	2700.848585
565.224370	2698.375899
565.580520	2692.273582
565.936615	2688.071780
566.292654	2682.919721
566.648638	2683.038188
567.004567	2681.104906
567.360441	2679.509380
567.716260	2671.743483
568.072023	2672.355983
568.427732	2664.340548
568.783385	2665.343738
569.138982	2662.462719
569.494525	2659.526247
569.850013	2655.291677
570.205445	2658.631442
570.560823	2655.989877
570.916145	2654.613642
571.271412	2653.781852
571.626625	2651.102478
571.981782	2647.785399
572.336884	2648.662560
572.691931	2648.047539
573.046923	2641.579739
573.401860	2641.365490
573.756743	2641.471354
574.111570	2639.270890
574.466342	2642.461941
574.821059	2637.360293
575.175722	2637.367855
575.530330	2636.969604
575.884882	2633.985241
576.239380	2633.917185
576.593823	2632.543471
576.948211	2631.999026
577.302544	2628.215640
577.656823	2628.407204
578.011047	2629.601957
578.365216	2627.981226
578.719330	2624.462501
579.073389	2625.563993
579.427394	2623.232459
579.781344	2625.042234
580.135239	2621.911677
580.489080	2622.952675
580.842866	2619.938065
581.196597	2621.997377
581.550273	2620.737088
581.903895	2619.796913
582.257463	2618.090482
582.610975	2617.722478
582.964434	2618.836573
583.317837	2616.810029
583.671186	2619.073507
584.024481	2613.588732
584.377721	2616.222735
584.730906	2613.656788
585.084037	2616.535287
585.437113	2612.877929
585.790135	2612.308279
586.143103	2613.245934
586.496016	2610.750562
586.848874	2608.051025
587.201679	2608.403905
587.554428	2607.556992
587.907124	2607.912393
588.259765	2605.376692
588.612352	2608.406426
588.964884	2609.044132
589.317362	2608.179574
589.669786	2609.578494
590.022155	2606.276538
590.374470	2608.166971
590.726731	2607.277208
591.078937	2605.510283
591.431090	2605.792588
591.783188	2603.685385
592.135232	2605.356528
592.487222	2605.200252
592.839157	2606.803339
593.191038	2603.743359
593.542866	2603.677824
593.894639	2603.299737
594.246358	2604.920468
594.598022	2603.904676
594.949633	2600.758996
595.301190	2600.743872
595.652692	2602.089860
596.004141	2604.091198
596.355535	2602.649428
596.706876	2600.834613
597.058162	2598.245980
597.409395	2600.829572
597.760573	2601.986517
598.111698	2599.972576
598.462768	2600.325456
598.813785	2601.104315
599.164748	2598.366968
599.515657	2596.050558
599.866511	2598.419900
600.217312	2598.213213
600.568060	2596.136257
600.918753	2599.818820
601.269392	2596.128696
601.619978	2597.918305
601.970510	2598.510641
602.320988	2597.303285
602.671412	2597.288161
603.021783	2596.302616
603.372100	2595.155753
603.722363	2598.346803
604.072572	2598.911413
604.422728	2597.444437
604.772830	2593.615681
605.122878	2592.771287
605.472872	2595.526278
605.822813	2588.836667
606.172701	2592.257090
606.522534	2594.938983
606.872314	2597.336052
607.222041	2595.130547
607.571714	2596.579879
607.921333	2594.588623
608.270899	2597.424272
608.620411	2596.337904
608.969870	2598.056937
609.319276	2598.611464
609.668627	2599.876794
610.017926	2605.691765
610.367171	2605.283431
610.716362	2603.947525
611.065500	2604.295365
611.414585	2600.121290
611.763616	2599.453337
612.112594	2599.087853
612.461518	2596.347986
612.810389	2598.311515
613.159207	2596.842019
613.507971	2596.965527
613.856682	2597.222626
614.205340	2597.643562
614.553945	2599.097935
614.902496	2597.051227
615.250994	2598.087184
615.599439	2596.063161
615.947830	2597.126844
616.296169	2597.086515
616.644454	2600.902668
616.992686	2597.406628
617.340864	2597.328490
617.688990	2596.932760
618.037063	2599.544077
618.385082	2598.762699
618.733048	2597.192379
619.080961	2595.392687
619.428821	2596.791607
619.776628	2597.182297
620.124382	2596.221957
620.472083	2596.181628
620.819731	2597.910744
621.167326	2596.776484
621.514868	2594.969230
621.862357	2593.456884
622.209793	2593.608119
622.557176	2594.460074
622.904506	2591.788262
623.251783	2586.560586
623.599007	2590.351533
623.946179	2589.265165
624.293297	2587.795668
624.640363	2591.790783
624.987376	2592.463777
625.334336	2589.108889
625.681243	2590.941348
626.028097	2589.602922
626.374899	2592.199116
626.721647	2590.681729
627.068343	2590.331369
627.414987	2588.052767
627.761577	2588.786255
628.108115	2586.973960
628.454600	2589.330700
628.801032	2587.069742
629.147412	2590.036461
629.493739	2586.588312
629.840014	2588.463621
630.186236	2589.691142
630.532405	2589.015628
630.878521	2584.937334
631.224585	2586.651327
631.570597	2587.702407
631.916556	2586.086717
632.262462	2588.191399
632.608316	2588.055288
632.954117	2584.440781
633.299866	2584.163517
633.645562	2586.764752
633.991206	2585.814495
634.336797	2584.944896
634.682336	2585.892633
635.027823	2584.289546
635.373257	2582.694021
635.718639	2579.588670
636.063968	2582.590677
636.409245	2581.441294
636.754470	2584.057653
637.099642	2579.528176
637.444762	2582.162179
637.789829	2580.095306
638.134845	2580.261664
638.479808	2578.729153
638.824719	2583.440112
639.169577	2577.317630
639.514383	2579.145048
639.859137	2577.040367
640.203839	2579.477765
640.548489	2579.732343
640.893086	2572.062227
641.237632	2574.426528
641.582125	2575.008782
641.926566	2574.648339
642.270955	2576.609348
642.615292	2578.421643
642.959576	2577.841910
643.303809	2579.591191
643.647990	2579.044225
643.992118	2576.642116
644.336195	2577.494071
644.680219	2578.290573
645.024192	2577.138669
645.368112	2577.456262
645.711981	2576.944585
646.055797	2578.908114
646.399562	2577.534400
646.743274	2578.761921
647.086935	2579.167734
647.430544	2581.063207
647.774101	2581.708475
648.117606	2580.564133
648.461059	2579.530697
648.804460	2584.468507
649.147810	2579.084555
649.491108	2580.395255
649.834354	2576.296797
650.177548	2578.414081
650.520690	2575.805284
650.863781	2575.487691
651.206820	2579.439956
651.549807	2576.090109
651.892742	2574.870150
652.235626	2576.747980
652.578458	2574.590366
652.921238	2573.839234
653.263967	2577.219328
653.606644	2573.040211
653.949269	2573.350242
654.291843	2573.415777
654.634365	2574.560119
654.976836	2573.539285
655.319255	2575.407033
655.661622	2572.858730
656.003938	2573.917372
656.346203	2572.538616
656.688416	2574.363514
657.030577	2576.964749
657.372687	2572.329408
657.714746	2572.450396
658.056753	2571.908472
658.398708	2569.685323
658.740612	2567.840261
659.082465	2568.072154
659.424266	2570.824624
659.766016	2566.340518
660.107715	2572.639439
660.449362	2573.420818
660.790958	2572.352094
661.132503	2575.089440
661.473996	2572.551219
661.815438	2576.203535
662.156829	2576.818556
662.498168	2573.319995
662.839456	2572.712536
663.180693	2574.413926
663.521879	2573.362845
663.863013	2573.398133
664.204097	2573.158678
664.545129	2570.784295
664.886110	2576.027095
665.227040	2574.499625
665.567918	2575.686817
665.908746	2574.832341
666.249522	2573.178843
666.590248	2573.786302
666.930922	2575.989286
667.271545	2576.556416
667.612118	2573.594738
667.952639	2573.811508
668.293109	2574.141703
668.633528	2573.992989
668.973896	2570.043245
669.314213	2574.053483
669.654480	2575.727146
669.994695	2573.214131
670.334859	2573.405695
670.674973	2573.468709
671.015035	2575.417115
671.355047	2573.811508
671.695008	2571.754717
672.034918	2570.622978
672.374777	2572.311764
672.714585	2572.591548
673.054342	2574.539954
673.394049	2573.171281
673.733705	2572.788153
674.073310	2572.500808
674.412864	2573.839234
674.752368	2569.783626
675.091820	2576.180850
675.431223	2573.156158
675.770574	2572.576425
676.109875	2567.016032
676.449125	2570.708677
676.788324	2570.673389
677.127473	2567.510065
677.466571	2567.474777
677.805619	2572.836044
678.144616	2568.951835
678.483562	2570.499470
678.822458	2570.411249
679.161303	2569.844120
679.500098	2567.847823
679.838842	2570.391085
680.177535	2570.030642
680.516179	2572.455437
680.854771	2569.876887
681.193314	2570.892680
681.531805	2572.926785
681.870247	2573.960222
682.208638	2577.426015
682.546978	2576.478278
682.885268	2575.432239
683.223508	2576.211097
683.561697	2573.408215
683.899836	2572.150448
684.237925	2573.294789
684.575963	2572.057186
684.913951	2572.397464
685.251889	2573.761096
685.589776	2570.771692
685.927614	2572.601631
686.265401	2572.137845
686.603137	2574.350911
686.940824	2574.154306
687.278460	2575.545665
687.616046	2572.495767
687.953582	2572.193297
688.291068	2575.676735
688.628504	2573.393092
688.965889	2574.010633
689.303224	2573.614903
689.640510	2573.776220
689.977745	2573.219172
690.314930	2569.652556
690.652065	2571.038873
690.989150	2570.338153
691.326185	2568.629202
691.663170	2568.707339
692.000105	2567.908317
692.336990	2568.992165
692.673825	2567.300857
693.010610	2564.883624
693.347345	2562.683161
693.684030	2562.342883
694.020665	2564.928995
694.357251	2559.071174
694.693786	2561.133006
695.030272	2563.003274
695.366707	2566.133830
695.703093	2564.505538
696.039429	2564.419838
696.375716	2560.545711
696.711952	2560.870866
697.048139	2563.456978
697.384276	2562.761298
697.720363	2562.176525
698.056400	2563.199879
698.392388	2562.617626
698.728326	2559.978582
699.064214	2562.360527
699.400053	2562.363047
699.735842	2562.635270
700.071581	2562.090825
700.407270	2560.477656
700.742910	2560.011349
701.078501	2559.189641
701.414042	2561.616957
701.749533	2561.503531
702.084974	2560.971689
702.420366	2557.982285
702.755709	2560.482697
703.091002	2557.826009
703.426246	2558.133519
703.761440	2556.916081
704.096584	2560.361709
704.431679	2557.891544
704.766725	2559.603016
705.101721	2557.911708
705.436668	2557.967161
705.771565	2557.762994
706.106413	2558.627552
706.441212	2558.967830
706.775961	2557.037068
707.110661	2558.224260
707.445311	2560.333983
707.779913	2559.202244
708.114465	2561.155691
708.448967	2560.419682
708.783421	2562.952862
709.117825	2562.070660
709.452180	2562.194169
709.786485	2561.682492
710.120742	2564.160219
710.454949	2564.656772
710.789107	2562.121072
711.123216	2558.327604
711.457275	2562.126113
711.791286	2560.437327
712.125247	2562.489076
712.459159	2566.713563
712.793023	2566.093501
713.126837	2564.681978
713.460602	2566.839592
713.794318	2564.331618
714.127985	2561.541339
714.461602	2563.714077
714.795171	2562.478994
715.128691	2561.039744
715.462162	2561.569066
715.795584	2561.485887
716.128957	2562.146278
716.462281	2558.483879
716.795556	2559.403890
717.128782	2557.402552
717.461960	2558.453633
717.795088	2557.909188
718.128167	2555.396173
718.461198	2557.508416
718.794180	2561.223747
719.127113	2554.967675
719.459997	2555.378529
719.792833	2552.759649
720.125619	2554.564382
720.458357	2555.265103
720.791046	2552.497509
721.123686	2555.242418
721.456278	2558.410783
721.788821	2556.227963
722.121315	2556.916081
722.453761	2554.718137
722.786158	2554.158569
723.118506	2555.164280
723.450805	2556.563200
723.783056	2554.040102
724.115259	2556.011193
724.447412	2553.193188
724.779518	2554.014897
725.111574	2553.125133
725.443582	2558.597305
725.775542	2554.410627
726.107453	2553.977088
726.439315	2556.863148
726.771129	2558.499003
727.102895	2557.039589
727.434612	2558.496482
727.766281	2555.590257
728.097901	2556.963972
728.429473	2553.462890
728.760996	2555.915412
729.092471	2554.095555
729.423897	2558.113355
729.755276	2558.211657
730.086606	2559.366081
730.417887	2560.812893
730.749120	2558.778787
731.080305	2559.093859
731.411442	2562.433623
731.742530	2558.105793
732.073570	2560.225598
732.404562	2557.934394
732.735506	2558.652758
733.066401	2560.182748
733.397249	2558.279713
733.728048	2559.101421
734.058798	2556.908519
734.389501	2555.968344
734.720156	2554.513971
735.050762	2558.466235
735.381320	2554.957592
735.711831	2555.151677
736.042293	2555.509599
736.372707	2553.294012
736.703073	2553.997252
737.033391	2554.012376
737.363661	2557.425237
737.693883	2553.619166
738.024056	2554.203940
738.354182	2554.942469
738.684260	2554.466080
739.014290	2555.968344
739.344272	2557.662171
739.674207	2555.025648
740.004093	2557.773077
740.333931	2553.200750
740.663722	2555.065977
740.993464	2555.738971
741.323159	2557.848694
741.652806	2553.407438
741.982405	2554.786193
742.311956	2553.621687
742.641460	2555.247459
742.970915	2553.291491
743.300323	2551.053219
743.629683	2553.914073
743.958996	2553.152859
744.288260	2556.444733
744.617477	2553.588919
744.946647	2550.657488
745.275768	2548.570450
745.604842	2548.643547
745.933869	2547.395862
746.262847	2547.723537
746.591778	2551.547252
746.920662	2552.084135
747.249498	2550.158414
747.578286	2552.114382
747.907027	2552.305945
748.235720	2553.644372
748.564365	2554.080432
748.892963	2554.085473
749.221514	2552.749567
749.550017	2551.421223
749.878473	2554.599670
750.206881	2551.159083
750.535242	2551.133877
750.863555	2552.026161
751.191821	2553.099927
751.520039	2549.490461
751.848210	2550.816284
752.176334	2549.886192
752.504411	2553.349464
752.832440	2550.294525
753.160421	2549.850903
753.488356	2551.287632
753.816243	2550.183620
754.144082	2551.075904
754.471875	2550.113043
754.799620	2551.043136
755.127318	2551.474155
755.454969	2548.789741
755.782572	2552.351316
756.110129	2550.072714
756.437638	2550.191181
756.765100	2549.682025
757.092515	2551.020451
757.419882	2549.157745
757.747203	2548.504915
758.074477	2551.149001
758.401703	2551.958106
758.728882	2551.504402
759.056014	2549.921480
759.383099	2549.162786
759.710138	2552.106820
760.037129	2550.680173
760.364073	2551.272509
760.690970	2552.043805
761.017820	2551.706048
761.344623	2552.583209
761.671379	2551.080945
761.998088	2547.292518
762.324751	2550.854093
762.651366	2555.983467
762.977935	2568.399829
763.304456	2566.451423
763.630931	2576.180850
763.957359	2570.804459
764.283740	2566.763975
764.610074	2561.843808
764.936362	2559.023283
765.262602	2554.778631
765.588796	2555.791903
765.914943	2551.272509
766.241044	2553.054557
766.567097	2549.934082
766.893104	2550.740667
767.219064	2547.736139
767.544978	2548.920811
767.870845	2546.677497
768.196665	2550.680173
768.522438	2546.937117
768.848165	2547.990718
769.173846	2545.487785
769.499479	2546.463248
769.825066	2546.496016
770.150607	2546.211190
770.476101	2547.254709
770.801548	2548.144473
771.126949	2545.374359
771.452303	2545.853268
771.777611	2547.133722
772.102872	2544.744215
772.428087	2546.319575
772.753256	2546.717826
773.078378	2544.928217
773.403453	2544.466951
773.728482	2540.837320
774.053465	2546.107847
774.378401	2543.388144
774.703291	2540.630633
775.028135	2540.716333
775.352932	2542.258926
775.677683	2545.901159
776.002388	2542.720191
776.327046	2540.590304
776.651658	2543.841848
776.976224	2542.694986
777.300743	2541.817825
777.625216	2544.648433
777.949643	2543.947712
778.274024	2544.209852
778.598359	2541.709440
778.922647	2538.470499
779.246889	2538.145344
779.571086	2539.871939
779.895236	2540.033256
780.219339	2543.365459
780.543397	2543.153731
780.867409	2543.183978
781.191374	2544.623227
781.515294	2540.338246
781.839167	2541.260777
782.162995	2542.629451
782.486776	2545.046684
782.810511	2542.256405
783.134201	2545.180274
783.457844	2542.037115
783.781441	2543.254554
784.104993	2546.034750
784.428498	2538.626774
784.751958	2542.500901
785.075372	2541.974101
785.398739	2542.654656
785.722061	2538.599048
786.045337	2543.430994
786.368568	2541.850592
786.691752	2542.851261
787.014891	2543.998124
787.337983	2545.079451
787.661030	2544.325799
787.984031	2545.848227
788.306987	2547.993238
788.629897	2548.250337
788.952760	2547.090872
789.275579	2544.469472
789.598351	2545.414688
789.921078	2543.269677
790.243759	2545.197918
790.566395	2540.479398
790.888984	2540.807073
791.211529	2539.922351
791.534027	2543.037784
791.856480	2544.766900
792.178888	2543.935109
792.501249	2543.761190
792.823566	2544.048535
793.145836	2540.560057
793.468062	2542.377393
793.790241	2541.530479
794.112375	2539.251877
794.434464	2540.653318
794.756507	2542.296734
795.078505	2542.591642
795.400457	2540.988555
795.722364	2537.810108
796.044226	2542.291693
796.366042	2537.343801
796.687812	2541.354039
797.009538	2546.669935
797.331218	2543.189019
797.652852	2544.492157
797.974442	2544.126673
798.295986	2541.787578
798.617484	2542.493339
798.938938	2542.584080
799.260346	2544.013247
799.581709	2539.564429
799.903026	2542.584080
800.224299	2542.679862
800.545526	2545.124822
800.866708	2540.416384
801.187845	2541.742208
801.508936	2542.561395
801.829983	2539.824048
802.150984	2540.643236
802.471940	2539.246836
802.792851	2539.607279
803.113717	2540.497042
803.434538	2541.099460
803.755314	2539.284645
804.076045	2541.520397
804.396731	2538.989738
804.717372	2538.868750
805.037967	2539.241795
805.358518	2539.385468
805.679024	2541.893442
805.999485	2539.496373
806.319901	2538.924202
806.640272	2540.222300
806.960598	2542.591642
807.280879	2540.305479
807.601115	2542.510983
807.921306	2539.234233
808.241453	2544.582898
808.561554	2538.747762
808.881611	2544.439225
809.201623	2539.506456
809.521590	2541.898483
809.841513	2541.265818
810.161390	2541.144831
810.481223	2541.384286
810.801011	2540.882691
811.120755	2542.359749
811.440453	2542.579039
811.760107	2540.945705
812.079716	2539.657690
812.399281	2537.789943
812.718801	2536.330529
813.038276	2535.990251
813.357707	2538.919161
813.677093	2541.172557
813.996434	2542.148020
814.315731	2539.309851
814.634983	2540.176929
814.954191	2540.912938
815.273354	2539.962680
815.592473	2541.560726
815.911547	2541.989224
816.230577	2543.730943
816.549562	2541.996786
816.868502	2543.078113
817.187399	2539.430838
817.506250	2542.808412
817.825058	2541.986703
818.143821	2542.551313
818.462539	2544.431663
818.781213	2545.119781
819.099843	2547.264792
819.418429	2548.111705
819.736970	2550.165976
820.055466	2551.068342
820.373919	2554.282078
820.692327	2557.319373
821.010691	2563.646021
821.329011	2579.147569
821.647286	2613.014041
821.965517	2647.054432
822.283704	2670.226096
822.601847	2675.882270
822.919945	2661.509941
823.237999	2640.730304
823.556010	2621.533591
823.873976	2603.796291
824.191897	2591.979826
824.509775	2583.172930
824.827609	2576.258988
825.145398	2569.697926
825.463144	2569.975190
825.780845	2570.718760
826.098502	2575.555747
826.416116	2582.699062
826.733685	2592.640217
827.051210	2597.699015
827.368692	2591.959662
827.686129	2582.532704
828.003522	2570.746486
828.320872	2559.411452
828.638177	2557.871379
828.955439	2552.247972
829.272656	2550.617159
829.589830	2543.524255
829.906960	2545.633978
830.224046	2542.717671
830.541088	2544.224976
830.858086	2541.626261
831.175041	2544.797147
831.491952	2543.239430
831.808819	2544.242620
832.125642	2548.101623
832.442421	2547.471479
832.759157	2553.077242
833.075849	2554.897098
833.392497	2562.978068
833.709101	2568.626681
834.025662	2569.589541
834.342179	2565.463357
834.658653	2559.852553
834.975083	2556.074208
835.291469	2555.585216
835.607811	2547.925183
835.924110	2543.098278
836.240366	2545.306303
836.556578	2541.401930
836.872746	2543.418391
837.188871	2540.050900
837.504952	2540.529810
837.820990	2539.294727
838.136984	2536.771630
838.452935	2537.936136
838.768842	2538.110056
839.084706	2538.747762
839.400526	2543.249512
839.716303	2544.313196
840.032037	2551.020451
840.347727	2550.491130
840.663373	2546.788403
840.978977	2546.163299
841.294537	2542.364790
841.610054	2542.523586
841.925527	2537.873122
842.240957	2537.679037
842.556344	2539.077958
842.871687	2536.552340
843.186987	2535.372710
843.502244	2535.992772
843.817458	2537.800025
844.132629	2536.403626
844.447756	2532.877338
844.762840	2532.610157
845.077881	2533.222657
845.392879	2530.787780
845.707833	2534.475384
846.022745	2530.573531
846.337613	2535.236598
846.652438	2534.926567
846.967221	2536.554860
847.281960	2537.527803
847.596656	2533.956145
847.911309	2534.755168
848.225919	2536.829603
848.540485	2534.182997
848.855009	2534.276259
849.169490	2534.513193
849.483928	2534.750127
849.798323	2534.273738
850.112675	2533.963707
850.426984	2532.136289
850.741251	2532.229550
851.055474	2536.388502
851.369654	2535.231557
851.683792	2531.226361
851.997887	2535.423121
852.311938	2532.738707
852.625947	2534.041845
852.939914	2532.254756
853.253837	2536.912782
853.567718	2534.104859
853.881555	2535.581917
854.195350	2534.482946
854.509103	2534.336752
854.822812	2534.001516
855.136479	2533.913296
855.450103	2533.315919
855.763685	2534.228368
856.077224	2535.546629
856.390720	2536.010416
856.704173	2534.563604
857.017584	2535.014788
857.330953	2536.963194
857.644278	2536.045704
857.957561	2537.535365
858.270802	2537.147196
858.584000	2535.357586
858.897155	2534.871115
859.210268	2534.407329
859.523339	2534.387164
859.836367	2533.686444
860.149352	2533.618388
860.462295	2535.627288
860.775195	2531.107893
861.088054	2530.356762
861.400869	2531.480939
861.713642	2531.322142
862.026373	2531.823737
862.339062	2534.382123
862.651708	2534.062010
862.964312	2535.050076
863.276873	2535.803728
863.589392	2532.728624
863.901869	2534.765251
864.214303	2534.540919
864.526696	2535.710467
864.839045	2534.132586
865.151353	2534.452699
865.463619	2536.242309
865.775842	2535.712987
866.088023	2534.619057
866.400162	2536.015457
866.712258	2534.641742
867.024313	2535.395395
867.336325	2535.186187
867.648296	2535.692823
867.960224	2535.745755
868.272110	2533.998995
868.583954	2536.050745
868.895755	2535.317257
869.207515	2536.872453
869.519233	2537.744573
869.830909	2537.086702
870.142542	2535.614685
870.454134	2536.015457
870.765684	2537.512679
871.077191	2534.578728
871.388657	2537.744573
871.700081	2534.432534
872.011463	2535.738193
872.322803	2537.432021
872.634101	2536.690971
872.945357	2537.076620
873.256571	2536.295241
873.567744	2534.346835
873.878874	2541.890922
874.189963	2538.122659
874.501010	2538.092412
874.812015	2536.464119
875.122979	2536.126362
875.433900	2536.789274
875.744780	2536.683410
876.055618	2537.464788
876.366415	2537.600900
876.677169	2539.103163
876.987882	2537.527803
877.298554	2534.752648
877.609183	2538.520910
877.919771	2536.080992
878.230317	2537.061496
878.540822	2540.676003
878.851285	2541.563247
879.161707	2544.653474
879.472087	2547.360573
879.782425	2547.816798
880.092722	2558.191493
880.402977	2565.871690
880.713191	2585.819536
881.023363	2601.933584
881.333494	2613.752570
881.643583	2618.851697
881.953631	2615.824484
882.263637	2610.427929
882.573602	2610.468258
882.883526	2596.620208
883.193408	2586.958837
883.503248	2579.447518
883.813048	2570.300344
884.122806	2565.236505
884.432522	2561.926987
884.742197	2557.004301
885.051831	2552.240410
885.361424	2550.922149
885.670975	2549.243444
885.980485	2546.090203
886.289954	2544.592980
886.599382	2545.245809
886.908768	2543.960315
887.218113	2540.640715
887.527417	2541.424615
887.836680	2537.419418
888.145901	2540.197094
888.455082	2539.130890
888.764221	2539.730787
889.073319	2540.315561
889.382376	2540.096271
889.691392	2538.309182
890.000366	2538.334388
890.309300	2536.086033
890.618193	2539.571991
890.927044	2538.951929
891.235855	2539.781199
891.544625	2537.774819
891.853353	2537.242978
892.162041	2537.863040
892.470687	2539.942516
892.779293	2539.869419
893.087858	2539.413194
893.396381	2542.006868
893.704864	2546.874102
894.013306	2548.883002
894.321707	2556.137222
894.630068	2561.473284
894.938387	2566.380847
895.246665	2565.120558
895.554903	2561.790876
895.863100	2558.302398
896.171256	2555.000442
896.479371	2551.736295
896.787446	2549.946685
897.095480	2543.098278
897.403473	2543.804039
897.711425	2543.360418
898.019336	2542.193391
898.327207	2540.456713
898.635038	2539.990407
898.942827	2539.987886
899.250576	2538.503266
899.558284	2542.117773
899.865952	2538.586445
900.173579	2536.670807
900.481165	2535.344983
900.788711	2537.870601
901.096216	2535.745755
901.403681	2535.528985
901.711105	2537.101825
902.018489	2534.939170
902.325832	2537.903369
902.633135	2539.413194
902.940397	2540.391178
903.247619	2539.105684
903.554800	2547.035419
903.861941	2554.206460
904.169041	2568.878739
904.476101	2575.018864
904.783121	2574.217321
905.090100	2569.334963
905.397039	2562.531926
905.703938	2556.437171
906.010796	2547.922662
906.317614	2545.848227
906.624391	2546.710265
906.931129	2540.406302
907.237826	2541.228010
907.544483	2538.130221
907.851099	2539.468647
908.157675	2536.212062
908.464211	2538.006713
908.770707	2528.990609
909.077163	2532.947915
909.383578	2529.845084
909.689954	2530.137471
909.996289	2530.369364
910.302584	2537.484953
910.608839	2533.676361
910.915054	2534.359438
911.221229	2532.469005
911.527363	2534.876156
911.833458	2533.318439
912.139513	2534.067051
912.445527	2534.903882
912.751502	2534.593851
913.057436	2536.348173
913.363331	2535.350024
913.669186	2539.884542
913.975000	2536.297761
914.280775	2538.679707
914.586510	2541.739687
914.892205	2546.140614
915.197859	2552.121943
915.503475	2558.509085
915.809050	2564.291289
916.114585	2570.040725
916.420081	2572.836044
916.725536	2570.688513
917.030952	2567.245405
917.336328	2564.339180
917.641665	2560.273489
917.946961	2555.512119
918.252218	2550.390307
918.557435	2550.468445
918.862612	2547.663043
919.167750	2546.117929
919.472848	2541.346477
919.777906	2541.046528
920.082925	2541.152392
920.387904	2538.289017
920.692843	2538.861188
920.997743	2534.704757
921.302603	2537.651311
921.607423	2536.333049
921.912204	2535.768440
922.216946	2536.358255
922.521647	2537.648791
922.826310	2533.449509
923.130932	2538.215920
923.435516	2533.557894
923.740059	2536.983358
924.044564	2530.218130
924.349028	2535.085364
924.653454	2529.976154
924.957840	2529.600588
925.262186	2529.388860
925.566493	2530.795342
925.870761	2526.528005
926.174989	2532.174097
926.479178	2530.359282
926.783328	2533.240302
927.087438	2533.348686
927.391509	2530.802904
927.695541	2530.139992
927.999533	2532.521937
928.303486	2530.812986
928.607400	2530.180321
928.911275	2530.026566
929.215110	2530.674354
929.518906	2532.136289
929.822663	2529.149405
930.126381	2532.844571
930.430060	2531.617050
930.733699	2530.571011
931.037299	2530.134951
931.340861	2530.548325
931.644383	2531.186031
931.947866	2529.595547
932.251309	2532.779036
932.554714	2532.416073
932.858080	2532.078316
933.161407	2530.787780
933.464694	2531.861546
933.767943	2529.131761
934.071153	2529.746782
934.374323	2529.192255
934.677455	2531.143182
934.980548	2529.449354
935.283602	2533.613347
935.586617	2531.067564
935.889593	2531.201155
936.192530	2528.622605
936.495428	2529.298119
936.798287	2527.511030
937.101108	2532.080836
937.403890	2531.969931
937.706632	2530.470188
938.009336	2530.850795
938.312002	2528.708304
938.614628	2530.986906
938.917216	2534.462781
939.219765	2530.467667
939.522275	2532.315250
939.824747	2532.655528
940.127179	2528.471370
940.429573	2531.780887
940.731929	2530.318953
941.034246	2527.989940
941.336524	2531.183511
941.638763	2531.475898
941.940964	2533.910775
942.243126	2532.912627
942.545250	2533.262987
942.847335	2530.855836
943.149381	2530.805424
943.451389	2530.921371
943.753359	2532.973120
944.055290	2532.332894
944.357182	2528.788963
944.659036	2529.530012
944.960851	2533.099149
945.262628	2533.071423
945.564367	2530.707122
945.866067	2532.332894
946.167729	2531.095291
946.469352	2532.073274
946.770937	2528.451205
947.072484	2528.627646
947.373992	2531.246525
947.675462	2530.298788
947.976893	2530.071936
948.278286	2531.745599
948.579641	2529.829961
948.880958	2528.037831
949.182236	2534.079654
949.483476	2527.372398
949.784678	2533.078985
950.085841	2529.406504
950.386967	2530.593696
950.688054	2529.766947
950.989103	2533.265507
951.290114	2528.506658
951.591087	2530.230733
951.892021	2532.809283
952.192917	2532.587472
952.493776	2530.936494
952.794596	2528.073119
953.095378	2530.129910
953.396122	2530.760054
953.696828	2529.593027
953.997496	2529.741741
954.298126	2529.230064
954.598718	2530.389529
954.899272	2529.464477
955.199788	2530.170239
955.500266	2529.386339
955.800706	2528.622605
956.101108	2524.808972
956.401472	2524.670340
956.701798	2525.653365
957.002087	2523.399969
957.302337	2528.990609
957.602550	2528.857018
957.902724	2528.804086
958.202861	2531.717873
958.502960	2527.480783
958.803022	2529.593027
959.103045	2527.720238
959.403031	2530.823068
959.702979	2528.801566
960.002889	2527.301822
960.302762	2528.806607
960.602596	2527.952131
960.902393	2526.689322
961.202153	2525.875176
961.501875	2525.658406
961.801559	2529.088911
962.101205	2527.019518
962.400814	2526.948942
962.700385	2528.337779
962.999918	2529.225023
963.299414	2529.212420
963.598873	2525.968437
963.898293	2527.397604
964.197677	2528.297450
964.497022	2527.190917
964.796331	2528.093283
965.095601	2526.792666
965.394835	2529.703932
965.694030	2524.292253
965.993189	2528.042872
966.292309	2526.601102
966.591393	2525.865093
966.890439	2526.046575
967.189447	2526.512882
967.488419	2525.151770
967.787353	2525.035824
968.086249	2525.728982
968.385108	2529.030938
968.683930	2527.947090
968.982714	2525.144208
969.281462	2526.444826
969.580172	2526.719569
969.878844	2528.622605
970.177480	2525.456760
970.476078	2527.198479
970.774639	2529.371216
971.073162	2527.258972
971.371649	2523.964578
971.670098	2525.600433
971.968510	2525.091276
972.266885	2524.161183
972.565223	2526.505320
972.863524	2525.005577
973.161788	2527.584127
973.460014	2528.310053
973.758204	2528.453726
974.056356	2525.973478
974.354471	2525.761750
974.652550	2525.182017
974.950591	2527.768129
975.248595	2527.707635
975.546563	2526.031452
975.844493	2527.301822
976.142386	2529.295599
976.440243	2526.041534
976.738062	2529.096473
977.035845	2524.902233
977.333590	2526.401976
977.631299	2526.109589
977.928971	2527.455577
978.226606	2527.543798
978.524204	2528.123530
978.821765	2526.328880
979.119290	2527.778211
979.416777	2528.027748
979.714228	2526.646472
980.011642	2526.248221
980.309020	2533.194931
980.606360	2527.011956
980.903664	2528.544467
981.200931	2525.638242
981.498162	2524.761081
981.795356	2527.785773
982.092513	2526.331400
982.389633	2527.127903
982.686717	2530.029087
982.983764	2529.056144
983.280775	2527.301822
983.577749	2529.275434
983.874686	2529.572862
984.171587	2527.712676
984.468451	2527.899199
984.765279	2525.292923
985.062070	2526.880886
985.358824	2527.430372
985.655543	2525.328211
985.952224	2529.580424
986.248869	2525.214785
986.545478	2525.605474
986.842050	2524.680422
987.138586	2522.958868
987.435086	2521.330576
987.731549	2518.227745
988.027975	2524.062881
988.324366	2524.798889
988.620719	2527.122861
988.917037	2525.418951
989.213318	2526.752337
989.509563	2524.430885
989.805772	2526.739734
990.101944	2525.786956
990.398080	2526.286030
990.694180	2527.793335
990.990244	2526.051616
991.286271	2526.177645
991.582262	2527.044723
991.878217	2524.105731
992.174136	2526.233098
992.470019	2524.395597
992.765865	2526.633869
993.061676	2524.660258
993.357450	2525.749147
993.653188	2523.094979
993.948890	2527.458098
994.244556	2524.267048
994.540186	2527.357275
994.835780	2527.478263
995.131337	2527.072450
995.426859	2526.021369
995.722345	2524.042716
996.017795	2528.355423
996.313208	2527.926925
996.608586	2528.433561
996.903928	2527.246370
997.199234	2528.990609
997.494504	2526.568334
997.789738	2525.000536
998.084936	2528.368026
998.380099	2526.696884
998.675225	2528.264683
998.970316	2529.729138
999.265371	2526.709487
999.560390	2524.549352
999.855373	2526.220495
1000.150320	2525.728982
1000.445232	2525.713859
1000.740108	2526.394415
1001.034948	2527.788294
1001.329752	2526.878365
1001.624521	2525.615556
1001.919254	2524.332583
1002.213951	2522.979033
1002.508613	2522.913498
1002.803239	2524.095648
1003.097829	2518.142046
1003.392384	2526.727131
1003.686903	2526.515402
1003.981386	2524.882068
1004.275834	2525.736544
1004.570246	2527.984899
1004.864623	2526.477594
1005.158964	2526.361647
1005.453270	2523.904085
1005.747540	2527.964734
1006.041775	2525.436595
1006.335974	2526.177645
1006.630138	2524.577079
1006.924266	2526.409538
1007.218359	2528.257121
1007.512416	2524.471214
1007.806438	2525.451719
1008.100425	2525.983561
1008.394376	2524.990453
1008.688292	2526.210413
1008.982172	2524.080525
1009.276017	2527.256452
1009.569827	2526.699404
1009.863602	2525.444157
1010.157341	2523.697397
1010.451045	2525.915505
1010.744714	2526.714528
1011.038347	2523.412572
1011.331945	2523.689836
1011.625508	2526.868283
1011.919036	2523.231091
1012.212528	2526.822913
1012.505986	2524.783766
1012.799408	2526.832995
1013.092795	2524.962727
1013.386147	2525.708818
1013.679464	2525.282840
1013.972745	2526.147398
1014.265992	2523.783097
1014.559204	2526.187727
1014.852380	2526.107069
1015.145521	2523.503313
1015.438628	2524.355268
1015.731699	2527.778211
1016.024736	2526.142357
1016.317737	2526.144877
1016.610703	2522.386697
1016.903635	2521.219670
1017.196531	2521.257479
1017.489393	2522.192613
1017.782219	2520.337468
1018.075011	2521.431399
1018.367768	2525.688653
1018.660490	2524.577079
1018.953177	2524.577079
1019.245829	2524.577079
