Dividing Wavelength (nm)	Counts (n)	Blue Motor Position (mm): 0.000000	Red Motor Position (mm): 43.000000	
326.493990	2126.431789
326.888308	2126.431789
327.282561	2126.431789
327.676750	2095.353076
328.070874	2093.790318
328.464933	2098.304671
328.858929	2104.454879
329.252859	2112.755139
329.646726	2123.119751
330.040528	2140.332771
330.434265	2155.247024
330.827938	2171.666063
331.221547	2190.643486
331.615091	2210.298945
332.008571	2228.338714
332.401986	2249.685480
332.795338	2269.139293
333.188625	2285.132353
333.581847	2305.362504
333.975006	2324.206337
334.368100	2341.273163
334.761129	2359.877541
335.154095	2373.271887
335.546996	2394.868190
335.939833	2420.073959
336.332606	2435.416711
336.725315	2448.977415
337.117960	2457.764146
337.510540	2463.750516
337.903056	2476.229893
338.295508	2481.641571
338.687896	2492.633807
339.080220	2499.565394
339.472480	2510.252640
339.864676	2513.499143
340.256807	2515.477796
340.648875	2519.891326
341.040879	2524.161183
341.432818	2524.675381
341.824694	2524.040196
342.216506	2524.607326
342.608253	2521.290246
342.999937	2524.894671
343.391557	2523.425175
343.783113	2522.689167
344.174605	2522.792510
344.566033	2521.630524
344.957397	2519.057015
345.348697	2517.257323
345.739934	2517.010307
346.131106	2512.513598
346.522215	2512.455624
346.913260	2509.554440
347.304241	2508.793226
347.695159	2504.929182
348.086012	2504.246105
348.476802	2506.381034
348.867528	2501.962463
349.258191	2500.150168
349.648789	2502.489263
350.039324	2497.581700
350.429796	2498.174035
350.820203	2496.215547
351.210548	2494.057933
351.600828	2495.464415
351.991045	2494.925012
352.381198	2496.124806
352.771288	2493.430310
353.161314	2491.272696
353.551276	2494.355361
353.941175	2491.287819
354.331010	2493.579024
354.720782	2492.618684
355.110490	2492.485093
355.500135	2491.459218
355.889717	2492.356544
356.279235	2491.933087
356.668689	2495.421565
357.058080	2494.849394
357.447408	2492.525423
357.836672	2490.100628
358.225873	2496.455002
358.615010	2493.788232
359.004084	2496.787718
359.393095	2499.275527
359.782043	2498.118583
360.170927	2501.352483
360.559748	2499.797287
360.948505	2502.101094
361.337199	2500.999602
361.725830	2500.203100
362.114398	2503.462206
362.502903	2500.775271
362.891344	2501.594458
363.279722	2503.868019
363.668037	2505.017402
364.056289	2505.798781
364.444478	2507.313647
364.832603	2504.079747
365.220665	2508.089985
365.608665	2507.744666
365.996601	2508.808349
366.384474	2510.507218
366.772284	2511.807836
367.160031	2513.027795
367.547715	2515.225738
367.935336	2516.904442
368.322893	2520.667664
368.710388	2522.605988
369.097820	2528.307533
369.485189	2531.375075
369.872495	2537.923533
370.259738	2545.417209
370.646918	2555.431461
371.034035	2559.078736
371.421090	2568.155333
371.808081	2581.889957
372.195010	2588.357757
372.581875	2603.181270
372.968678	2616.598301
373.355418	2624.580968
373.742096	2641.491519
374.128710	2658.601195
374.515262	2674.190963
374.901751	2687.421471
375.288177	2700.717515
375.674540	2725.767008
376.060841	2743.743763
376.447079	2762.794283
376.833254	2781.645678
377.219367	2792.582461
377.605417	2833.032680
377.991404	2840.866633
378.377329	2862.939325
378.763191	2878.609752
379.148991	2918.399579
379.534727	2942.851696
379.920402	2971.863536
380.306013	2984.058087
380.691563	3036.191180
381.077049	3055.584498
381.462474	3073.646953
381.847835	3110.097016
382.233134	3135.096097
382.618371	3132.754482
383.003545	3202.952549
383.388657	3210.413457
383.773706	3241.620719
384.158693	3258.833739
384.543618	3285.362811
384.928480	3321.102072
385.313280	3368.138558
385.698017	3366.694267
386.082692	3415.487595
386.467305	3420.208636
386.851856	3453.444963
387.236344	3478.688541
387.620770	3508.774147
388.005133	3536.389588
388.389435	3560.972774
388.773674	3574.896441
389.157851	3617.746249
389.541965	3632.158908
389.926018	3597.606839
390.310008	3667.799866
390.693936	3685.116229
391.077802	3728.245821
391.461606	3716.764593
391.845348	3778.135600
392.229027	3776.356072
392.612645	3791.290491
392.996200	3872.858881
393.379694	3908.746855
393.763125	3976.726814
394.146494	3944.085343
394.529801	4003.558356
394.913047	4053.375038
395.296230	4016.486395
395.679351	4071.992019
396.062410	4096.413889
396.445408	4079.319336
396.828343	4110.972741
397.211217	4134.010814
397.594028	4053.488464
397.976778	4122.045636
398.359466	4146.500273
398.742092	4175.239891
399.124656	4101.034107
399.507158	4177.561343
399.889598	4204.604612
400.271977	4265.789097
400.654294	4235.862287
401.036549	4246.136158
401.418742	4213.582907
401.800874	4318.227179
402.182944	4339.584027
402.564952	4404.209099
402.946898	4392.435484
403.328783	4382.302765
403.710606	4298.778407
404.092367	4491.068180
404.474067	4460.032316
404.855705	4466.976505
405.237282	4391.371801
405.618797	4503.741640
406.000250	4535.289181
406.381642	4617.558291
406.762972	4577.753341
407.144240	4590.996452
407.525447	4585.443621
407.906593	4646.212210
408.287677	4691.615362
408.668700	4621.044249
409.049661	4673.189945
409.430560	4715.568404
409.811399	4636.974295
410.192176	4800.315242
410.572891	4743.403135
410.953545	4842.149257
411.334138	4725.449066
411.714669	4793.003048
412.095139	4687.249723
412.475547	4826.418336
412.855894	4807.314884
413.236180	4818.773427
413.616405	4773.702991
413.996568	4860.178944
414.376670	4796.148728
414.756711	4755.254888
415.136691	4787.057007
415.516609	4867.085324
415.896466	4901.546652
416.276262	4934.230973
416.655997	4917.612809
417.035670	5095.512608
417.415283	5188.978121
417.794834	5131.811436
418.174324	5089.548923
418.553753	4999.970140
418.933121	5180.428324
419.312428	5250.568418
419.691674	5188.022822
420.070859	5309.247449
420.449983	5223.769644
420.829045	5343.517213
421.208047	5245.285289
421.586988	5318.029139
421.965867	5330.339637
422.344686	5463.025326
422.723444	5319.344880
423.102141	5134.034585
423.480777	5435.432571
423.859352	5205.492941
424.237866	5456.723884
424.616319	5454.117607
424.994712	5556.329522
425.373044	5439.079846
425.751314	5581.487401
426.129524	5384.406012
426.507673	5579.039920
426.885762	5661.281304
427.263789	5593.054328
427.641756	5472.212829
428.019662	5596.444504
428.397508	5603.502119
428.775292	5550.577566
429.153016	5648.935518
429.530679	5576.176545
429.908282	5657.858361
430.285824	5533.205750
430.663305	5804.941586
431.040726	5544.024066
431.418086	5539.630700
431.795385	5647.345034
432.172624	5664.636192
432.549802	5649.056506
432.926920	5668.729609
433.303977	5672.409651
433.680974	5711.072781
434.057910	5730.088013
434.434786	5740.750053
434.811601	5707.969951
435.188355	5936.868582
435.565050	5816.478267
435.941683	5798.073014
436.318257	6009.904819
436.694770	5996.576008
437.071222	6028.262181
437.447614	5958.822807
437.823946	5870.133788
438.200218	6030.097161
438.576429	5894.384258
438.952580	5993.878991
439.328670	6035.692842
439.704700	5945.635149
440.080670	5928.099495
440.456580	6198.096133
440.832429	6083.389719
441.208218	5929.173261
441.583947	6086.134627
441.959616	6089.234937
442.335224	6016.715418
442.710773	6149.070912
443.086261	6176.368760
443.461689	5976.633204
443.837057	6122.118383
444.212365	6278.537825
444.587612	6172.388769
444.962800	6324.281255
445.337927	6303.892308
445.712995	5916.293113
446.088002	6492.229816
446.462949	6322.368137
446.837837	6251.164360
447.212664	6425.676503
447.587431	6567.937865
447.962139	7112.732840
448.336786	8036.872122
448.711374	7774.626258
449.085901	6854.613160
449.460369	6774.166427
449.834776	6705.639503
450.209124	7093.147957
450.583412	7248.808706
450.957640	7395.959987
451.331808	7161.158164
451.705917	6709.402724
452.079965	6636.414378
452.453954	6844.707293
452.827883	6726.283027
453.201752	6817.507748
453.575562	6617.913343
453.949311	6820.227450
454.323001	6702.105654
454.696632	6781.849146
455.070202	6920.115393
455.443713	7074.447797
455.817164	7176.561410
456.190556	7255.636949
456.563888	7332.164185
456.937160	7376.042388
457.310373	7036.056890
457.683526	7055.898872
458.056619	6950.339631
458.429653	6933.650891
458.802628	6871.942127
459.175542	6977.571944
459.548398	7333.482447
459.921194	7496.127714
460.293930	7502.023343
460.666607	8031.231071
461.039224	8336.084768
461.411782	8463.159653
461.784280	8481.108681
462.156719	8372.638174
462.529099	8254.748271
462.901419	7843.216197
463.273680	7730.531285
463.645882	7747.993842
464.018024	7611.865044
464.390106	7775.226155
464.762130	8169.520003
465.134094	8639.048031
465.505999	9659.236417
465.877845	10883.210927
466.249631	11530.663960
466.621358	11148.355455
466.993026	10520.802377
467.364634	10256.998797
467.736184	9893.342561
468.107674	9561.954751
468.479105	9592.161345
468.850477	9359.973361
469.221790	9135.392477
469.593043	8805.085995
469.964238	8663.026280
470.335373	8678.689145
470.706449	8741.627950
471.077467	8716.412099
471.448425	10025.524135
471.819324	11101.702097
472.190164	11125.945006
472.560945	9881.780675
472.931667	9087.783820
473.302330	8951.796175
473.672934	8600.793235
474.043479	8959.025189
474.413965	8897.611333
474.784393	8777.311758
475.154761	8934.260521
475.525070	9026.127988
475.895321	8845.957150
476.265513	9020.126495
476.635645	9191.198050
477.005719	9185.375518
477.375734	9302.985637
477.745691	9543.897338
478.115588	9673.457513
478.485427	9923.097972
478.855207	10458.836514
479.224928	11272.483786
479.594591	11900.510732
479.964194	11718.673793
480.333739	11657.408650
480.703226	11569.594270
481.072653	11659.349494
481.442022	11898.176678
481.811333	12087.950915
482.180584	11890.143599
482.549777	11603.831267
482.918912	11429.266191
483.287988	11447.167329
483.657005	11457.899945
484.025964	11140.324897
484.394864	11269.050760
484.763706	11241.886503
485.132489	11001.191571
485.501213	10967.433485
485.869879	11037.233301
486.238487	10877.532067
486.607036	10986.731022
486.975527	10769.663978
487.343959	10964.244955
487.712333	11006.648620
488.080648	10942.547829
488.448905	10987.560291
488.817104	10923.746845
489.185244	11195.888495
489.553326	11337.255051
489.921350	11879.403421
490.289315	12940.243672
490.657222	13281.628090
491.025070	13189.904296
491.392861	13069.685379
491.760593	12681.934949
492.128267	12343.620594
492.495883	12011.731189
492.863440	11674.682163
493.230939	11336.181286
493.598380	11273.376070
493.965763	11136.501182
494.333088	11041.472911
494.700354	10958.182967
495.067563	11019.821155
495.434713	10856.240754
495.801805	10974.082767
496.168839	10897.989070
496.535815	10834.594040
496.902733	10832.607825
497.269593	10768.789338
497.636395	10865.854235
498.003139	10853.447955
498.369825	10723.613038
498.736453	10876.617098
499.103023	10805.015069
499.469535	10838.460605
499.835989	10821.413943
500.202385	10793.362442
500.568723	10636.327979
500.935003	10863.741991
501.301226	10670.817033
501.667390	10930.393607
502.033497	11025.595797
502.399546	10883.329394
502.765537	10788.250712
503.131470	10855.855106
503.497345	11038.493589
503.863163	10651.610237
504.228923	10962.349481
504.594625	11028.103771
504.960269	10777.770153
505.325856	10995.033802
505.691385	10794.491661
506.056856	10944.581934
506.422270	10967.194030
506.787625	10859.517504
507.152924	10977.034362
507.518164	10957.789757
507.883347	10875.999557
508.248472	10790.310024
508.613540	11029.749708
508.978550	10909.946687
509.343503	10882.051462
509.708398	11001.642755
510.073236	11117.329674
510.438016	11128.692434
510.802738	11069.736140
511.167403	11122.519542
511.532010	11018.654128
511.896561	11256.311765
512.261053	11323.212917
512.625488	11189.153513
512.989866	11175.325628
513.354186	11162.069914
513.718449	11063.280943
514.082655	11261.720923
514.446803	11152.164047
514.810894	11274.777511
515.174927	11141.870011
515.538904	11169.747591
515.902822	11321.516569
516.266684	11203.692201
516.630488	11148.695733
516.994235	11212.655372
517.357925	11262.424164
517.721558	11357.923782
518.085133	11368.190092
518.448651	11377.675023
518.812112	11262.842579
519.175516	11275.102666
519.538863	11396.259237
519.902152	11316.485497
520.265385	11481.701753
520.628560	11382.610313
520.991678	11365.024247
521.354739	11422.979872
521.717743	11360.391427
522.080690	11346.346772
522.443580	11470.964095
522.806413	11428.638568
523.169189	11454.824841
523.531908	11516.536126
523.894569	11329.763897
524.257174	11339.160607
524.619722	11457.453803
524.982213	11400.788713
525.344647	11458.711571
525.707025	11405.171997
526.069345	11502.234373
526.431608	11416.917885
526.793815	11521.552074
527.155964	11311.887965
527.518057	11364.099196
527.880093	11316.427524
528.242072	11384.026877
528.603995	11294.516149
528.965860	11212.451206
529.327669	11270.192582
529.689421	11218.707277
530.051117	11186.073368
530.412755	11289.197732
530.774337	11181.017091
531.135862	11158.253761
531.497331	11182.887359
531.858743	11037.286233
532.220098	11204.458456
532.581396	11070.993908
532.942638	11053.501104
533.303824	11021.031032
533.664953	11028.945644
534.026025	10947.074785
534.387040	11037.714731
534.747999	11042.360154
535.108902	11098.742939
535.469748	10860.074552
535.830537	10962.760335
536.191270	10945.696029
536.551947	10959.947371
536.912567	10966.261416
537.273131	10887.753007
537.633638	10871.107117
537.994089	10855.406443
538.354483	10800.168000
538.714821	10948.365320
539.075103	10960.010386
539.435328	10923.890518
539.795497	10749.990875
540.155609	10907.980637
540.515665	10996.636889
540.875665	10730.884902
541.235609	10793.417895
541.595496	10786.430856
541.955328	10950.991761
542.315102	10831.304687
542.674821	10781.107397
543.034483	10780.825093
543.394090	10792.228183
543.753640	10716.005937
544.113134	10939.820564
544.472571	10793.178440
544.831953	10930.801940
545.191278	10734.280119
545.550548	10772.381160
545.909761	10912.147150
546.268918	10884.173788
546.628019	10964.113885
546.987064	10830.651857
547.346053	10750.802501
547.704986	10841.082005
548.063863	10838.873979
548.422684	10825.351084
548.781449	10736.790614
549.140158	10840.025883
549.498811	10716.590710
549.857408	10581.185318
550.215949	10810.257869
550.574434	10658.355301
550.932864	10759.443039
551.291237	10808.725359
551.649555	10762.954202
552.007817	10774.949628
552.366022	10741.572148
552.724173	10728.258461
553.082267	10715.075844
553.440305	10857.417864
553.798288	10659.184571
554.156215	10807.129833
554.514086	10787.159303
554.871902	10633.512495
555.229661	10667.890644
555.587365	10651.834569
555.945014	10539.439523
556.302606	10669.430716
556.660143	10565.179655
557.017625	10719.234796
557.375050	10618.023550
557.732421	10749.625392
558.089735	10662.867134
558.446994	10660.235652
558.804197	10696.161434
559.161345	10706.024452
559.518437	10549.854547
559.875474	10638.856118
560.232455	10665.659933
560.589381	10621.209559
560.946251	10610.424010
561.303065	10721.470547
561.659825	10657.538634
562.016528	10586.748231
562.373177	10467.724068
562.729770	10581.218086
563.086307	10501.769501
563.442789	10590.234189
563.799216	10471.479728
564.155587	10514.251398
564.511904	10464.651485
564.868164	10462.876999
565.224370	10474.169184
565.580520	10395.605322
565.936615	10406.784080
566.292654	10278.310274
566.648638	10413.559391
567.004567	10359.868582
567.360441	10345.193783
567.716260	10256.527449
568.072023	10353.486481
568.427732	10304.151229
568.783385	10205.735303
569.138982	10282.325553
569.494525	10297.552359
569.850013	10174.860756
570.205445	10260.502398
570.560823	10154.166820
570.916145	10071.378471
571.271412	10143.824893
571.626625	10084.422456
571.981782	10060.822295
572.336884	10034.323469
572.691931	10047.929544
573.046923	9988.774124
573.401860	9942.403070
573.756743	9883.610613
574.111570	9927.302294
574.466342	9904.080219
574.821059	9937.306464
575.175722	9827.575668
575.530330	9839.187966
575.884882	9827.235390
576.239380	9759.036140
576.593823	9740.217513
576.948211	9755.857693
577.302544	9636.160536
577.656823	9650.031271
578.011047	9652.297269
578.365216	9621.989852
578.719330	9540.718891
579.073389	9559.691273
579.427394	9501.970062
579.781344	9479.773861
580.135239	9430.141181
580.489080	9433.954814
580.842866	9335.516203
581.196597	9342.372172
581.550273	9386.232731
581.903895	9356.341209
582.257463	9421.261188
582.610975	9301.430441
582.964434	9318.575405
583.317837	9250.514787
583.671186	9235.598013
584.024481	9220.719047
584.377721	9146.167944
584.730906	9118.076114
585.084037	9146.455289
585.437113	9087.743491
585.790135	9108.084547
586.143103	9001.343155
586.496016	8978.849527
586.848874	9044.540803
587.201679	9028.847691
587.554428	8914.511801
587.907124	8958.601732
588.259765	8929.390767
588.612352	8938.384185
588.964884	8812.988004
589.317362	8823.791196
589.669786	8825.023758
590.022155	8874.432107
590.374470	8890.296618
590.726731	8825.404366
591.078937	8680.067900
591.431090	8785.269219
591.783188	8662.691043
592.135232	8652.333992
592.487222	8654.297522
592.839157	8704.068834
593.191038	8637.581056
593.542866	8588.538190
593.894639	8481.305286
594.246358	8538.454327
594.598022	8550.588384
594.949633	8448.111809
595.301190	8419.334382
595.652692	8448.028630
596.004141	8560.887462
596.355535	8338.948143
596.706876	8318.851583
597.058162	8253.248527
597.409395	8327.356010
597.760573	8390.987974
598.111698	8293.950804
598.462768	8279.023947
598.813785	8249.301304
599.164748	8213.874595
599.515657	8204.104839
599.866511	8114.440356
600.217312	8246.009431
600.568060	8110.339378
600.918753	8208.644398
601.269392	8173.573091
601.619978	8087.049247
601.970510	8154.396542
602.320988	8146.428998
602.671412	8202.494191
603.021783	8138.421125
603.372100	8114.102599
603.722363	8110.793082
604.072572	8088.501099
604.422728	8101.555167
604.772830	8030.237964
605.122878	8035.894138
605.472872	8036.942698
605.822813	8063.149137
606.172701	8004.306268
606.522534	8077.218997
606.872314	8080.175634
607.222041	8047.861837
607.571714	8100.337728
607.921333	8061.291471
608.270899	8068.502842
608.620411	8156.642376
608.969870	8062.569404
609.319276	8047.894605
609.668627	8069.238850
610.017926	8101.565249
610.367171	8149.138618
610.716362	8125.513251
611.065500	8117.787682
611.414585	8139.237792
611.763616	8130.476267
612.112594	8110.808205
612.461518	8122.244062
612.810389	8183.489041
613.159207	8121.268599
613.507971	8072.634067
613.856682	8186.188578
614.205340	8141.118142
614.553945	8217.915080
614.902496	8117.059236
615.250994	8165.983634
615.599439	8147.255747
615.947830	8162.331318
616.296169	8133.201010
616.644454	8146.940675
616.992686	8138.600086
617.340864	8197.324487
617.688990	8106.228317
618.037063	8187.375770
618.385082	8136.437431
618.733048	8215.754946
619.080961	8157.111203
619.428821	8175.745828
619.776628	8174.278852
620.124382	8126.581975
620.472083	8108.040612
620.819731	8132.928788
621.167326	8027.714866
621.514868	8036.433542
621.862357	7921.192765
622.209793	7934.725742
622.557176	7873.072431
622.904506	7844.501691
623.251783	7770.230372
623.599007	7725.757313
623.946179	7735.519507
624.293297	7682.020262
624.640363	7601.513035
624.987376	7582.580982
625.334336	7533.434773
625.681243	7478.256823
626.028097	7463.040100
626.374899	7437.121008
626.721647	7432.982221
627.068343	7360.087136
627.414987	7334.573856
627.761577	7282.234077
628.108115	7317.706156
628.454600	7214.982564
628.801032	7256.670385
629.147412	7212.824950
629.493739	7201.810029
629.840014	7135.365100
630.186236	7191.329470
630.532405	7070.883702
630.878521	7121.776670
631.224585	7073.235400
631.570597	6994.482494
631.916556	7021.883686
632.262462	7020.285640
632.608316	6974.411140
632.954117	6947.967768
633.299866	6927.014212
633.645562	6919.880979
633.991206	6839.290573
634.336797	6782.806965
634.682336	6742.757518
635.027823	6708.293670
635.373257	6691.015115
635.718639	6624.454240
636.063968	6638.342619
636.409245	6537.020468
636.754470	6526.615527
637.099642	6479.868907
637.444762	6421.794815
637.789829	6429.301093
638.134845	6370.266661
638.479808	6350.454926
638.824719	6352.277303
639.169577	6280.261900
639.514383	6296.111287
639.859137	6225.514969
640.203839	6232.683490
640.548489	6210.744388
640.893086	6186.957704
641.237632	6153.222302
641.582125	6174.475807
641.926566	6136.026927
642.270955	6149.222147
642.615292	6137.677904
642.959576	6143.510519
643.303809	6132.984590
643.647990	6133.203880
643.992118	6125.528724
644.336195	6068.349436
644.680219	6081.214461
645.024192	6069.861782
645.368112	6153.852447
645.711981	6168.807029
646.055797	6232.456638
646.399562	6183.902765
646.743274	6297.162368
647.086935	6338.257854
647.430544	6322.829403
647.774101	6333.952709
648.117606	6336.609397
648.461059	6326.529610
648.804460	6284.667868
649.147810	6201.337595
649.491108	6170.301732
649.834354	6137.042719
650.177548	6054.443413
650.520690	5968.400999
650.863781	5944.236228
651.206820	5957.764165
651.549807	5881.393205
651.892742	5824.753321
652.235626	5821.025387
652.578458	5799.875226
652.921238	5714.480601
653.263967	5745.677781
653.606644	5689.322722
653.949269	5681.818965
654.291843	5628.854082
654.634365	5665.578888
654.976836	5611.865394
655.319255	5611.933449
655.661622	5586.102577
656.003938	5570.636317
656.346203	5536.732037
656.688416	5556.079985
657.030577	5511.198592
657.372687	5474.829188
657.714746	5459.453669
658.056753	5496.705275
658.398708	5432.491057
658.740612	5427.951498
659.082465	5455.680365
659.424266	5445.285506
659.766016	5439.079846
660.107715	5407.774280
660.449362	5416.833234
660.790958	5403.827057
661.132503	5383.251587
661.473996	5411.401390
661.815438	5396.822373
662.156829	5388.116301
662.498168	5373.610381
662.839456	5350.214386
663.180693	5370.318507
663.521879	5367.218197
663.863013	5356.430128
664.204097	5357.483729
664.545129	5386.727463
664.886110	5371.977047
665.227040	5392.257609
665.567918	5362.729050
665.908746	5369.532087
666.249522	5374.893354
666.590248	5357.486250
666.930922	5373.451584
667.271545	5367.596284
667.612118	5370.467221
667.952639	5339.217108
668.293109	5347.303119
668.633528	5304.879289
668.973896	5307.011697
669.314213	5291.757166
669.654480	5262.606693
669.994695	5261.429584
670.334859	5251.175877
670.674973	5225.995314
671.015035	5226.562443
671.355047	5212.774888
671.695008	5196.738977
672.034918	5175.228374
672.374777	5169.491541
672.714585	5153.717770
673.054342	5148.694261
673.394049	5138.654803
673.733705	5150.110825
674.073310	5126.082165
674.412864	5100.384883
674.752368	5074.634669
675.091820	5073.467642
675.431223	5023.207338
675.770574	5011.378271
676.109875	4970.489472
676.449125	4964.394717
676.788324	4930.462711
677.127473	4883.781626
677.466571	4871.347620
677.805619	4853.612841
678.144616	4833.249100
678.483562	4817.636646
678.822458	4783.266059
679.161303	4774.796921
679.500098	4758.168675
679.838842	4748.141820
680.177535	4740.317949
680.516179	4748.023353
680.854771	4748.877828
681.193314	4800.834481
681.531805	4875.735944
681.870247	4965.544100
682.208638	5037.186458
682.546978	5040.271644
682.885268	5011.993292
683.223508	4942.478301
683.561697	4897.619593
683.899836	4869.898288
684.237925	4826.703162
684.575963	4803.150891
684.913951	4772.432620
685.251889	4793.781906
685.589776	4775.968989
685.927614	4755.640536
686.265401	4784.889311
686.603137	4774.007980
686.940824	4811.365451
687.278460	4829.594263
687.616046	4824.790044
687.953582	4867.836456
688.291068	4849.887428
688.628504	4875.010018
688.965889	4849.922716
689.303224	4804.867404
689.640510	4760.943830
689.977745	4701.811096
690.314930	4627.028099
690.652065	4588.080144
690.989150	4524.821225
691.326185	4463.941731
691.663170	4415.395419
692.000105	4357.328889
692.336990	4308.931291
692.673825	4273.872587
693.010610	4228.272830
693.347345	4184.757590
693.684030	4149.676200
694.020665	4124.021768
694.357251	4063.951379
694.693786	4060.200760
695.030272	4042.523954
695.366707	4008.644880
695.703093	3981.183194
696.039429	3990.516891
696.375716	3965.328766
696.711952	3950.210345
697.048139	3942.812452
697.384276	3918.682969
697.720363	3924.056839
698.056400	3918.466199
698.392388	3886.653998
698.728326	3873.350393
699.064214	3858.514277
699.400053	3843.476515
699.735842	3813.990807
700.071581	3797.982623
700.407270	3776.416566
700.742910	3759.632045
701.078501	3728.192889
701.414042	3715.849623
701.749533	3687.921631
702.084974	3659.156807
702.420366	3675.724559
702.755709	3643.433448
703.091002	3609.856843
703.426246	3619.182978
703.761440	3605.345011
704.096584	3582.001948
704.431679	3579.970363
704.766725	3569.293199
705.101721	3558.500088
705.436668	3567.425451
705.771565	3541.584497
706.106413	3553.118657
706.441212	3559.651992
706.775961	3557.683422
707.110661	3551.432391
707.445311	3569.598189
707.779913	3565.071232
708.114465	3577.510280
708.448967	3590.723144
708.783421	3614.540075
709.117825	3636.204434
709.452180	3638.601502
709.786485	3659.582785
710.120742	3702.818241
710.454949	3698.253476
710.789107	3726.481417
711.123216	3763.491048
711.457275	3762.099689
711.791286	3790.390645
712.125247	3798.103610
712.459159	3755.226076
712.793023	3796.127478
713.126837	3746.094026
713.460602	3742.908017
713.794318	3705.605999
714.127985	3695.344730
714.461602	3638.515803
714.795171	3625.688587
715.128691	3584.328440
715.462162	3545.503994
715.795584	3515.002493
716.128957	3500.894823
716.462281	3474.035556
716.795556	3453.949078
717.128782	3426.724327
717.461960	3390.785941
717.795088	3389.359295
718.128167	3364.851725
718.461198	3336.646469
718.794180	3330.403000
719.127113	3312.196873
719.459997	3301.103814
719.792833	3276.424846
720.125619	3271.557612
720.458357	3249.996597
720.791046	3247.115577
721.123686	3232.082856
721.456278	3213.715412
721.788821	3213.775906
722.121315	3202.715615
722.453761	3190.924356
722.786158	3186.944365
723.118506	3194.380067
723.450805	3177.270391
723.783056	3187.254396
724.115259	3178.795340
724.447412	3180.877336
724.779518	3179.294414
725.111574	3178.999506
725.443582	3189.792617
725.775542	3180.037984
726.107453	3201.727548
726.439315	3197.558514
726.771129	3210.678117
727.102895	3227.051785
727.434612	3241.182139
727.766281	3247.919641
728.097901	3248.191863
728.429473	3244.267325
728.760996	3241.537540
729.092471	3239.528641
729.423897	3229.274934
729.755276	3221.987946
730.086606	3222.993656
730.417887	3239.720204
730.749120	3264.235336
731.080305	3279.298303
731.411442	3293.605098
731.742530	3280.674538
732.073570	3280.974487
732.404562	3289.325158
732.735506	3285.020013
733.066401	3272.583486
733.397249	3238.671644
733.728048	3200.762167
734.058798	3152.304076
734.389501	3119.786113
734.720156	3100.433124
735.050762	3074.829103
735.381320	3061.409552
735.711831	3045.996224
736.042293	3032.450643
736.372707	3036.108001
736.703073	3026.018131
737.033391	3024.339427
737.363661	3027.565765
737.693883	3033.095911
738.024056	3040.322405
738.354182	3043.006820
738.684260	3059.546845
739.014290	3069.246025
739.344272	3072.439596
739.674207	3087.479879
740.004093	3088.357040
740.333931	3083.600711
740.663722	3083.099116
740.993464	3078.955288
741.323159	3066.370047
741.652806	3047.916903
741.982405	3040.108156
742.311956	3019.966226
742.641460	3009.755369
742.970915	2997.870849
743.300323	2983.150679
743.629683	2964.828606
743.958996	2955.119343
744.288260	2941.634257
744.617477	2929.941301
744.946647	2918.676842
745.275768	2908.697878
745.604842	2900.579100
745.933869	2889.634755
746.262847	2881.470606
746.591778	2889.067625
746.920662	2881.881460
747.249498	2874.904503
747.578286	2881.498333
747.907027	2889.402862
748.235720	2893.607184
748.564365	2899.671692
748.892963	2891.389077
749.221514	2889.634755
749.550017	2883.232490
749.878473	2877.142776
750.206881	2866.311857
750.535242	2861.318594
750.863555	2860.638038
751.191821	2854.686956
751.520039	2853.618231
751.848210	2847.341995
752.176334	2849.124043
752.504411	2849.393744
752.832440	2838.766992
753.160421	2836.475788
753.488356	2834.671055
753.816243	2834.940756
754.144082	2823.353664
754.471875	2820.578509
754.799620	2823.134374
755.127318	2816.492654
755.454969	2816.860658
755.782572	2815.907880
756.110129	2809.636685
756.437638	2809.833290
756.765100	2805.538227
757.092515	2809.747590
757.419882	2812.870585
757.747203	2804.913123
758.074477	2806.385140
758.401703	2810.997796
758.728882	2812.507622
759.056014	2812.830256
759.383099	2815.900318
759.710138	2817.137922
760.037129	2821.841318
760.364073	2822.995742
760.690970	2819.787048
761.017820	2814.264464
761.344623	2817.415185
761.671379	2825.024807
761.998088	2834.736590
762.324751	2867.791435
762.651366	2947.837397
762.977935	3102.469750
763.304456	3225.662947
763.630931	3230.215109
763.957359	3122.868779
764.283740	3018.123684
764.610074	2955.958696
764.936362	2897.075498
765.262602	2853.449353
765.588796	2823.759477
765.914943	2798.215951
766.241044	2776.876746
766.567097	2765.569438
766.893104	2753.284146
767.219064	2743.983217
767.544978	2737.328894
767.870845	2724.317676
768.196665	2716.687890
768.522438	2718.245607
768.848165	2710.114225
769.173846	2704.145499
769.499479	2702.376054
769.825066	2695.066381
770.150607	2690.925073
770.476101	2688.497758
770.801548	2688.338961
771.126949	2678.538958
771.452303	2675.138700
771.777611	2669.989161
772.102872	2671.539316
772.428087	2664.910199
772.753256	2664.345590
773.078378	2662.397184
773.403453	2655.969712
773.728482	2650.603404
774.053465	2656.042809
774.378401	2649.968219
774.703291	2646.162148
775.028135	2641.030253
775.352932	2641.083185
775.677683	2638.068575
776.002388	2635.588327
776.327046	2636.563791
776.651658	2634.088584
776.976224	2630.584982
777.300743	2630.537091
777.625216	2628.150105
777.949643	2626.453757
778.274024	2628.266052
778.598359	2621.833539
778.922647	2620.144753
779.246889	2622.647686
779.571086	2617.795575
779.895236	2620.505195
780.219339	2623.857562
780.543397	2624.593571
780.867409	2624.288581
781.191374	2625.006946
781.515294	2624.754888
781.839167	2622.705659
782.162995	2621.924280
782.486776	2622.456122
782.810511	2617.798096
783.134201	2616.699124
783.457844	2615.277519
783.781441	2613.240892
784.104993	2609.752414
784.428498	2611.128649
784.751958	2610.611931
785.075372	2607.998093
785.398739	2607.620006
785.722061	2608.056066
786.045337	2608.920624
786.368568	2608.008175
786.691752	2606.427773
787.014891	2614.581839
787.337983	2621.641975
787.661030	2632.931639
787.984031	2646.114257
788.306987	2653.592808
788.629897	2647.437560
788.952760	2644.785913
789.275579	2636.515900
789.598351	2626.294960
789.921078	2618.387911
790.243759	2614.133177
790.566395	2607.924996
790.888984	2608.509770
791.211529	2603.508945
791.534027	2598.941660
791.856480	2594.886051
792.178888	2595.720362
792.501249	2594.137440
792.823566	2592.241966
793.145836	2594.132399
793.468062	2594.334045
793.790241	2589.232397
794.112375	2591.692480
794.434464	2590.873293
794.756507	2594.447471
795.078505	2596.995774
795.400457	2598.679520
795.722364	2602.780498
796.044226	2609.898607
796.366042	2611.536982
796.687812	2606.795777
797.009538	2610.296859
797.331218	2607.037753
797.652852	2605.459872
797.974442	2601.232864
798.295986	2598.893769
798.617484	2597.978799
798.938938	2593.953438
799.260346	2596.773963
799.581709	2592.735999
799.903026	2594.230701
800.224299	2592.539394
800.545526	2588.456060
800.866708	2584.045050
801.187845	2587.009248
801.508936	2583.593867
801.829983	2584.808785
802.150984	2582.714185
802.471940	2582.187385
802.792851	2581.332909
803.113717	2582.661253
803.434538	2579.878536
803.755314	2579.152610
804.076045	2581.635378
804.396731	2581.239648
804.717372	2576.377455
805.037967	2580.763259
805.358518	2580.382652
805.679024	2582.008424
805.999485	2580.818712
806.319901	2582.812488
806.640272	2581.751325
806.960598	2583.026737
807.280879	2582.164700
807.601115	2586.530339
807.921306	2579.666808
808.241453	2581.101016
808.561554	2578.199832
808.881611	2581.920204
809.201623	2580.995152
809.521590	2580.627148
809.841513	2578.356108
810.161390	2579.560944
810.481223	2578.146900
810.801011	2577.292424
811.120755	2577.690676
811.440453	2577.728484
811.760107	2578.512384
812.079716	2571.159861
812.399281	2569.274469
812.718801	2570.902762
813.038276	2568.513255
813.357707	2573.035170
813.677093	2572.838565
813.996434	2572.752865
814.315731	2569.518965
814.634983	2572.652042
814.954191	2572.735221
815.273354	2571.996692
815.592473	2572.523493
815.911547	2573.509038
816.230577	2575.223031
816.549562	2576.531210
816.868502	2574.885273
817.187399	2577.594894
817.506250	2578.177147
817.825058	2578.711509
818.143821	2579.573547
818.462539	2580.717888
818.781213	2583.939186
819.099843	2589.204671
819.418429	2596.930239
819.736970	2608.325767
820.055466	2617.467900
820.373919	2627.272944
820.692327	2642.749287
821.010691	2666.392298
821.329011	2740.620768
821.647286	2922.724889
821.965517	3198.009697
822.283704	3344.782892
822.601847	3323.605004
822.919945	3166.890655
823.237999	3038.550440
823.556010	2928.789397
823.873976	2838.638443
824.191897	2778.590739
824.509775	2730.946794
824.827609	2694.234591
825.145398	2680.363856
825.463144	2673.878412
825.780845	2682.276974
826.098502	2701.808924
826.416116	2745.462796
826.733685	2793.784776
827.051210	2802.153092
827.368692	2779.142745
827.686129	2733.885786
828.003522	2689.279137
828.320872	2654.386790
828.638177	2631.683954
828.955439	2614.944802
829.272656	2601.784870
829.589830	2589.517222
829.906960	2591.581575
830.224046	2582.983887
830.541088	2581.985739
830.858086	2580.246541
831.175041	2575.880901
831.491952	2574.792012
831.808819	2574.431570
832.125642	2579.462641
832.442421	2582.983887
832.759157	2595.886720
833.075849	2618.713065
833.392497	2654.505257
833.709101	2675.408402
834.025662	2670.294151
834.342179	2651.016779
834.658653	2629.274282
834.975083	2609.606221
835.291469	2601.641197
835.607811	2588.100658
835.924110	2582.424319
836.240366	2574.388720
836.556578	2569.508883
836.872746	2568.198183
837.188871	2566.332956
837.504952	2563.129303
837.820990	2561.669889
838.136984	2558.183931
838.452935	2557.962120
838.768842	2560.298695
839.084706	2562.017728
839.400526	2571.230437
839.716303	2582.941037
840.032037	2600.615323
840.347727	2594.220619
840.663373	2584.899526
840.978977	2575.938875
841.294537	2567.066444
841.610054	2562.874724
841.925527	2560.500341
842.240957	2555.731409
842.556344	2557.183262
842.871687	2553.626728
843.186987	2554.473642
843.502244	2551.948023
843.817458	2551.343085
844.132629	2548.958619
844.447756	2549.500543
844.762840	2543.080634
845.077881	2544.817311
845.392879	2545.626417
845.707833	2544.159441
846.022745	2544.076262
846.337613	2547.426108
846.652438	2546.909390
846.967221	2546.228834
847.281960	2546.934596
847.596656	2549.031716
847.911309	2544.230017
848.225919	2543.436035
848.540485	2546.604400
848.855009	2545.150027
849.169490	2543.839328
849.483928	2543.357897
849.798323	2545.054246
850.112675	2541.590973
850.426984	2544.565254
850.741251	2546.745553
851.055474	2545.611293
851.369654	2544.635830
851.683792	2543.569626
851.997887	2542.659697
852.311938	2544.555171
852.625947	2547.330327
852.939914	2546.312013
853.253837	2546.387631
853.567718	2542.175747
853.881555	2546.044832
854.195350	2542.130376
854.509103	2544.860161
854.822812	2544.565254
855.136479	2543.912424
855.450103	2543.294883
855.763685	2545.155069
856.077224	2543.131045
856.390720	2546.241437
856.704173	2544.083823
857.017584	2545.908721
857.330953	2546.531304
857.644278	2543.788916
857.957561	2543.501570
858.270802	2547.073228
858.584000	2546.619524
858.897155	2547.055584
859.210268	2545.490305
859.523339	2544.986190
859.836367	2544.958464
860.149352	2545.855789
860.462295	2547.156407
860.775195	2540.439069
861.088054	2538.223482
861.400869	2542.533669
861.713642	2540.371014
862.026373	2544.414019
862.339062	2541.837989
862.651708	2545.505429
862.964312	2544.623227
863.276873	2544.817311
863.589392	2545.200439
863.901869	2543.584749
864.214303	2546.188505
864.526696	2546.934596
864.839045	2548.023485
865.151353	2546.979966
865.463619	2547.337888
865.775842	2547.461397
866.088023	2546.059956
866.400162	2545.092054
866.712258	2549.054401
867.024313	2547.171530
867.336325	2547.327806
867.648296	2548.935934
867.960224	2547.037940
868.272110	2548.071376
868.583954	2545.911242
868.895755	2549.901315
869.207515	2548.751932
869.519233	2546.364946
869.830909	2547.317724
870.142542	2547.940306
870.454134	2547.463917
870.765684	2550.077755
871.077191	2545.908721
871.388657	2547.728578
871.700081	2550.821326
872.011463	2549.029195
872.322803	2548.938455
872.634101	2547.715975
872.945357	2547.917621
873.256571	2549.429967
873.567744	2550.032385
873.878874	2551.038095
874.189963	2553.120092
874.501010	2554.476162
874.812015	2550.362581
875.122979	2552.464742
875.433900	2551.070863
875.744780	2548.227652
876.055618	2552.043805
876.366415	2553.278888
876.677169	2553.195709
876.987882	2550.687735
877.298554	2549.200595
877.609183	2551.002807
877.919771	2546.725388
878.230317	2552.086655
878.540822	2556.180072
878.851285	2558.582182
879.161707	2560.523026
879.472087	2564.863460
879.782425	2574.907959
880.092722	2585.670822
880.402977	2609.873402
880.713191	2651.989722
881.023363	2700.515868
881.333494	2737.137331
881.643583	2751.986049
881.953631	2740.310737
882.263637	2717.063456
882.573602	2696.127544
882.883526	2673.391940
883.193408	2655.422747
883.503248	2635.573204
883.813048	2620.704321
884.122806	2609.482712
884.432522	2597.353696
884.742197	2585.179310
885.051831	2583.140163
885.361424	2573.524162
885.670975	2570.307906
885.980485	2565.491083
886.289954	2564.669375
886.599382	2564.558470
886.908768	2561.231308
887.218113	2558.781307
887.527417	2559.013201
887.836680	2554.788714
888.145901	2553.788045
888.455082	2555.078580
888.764221	2550.884340
889.073319	2552.522715
889.382376	2552.358878
889.691392	2551.592622
890.000366	2551.764021
890.309300	2551.514484
890.618193	2555.015566
890.927044	2553.858621
891.235855	2553.548590
891.544625	2551.756460
891.853353	2554.214022
892.162041	2553.979608
892.470687	2555.935576
892.779293	2556.389280
893.087858	2557.107644
893.396381	2559.567727
893.704864	2565.407904
894.013306	2571.422001
894.321707	2588.017479
894.630068	2597.252873
894.938387	2601.363934
895.246665	2600.305292
895.554903	2588.655185
895.863100	2587.246183
896.171256	2579.500450
896.479371	2574.388720
896.787446	2568.430076
897.095480	2564.694581
897.403473	2563.961093
897.711425	2558.725855
898.019336	2560.061761
898.327207	2555.922973
898.635038	2557.783159
898.942827	2554.839125
899.250576	2553.389793
899.558284	2552.595812
899.865952	2553.387273
900.173579	2549.480379
900.481165	2551.786707
900.788711	2548.366284
901.096216	2550.791079
901.403681	2550.738147
901.711105	2551.738816
902.018489	2549.419885
902.325832	2550.937272
902.633135	2550.584391
902.940397	2552.618497
903.247619	2557.972202
903.554800	2568.021743
903.861941	2584.292067
904.169041	2607.660335
904.476101	2617.790534
904.783121	2616.827673
905.090100	2607.337701
905.397039	2597.177256
905.703938	2584.846593
906.010796	2573.627506
906.317614	2566.562328
906.624391	2563.794735
906.931129	2556.492624
907.237826	2552.111861
907.544483	2552.961295
907.851099	2552.300904
908.157675	2548.293187
908.464211	2545.419729
908.770707	2544.497198
909.077163	2543.436035
909.383578	2539.461085
909.689954	2541.369162
909.996289	2537.109387
910.302584	2542.183308
910.608839	2543.166333
910.915054	2546.233876
911.221229	2544.388813
911.527363	2545.923845
911.833458	2544.935778
912.139513	2544.663556
912.445527	2544.371169
912.751502	2544.300593
913.057436	2545.021478
913.363331	2546.458207
913.669186	2549.024154
913.975000	2551.249824
914.280775	2554.226625
914.586510	2560.938921
914.892205	2563.630897
915.197859	2574.033318
915.503475	2583.162848
915.809050	2596.050558
916.114585	2604.416353
916.420081	2608.290479
916.725536	2603.261928
917.030952	2598.634149
917.336328	2589.804568
917.641665	2584.433219
917.946961	2580.039853
918.252218	2571.764799
918.557435	2568.324212
918.862612	2565.813717
919.167750	2559.192162
919.472848	2556.696790
919.777906	2554.937428
920.082925	2554.145967
920.387904	2549.427447
920.692843	2549.485420
920.997743	2549.437529
921.302603	2549.026675
921.607423	2548.242775
921.912204	2546.906870
922.216946	2545.880995
922.521647	2547.279915
922.826310	2543.196580
923.130932	2545.402085
923.435516	2542.034594
923.740059	2542.949564
924.044564	2543.554502
924.349028	2543.408309
924.653454	2540.678524
924.957840	2541.303627
925.262186	2539.151054
925.566493	2538.220962
925.870761	2535.811290
926.174989	2541.747249
926.479178	2540.139121
926.783328	2543.095757
927.087438	2537.847916
927.391509	2538.939326
927.695541	2537.121990
927.999533	2537.265663
928.303486	2539.166178
928.607400	2536.799356
928.911275	2538.664583
929.215110	2537.772299
929.518906	2538.977135
929.822663	2539.662732
930.126381	2538.057124
930.430060	2539.647608
930.733699	2540.204656
931.037299	2537.744573
931.340861	2535.496218
931.644383	2539.382947
931.947866	2537.361445
932.251309	2540.441590
932.554714	2538.183153
932.858080	2539.077958
933.161407	2540.844882
933.464694	2539.531662
933.767943	2537.704243
934.071153	2539.708102
934.374323	2537.308513
934.677455	2538.641898
934.980548	2536.068389
935.283602	2537.989068
935.586617	2538.808256
935.889593	2537.280786
936.192530	2536.491846
936.495428	2539.975283
936.798287	2539.645087
937.101108	2537.721887
937.403890	2538.803215
937.706632	2538.099974
938.009336	2539.483771
938.312002	2542.475695
938.614628	2543.867054
938.917216	2540.252547
939.219765	2541.835469
939.522275	2544.227496
939.824747	2541.321271
940.127179	2541.439738
940.429573	2539.176260
940.731929	2538.929244
941.034246	2537.651311
941.336524	2537.434542
941.638763	2539.118287
941.940964	2539.834131
942.243126	2539.113246
942.545250	2540.784388
942.847335	2536.401105
943.149381	2540.134079
943.451389	2538.805735
943.753359	2541.653987
944.055290	2538.238606
944.357182	2538.631816
944.659036	2538.893956
944.960851	2538.767927
945.262628	2538.553678
945.564367	2539.251877
945.866067	2537.863040
946.167729	2537.986548
946.469352	2537.187525
946.770937	2539.423277
947.072484	2537.994110
947.373992	2539.362783
947.675462	2539.771116
947.976893	2537.260622
948.278286	2537.099305
948.579641	2538.629295
948.880958	2534.591331
949.182236	2539.221631
949.483476	2536.380940
949.784678	2536.595189
950.085841	2536.872453
950.386967	2538.437731
950.688054	2533.971269
950.989103	2538.576363
951.290114	2537.820190
951.591087	2539.990407
951.892021	2538.047042
952.192917	2539.471168
952.493776	2535.712988
952.794596	2541.258257
953.095378	2538.657021
953.396122	2538.954449
953.696828	2539.680376
953.997496	2537.905889
954.298126	2535.534027
954.598718	2539.287166
954.899272	2539.390509
955.199788	2537.416898
955.500266	2537.623585
955.800706	2532.973120
956.101108	2532.605116
956.401472	2532.723583
956.701798	2529.892975
957.002087	2532.131248
957.302337	2534.760209
957.602550	2536.249870
957.902724	2533.076464
958.202861	2535.009747
958.502960	2533.719211
958.803022	2533.409180
959.103045	2535.153419
959.403031	2531.460774
959.702979	2533.625950
960.002889	2534.409849
960.302762	2533.109232
960.602596	2535.675179
960.902393	2534.936650
961.202153	2533.512524
961.501875	2532.431196
961.801559	2533.585621
962.101205	2533.628470
962.400814	2533.522606
962.700385	2531.856505
962.999918	2533.678882
963.299414	2532.262318
963.598873	2535.478574
963.898293	2534.465302
964.197677	2532.211906
964.497022	2534.135106
964.796331	2531.044879
965.095601	2532.539581
965.394835	2533.058820
965.694030	2532.325332
965.993189	2531.914478
966.292309	2534.309026
966.591393	2531.796011
966.890439	2532.907585
967.189447	2530.011442
967.488419	2532.400949
967.787353	2532.957997
968.086249	2532.789118
968.385108	2533.991433
968.683930	2532.549663
968.982714	2532.456402
969.281462	2534.036804
969.580172	2531.652338
969.878844	2531.732997
970.177480	2530.908768
970.476078	2530.981865
970.774639	2533.215096
971.073162	2532.678213
971.371649	2528.922553
971.670098	2527.427851
971.968510	2531.085208
972.266885	2526.364168
972.565223	2532.877338
972.863524	2534.616537
973.161788	2530.936494
973.460014	2531.586803
973.758204	2531.191072
974.056356	2531.173428
974.354471	2535.639891
974.652550	2531.647297
974.950591	2531.982534
975.248595	2532.479087
975.546563	2533.401618
975.844493	2530.497914
976.142386	2530.906247
976.440243	2531.614529
976.738062	2534.427493
977.035845	2531.813655
977.333590	2532.484128
977.631299	2533.341125
977.928971	2534.079654
978.226606	2530.976823
978.524204	2534.626619
978.821765	2531.543953
979.119290	2531.354910
979.416777	2532.022863
979.714228	2527.856349
980.011642	2532.584952
980.309020	2532.900024
980.606360	2532.373223
980.903664	2534.440096
981.200931	2533.494880
981.498162	2531.170908
981.795356	2529.061185
982.092513	2532.126207
982.389633	2532.743748
982.686717	2533.260466
982.983764	2534.336752
983.280775	2532.748789
983.577749	2532.937832
983.874686	2534.835827
984.171587	2533.953625
984.468451	2530.066895
984.765279	2532.811803
985.062070	2534.777853
985.358824	2531.163346
985.655543	2531.344828
985.952224	2530.172759
986.248869	2530.187883
986.545478	2529.121679
986.842050	2529.066226
987.138586	2526.283509
987.435086	2527.579086
987.731549	2525.728982
988.027975	2530.016484
988.324366	2530.755013
988.620719	2529.976154
988.917037	2530.543284
989.213318	2531.405322
989.509563	2530.026566
989.805772	2532.736186
990.101944	2530.593696
990.398080	2531.249046
990.694180	2529.560259
990.990244	2531.271731
991.286271	2529.628315
991.582262	2530.868439
991.878217	2528.993129
992.174136	2527.553880
992.470019	2529.598068
992.765865	2531.730476
993.061676	2529.388860
993.357450	2531.090249
993.653188	2530.051772
993.948890	2530.200486
994.244556	2528.335259
994.540186	2528.766278
994.835780	2528.930115
995.131337	2531.070085
995.426859	2529.643438
995.722345	2528.269724
996.017795	2529.887934
996.313208	2530.230733
996.608586	2529.383819
996.903928	2530.424817
997.199234	2528.758716
997.494504	2530.833151
997.789738	2528.902389
998.084936	2532.073274
998.380099	2529.282996
998.675225	2530.954138
998.970316	2528.940197
999.265371	2530.195445
999.560390	2530.507996
999.855373	2529.202337
1000.150320	2528.027748
1000.445232	2530.200486
1000.740108	2529.638397
1001.034948	2530.462626
1001.329752	2527.574045
1001.624521	2527.364837
1001.919254	2525.381143
1002.213951	2527.669827
1002.508613	2524.511544
1002.803239	2529.824920
1003.097829	2525.144208
1003.392384	2529.058664
1003.686903	2527.765608
1003.981386	2532.285003
1004.275834	2528.960362
1004.570246	2529.633356
1004.864623	2529.078829
1005.158964	2529.908099
1005.453270	2530.374406
1005.747540	2528.153777
1006.041775	2530.087060
1006.335974	2531.798532
1006.630138	2529.706453
1006.924266	2528.017666
1007.218359	2528.927594
1007.512416	2529.998840
1007.806438	2528.955321
1008.100425	2529.832482
1008.394376	2527.478263
1008.688292	2528.108407
1008.982172	2530.946577
1009.276017	2531.120496
1009.569827	2527.826102
1009.863602	2529.509848
1010.157341	2527.964734
1010.451045	2526.643952
1010.744714	2529.159487
1011.038347	2530.364323
1011.331945	2530.099663
1011.625508	2529.509848
1011.919036	2528.017666
1012.212528	2529.209899
1012.505986	2526.336441
1012.799408	2526.916174
1013.092795	2529.257790
1013.386147	2528.030269
1013.679464	2528.746113
1013.972745	2529.913140
1014.265992	2526.843077
1014.559204	2528.231915
1014.852380	2528.995650
1015.145521	2526.727131
1015.438628	2530.986906
1015.731699	2529.950949
1016.024736	2526.722090
1016.317737	2529.953469
1016.610703	2528.007584
1016.903635	2526.134795
1017.196531	2523.296626
1017.489393	2523.616739
1017.782219	2522.318642
1018.075011	2526.790145
1018.367768	2526.704446
1018.660490	2530.122348
1018.953177	2530.122348
1019.245829	2530.122348
