Dividing Wavelength (nm)	Counts (n)	Blue Motor Position (mm): 0.000000	Red Motor Position (mm): 11.900000	
326.493990	2126.794752
326.888308	2126.794752
327.282561	2126.794752
327.676750	2097.298961
328.070874	2094.579258
328.464933	2098.586976
328.858929	2102.778695
329.252859	2114.917794
329.646726	2123.548249
330.040528	2138.812863
330.434265	2152.386170
330.827938	2172.228151
331.221547	2191.480318
331.615091	2209.578060
332.008571	2228.421893
332.401986	2247.517784
332.795338	2266.235588
333.188625	2284.408948
333.581847	2303.618264
333.975006	2321.748774
334.368100	2343.206446
334.761129	2361.399970
335.154095	2375.691641
335.546996	2392.793755
335.939833	2407.395458
336.332606	2423.489341
336.725315	2432.220620
337.117960	2445.224276
337.510540	2452.652416
337.903056	2463.674899
338.295508	2470.072123
338.687896	2478.775675
339.080220	2488.749598
339.472480	2494.899806
339.864676	2500.893738
340.256807	2503.437000
340.648875	2506.587721
341.040879	2507.616117
341.432818	2509.587208
341.824694	2511.391941
342.216506	2512.347239
342.608253	2514.043588
342.999937	2514.182219
343.391557	2512.606859
343.783113	2511.616272
344.174605	2510.628206
344.566033	2507.762310
344.957397	2507.144769
345.348697	2506.134017
345.739934	2503.653770
346.131106	2503.936074
346.522215	2498.705877
346.913260	2498.174035
347.304241	2497.992554
347.695159	2496.707060
348.086012	2492.588437
348.476802	2490.019969
348.867528	2492.918632
349.258191	2488.673981
349.648789	2488.527788
350.039324	2486.503764
350.429796	2486.014772
350.820203	2485.729947
351.210548	2482.400265
351.600828	2481.157621
351.991045	2485.175420
352.381198	2479.771303
352.771288	2480.600573
353.161314	2480.222487
353.551276	2480.958495
353.941175	2481.323979
354.331010	2479.597383
354.720782	2478.833649
355.110490	2480.658546
355.500135	2479.889770
355.889717	2480.862713
356.279235	2480.920686
356.668689	2485.203147
357.058080	2482.911942
357.447408	2477.593525
357.836672	2480.658546
358.225873	2480.398927
358.615010	2480.340954
359.004084	2484.020996
359.393095	2485.061994
359.782043	2486.468476
360.170927	2483.854638
360.559748	2485.162817
360.948505	2486.687766
361.337199	2489.888899
361.725830	2487.176758
362.114398	2486.264309
362.502903	2490.085504
362.891344	2491.444095
363.279722	2491.320587
363.668037	2491.721358
364.056289	2491.807058
364.444478	2492.928715
364.832603	2489.175576
365.220665	2490.798827
365.608665	2494.017604
365.996601	2492.008704
366.384474	2495.897954
366.772284	2495.081288
367.160031	2498.763850
367.547715	2501.586897
367.935336	2501.833913
368.322893	2504.498163
368.710388	2507.772392
369.097820	2516.105420
369.485189	2517.907632
369.872495	2522.578261
370.259738	2529.421627
370.646918	2536.169212
371.034035	2544.149358
371.421090	2552.469783
371.808081	2564.192986
372.195010	2573.919892
372.581875	2585.401120
372.968678	2598.876125
373.355418	2611.085799
373.742096	2626.305043
374.128710	2642.638381
374.515262	2658.104641
374.901751	2672.892866
375.288177	2684.338806
375.674540	2709.080789
376.060841	2729.222719
376.447079	2745.142683
376.833254	2764.561207
377.219367	2778.830193
377.605417	2815.398723
377.991404	2824.392142
378.377329	2848.135977
378.763191	2861.260621
379.148991	2900.264028
379.534727	2924.690939
379.920402	2952.124898
380.306013	2967.061837
380.691563	3015.136801
381.077049	3035.230840
381.462474	3056.512071
381.847835	3092.740323
382.233134	3113.214969
382.618371	3112.216821
383.003545	3180.837007
383.388657	3186.062163
383.773706	3218.196998
384.158693	3231.777867
384.543618	3254.084972
384.928480	3288.700055
385.313280	3330.062723
385.698017	3321.165086
386.082692	3368.627549
386.467305	3366.419524
386.851856	3389.369377
387.236344	3399.872621
387.620770	3420.581681
388.005133	3435.253959
388.389435	3443.110598
388.773674	3437.645987
389.157851	3461.954431
389.541965	3459.433854
389.926018	3415.018768
390.310008	3457.898822
390.693936	3457.271199
391.077802	3465.757981
391.461606	3434.500307
391.845348	3465.004329
392.229027	3438.843261
392.612645	3425.217022
392.996200	3453.439922
393.379694	3454.962350
393.763125	3468.820482
394.146494	3417.007503
394.529801	3426.754574
394.913047	3423.129984
395.296230	3372.065616
395.679351	3366.442209
396.062410	3349.781196
396.445408	3307.324598
396.828343	3286.449180
397.211217	3262.231477
397.594028	3191.647761
397.976778	3185.570650
398.359466	3161.602484
398.742092	3134.440747
399.124656	3077.831110
399.507158	3074.972776
399.889598	3050.278684
400.271977	3037.688402
400.654294	2998.947135
401.036549	2967.250880
401.418742	2931.002463
401.800874	2921.724220
402.182944	2901.297464
402.564952	2885.309445
402.946898	2857.499920
403.328783	2826.476659
403.710606	2792.406021
404.092367	2794.830816
404.474067	2767.573297
404.855705	2748.469844
405.237282	2722.565875
405.618797	2713.562375
406.000250	2698.965714
406.381642	2689.309383
406.762972	2670.866322
407.144240	2652.433343
407.525447	2642.547640
407.906593	2631.454581
408.287677	2618.884464
408.668700	2604.189501
409.049661	2598.402256
409.430560	2590.805237
409.811399	2579.805440
410.192176	2573.808987
410.572891	2566.527040
410.953545	2563.996381
411.334138	2554.181255
411.714669	2553.601522
412.095139	2546.790923
412.475547	2544.711447
412.855894	2541.515356
413.236180	2538.339429
413.616405	2537.918492
413.996568	2535.196269
414.376670	2530.825589
414.756711	2530.412214
415.136691	2529.295599
415.516609	2529.804755
415.896466	2528.713345
416.276262	2531.314581
416.655997	2523.883920
417.035670	2525.728982
417.415283	2526.800227
417.794834	2523.778056
418.174324	2525.804600
418.553753	2523.775535
418.933121	2527.669827
419.312428	2525.139167
419.691674	2525.655886
420.070859	2524.967768
420.449983	2524.680422
420.829045	2526.815351
421.208047	2525.923067
421.586988	2523.805782
421.965867	2527.274096
422.344686	2526.356606
422.723444	2525.761750
423.102141	2523.909126
423.480777	2524.214116
423.859352	2527.329549
424.237866	2526.752337
424.616319	2525.061029
424.994712	2528.549508
425.373044	2524.559435
425.751314	2527.127903
426.129524	2525.018180
426.507673	2525.764270
426.885762	2526.026410
427.263789	2527.236287
427.641756	2525.129085
428.019662	2527.906761
428.397508	2527.962213
428.775292	2527.735362
429.153016	2524.272089
429.530679	2527.611853
429.908282	2527.279137
430.285824	2524.871986
430.663305	2527.785773
431.040726	2530.119827
431.418086	2525.313087
431.795385	2526.737213
432.172624	2526.943900
432.549802	2529.172090
432.926920	2530.603778
433.303977	2526.822913
433.680974	2528.693181
434.057910	2528.441123
434.434786	2528.121010
434.811601	2528.456247
435.188355	2527.616894
435.565050	2529.096473
435.941683	2528.214271
436.318257	2526.969106
436.694770	2523.954496
437.071222	2528.728469
437.447614	2524.262007
437.823946	2527.606812
438.200218	2526.260824
438.576429	2528.743592
438.952580	2528.978006
439.328670	2530.253418
439.704700	2530.233253
440.080670	2529.056144
440.456580	2529.192255
440.832429	2530.999509
441.208218	2530.659231
441.583947	2529.923222
441.959616	2531.637215
442.335224	2532.675692
442.710773	2529.744261
443.086261	2532.690816
443.461689	2529.532533
443.837057	2531.049920
444.212365	2530.266021
444.587612	2532.340456
444.962800	2530.447502
445.337927	2532.983203
445.712995	2528.799045
446.088002	2530.707122
446.462949	2533.711649
446.837837	2530.457585
447.212664	2530.255938
447.587431	2533.749458
447.962139	2532.143851
448.336786	2536.847247
448.711374	2535.249201
449.085901	2533.648635
449.460369	2534.188038
449.834776	2534.626619
450.209124	2535.526465
450.583412	2534.107380
450.957640	2533.575538
451.331808	2535.982689
451.705917	2533.126876
452.079965	2533.225178
452.453954	2535.907072
452.827883	2536.512010
453.201752	2534.230888
453.575562	2533.104190
453.949311	2535.657535
454.323001	2535.960004
454.696632	2534.044366
455.070202	2537.464788
455.443713	2536.358255
455.817164	2533.328522
456.190556	2534.901362
456.563888	2534.392205
456.937160	2531.851464
457.310373	2537.537885
457.683526	2536.106197
458.056619	2536.620395
458.429653	2536.590148
458.802628	2538.467978
459.175542	2536.101156
459.548398	2539.554347
459.921194	2536.665766
460.293930	2539.952598
460.666607	2539.592155
461.039224	2542.997455
461.411782	2537.981507
461.784280	2540.302958
462.156719	2540.068544
462.529099	2541.906045
462.901419	2540.476878
463.273680	2541.661549
463.645882	2538.357073
464.018024	2541.038967
464.390106	2540.365973
464.762130	2540.247505
465.134094	2540.686086
465.505999	2546.569112
465.877845	2545.787733
466.249631	2548.852755
466.621358	2545.707075
466.993026	2549.530790
467.364634	2549.891233
467.736184	2549.044319
468.107674	2542.856302
468.479105	2544.744215
468.850477	2542.332022
469.221790	2547.476520
469.593043	2542.082485
469.964238	2544.466951
470.335373	2542.329502
470.706449	2544.131714
471.077467	2544.217414
471.448425	2546.110367
471.819324	2548.015923
472.190164	2548.472148
472.560945	2547.305121
472.931667	2544.572815
473.302330	2543.383103
473.672934	2542.785726
474.043479	2543.700696
474.413965	2545.399565
474.784393	2539.763555
475.154761	2542.286652
475.525070	2540.887732
475.895321	2541.074255
476.265513	2541.250695
476.635645	2544.345963
477.005719	2546.208670
477.375734	2545.971736
477.745691	2543.161292
478.115588	2545.018957
478.485427	2546.201108
478.855207	2545.492826
479.224928	2549.929041
479.594591	2548.953578
479.964194	2549.772766
480.333739	2549.467776
480.703226	2546.730429
481.072653	2547.572302
481.442022	2547.277394
481.811333	2551.814433
482.180584	2548.726726
482.549777	2550.642365
482.918912	2548.487271
483.287988	2548.220090
483.657005	2548.096582
484.025964	2547.693290
484.394864	2548.295707
484.763706	2550.672612
485.132489	2548.809905
485.501213	2550.307128
485.869879	2547.093392
486.238487	2548.550286
486.607036	2548.038609
486.975527	2548.996428
487.343959	2545.994421
487.712333	2544.371169
488.080648	2548.762014
488.448905	2548.436860
488.817104	2547.723537
489.185244	2549.288815
489.553326	2549.278733
489.921350	2550.120605
490.289315	2552.205122
490.657222	2553.528425
491.025070	2553.132695
491.392861	2550.039947
491.760593	2549.578681
492.128267	2551.698486
492.495883	2547.647919
492.863440	2549.684545
493.230939	2549.737478
493.598380	2547.985677
493.965763	2546.110367
494.333088	2545.921324
494.700354	2545.197918
495.067563	2545.109698
495.434713	2544.008206
495.801805	2548.835111
496.168839	2549.525749
496.535815	2550.029864
496.902733	2548.792261
497.269593	2551.012889
497.636395	2548.439380
498.003139	2547.378217
498.369825	2548.870399
498.736453	2549.235883
499.103023	2547.448794
499.469535	2549.470296
499.835989	2549.072045
500.202385	2550.055070
500.568723	2547.040460
500.935003	2548.872920
501.301226	2549.447611
501.667390	2548.635985
502.033497	2548.867878
502.399546	2552.205122
502.765537	2549.472817
503.131470	2550.196222
503.497345	2551.874927
503.863163	2551.033054
504.228923	2547.244627
504.594625	2550.876778
504.960269	2547.383259
505.325856	2548.913249
505.691385	2548.462066
506.056856	2547.519370
506.422270	2546.811088
506.787625	2548.746891
507.152924	2549.387117
507.518164	2550.783517
507.883347	2551.174206
508.248472	2547.844524
508.613540	2550.516336
508.978550	2548.537683
509.343503	2548.441901
509.708398	2549.268650
510.073236	2547.920142
510.438016	2550.571788
510.802738	2549.160265
511.167403	2547.605069
511.532010	2547.015254
511.896561	2551.809392
512.261053	2551.501881
512.625488	2548.842673
512.989866	2542.400078
513.354186	2547.597508
513.718449	2544.890408
514.082655	2549.225800
514.446803	2550.223949
514.810894	2551.900133
515.174927	2552.363919
515.538904	2552.653785
515.902822	2550.256716
516.266684	2551.630431
516.630488	2547.189174
516.994235	2550.032385
517.357925	2551.355688
517.721558	2549.303938
518.085133	2547.947868
518.448651	2550.428116
518.812112	2550.952396
519.175516	2551.002807
519.538863	2553.740154
519.902152	2551.506922
520.265385	2554.614794
520.628560	2551.975750
520.991678	2551.627910
521.354739	2554.077911
521.717743	2550.264278
522.080690	2552.189999
522.443580	2549.135060
522.806413	2549.959288
523.169189	2551.527087
523.531908	2552.845349
523.894569	2550.975081
524.257174	2552.293343
524.619722	2550.506253
524.982213	2550.816284
525.344647	2551.259906
525.707025	2550.347457
526.069345	2550.352498
526.431608	2550.012220
526.793815	2550.072714
527.155964	2551.549772
527.518057	2551.358208
527.880093	2552.119423
528.242072	2552.318548
528.603995	2551.998435
528.965860	2551.590102
529.327669	2553.583878
529.689421	2548.527601
530.051117	2551.643034
530.412755	2548.830070
530.774337	2552.419371
531.135862	2549.440049
531.497331	2547.743701
531.858743	2546.884184
532.220098	2547.169010
532.581396	2546.967363
532.942638	2548.184802
533.303824	2550.138249
533.664953	2552.187478
534.026025	2548.888043
534.387040	2552.595812
534.747999	2550.221428
535.108902	2553.866182
535.469748	2549.689587
535.830537	2553.167983
536.191270	2548.860317
536.551947	2551.388455
536.912567	2551.600184
537.273131	2553.339382
537.633638	2550.523898
537.994089	2554.168652
538.354483	2552.971378
538.714821	2550.178578
539.075103	2551.645554
539.435328	2550.881819
539.795497	2550.153373
540.155609	2554.289639
540.515665	2551.136398
540.875665	2554.045143
541.235609	2552.502550
541.595496	2552.343754
541.955328	2551.436346
542.315102	2553.634289
542.674821	2552.810061
543.034483	2553.599001
543.394090	2553.351985
543.753640	2553.281409
544.113134	2547.859648
544.472571	2554.145967
544.831953	2550.828887
545.191278	2551.285112
545.550548	2551.708569
545.909761	2550.841490
546.268918	2551.212015
546.628019	2553.664536
546.987064	2551.396017
547.346053	2551.380894
547.704986	2551.816953
548.063863	2557.208467
548.422684	2553.437684
548.781449	2549.583722
549.140158	2552.797458
549.498811	2552.777293
549.857408	2554.597150
550.215949	2550.095399
550.574434	2549.692107
550.932864	2547.990718
551.291237	2546.695141
551.649555	2553.059598
552.007817	2553.523384
552.366022	2552.404248
552.724173	2553.593960
553.082267	2552.626059
553.440305	2551.632951
553.798288	2551.254865
554.156215	2552.474824
554.514086	2551.297715
554.871902	2550.728064
555.229661	2553.200750
555.587365	2550.997766
555.945014	2548.953578
556.302606	2555.910370
556.660143	2551.685883
557.017625	2551.196892
557.375050	2549.397200
557.732421	2550.624721
558.089735	2553.455328
558.446994	2550.944834
558.804197	2549.772766
559.161345	2551.592622
559.518437	2554.367777
559.875474	2552.434495
560.232455	2550.251675
560.589381	2552.719320
560.946251	2553.752757
561.303065	2553.344423
561.659825	2551.448949
562.016528	2552.184958
562.373177	2551.113713
562.729770	2552.696635
563.086307	2551.902653
563.442789	2554.551779
563.799216	2552.179917
564.155587	2552.903322
564.511904	2553.069680
564.868164	2553.046995
565.224370	2552.174875
565.580520	2551.824515
565.936615	2552.709238
566.292654	2551.791748
566.648638	2554.019938
567.004567	2550.468445
567.360441	2554.408107
567.716260	2549.724875
568.072023	2552.583209
568.427732	2547.476520
568.783385	2550.160934
569.138982	2549.550955
569.494525	2546.669935
569.850013	2547.864689
570.205445	2555.166800
570.560823	2550.397869
570.916145	2551.393497
571.271412	2552.099258
571.626625	2551.562375
571.981782	2553.457849
572.336884	2553.798127
572.691931	2551.353167
573.046923	2551.123795
573.401860	2551.091027
573.756743	2554.019938
574.111570	2551.509443
574.466342	2553.906512
574.821059	2549.818136
575.175722	2553.530946
575.530330	2552.149670
575.884882	2552.066491
576.239380	2551.222097
576.593823	2550.982643
576.948211	2550.483568
577.302544	2551.781665
577.656823	2550.801161
578.011047	2550.894422
578.365216	2551.965667
578.719330	2550.123126
579.073389	2550.286963
579.427394	2549.331665
579.781344	2551.577499
580.135239	2549.805533
580.489080	2550.922149
580.842866	2550.849052
581.196597	2552.905843
581.550273	2552.951213
581.903895	2552.328631
582.257463	2553.150339
582.610975	2548.966181
582.964434	2552.144628
583.317837	2549.505584
583.671186	2549.598846
584.024481	2551.842159
584.377721	2552.026161
584.730906	2550.612118
585.084037	2548.278063
585.437113	2550.395348
585.790135	2551.330482
586.143103	2549.918959
586.496016	2550.826367
586.848874	2545.765048
587.201679	2549.747560
587.554428	2545.800336
587.907124	2547.015254
588.259765	2547.468958
588.612352	2548.683876
588.964884	2549.835780
589.317362	2549.157745
589.669786	2551.537169
590.022155	2551.133877
590.374470	2553.135215
590.726731	2552.878116
591.078937	2547.708413
591.431090	2549.671942
591.783188	2548.958619
592.135232	2550.052550
592.487222	2549.523228
592.839157	2550.879299
593.191038	2550.407951
593.542866	2547.857127
593.894639	2546.637168
594.246358	2552.842828
594.598022	2550.123126
594.949633	2548.797302
595.301190	2549.951727
595.652692	2548.026006
596.004141	2550.470965
596.355535	2551.761501
596.706876	2548.860317
597.058162	2548.968702
597.409395	2549.160265
597.760573	2547.700851
598.111698	2548.494833
598.462768	2549.911397
598.813785	2549.767724
599.164748	2548.973743
599.515657	2549.792930
599.866511	2549.306459
600.217312	2549.132539
600.568060	2550.239072
600.918753	2550.846531
601.269392	2547.806716
601.619978	2549.273691
601.970510	2548.923331
602.320988	2549.732436
602.671412	2548.078938
603.021783	2548.653629
603.372100	2549.649257
603.722363	2551.821995
604.072572	2546.730429
604.422728	2549.067004
604.772830	2545.384441
605.122878	2541.220448
605.472872	2545.449976
605.822813	2545.167672
606.172701	2545.656663
606.522534	2548.056253
606.872314	2548.504915
607.222041	2550.584391
607.571714	2549.757642
607.921333	2550.165976
608.270899	2547.524411
608.620411	2547.882333
608.969870	2551.327962
609.319276	2548.704041
609.668627	2555.181924
610.017926	2555.602860
610.367171	2558.062943
610.716362	2558.367933
611.065500	2553.946841
611.414585	2553.215874
611.763616	2553.735112
612.112594	2550.695297
612.461518	2554.140925
612.810389	2550.390307
613.159207	2548.416695
613.507971	2550.445760
613.856682	2552.648744
614.205340	2552.492468
614.553945	2548.106664
614.902496	2550.483568
615.250994	2549.092210
615.599439	2547.302600
615.947830	2552.043805
616.296169	2549.069525
616.644454	2550.130687
616.992686	2549.427447
617.340864	2549.709751
617.688990	2548.928372
618.037063	2550.332334
618.385082	2546.261602
618.733048	2548.351160
619.080961	2548.330996
619.428821	2549.654298
619.776628	2548.373845
620.124382	2549.833259
620.472083	2546.748073
620.819731	2551.509443
621.167326	2548.409133
621.514868	2548.792261
621.862357	2548.552806
622.209793	2549.654298
622.557176	2549.036757
622.904506	2547.045501
623.251783	2545.119781
623.599007	2543.501570
623.946179	2544.363608
624.293297	2544.199770
624.640363	2549.482899
624.987376	2550.365101
625.334336	2547.665563
625.681243	2547.887374
626.028097	2547.385779
626.374899	2547.726057
626.721647	2548.484751
627.068343	2546.443083
627.414987	2545.331509
627.761577	2546.750594
628.108115	2546.385110
628.454600	2548.560368
628.801032	2548.578012
629.147412	2546.944678
629.493739	2547.892415
629.840014	2547.229503
630.186236	2547.438711
630.532405	2548.146993
630.878521	2544.812270
631.224585	2546.463248
631.570597	2547.945347
631.916556	2548.280584
632.262462	2548.683876
632.608316	2545.921324
632.954117	2549.550955
633.299866	2542.594163
633.645562	2546.342260
633.991206	2547.078269
634.336797	2545.875954
634.682336	2544.356046
635.027823	2545.787733
635.373257	2544.920655
635.718639	2547.423588
636.063968	2545.573484
636.409245	2545.598690
636.754470	2545.449976
637.099642	2542.664739
637.444762	2545.870912
637.789829	2546.286808
638.134845	2547.403423
638.479808	2545.412167
638.824719	2544.343443
639.169577	2543.378062
639.514383	2544.628268
639.859137	2544.267826
640.203839	2545.845707
640.548489	2544.340922
640.893086	2539.118287
641.237632	2540.587783
641.582125	2540.628113
641.926566	2539.955118
642.270955	2544.361087
642.615292	2542.616848
642.959576	2544.600542
643.303809	2544.832435
643.647990	2547.000131
643.992118	2544.328319
644.336195	2543.708257
644.680219	2546.760676
645.024192	2542.863864
645.368112	2544.517363
645.711981	2543.539379
646.055797	2545.404606
646.399562	2545.956612
646.743274	2544.666077
647.086935	2547.378218
647.430544	2543.312527
647.774101	2546.672456
648.117606	2542.944523
648.461059	2542.921838
648.804460	2544.769420
649.147810	2543.148689
649.491108	2542.899152
649.834354	2546.324616
650.177548	2543.531817
650.520690	2545.029040
650.863781	2545.563402
651.206820	2547.428629
651.549807	2543.055428
651.892742	2543.347815
652.235626	2541.676672
652.578458	2543.199101
652.921238	2541.268339
653.263967	2541.250695
653.606644	2541.361600
653.949269	2542.246323
654.291843	2543.370500
654.634365	2543.703216
654.976836	2542.871426
655.319255	2544.829914
655.661622	2542.664739
656.003938	2542.478216
656.346203	2543.057949
656.688416	2543.894780
657.030577	2542.190870
657.372687	2542.200953
657.714746	2544.235058
658.056753	2542.155582
658.398708	2540.338246
658.740612	2541.880839
659.082465	2538.430169
659.424266	2543.385624
659.766016	2538.765406
660.107715	2542.831097
660.449362	2541.379244
660.790958	2543.814122
661.132503	2544.257743
661.473996	2544.033412
661.815438	2543.824204
662.156829	2542.362269
662.498168	2542.299255
662.839456	2543.975439
663.180693	2542.541230
663.521879	2541.936292
663.863013	2544.464431
664.204097	2541.170037
664.545129	2541.548123
664.886110	2543.413350
665.227040	2542.543751
665.567918	2540.852444
665.908746	2543.148689
666.249522	2543.262115
666.590248	2543.337733
666.930922	2544.983669
667.271545	2543.453679
667.612118	2544.159441
667.952639	2544.033412
668.293109	2546.460727
668.633528	2542.712630
668.973896	2541.394368
669.314213	2541.638864
669.654480	2543.534338
669.994695	2539.990407
670.334859	2539.945036
670.674973	2539.735828
671.015035	2539.889583
671.355047	2541.911086
671.695008	2542.571477
672.034918	2543.483926
672.374777	2545.921324
672.714585	2541.822866
673.054342	2543.806560
673.394049	2541.802701
673.733705	2542.856302
674.073310	2541.653987
674.412864	2540.756662
674.752368	2543.715819
675.091820	2542.778165
675.431223	2541.096940
675.770574	2540.486960
676.109875	2537.747093
676.449125	2538.011754
676.788324	2540.038298
677.127473	2539.687937
677.466571	2538.057124
677.805619	2540.857485
678.144616	2543.269677
678.483562	2547.199257
678.822458	2542.490819
679.161303	2544.434184
679.500098	2541.346477
679.838842	2539.665252
680.177535	2542.876467
680.516179	2540.887732
680.854771	2538.679707
681.193314	2541.437218
681.531805	2542.606765
681.870247	2540.497043
682.208638	2542.468134
682.546978	2542.153062
682.885268	2542.392516
683.223508	2545.190357
683.561697	2540.600386
683.899836	2542.122815
684.237925	2541.149872
684.575963	2541.235572
684.913951	2543.700696
685.251889	2540.814635
685.589776	2542.568957
685.927614	2541.928730
686.265401	2544.865202
686.603137	2543.418391
686.940824	2540.605427
687.278460	2541.822866
687.616046	2543.131045
687.953582	2543.186498
688.291068	2542.694986
688.628504	2545.578526
688.965889	2540.736497
689.303224	2541.943854
689.640510	2542.221117
689.977745	2542.263967
690.314930	2539.158616
690.652065	2542.758000
690.989150	2541.936292
691.326185	2539.962680
691.663170	2540.330684
692.000105	2541.356559
692.336990	2542.894111
692.673825	2540.260108
693.010610	2540.381096
693.347345	2539.408153
693.684030	2537.537885
694.020665	2536.706095
694.357251	2534.528316
694.693786	2538.883873
695.030272	2542.006868
695.366707	2538.982176
695.703093	2538.730118
696.039429	2538.772968
696.375716	2539.234233
696.711952	2540.751621
697.048139	2540.973432
697.384276	2540.887732
697.720363	2538.082330
698.056400	2541.611138
698.392388	2538.679707
698.728326	2541.348997
699.064214	2538.878832
699.400053	2540.670962
699.735842	2538.021836
700.071581	2540.771785
700.407270	2540.471837
700.742910	2540.471837
701.078501	2537.984027
701.414042	2542.112732
701.749533	2537.873122
702.084974	2539.516538
702.420366	2539.367824
702.755709	2539.715664
703.091002	2538.500746
703.426246	2540.663401
703.761440	2538.140303
704.096584	2538.835982
704.431679	2538.314223
704.766725	2537.868081
705.101721	2537.316074
705.436668	2538.601569
705.771565	2536.416228
706.106413	2537.147196
706.441212	2539.365303
706.775961	2541.306148
707.110661	2540.423946
707.445311	2541.555685
707.779913	2536.741383
708.114465	2542.344625
708.448967	2538.790612
708.783421	2539.050231
709.117825	2538.898997
709.452180	2538.049562
709.786485	2540.744059
710.120742	2540.849923
710.454949	2540.199614
710.789107	2537.056455
711.123216	2536.696013
711.457275	2535.173584
711.791286	2536.073430
712.125247	2537.016126
712.459159	2540.643236
712.793023	2542.087527
713.126837	2541.376724
713.460602	2537.991589
713.794318	2537.905889
714.127985	2540.383617
714.461602	2540.086188
714.795171	2538.253729
715.128691	2537.900848
715.462162	2540.514687
715.795584	2536.615354
716.128957	2539.365303
716.462281	2537.956301
716.795556	2538.861188
717.128782	2541.406971
717.461960	2538.588966
717.795088	2538.581404
718.128167	2537.038811
718.461198	2539.788760
718.794180	2540.141641
719.127113	2538.825900
719.459997	2538.687268
719.792833	2537.958822
720.125619	2537.903369
720.458357	2536.239788
720.791046	2537.782381
721.123686	2536.867412
721.456278	2540.146682
721.788821	2536.983358
722.121315	2539.203987
722.453761	2536.716177
722.786158	2537.822710
723.118506	2535.690302
723.450805	2538.152906
723.783056	2536.978317
724.115259	2537.391692
724.447412	2539.582073
724.779518	2537.215251
725.111574	2536.675848
725.443582	2535.889428
725.775542	2537.278266
726.107453	2539.251878
726.439315	2536.212062
726.771129	2539.740869
727.102895	2539.451003
727.434612	2538.291538
727.766281	2540.799512
728.097901	2536.219623
728.429473	2534.634181
728.760996	2535.695343
729.092471	2534.271217
729.423897	2537.563091
729.755276	2538.868750
730.086606	2539.448483
730.417887	2539.264480
730.749120	2535.881866
731.080305	2536.832124
731.411442	2538.672145
731.742530	2538.778009
732.073570	2540.267670
732.404562	2539.647608
732.735506	2538.304141
733.066401	2538.309182
733.397249	2537.999151
733.728048	2538.614172
734.058798	2537.961342
734.389501	2537.719367
734.720156	2538.152906
735.050762	2537.011085
735.381320	2536.864891
735.711831	2536.262473
736.042293	2538.097453
736.372707	2537.139634
736.703073	2537.489994
737.033391	2537.462268
737.363661	2537.137113
737.693883	2537.855478
738.024056	2538.641898
738.354182	2535.881866
738.684260	2539.690458
739.014290	2534.976979
739.344272	2536.328008
739.674207	2536.534696
740.004093	2538.997299
740.333931	2539.836651
740.663722	2537.933616
740.993464	2535.612164
741.323159	2535.725590
741.652806	2538.838503
741.982405	2537.432021
742.311956	2536.086033
742.641460	2536.106198
742.970915	2539.098122
743.300323	2537.084181
743.629683	2536.534696
743.958996	2537.623585
744.288260	2533.991433
744.617477	2536.811959
744.946647	2531.680064
745.275768	2534.979500
745.604842	2533.875487
745.933869	2533.038655
746.262847	2531.375075
746.591778	2537.729449
746.920662	2538.735159
747.249498	2535.753317
747.578286	2538.024357
747.907027	2536.564942
748.235720	2535.400436
748.564365	2534.256094
748.892963	2536.948070
749.221514	2537.086702
749.550017	2536.070909
749.878473	2533.779705
750.206881	2537.870601
750.535242	2538.241126
750.863555	2534.939170
751.191821	2536.968235
751.520039	2535.778523
751.848210	2535.418080
752.176334	2535.075282
752.504411	2537.011085
752.832440	2533.328522
753.160421	2537.724408
753.488356	2534.273738
753.816243	2536.055786
754.144082	2538.609130
754.471875	2536.514531
754.799620	2535.617206
755.127318	2535.319778
755.454969	2534.551002
755.782572	2536.670807
756.110129	2535.967566
756.437638	2535.007226
756.765100	2534.767771
757.092515	2538.117618
757.419882	2532.123686
757.747203	2537.593338
758.074477	2534.742565
758.401703	2537.132072
758.728882	2538.415046
759.056014	2536.542257
759.383099	2535.042514
759.710138	2537.462268
760.037129	2535.143337
760.364073	2537.794984
760.690970	2533.840199
761.017820	2537.399253
761.344623	2533.434386
761.671379	2536.539737
761.998088	2533.895652
762.324751	2535.571835
762.651366	2534.498069
762.977935	2538.079809
763.304456	2535.400436
763.630931	2541.081816
763.957359	2541.444779
764.283740	2538.853626
764.610074	2538.120138
764.936362	2536.822041
765.262602	2537.159799
765.588796	2536.186856
765.914943	2536.708615
766.241044	2536.133924
766.567097	2534.099818
766.893104	2534.954294
767.219064	2534.014119
767.544978	2535.569315
767.870845	2533.066382
768.196665	2535.143337
768.522438	2535.493697
768.848165	2535.728111
769.173846	2536.895138
769.499479	2536.108718
769.825066	2533.804911
770.150607	2535.997813
770.476101	2533.174767
770.801548	2535.760878
771.126949	2532.622760
771.452303	2537.328677
771.777611	2532.557225
772.102872	2535.034952
772.428087	2534.798018
772.753256	2533.247863
773.078378	2534.356917
773.403453	2533.313398
773.728482	2535.140817
774.053465	2534.288862
774.378401	2533.903213
774.703291	2535.491177
775.028135	2532.905065
775.352932	2535.241640
775.677683	2536.028060
776.002388	2533.557894
776.327046	2535.728111
776.651658	2535.755837
776.976224	2534.598893
777.300743	2533.013450
777.625216	2532.826927
777.949643	2533.038655
778.274024	2536.428831
778.598359	2533.245343
778.922647	2534.563604
779.246889	2530.475229
779.571086	2529.514889
779.895236	2531.914478
780.219339	2533.116793
780.543397	2535.027391
780.867409	2534.286341
781.191374	2534.679551
781.515294	2535.070240
781.839167	2534.185518
782.162995	2535.168543
782.486776	2531.473377
782.810511	2532.950435
783.134201	2535.692823
783.457844	2534.422452
783.781441	2531.359951
784.104993	2532.950435
784.428498	2533.338604
784.751958	2535.347504
785.075372	2534.331711
785.398739	2535.672658
785.722061	2533.593182
786.045337	2534.235929
786.368568	2535.070240
786.691752	2534.495549
787.014891	2534.694674
787.337983	2535.130734
787.661030	2534.654345
787.984031	2535.269366
788.306987	2534.551002
788.629897	2531.997657
788.952760	2533.502442
789.275579	2534.445137
789.598351	2532.930271
789.921078	2533.426824
790.243759	2533.300795
790.566395	2535.120652
790.888984	2533.827596
791.211529	2532.741227
791.534027	2535.755837
791.856480	2533.769623
792.178888	2533.225178
792.501249	2531.959848
792.823566	2532.443799
793.145836	2532.922709
793.468062	2533.489839
793.790241	2533.719211
794.112375	2533.457071
794.434464	2535.539068
794.756507	2534.336752
795.078505	2536.138965
795.400457	2533.320960
795.722364	2530.734848
796.044226	2530.641587
796.366042	2531.047400
796.687812	2529.988757
797.009538	2533.976310
797.331218	2533.285672
797.652852	2533.157122
797.974442	2533.570497
798.295986	2534.314067
798.617484	2531.107893
798.938938	2533.358769
799.260346	2533.361289
799.581709	2534.268697
799.903026	2532.463964
800.224299	2533.522606
800.545526	2533.036135
800.866708	2534.364479
801.187845	2533.840199
801.508936	2532.022863
801.829983	2532.819365
802.150984	2533.315919
802.471940	2532.131248
802.792851	2533.706608
803.113717	2531.740558
803.434538	2530.245856
803.755314	2533.043697
804.076045	2531.836340
804.396731	2531.491021
804.717372	2534.487987
805.037967	2534.009078
805.358518	2534.157792
805.679024	2534.230888
805.999485	2532.746268
806.319901	2533.547812
806.640272	2533.583100
806.960598	2531.332225
807.280879	2534.601413
807.601115	2534.729962
807.921306	2532.267359
808.241453	2534.329191
808.561554	2537.283307
808.881611	2534.982020
809.201623	2533.825075
809.521590	2533.701567
809.841513	2535.150899
810.161390	2535.017308
810.481223	2532.963038
810.801011	2533.595703
811.120755	2531.899355
811.440453	2532.640404
811.760107	2531.649818
812.079716	2530.129910
812.399281	2530.860877
812.718801	2527.715197
813.038276	2526.059178
813.357707	2530.427338
813.677093	2533.883049
813.996434	2533.358769
814.315731	2534.520755
814.634983	2534.387164
814.954191	2532.602596
815.273354	2532.519417
815.592473	2530.646628
815.911547	2530.616381
816.230577	2531.410363
816.549562	2532.683254
816.868502	2532.607637
817.187399	2532.239633
817.506250	2531.891793
817.825058	2533.888090
818.143821	2532.743748
818.462539	2533.094108
818.781213	2533.472195
819.099843	2532.716022
819.418429	2534.460261
819.736970	2534.175436
820.055466	2533.278110
820.373919	2535.957483
820.692327	2533.666279
821.010691	2536.612833
821.329011	2537.852957
821.647286	2546.342260
821.965517	2550.929710
822.283704	2555.244938
822.601847	2556.711914
822.919945	2551.801830
823.237999	2549.356870
823.556010	2547.834442
823.873976	2544.214893
824.191897	2538.294058
824.509775	2538.730118
824.827609	2537.167360
825.145398	2536.063348
825.463144	2536.494366
825.780845	2537.537885
826.098502	2538.420087
826.416116	2540.423946
826.733685	2541.288504
827.051210	2541.681714
827.368692	2540.181970
827.686129	2538.457896
828.003522	2536.237267
828.320872	2533.804911
828.638177	2531.503624
828.955439	2530.008922
829.272656	2530.235774
829.589830	2532.176618
829.906960	2534.424973
830.224046	2535.166022
830.541088	2532.902544
830.858086	2534.777853
831.175041	2535.657535
831.491952	2533.104190
831.808819	2532.232071
832.125642	2534.472864
832.442421	2533.494880
832.759157	2535.662576
833.075849	2537.275745
833.392497	2534.412370
833.709101	2537.817669
834.025662	2538.533513
834.342179	2535.564273
834.658653	2537.638708
834.975083	2536.063348
835.291469	2537.762217
835.607811	2535.284489
835.924110	2532.128727
836.240366	2535.382792
836.556578	2532.330373
836.872746	2534.167874
837.188871	2532.968079
837.504952	2531.662420
837.820990	2530.825589
838.136984	2530.586134
838.452935	2533.154602
838.768842	2530.266021
839.084706	2531.838861
839.400526	2533.978831
839.716303	2532.925229
840.032037	2533.653676
840.347727	2531.939684
840.663373	2533.353727
840.978977	2533.429345
841.294537	2531.644776
841.610054	2532.123686
841.925527	2532.272400
842.240957	2532.882380
842.556344	2532.695857
842.871687	2529.613191
843.186987	2530.876000
843.502244	2534.228368
843.817458	2530.979344
844.132629	2530.150074
844.447756	2530.681916
844.762840	2523.218488
845.077881	2530.097142
845.392879	2528.496576
845.707833	2528.884745
846.022745	2527.934487
846.337613	2531.372554
846.652438	2533.015970
846.967221	2532.872297
847.281960	2529.552697
847.596656	2531.163346
847.911309	2532.305167
848.225919	2533.394057
848.540485	2530.790301
848.855009	2529.845084
849.169490	2532.688295
849.483928	2532.532019
849.798323	2530.833151
850.112675	2531.188552
850.426984	2533.003367
850.741251	2534.031763
851.055474	2530.180321
851.369654	2529.104035
851.683792	2531.548994
851.997887	2529.779549
852.311938	2531.054961
852.625947	2530.422297
852.939914	2530.538243
853.253837	2533.167205
853.567718	2529.245187
853.881555	2528.836854
854.195350	2530.870959
854.509103	2532.930271
854.822812	2529.658562
855.136479	2530.412214
855.450103	2532.262318
855.763685	2530.220650
856.077224	2530.381967
856.390720	2529.436751
856.704173	2530.351720
857.017584	2529.441792
857.330953	2532.380785
857.644278	2531.049920
857.957561	2532.821886
858.270802	2531.347348
858.584000	2529.577903
858.897155	2532.128727
859.210268	2530.482790
859.523339	2530.500434
859.836367	2530.787780
860.149352	2531.450692
860.462295	2531.458254
860.775195	2526.739734
861.088054	2526.533046
861.400869	2526.873324
861.713642	2526.550690
862.026373	2529.076308
862.339062	2531.049920
862.651708	2531.922040
862.964312	2530.467667
863.276873	2531.342307
863.589392	2532.680733
863.901869	2530.560928
864.214303	2529.434230
864.526696	2532.587472
864.839045	2530.031607
865.151353	2530.417255
865.463619	2529.378778
865.775842	2532.360620
866.088023	2531.024714
866.400162	2533.820034
866.712258	2531.269210
867.024313	2532.463964
867.336325	2533.507483
867.648296	2533.189890
867.960224	2531.090249
868.272110	2530.581093
868.583954	2532.960517
868.895755	2532.925229
869.207515	2530.969262
869.519233	2531.377595
869.830909	2530.008922
870.142542	2530.230733
870.454134	2529.335928
870.765684	2529.512368
871.077191	2530.172759
871.388657	2534.548481
871.700081	2533.235260
872.011463	2528.320135
872.322803	2531.443130
872.634101	2530.346679
872.945357	2528.080681
873.256571	2529.247708
873.567744	2530.273582
873.878874	2530.213089
874.189963	2529.630835
874.501010	2530.931453
874.812015	2530.404652
875.122979	2531.039838
875.433900	2528.599919
875.744780	2532.126207
876.055618	2529.923222
876.366415	2531.354910
876.677169	2528.549508
876.987882	2527.914322
877.298554	2526.238139
877.609183	2530.177801
877.919771	2527.808458
878.230317	2527.432892
878.540822	2534.387164
878.851285	2531.402801
879.161707	2531.344828
879.472087	2528.844415
879.782425	2531.296937
880.092722	2532.547143
880.402977	2534.240971
880.713191	2539.168698
881.023363	2541.432177
881.333494	2542.957126
881.643583	2542.480737
881.953631	2541.757331
882.263637	2541.066693
882.573602	2540.764224
882.883526	2541.757331
883.193408	2541.984183
883.503248	2536.847247
883.813048	2536.660724
884.122806	2534.233409
884.432522	2534.193080
884.742197	2532.015301
885.051831	2534.611495
885.361424	2532.015301
885.670975	2531.828778
885.980485	2529.252749
886.289954	2533.081505
886.599382	2533.144520
886.908768	2531.216278
887.218113	2533.389016
887.527417	2532.501773
887.836680	2531.231402
888.145901	2533.003367
888.455082	2530.432379
888.764221	2527.440454
889.073319	2530.392050
889.382376	2529.093953
889.691392	2528.310053
890.000366	2532.736186
890.309300	2530.281144
890.618193	2531.380116
890.927044	2530.681916
891.235855	2531.523789
891.544625	2531.801052
891.853353	2532.005219
892.162041	2531.395239
892.470687	2529.635877
892.779293	2532.458923
893.087858	2525.645803
893.396381	2529.005732
893.704864	2530.812986
894.013306	2527.422810
894.321707	2533.837678
894.630068	2533.583100
894.938387	2536.075951
895.246665	2529.925743
895.554903	2535.433203
895.863100	2532.458923
896.171256	2532.118645
896.479371	2531.075126
896.787446	2530.160157
897.095480	2531.029756
897.403473	2533.512524
897.711425	2530.273583
898.019336	2530.994467
898.327207	2532.209386
898.635038	2533.646114
898.942827	2528.317615
899.250576	2529.371216
899.558284	2531.062523
899.865952	2532.824406
900.173579	2529.691329
900.481165	2529.764426
900.788711	2527.763088
901.096216	2532.461443
901.403681	2529.961031
901.711105	2530.288706
902.018489	2528.874662
902.325832	2531.808614
902.633135	2530.858356
902.940397	2529.041020
903.247619	2529.925743
903.554800	2535.271887
903.861941	2531.183511
904.169041	2534.175436
904.476101	2534.351876
904.783121	2533.426824
905.090100	2535.481094
905.397039	2532.272400
905.703938	2533.542771
906.010796	2533.784746
906.317614	2530.087060
906.624391	2531.833820
906.931129	2530.329035
907.237826	2532.713501
907.544483	2529.499765
907.851099	2530.691998
908.157675	2531.884231
908.464211	2530.129910
908.770707	2528.494055
909.077163	2526.447347
909.383578	2524.619928
909.689954	2528.042872
909.996289	2523.468025
910.302584	2529.653521
910.608839	2530.044210
910.915054	2528.143695
911.221229	2530.883562
911.527363	2530.200486
911.833458	2528.390712
912.139513	2531.967410
912.445527	2529.116638
912.751502	2531.554036
913.057436	2530.076978
913.363331	2532.035466
913.669186	2528.181504
913.975000	2530.820548
914.280775	2529.630835
914.586510	2529.630835
914.892205	2532.905065
915.197859	2532.247194
915.503475	2532.423635
915.809050	2534.351876
916.114585	2534.792977
916.420081	2535.002185
916.725536	2531.717873
917.030952	2533.504962
917.336328	2532.998326
917.641665	2532.411032
917.946961	2533.305837
918.252218	2531.178470
918.557435	2530.644107
918.862612	2529.469518
919.167750	2530.200486
919.472848	2529.567821
919.777906	2528.068078
920.082925	2527.881555
920.387904	2528.133613
920.692843	2529.880373
920.997743	2530.371885
921.302603	2528.857018
921.607423	2527.959693
921.912204	2531.853984
922.216946	2531.939684
922.521647	2529.787111
922.826310	2528.441123
923.130932	2531.770805
923.435516	2528.297450
923.740059	2526.870804
924.044564	2531.554036
924.349028	2526.270906
924.653454	2524.698066
924.957840	2526.107069
925.262186	2523.427696
925.566493	2527.125382
925.870761	2521.847294
926.174989	2525.857532
926.479178	2529.272913
926.783328	2529.046062
927.087438	2527.747964
927.391509	2530.838192
927.695541	2530.059333
927.999533	2526.659075
928.303486	2528.607481
928.607400	2528.446164
928.911275	2528.972965
929.215110	2527.788294
929.518906	2527.926925
929.822663	2527.626977
930.126381	2527.223684
930.430060	2529.174611
930.733699	2525.103879
931.037299	2527.599250
931.340861	2526.827954
931.644383	2529.683768
931.947866	2527.417769
932.251309	2528.756195
932.554714	2529.575383
932.858080	2527.644621
933.161407	2531.082688
933.464694	2528.683098
933.767943	2529.267872
934.071153	2530.293747
934.374323	2530.084539
934.677455	2526.696884
934.980548	2527.662265
935.283602	2528.068078
935.586617	2525.497089
935.889593	2528.090763
936.192530	2531.269210
936.495428	2527.327028
936.798287	2529.787111
937.101108	2527.470701
937.403890	2531.039838
937.706632	2530.596216
938.009336	2528.403314
938.312002	2528.342821
938.614628	2526.621267
938.917216	2527.122861
939.219765	2529.396422
939.522275	2529.151926
939.824747	2528.504138
940.127179	2524.912315
940.429573	2523.097500
940.731929	2526.563293
941.034246	2524.614887
941.336524	2525.759229
941.638763	2527.059847
941.940964	2531.334745
942.243126	2528.713345
942.545250	2527.105217
942.847335	2529.015815
943.149381	2528.970444
943.451389	2524.662778
943.753359	2528.267203
944.055290	2526.780063
944.357182	2527.425331
944.659036	2525.426513
944.960851	2529.383819
945.262628	2526.134795
945.564367	2530.986906
945.866067	2526.838036
946.167729	2528.153777
946.469352	2526.812830
946.770937	2527.647141
947.072484	2527.080012
947.373992	2528.042872
947.675462	2528.718387
947.976893	2530.230733
948.278286	2529.240146
948.579641	2528.269724
948.880958	2531.677544
949.182236	2529.015815
949.483476	2524.861904
949.784678	2526.757378
950.085841	2526.911133
950.386967	2529.154446
950.688054	2527.465660
950.989103	2526.827954
951.290114	2528.342821
951.591087	2528.972965
951.892021	2527.458098
952.192917	2530.755013
952.493776	2530.039169
952.794596	2528.615043
953.095378	2527.483304
953.396122	2529.981196
953.696828	2529.116638
953.997496	2529.167049
954.298126	2526.946421
954.598718	2527.664785
954.899272	2529.179652
955.199788	2524.836698
955.500266	2530.361803
955.800706	2526.210412
956.101108	2525.134126
956.401472	2525.214785
956.701798	2526.028931
957.002087	2523.336955
957.302337	2526.296112
957.602550	2526.835516
957.902724	2525.527336
958.202861	2526.223015
958.502960	2527.538757
958.803022	2529.744261
959.103045	2525.484486
959.403031	2527.037162
959.702979	2529.116638
960.002889	2529.204858
960.302762	2527.621936
960.602596	2529.363654
960.902393	2528.889786
961.202153	2526.308715
961.501875	2528.196627
961.801559	2526.941380
962.101205	2528.673016
962.400814	2527.821061
962.700385	2528.380629
962.999918	2527.710156
963.299414	2529.403983
963.598873	2528.206709
963.898293	2523.815864
964.197677	2524.120854
964.497022	2525.308046
964.796331	2526.870804
965.095601	2528.725948
965.394835	2528.186545
965.694030	2524.566996
965.993189	2528.307532
966.292309	2524.582120
966.591393	2528.289888
966.890439	2526.122192
967.189447	2526.364168
967.488419	2525.398787
967.787353	2527.137985
968.086249	2525.439116
968.385108	2528.010104
968.683930	2528.607481
968.982714	2527.934487
969.281462	2526.951462
969.580172	2527.160670
969.878844	2523.551204
970.177480	2529.582944
970.476078	2527.022038
970.774639	2528.536905
971.073162	2528.965403
971.371649	2524.191430
971.670098	2524.032634
971.968510	2526.278468
972.266885	2525.305525
972.565223	2525.814682
972.863524	2527.160670
973.161788	2526.291071
973.460014	2526.195289
973.758204	2529.088911
974.056356	2525.328211
974.354471	2527.274096
974.652550	2525.126564
974.950591	2528.980527
975.248595	2524.919877
975.546563	2526.565814
975.844493	2527.327028
976.142386	2528.098325
976.440243	2526.815351
976.738062	2527.216123
977.035845	2528.408356
977.333590	2525.749147
977.631299	2525.973478
977.928971	2525.550021
978.226606	2524.345186
978.524204	2525.799558
978.821765	2525.522295
979.119290	2526.638911
979.416777	2527.085053
979.714228	2525.716379
980.011642	2523.140350
980.309020	2528.262162
980.606360	2525.713859
980.903664	2525.618077
981.200931	2526.081863
981.498162	2524.415762
981.795356	2527.579086
982.092513	2526.472552
982.389633	2528.446164
982.686717	2527.556401
982.983764	2524.909795
983.280775	2529.348531
983.577749	2528.257121
983.874686	2527.626977
984.171587	2524.556914
984.468451	2531.168387
984.765279	2527.359796
985.062070	2528.156298
985.358824	2526.049096
985.655543	2526.404497
985.952224	2525.139167
986.248869	2526.754857
986.545478	2522.895854
986.842050	2525.267717
987.138586	2521.501975
987.435086	2523.024403
987.731549	2522.631193
988.027975	2527.798376
988.324366	2524.372912
988.620719	2525.247552
988.917037	2524.914836
989.213318	2528.292409
989.509563	2528.521782
989.805772	2528.879703
990.101944	2526.258303
990.398080	2525.577748
990.694180	2525.998684
990.990244	2524.541791
991.286271	2522.704290
991.582262	2527.140505
991.878217	2524.274609
992.174136	2526.154960
992.470019	2526.694363
992.765865	2527.982378
993.061676	2525.572707
993.357450	2527.379960
993.653188	2526.611184
993.948890	2526.598581
994.244556	2525.315608
994.540186	2527.286699
994.835780	2523.684794
995.131337	2526.762419
995.426859	2526.409538
995.722345	2526.633869
996.017795	2525.353416
996.313208	2526.175124
996.608586	2527.480783
996.903928	2527.594209
997.199234	2525.655886
997.494504	2526.160001
997.789738	2526.248221
998.084936	2527.919364
998.380099	2524.302336
998.675225	2525.912984
998.970316	2524.798889
999.265371	2526.245701
999.560390	2525.292923
999.855373	2526.908612
1000.150320	2523.561286
1000.445232	2528.020187
1000.740108	2526.759898
1001.034948	2526.500279
1001.329752	2525.189579
1001.624521	2527.937008
1001.919254	2521.287726
1002.213951	2524.342665
1002.508613	2523.457943
1002.803239	2523.972140
1003.097829	2519.760256
1003.392384	2525.912984
1003.686903	2523.742768
1003.981386	2524.181348
1004.275834	2526.303674
1004.570246	2525.068591
1004.864623	2523.740247
1005.158964	2526.039013
1005.453270	2526.132275
1005.747540	2526.825433
1006.041775	2526.152439
1006.335974	2526.911133
1006.630138	2524.350227
1006.924266	2524.856863
1007.218359	2525.474404
1007.512416	2525.567665
1007.806438	2527.667306
1008.100425	2527.571524
1008.394376	2528.481452
1008.688292	2526.036493
1008.982172	2524.879548
1009.276017	2524.935001
1009.569827	2525.713859
1009.863602	2527.291740
1010.157341	2524.970289
1010.451045	2526.535567
1010.744714	2526.573376
1011.038347	2523.838550
1011.331945	2526.850639
1011.625508	2525.343334
1011.919036	2524.715710
1012.212528	2524.630011
1012.505986	2527.712676
1012.799408	2526.331400
1013.092795	2526.984230
1013.386147	2526.192768
1013.679464	2524.871986
1013.972745	2525.459281
1014.265992	2524.677902
1014.559204	2522.996677
1014.852380	2525.078673
1015.145521	2526.517923
1015.438628	2525.436595
1015.731699	2526.008766
1016.024736	2526.848118
1016.317737	2523.977181
1016.610703	2523.899043
1016.903635	2525.149250
1017.196531	2520.886954
1017.489393	2519.409896
1017.782219	2522.046419
1018.075011	2523.949455
1018.367768	2525.119003
1018.660490	2525.610515
1018.953177	2525.610515
1019.245829	2525.610515
