Dividing Wavelength (nm)	Counts (n)	Blue Motor Position (mm): 0.000000	Red Motor Position (mm): 22.800000	
326.493990	2128.894393
326.888308	2128.894393
327.282561	2128.894393
327.676750	2097.059506
328.070874	2093.359299
328.464933	2095.668148
328.858929	2102.279621
329.252859	2113.617176
329.646726	2123.167642
330.040528	2137.802112
330.434265	2154.095121
330.827938	2173.291835
331.221547	2190.376305
331.615091	2208.156455
332.008571	2230.398025
332.401986	2247.560634
332.795338	2266.321288
333.188625	2288.401542
333.581847	2305.722946
333.975006	2324.617191
334.368100	2341.981445
334.761129	2356.441995
335.154095	2374.842207
335.546996	2394.598488
335.939833	2410.531055
336.332606	2425.727613
336.725315	2436.170364
337.117960	2449.794082
337.510540	2454.822633
337.903056	2462.994343
338.295508	2472.847278
338.687896	2479.730974
339.080220	2491.098776
339.472480	2496.097080
339.864676	2498.274858
340.256807	2504.828358
340.648875	2506.093688
341.040879	2511.520490
341.432818	2512.430418
341.824694	2516.755728
342.216506	2515.240862
342.608253	2516.760770
342.999937	2515.613907
343.391557	2513.090810
343.783113	2515.394617
344.174605	2511.989318
344.566033	2510.290449
344.957397	2510.605521
345.348697	2505.597134
345.739934	2508.596621
346.131106	2504.593945
346.522215	2503.038749
346.913260	2502.595127
347.304241	2498.431134
347.695159	2497.039776
348.086012	2495.159425
348.476802	2494.017604
348.867528	2494.299909
349.258191	2493.057264
349.648789	2491.643221
350.039324	2488.439567
350.429796	2488.288333
350.820203	2485.682056
351.210548	2485.873620
351.600828	2485.230873
351.991045	2482.160810
352.381198	2484.865389
352.771288	2484.436891
353.161314	2482.115440
353.551276	2483.206850
353.941175	2481.855820
354.331010	2484.179792
354.720782	2481.823053
355.110490	2484.419247
355.500135	2481.475213
355.889717	2483.526963
356.279235	2483.116109
356.668689	2482.990080
357.058080	2481.666777
357.447408	2481.787765
357.836672	2479.617548
358.225873	2482.783393
358.615010	2484.167189
359.004084	2485.031747
359.393095	2489.122644
359.782043	2488.489979
360.170927	2489.893940
360.559748	2487.655668
360.948505	2489.926708
361.337199	2490.720689
361.725830	2490.763539
362.114398	2494.030207
362.502903	2493.299240
362.891344	2493.054744
363.279722	2491.572644
363.668037	2495.035917
364.056289	2490.967706
364.444478	2496.525578
364.832603	2494.239415
365.220665	2496.109683
365.608665	2498.995743
365.996601	2497.798469
366.384474	2498.597492
366.772284	2501.619664
367.160031	2501.460868
367.547715	2504.384737
367.935336	2505.042607
368.322893	2508.702485
368.710388	2509.337671
369.097820	2520.531553
369.485189	2520.052643
369.872495	2528.269724
370.259738	2533.454551
370.646918	2540.751621
371.034035	2547.020296
371.421090	2557.515978
371.808081	2568.616599
372.195010	2578.588001
372.581875	2591.228694
372.968678	2605.144799
373.355418	2615.043105
373.742096	2633.140847
374.128710	2648.022333
374.515262	2663.644869
374.901751	2678.992662
375.288177	2690.562110
375.674540	2713.206973
376.060841	2732.038203
376.447079	2752.817840
376.833254	2768.352155
377.219367	2783.742798
377.605417	2822.630259
377.991404	2830.822134
378.377329	2850.860720
378.763191	2868.832434
379.148991	2910.016140
379.534727	2932.502207
379.920402	2961.849284
380.306013	2974.137096
380.691563	3023.159797
381.077049	3042.454813
381.462474	3061.598595
381.847835	3102.918413
382.233134	3123.141001
382.618371	3124.187041
383.003545	3191.902340
383.388657	3198.029862
383.773706	3236.050244
384.158693	3249.958788
384.543618	3273.001902
384.928480	3308.562201
385.313280	3355.623893
385.698017	3355.712113
386.082692	3407.681368
386.467305	3412.266298
386.851856	3445.507666
387.236344	3466.988023
387.620770	3496.904750
388.005133	3527.512116
388.389435	3551.147566
388.773674	3566.094587
389.157851	3609.685444
389.541965	3620.760859
389.926018	3584.157041
390.310008	3656.119512
390.693936	3677.604910
391.077802	3715.433728
391.461606	3704.055844
391.845348	3768.915329
392.229027	3764.058178
392.612645	3779.910086
392.996200	3856.754915
393.379694	3898.717479
393.763125	3962.364567
394.146494	3930.940535
394.529801	3992.790451
394.913047	4039.274931
395.296230	4004.821165
395.679351	4060.596491
396.062410	4081.310592
396.445408	4065.841812
396.828343	4099.070577
397.211217	4123.154690
397.594028	4042.554201
397.976778	4107.542236
398.359466	4133.247080
398.742092	4164.497192
399.124656	4086.515583
399.507158	4169.477852
399.889598	4193.151111
400.271977	4255.792488
400.654294	4224.126481
401.036549	4230.768201
401.418742	4201.315259
401.800874	4304.106907
402.182944	4325.340247
402.564952	4390.078745
402.946898	4378.342938
403.328783	4375.376219
403.710606	4286.233496
404.092367	4482.339422
404.474067	4441.758133
404.855705	4451.800112
405.237282	4378.660531
405.618797	4488.040967
406.000250	4523.868447
406.381642	4602.570941
406.762972	4564.467380
407.144240	4575.147064
407.525447	4575.678906
407.906593	4635.436743
408.287677	4675.569369
408.668700	4608.643011
409.049661	4655.074558
409.430560	4696.646433
409.811399	4625.654384
410.192176	4782.177170
410.572891	4724.428232
410.953545	4830.305066
411.334138	4707.237898
411.714669	4775.790028
412.095139	4668.337834
412.475547	4813.326460
412.855894	4788.138335
413.236180	4799.274243
413.616405	4756.003499
413.996568	4839.134647
414.376670	4785.073313
414.756711	4740.416252
415.136691	4772.820789
415.516609	4848.299465
415.896466	4885.742635
416.276262	4922.459879
416.655997	4897.549017
417.035670	5077.046862
417.415283	5170.855173
417.794834	5117.275269
418.174324	5066.866251
418.553753	4972.427796
418.933121	5160.901415
419.312428	5225.750818
419.691674	5164.951982
420.070859	5290.728770
420.449983	5200.449267
420.829045	5319.256660
421.208047	5218.529365
421.586988	5287.804901
421.965867	5297.083145
422.344686	5427.462507
422.723444	5277.034476
423.102141	5097.977732
423.480777	5387.161002
423.859352	5152.684334
424.237866	5402.382766
424.616319	5392.509666
424.994712	5493.095809
425.373044	5362.575295
425.751314	5497.753835
426.129524	5296.657167
426.507673	5474.705680
426.885762	5545.775867
427.263789	5468.633610
427.641756	5343.736503
428.019662	5447.569149
428.397508	5442.462460
428.775292	5374.273292
429.153016	5454.422597
429.530679	5372.932345
429.908282	5435.954330
430.285824	5300.493485
430.663305	5529.543351
431.040726	5268.063743
431.418086	5248.188993
431.795385	5321.439479
432.172624	5314.959076
432.549802	5284.308861
432.926920	5272.114310
433.303977	5248.060444
433.680974	5258.641826
434.057910	5249.464405
434.434786	5222.862237
434.811601	5168.080018
435.188355	5332.920707
435.565050	5198.369791
435.941683	5149.392460
436.318257	5280.316267
436.694770	5232.079986
437.071222	5218.569694
437.447614	5127.692814
437.823946	5026.501733
438.200218	5098.882619
438.576429	4958.259633
438.952580	4983.793077
439.328670	4972.679853
439.704700	4870.483062
440.080670	4816.242767
440.456580	4942.879073
440.832429	4815.375689
441.208218	4672.511909
441.583947	4724.133325
441.959616	4675.914688
442.335224	4585.720884
442.710773	4614.926809
443.086261	4579.447168
443.461689	4414.336777
443.837057	4442.811734
444.212365	4471.311898
444.587612	4365.301473
444.962800	4394.802306
445.337927	4327.833098
445.712995	4090.994649
446.088002	4301.021721
446.462949	4173.566228
446.837837	4088.607662
447.212664	4116.702013
447.587431	4106.344962
447.962139	4263.702059
448.336786	4550.596645
448.711374	4396.856576
449.085901	4008.954911
449.460369	3917.619286
449.834776	3845.518183
450.209124	3911.564860
450.583412	3896.839649
450.957640	3898.677150
451.331808	3773.268366
451.705917	3598.244545
452.079965	3533.511089
452.453954	3535.842622
452.827883	3466.625060
453.201752	3439.289403
453.575562	3361.257383
453.949311	3353.937627
454.323001	3297.932928
454.696632	3280.220834
455.070202	3259.935231
455.443713	3252.270157
455.817164	3228.942217
456.190556	3197.316539
456.563888	3172.955163
456.937160	3145.095226
457.310373	3072.686613
457.683526	3038.121942
458.056619	2996.227433
458.429653	2967.666775
458.802628	2935.010181
459.175542	2922.140115
459.548398	2928.166814
459.921194	2920.252203
460.293930	2901.738565
460.666607	2920.549631
461.039224	2922.911412
461.411782	2906.247878
461.784280	2879.149155
462.156719	2845.960719
462.529099	2814.176244
462.901419	2772.397681
463.273680	2750.957654
463.645882	2733.585838
464.018024	2715.442725
464.390106	2708.070037
464.762130	2710.101622
465.134094	2718.585884
465.505999	2743.862230
465.877845	2766.335694
466.249631	2765.917278
466.621358	2735.282186
466.993026	2703.792618
467.364634	2690.153777
467.736184	2671.879594
468.107674	2655.546256
468.479105	2650.018630
468.850477	2642.421612
469.221790	2635.316105
469.593043	2620.298508
469.964238	2617.258692
470.335373	2613.936572
470.706449	2611.312651
471.077467	2605.041456
471.448425	2620.570730
471.819324	2629.221350
472.190164	2624.586009
472.560945	2614.964967
472.931667	2601.792432
473.302330	2595.299426
473.672934	2591.939497
474.043479	2593.885382
474.413965	2594.712132
474.784393	2587.014290
475.154761	2589.224836
475.525070	2586.525298
475.895321	2583.621593
476.265513	2582.323496
476.635645	2590.953951
477.005719	2589.154259
477.375734	2587.347006
477.745691	2589.265165
478.115588	2590.394383
478.485427	2591.833633
478.855207	2593.383788
479.224928	2601.101794
479.594591	2605.021291
479.964194	2603.022474
480.333739	2603.771085
480.703226	2600.695981
481.072653	2600.277565
481.442022	2600.890066
481.811333	2603.128338
482.180584	2595.627101
482.549777	2600.925354
482.918912	2597.444437
483.287988	2595.561566
483.657005	2598.326639
484.025964	2597.026021
484.394864	2595.977461
484.763706	2597.416711
485.132489	2595.843871
485.501213	2593.721545
485.869879	2592.166349
486.238487	2592.574682
486.607036	2589.842377
486.975527	2591.657192
487.343959	2590.951431
487.712333	2594.117275
488.080648	2590.240628
488.448905	2588.408169
488.817104	2589.343303
489.185244	2592.980495
489.553326	2592.965372
489.921350	2595.864035
490.289315	2601.489963
490.657222	2606.483226
491.025070	2604.408791
491.392861	2600.534664
491.760593	2601.147164
492.128267	2596.915116
492.495883	2595.606936
492.863440	2594.724734
493.230939	2590.132243
493.598380	2591.957141
493.965763	2584.954978
494.333088	2584.723085
494.700354	2584.042529
495.067563	2589.323138
495.434713	2582.401634
495.801805	2588.269537
496.168839	2584.831470
496.535815	2587.899012
496.902733	2586.369022
497.269593	2584.662591
497.636395	2587.765422
498.003139	2585.791810
498.369825	2583.661922
498.736453	2582.348702
499.103023	2584.544124
499.469535	2587.203333
499.835989	2584.637386
500.202385	2582.999011
500.568723	2584.178641
500.935003	2582.426840
501.301226	2583.694690
501.667390	2582.547827
502.033497	2585.491861
502.399546	2581.665625
502.765537	2583.304000
503.131470	2583.326686
503.497345	2583.603949
503.863163	2584.839032
504.228923	2584.639906
504.594625	2585.423806
504.960269	2581.902560
505.325856	2581.103537
505.691385	2582.625965
506.056856	2582.978846
506.422270	2583.624114
506.787625	2583.367015
507.152924	2585.781727
507.518164	2583.719896
507.883347	2581.453897
508.248472	2582.610842
508.613540	2585.038157
508.978550	2583.372056
509.343503	2579.936510
509.708398	2585.222159
510.073236	2584.418095
510.438016	2588.055288
510.802738	2584.075297
511.167403	2582.852817
511.532010	2583.901377
511.896561	2585.721234
512.261053	2585.358271
512.625488	2582.850297
512.989866	2581.436253
513.354186	2585.403641
513.718449	2580.591860
514.082655	2584.768456
514.446803	2583.545976
514.810894	2584.619742
515.174927	2584.927252
515.538904	2583.959350
515.902822	2588.156111
516.266684	2584.811305
516.630488	2585.030596
516.994235	2585.222159
517.357925	2585.000349
517.721558	2586.583271
518.085133	2583.548496
518.448651	2587.052098
518.812112	2587.566296
519.175516	2586.684094
519.538863	2587.825915
519.902152	2587.183168
520.265385	2586.863055
520.628560	2585.005390
520.991678	2587.336923
521.354739	2585.406162
521.717743	2587.014290
522.080690	2586.752150
522.443580	2585.443970
522.806413	2586.994125
523.169189	2588.140987
523.531908	2587.099989
523.894569	2584.435739
524.257174	2588.597212
524.619722	2587.999835
524.982213	2587.931780
525.344647	2585.721234
525.707025	2588.476224
526.069345	2587.770463
526.431608	2588.209043
526.793815	2592.236925
527.155964	2586.913467
527.518057	2590.031420
527.880093	2589.338262
528.242072	2587.092427
528.603995	2589.628128
528.965860	2586.573189
529.327669	2588.617377
529.689421	2585.675863
530.051117	2589.600402
530.412755	2587.410020
530.774337	2588.950093
531.135862	2589.451687
531.497331	2585.862386
531.858743	2584.430698
532.220098	2585.791810
532.581396	2582.852817
532.942638	2584.103023
533.303824	2586.038826
533.664953	2586.991604
534.026025	2585.799372
534.387040	2587.687284
534.747999	2588.067891
535.108902	2590.316245
535.469748	2584.879361
535.830537	2585.890112
536.191270	2585.988415
536.551947	2589.560072
536.912567	2586.099320
537.273131	2587.657037
537.633638	2585.748960
537.994089	2586.966399
538.354483	2586.487489
538.714821	2583.614031
539.075103	2589.179465
539.435328	2588.002356
539.795497	2585.237283
540.155609	2586.782397
540.515665	2588.970257
540.875665	2585.259968
541.235609	2587.195771
541.595496	2587.009248
541.955328	2588.020000
542.315102	2586.323652
542.674821	2586.432036
543.034483	2587.220977
543.394090	2585.078487
543.753640	2588.839187
544.113134	2586.850452
544.472571	2585.912798
544.831953	2587.717531
545.191278	2590.669126
545.550548	2589.030751
545.909761	2590.885896
546.268918	2586.777355
546.628019	2591.931935
546.987064	2587.735175
547.346053	2587.929259
547.704986	2585.880030
548.063863	2586.416913
548.422684	2587.548652
548.781449	2585.222159
549.140158	2588.622418
549.498811	2590.578385
549.857408	2588.055288
550.215949	2586.898343
550.574434	2584.234093
550.932864	2586.008579
551.291237	2584.584453
551.649555	2590.157449
552.007817	2588.549321
552.366022	2589.607963
552.724173	2587.132757
553.082267	2587.042016
553.440305	2588.166193
553.798288	2587.546131
554.156215	2586.540421
554.514086	2591.352202
554.871902	2587.377253
555.229661	2588.327510
555.587365	2586.497571
555.945014	2590.727099
556.302606	2588.035123
556.660143	2586.447160
557.017625	2588.322469
557.375050	2589.761718
557.732421	2589.504620
558.089735	2589.605443
558.446994	2587.208374
558.804197	2587.745257
559.161345	2587.715010
559.518437	2590.593509
559.875474	2587.130236
560.232455	2589.108889
560.589381	2588.471183
560.946251	2587.190730
561.303065	2588.597212
561.659825	2588.037644
562.016528	2585.837180
562.373177	2587.730133
562.729770	2587.374732
563.086307	2589.194589
563.442789	2588.597212
563.799216	2586.684094
564.155587	2589.630648
564.511904	2587.311718
564.868164	2589.398755
565.224370	2590.011256
565.580520	2588.110741
565.936615	2590.041502
566.292654	2585.806933
566.648638	2586.883220
567.004567	2587.881368
567.360441	2590.046544
567.716260	2589.872624
568.072023	2588.791296
568.427732	2583.339288
568.783385	2585.885071
569.138982	2582.202508
569.494525	2584.423137
569.850013	2583.568661
570.205445	2587.185689
570.560823	2586.779876
570.916145	2587.457911
571.271412	2586.192582
571.626625	2585.537232
571.981782	2586.558065
572.336884	2588.198961
572.691931	2583.961871
573.046923	2586.336254
573.401860	2587.208374
573.756743	2585.917839
574.111570	2585.028075
574.466342	2583.130081
574.821059	2585.988415
575.175722	2585.466655
575.530330	2582.260482
575.884882	2585.131419
576.239380	2585.645616
576.593823	2586.777355
576.948211	2584.473548
577.302544	2581.590008
577.656823	2585.660740
578.011047	2587.974629
578.365216	2582.217632
578.719330	2584.960019
579.073389	2584.897005
579.427394	2582.162179
579.781344	2583.941706
580.135239	2581.408527
580.489080	2585.348188
580.842866	2581.433732
581.196597	2584.949937
581.550273	2583.495564
581.903895	2582.701582
582.257463	2581.766448
582.610975	2582.441963
582.964434	2582.532704
583.317837	2579.283680
583.671186	2583.107395
584.024481	2582.237796
584.377721	2581.196798
584.730906	2581.894998
585.084037	2581.390882
585.437113	2581.345512
585.790135	2580.468351
586.143103	2581.728640
586.496016	2581.927765
586.848874	2576.132959
587.201679	2577.173957
587.554428	2579.775193
587.907124	2577.531879
588.259765	2573.720767
588.612352	2580.145717
588.964884	2573.940057
589.317362	2580.186047
589.669786	2577.640264
590.022155	2578.653536
590.374470	2578.721592
590.726731	2581.774010
591.078937	2579.384503
591.431090	2581.020358
591.783188	2578.673701
592.135232	2577.569688
592.487222	2578.794688
592.839157	2578.983732
593.191038	2578.739236
593.542866	2577.068093
593.894639	2575.515418
594.246358	2576.440469
594.598022	2576.800912
594.949633	2578.058680
595.301190	2574.078689
595.652692	2578.396437
596.004141	2576.624472
596.355535	2579.228228
596.706876	2574.822259
597.058162	2577.917527
597.409395	2575.036508
597.760573	2578.030953
598.111698	2576.526169
598.462768	2575.147413
598.813785	2576.301838
599.164748	2574.734039
599.515657	2575.490212
599.866511	2575.318813
600.217312	2573.481312
600.568060	2577.252095
600.918753	2577.405850
601.269392	2574.313103
601.619978	2572.596590
601.970510	2574.880232
602.320988	2574.436611
602.671412	2574.222362
603.021783	2572.770509
603.372100	2574.131621
603.722363	2573.148596
604.072572	2574.797053
604.422728	2575.530541
604.772830	2571.469892
605.122878	2571.913513
605.472872	2571.747155
605.822813	2567.424366
606.172701	2571.331260
606.522534	2574.053483
606.872314	2572.931826
607.222041	2574.582804
607.571714	2574.003072
607.921333	2573.279666
608.270899	2573.768658
608.620411	2574.713874
608.969870	2574.451734
609.319276	2575.270922
609.668627	2576.901735
610.017926	2582.338619
610.367171	2583.735019
610.716362	2580.816191
611.065500	2578.366190
611.414585	2578.046077
611.763616	2577.103381
612.112594	2577.221848
612.461518	2576.165727
612.810389	2576.442990
613.159207	2575.769996
613.507971	2575.875860
613.856682	2574.378637
614.205340	2576.284194
614.553945	2576.813515
614.902496	2573.766137
615.250994	2576.987435
615.599439	2574.633216
615.947830	2574.686148
616.296169	2575.575912
616.644454	2576.621951
616.992686	2575.505335
617.340864	2575.147413
617.688990	2572.291600
618.037063	2576.795871
618.385082	2574.434090
618.733048	2573.403174
619.080961	2574.383679
619.428821	2573.950139
619.776628	2576.715212
620.124382	2577.294945
620.472083	2573.357804
620.819731	2576.740418
621.167326	2571.217834
621.514868	2574.141703
621.862357	2572.833524
622.209793	2574.376117
622.557176	2573.672876
622.904506	2568.258677
623.251783	2568.747669
623.599007	2567.764644
623.946179	2568.861095
624.293297	2568.606516
624.640363	2569.397978
624.987376	2570.126424
625.334336	2571.099367
625.681243	2569.148440
626.028097	2570.194480
626.374899	2570.960735
626.721647	2566.166598
627.068343	2568.362020
627.414987	2566.229612
627.761577	2567.643656
628.108115	2570.093657
628.454600	2570.983420
628.801032	2568.102401
629.147412	2567.628533
629.493739	2567.313460
629.840014	2569.327401
630.186236	2566.713563
630.532405	2567.371434
630.878521	2571.111970
631.224585	2568.210786
631.570597	2563.288099
631.916556	2567.615930
632.262462	2568.215827
632.608316	2566.607699
632.954117	2566.045610
633.299866	2567.205076
633.645562	2569.488718
633.991206	2564.886145
634.336797	2566.237174
634.682336	2567.436969
635.027823	2564.119889
635.373257	2563.668706
635.718639	2562.471432
636.063968	2563.658624
636.409245	2565.221382
636.754470	2564.853377
637.099642	2563.124262
637.444762	2563.991340
637.789829	2563.852708
638.134845	2564.220712
638.479808	2561.057388
638.824719	2563.507389
639.169577	2562.413459
639.514383	2561.463201
639.859137	2560.860783
640.203839	2563.772050
640.548489	2561.085115
640.893086	2559.471946
641.237632	2558.458674
641.582125	2558.652758
641.926566	2556.732078
642.270955	2560.190310
642.615292	2559.444219
642.959576	2558.095711
643.303809	2560.034034
643.647990	2559.850032
643.992118	2560.694425
644.336195	2560.807851
644.680219	2561.642162
645.024192	2560.618808
645.368112	2560.172666
645.711981	2561.362378
646.055797	2561.188458
646.399562	2559.703839
646.743274	2559.905485
647.086935	2562.678119
647.430544	2562.428582
647.774101	2561.135526
648.117606	2561.586710
648.461059	2562.400856
648.804460	2563.996381
649.147810	2563.565362
649.491108	2562.395815
649.834354	2561.705177
650.177548	2563.215002
650.520690	2561.468243
650.863781	2558.950186
651.206820	2565.037379
651.549807	2559.834909
651.892742	2558.791390
652.235626	2560.313818
652.578458	2558.420865
652.921238	2556.772408
653.263967	2558.625032
653.606644	2559.096380
653.949269	2558.899775
654.291843	2558.178890
654.634365	2557.737789
654.976836	2557.052192
655.319255	2557.447922
655.661622	2556.916081
656.003938	2557.400031
656.346203	2555.408776
656.688416	2557.652089
657.030577	2558.345248
657.372687	2556.805175
657.714746	2557.294167
658.056753	2554.861810
658.398708	2552.429454
658.740612	2557.566389
659.082465	2555.355843
659.424266	2556.956410
659.766016	2553.253682
660.107715	2558.347768
660.449362	2558.161246
660.790958	2557.357182
661.132503	2560.200392
661.473996	2558.451112
661.815438	2557.193344
662.156829	2557.964641
662.498168	2557.909188
662.839456	2556.575803
663.180693	2558.158725
663.521879	2556.505227
663.863013	2558.448591
664.204097	2558.617470
664.545129	2556.603529
664.886110	2559.136709
665.227040	2557.604198
665.567918	2560.049158
665.908746	2557.422717
666.249522	2559.998746
666.590248	2557.044630
666.930922	2557.216029
667.271545	2557.581513
667.612118	2560.994374
667.952639	2560.291133
668.293109	2558.965310
668.633528	2558.050340
668.973896	2555.832233
669.314213	2559.910526
669.654480	2559.441699
669.994695	2555.837274
670.334859	2555.222253
670.674973	2557.919270
671.015035	2557.873900
671.355047	2556.699311
671.695008	2557.558828
672.034918	2556.911039
672.374777	2556.391801
672.714585	2555.900288
673.054342	2556.719476
673.394049	2555.471790
673.733705	2557.160577
674.073310	2557.805844
674.412864	2557.463046
674.752368	2559.285423
675.091820	2556.618653
675.431223	2556.732078
675.770574	2558.095711
676.109875	2551.958106
676.449125	2555.439023
676.788324	2550.725544
677.127473	2552.391645
677.466571	2550.410472
677.805619	2556.616132
678.144616	2554.685370
678.483562	2558.284754
678.822458	2555.028168
679.161303	2558.816596
679.500098	2553.243600
679.838842	2555.320555
680.177535	2556.106975
680.516179	2556.515309
680.854771	2554.224104
681.193314	2555.834753
681.531805	2556.905998
681.870247	2557.417675
682.208638	2559.587892
682.546978	2558.257028
682.885268	2559.202244
683.223508	2555.295350
683.561697	2558.166287
683.899836	2556.865669
684.237925	2556.096893
684.575963	2556.903478
684.913951	2556.442212
685.251889	2556.427089
685.589776	2556.560679
685.927614	2555.512119
686.265401	2554.861810
686.603137	2557.717624
686.940824	2557.115206
687.278460	2558.471277
687.616046	2554.955072
687.953582	2559.298026
688.291068	2556.951369
688.628504	2560.533108
688.965889	2556.018755
689.303224	2559.023283
689.640510	2556.361554
689.977745	2556.258210
690.314930	2555.723848
690.652065	2555.711245
690.989150	2556.727037
691.326185	2554.501368
691.663170	2555.517160
692.000105	2552.580688
692.336990	2554.725699
692.673825	2553.911553
693.010610	2554.771070
693.347345	2548.467107
693.684030	2549.258568
694.020665	2549.213198
694.357251	2546.543907
694.693786	2549.891233
695.030272	2549.452652
695.366707	2550.813764
695.703093	2549.530790
696.039429	2551.678322
696.375716	2551.179247
696.711952	2550.097920
697.048139	2548.310831
697.384276	2549.893753
697.720363	2551.149001
698.056400	2550.687735
698.392388	2551.156562
698.728326	2552.545400
699.064214	2548.517518
699.400053	2548.799823
699.735842	2549.883671
700.071581	2547.998279
700.407270	2548.008362
700.742910	2548.028526
701.078501	2549.513146
701.414042	2549.606407
701.749533	2548.991387
702.084974	2548.678835
702.420366	2547.302600
702.755709	2545.928886
703.091002	2549.152704
703.426246	2550.891902
703.761440	2548.865358
704.096584	2548.149514
704.431679	2548.872920
704.766725	2550.607077
705.101721	2548.099102
705.436668	2548.809905
705.771565	2548.754452
706.106413	2549.311500
706.441212	2547.584905
706.775961	2545.875954
707.110661	2549.029195
707.445311	2549.361912
707.779913	2549.356870
708.114465	2552.094217
708.448967	2547.257230
708.783421	2548.736808
709.117825	2548.484751
709.452180	2549.540873
709.786485	2549.059442
710.120742	2550.816284
710.454949	2551.690925
710.789107	2548.146993
711.123216	2547.403423
711.457275	2550.728064
711.791286	2549.112374
712.125247	2548.613300
712.459159	2549.760163
712.793023	2552.056408
713.126837	2549.510626
713.460602	2551.345606
713.794318	2552.366439
714.127985	2550.077755
714.461602	2547.673125
714.795171	2546.390151
715.128691	2551.799309
715.462162	2549.729916
715.795584	2548.089020
716.128957	2548.383928
716.462281	2549.407282
716.795556	2545.076931
717.128782	2549.981973
717.461960	2547.978115
717.795088	2549.984494
718.128167	2546.806047
718.461198	2547.985677
718.794180	2548.338557
719.127113	2545.734801
719.459997	2548.635985
719.792833	2544.340922
720.125619	2544.915614
720.458357	2544.890408
720.791046	2545.714637
721.123686	2545.023999
721.456278	2547.852086
721.788821	2546.375028
722.121315	2545.709596
722.453761	2546.490974
722.786158	2544.230017
723.118506	2543.776313
723.450805	2544.938299
723.783056	2544.446787
724.115259	2544.429142
724.447412	2543.075593
724.779518	2542.306817
725.111574	2547.433670
725.443582	2547.405944
725.775542	2546.707744
726.107453	2546.450645
726.439315	2545.442414
726.771129	2550.163455
727.102895	2547.380738
727.434612	2545.886036
727.766281	2547.002652
728.097901	2544.575336
728.429473	2540.118956
728.760996	2546.793444
729.092471	2542.057280
729.423897	2546.433001
729.755276	2549.770245
730.086606	2547.015254
730.417887	2545.976777
730.749120	2547.335368
731.080305	2547.355532
731.411442	2548.310831
731.742530	2547.786551
732.073570	2548.567930
732.404562	2549.770245
732.735506	2549.296377
733.066401	2548.298228
733.397249	2549.054401
733.728048	2544.086344
734.058798	2549.248486
734.389501	2545.921324
734.720156	2546.014585
735.050762	2545.449976
735.381320	2545.210521
735.711831	2544.648433
736.042293	2542.936961
736.372707	2543.809081
736.703073	2542.629451
737.033391	2545.593649
737.363661	2543.582229
737.693883	2548.300749
738.024056	2547.410985
738.354182	2544.671118
738.684260	2546.100285
739.014290	2543.622558
739.344272	2546.218752
739.674207	2545.644061
740.004093	2546.995090
740.333931	2544.116591
740.663722	2545.228165
740.993464	2543.143648
741.323159	2547.705893
741.652806	2543.889739
741.982405	2544.514842
742.311956	2544.177085
742.641460	2543.221786
742.970915	2545.414688
743.300323	2542.503422
743.629683	2546.009544
743.958996	2543.793957
744.288260	2545.061807
744.617477	2543.650284
744.946647	2538.659542
745.275768	2539.791281
745.604842	2538.442772
745.933869	2542.261446
746.262847	2537.547968
746.591778	2544.986190
746.920662	2544.151879
747.249498	2543.146169
747.578286	2546.962322
747.907027	2543.103319
748.235720	2542.894111
748.564365	2544.305634
748.892963	2543.622558
749.221514	2542.364790
749.550017	2541.482588
749.878473	2546.536345
750.206881	2544.192208
750.535242	2542.884029
750.863555	2542.823535
751.191821	2543.930068
751.520039	2544.751776
751.848210	2543.241951
752.176334	2540.854964
752.504411	2544.343443
752.832440	2541.603576
753.160421	2542.503422
753.488356	2541.366642
753.816243	2543.463762
754.144082	2541.583411
754.471875	2543.995603
754.799620	2540.605427
755.127318	2540.428987
755.454969	2544.976108
755.782572	2542.354708
756.110129	2542.006868
756.437638	2544.149358
756.765100	2543.942671
757.092515	2540.973432
757.419882	2539.841693
757.747203	2543.483926
758.074477	2542.004347
758.401703	2543.100798
758.728882	2543.420912
759.056014	2542.838658
759.383099	2540.716333
759.710138	2543.126004
760.037129	2542.425284
760.364073	2544.103988
760.690970	2541.298586
761.017820	2543.252033
761.344623	2543.627599
761.671379	2543.854451
761.998088	2539.632485
762.324751	2542.047197
762.651366	2542.241282
762.977935	2552.502550
763.304456	2551.453990
763.630931	2554.387942
763.957359	2554.191337
764.283740	2553.213353
764.610074	2549.868548
764.936362	2546.377548
765.262602	2542.982331
765.588796	2546.485933
765.914943	2542.236241
766.241044	2541.112063
766.567097	2541.265818
766.893104	2541.742208
767.219064	2538.790612
767.544978	2540.166847
767.870845	2545.054246
768.196665	2542.541230
768.522438	2538.793133
768.848165	2538.609130
769.173846	2540.555016
769.499479	2539.468647
769.825066	2542.470654
770.150607	2542.984852
770.476101	2540.363452
770.801548	2539.387989
771.126949	2539.279604
771.452303	2539.163657
771.777611	2540.149203
772.102872	2541.361600
772.428087	2537.472350
772.753256	2539.662732
773.078378	2537.129552
773.403453	2537.006043
773.728482	2538.344470
774.053465	2537.842875
774.378401	2537.910931
774.703291	2541.472506
775.028135	2536.890097
775.352932	2537.696682
775.677683	2538.193235
776.002388	2538.893956
776.327046	2538.679707
776.651658	2539.244316
776.976224	2539.577032
777.300743	2538.876312
777.625216	2539.261960
777.949643	2537.719367
778.274024	2541.008720
778.598359	2535.120652
778.922647	2534.924047
779.246889	2535.740714
779.571086	2532.012781
779.895236	2535.183666
780.219339	2537.159799
780.543397	2536.005374
780.867409	2538.248688
781.191374	2540.537372
781.515294	2538.213400
781.839167	2541.767413
782.162995	2535.065199
782.486776	2536.927906
782.810511	2538.173071
783.134201	2537.477391
783.457844	2538.079809
783.781441	2539.408153
784.104993	2539.720705
784.428498	2536.012936
784.751958	2537.855478
785.075372	2538.909079
785.398739	2536.466640
785.722061	2536.171733
786.045337	2537.033770
786.368568	2536.728780
786.691752	2539.135931
787.014891	2537.633667
787.337983	2537.588297
787.661030	2538.846065
787.984031	2539.012423
788.306987	2540.786909
788.629897	2540.968390
788.952760	2541.044008
789.275579	2539.846734
789.598351	2539.113246
789.921078	2539.088040
790.243759	2537.759696
790.566395	2534.039324
790.888984	2537.701723
791.211529	2538.654501
791.534027	2537.842875
791.856480	2536.945550
792.178888	2538.503266
792.501249	2537.192566
792.823566	2540.736497
793.145836	2534.636701
793.468062	2538.805735
793.790241	2534.626619
794.112375	2540.045859
794.434464	2538.278935
794.756507	2536.494366
795.078505	2538.536034
795.400457	2534.855991
795.722364	2534.208203
796.044226	2537.137113
796.366042	2533.000847
796.687812	2535.211393
797.009538	2539.209028
797.331218	2537.832793
797.652852	2535.813811
797.974442	2539.400592
798.295986	2535.924716
798.617484	2538.309182
798.938938	2536.522093
799.260346	2537.605941
799.581709	2537.409336
799.903026	2539.385468
800.224299	2536.108718
800.545526	2538.457896
800.866708	2538.800694
801.187845	2537.288348
801.508936	2536.378420
801.829983	2536.363296
802.150984	2537.956301
802.471940	2537.369007
802.792851	2539.201466
803.113717	2538.258770
803.434538	2534.661907
803.755314	2538.659542
804.076045	2534.263656
804.396731	2537.608461
804.717372	2534.619057
805.037967	2538.614172
805.358518	2538.586445
805.679024	2537.111908
805.999485	2539.703061
806.319901	2537.134593
806.640272	2535.667617
806.960598	2534.697195
807.280879	2535.614685
807.601115	2538.054603
807.921306	2536.078471
808.241453	2537.495035
808.561554	2534.729963
808.881611	2536.448996
809.201623	2536.645601
809.521590	2540.219779
809.841513	2535.786084
810.161390	2534.465302
810.481223	2536.567463
810.801011	2531.770805
811.120755	2537.966383
811.440453	2536.912782
811.760107	2536.706095
812.079716	2534.067051
812.399281	2534.823224
812.718801	2533.015970
813.038276	2531.944725
813.357707	2535.649973
813.677093	2535.501259
813.996434	2535.589479
814.315731	2534.765251
814.634983	2538.183153
814.954191	2534.742565
815.273354	2535.518903
815.592473	2536.030580
815.911547	2532.849612
816.230577	2535.097967
816.549562	2534.939170
816.868502	2535.990251
817.187399	2538.410005
817.506250	2538.541075
817.825058	2538.707433
818.143821	2534.160312
818.462539	2538.828421
818.781213	2540.000489
819.099843	2535.839016
819.418429	2540.416384
819.736970	2542.405119
820.055466	2542.566436
820.373919	2543.045346
820.692327	2544.416540
821.010691	2548.923331
821.329011	2558.055381
821.647286	2577.622620
821.965517	2595.927050
822.283704	2611.884822
822.601847	2615.043105
822.919945	2606.757969
823.237999	2594.034096
823.556010	2582.908270
823.873976	2572.838565
824.191897	2566.753892
824.509775	2558.735937
824.827609	2554.695452
825.145398	2552.401727
825.463144	2555.421378
825.780845	2551.038095
826.098502	2553.162942
826.416116	2559.252655
826.733685	2566.305230
827.051210	2569.776064
827.368692	2565.773388
827.686129	2561.122923
828.003522	2553.409958
828.320872	2544.116591
828.638177	2544.613145
828.955439	2542.516025
829.272656	2538.321785
829.589830	2535.493697
829.906960	2539.902186
830.224046	2538.377237
830.541088	2540.668442
830.858086	2539.201466
831.175041	2538.581404
831.491952	2536.789274
831.808819	2537.434542
832.125642	2536.759027
832.442421	2539.977804
832.759157	2540.708771
833.075849	2548.136911
833.392497	2549.543393
833.709101	2548.663712
834.025662	2552.570606
834.342179	2550.725544
834.658653	2547.330327
834.975083	2543.456200
835.291469	2547.048022
835.607811	2542.979811
835.924110	2538.256250
836.240366	2538.183153
836.556578	2537.913451
836.872746	2537.709284
837.188871	2538.588966
837.504952	2538.450334
837.820990	2531.818696
838.136984	2532.743748
838.452935	2533.247863
838.768842	2533.762061
839.084706	2534.024201
839.400526	2538.581404
839.716303	2538.657021
840.032037	2541.880839
840.347727	2541.122146
840.663373	2542.838658
840.978977	2538.581404
841.294537	2538.359593
841.610054	2537.154757
841.925527	2536.144006
842.240957	2533.686444
842.556344	2536.068389
842.871687	2533.323481
843.186987	2535.854140
843.502244	2532.751310
843.817458	2533.464633
844.132629	2532.471526
844.447756	2534.099818
844.762840	2531.080167
845.077881	2532.632843
845.392879	2528.758716
845.707833	2532.577390
846.022745	2529.782070
846.337613	2530.296268
846.652438	2532.378264
846.967221	2533.893131
847.281960	2533.971269
847.596656	2532.985723
847.911309	2532.829447
848.225919	2534.656866
848.540485	2533.615867
848.855009	2534.916485
849.169490	2532.499252
849.483928	2533.883049
849.798323	2530.858356
850.112675	2533.326001
850.426984	2531.853984
850.741251	2531.974972
851.055474	2532.957997
851.369654	2534.205682
851.683792	2534.122503
851.997887	2533.199972
852.311938	2531.357431
852.625947	2531.944725
852.939914	2532.693336
853.253837	2535.130734
853.567718	2531.528830
853.881555	2531.584282
854.195350	2531.012112
854.509103	2532.073274
854.822812	2531.934643
855.136479	2534.490508
855.450103	2532.428676
855.763685	2532.408511
856.077224	2533.573018
856.390720	2531.793490
856.704173	2534.858512
857.017584	2532.625281
857.330953	2532.824406
857.644278	2531.619571
857.957561	2536.406146
858.270802	2532.567307
858.584000	2534.127545
858.897155	2531.319622
859.210268	2531.516227
859.523339	2534.142668
859.836367	2529.890455
860.149352	2532.637884
860.462295	2535.223996
860.775195	2528.249559
861.088054	2527.942049
861.400869	2530.644107
861.713642	2525.479445
862.026373	2532.393388
862.339062	2535.143337
862.651708	2530.694519
862.964312	2530.447502
863.276873	2534.414890
863.589392	2529.872811
863.901869	2533.497400
864.214303	2533.126876
864.526696	2532.728624
864.839045	2533.416742
865.151353	2533.814993
865.463619	2535.163502
865.775842	2534.172915
866.088023	2532.915147
866.400162	2533.935981
866.712258	2533.701567
867.024313	2532.970600
867.336325	2535.002185
867.648296	2531.685106
867.960224	2534.286341
868.272110	2531.286854
868.583954	2533.157122
868.895755	2531.808614
869.207515	2532.295085
869.519233	2533.363810
869.830909	2532.433717
870.142542	2532.058151
870.454134	2532.126207
870.765684	2535.776002
871.077191	2533.913296
871.388657	2534.755168
871.700081	2533.356248
872.011463	2532.491690
872.322803	2531.289375
872.634101	2534.298944
872.945357	2532.103521
873.256571	2531.463295
873.567744	2535.501259
873.878874	2532.927750
874.189963	2534.835827
874.501010	2535.236598
874.812015	2533.532688
875.122979	2534.737524
875.433900	2534.404808
875.744780	2536.373379
876.055618	2533.482277
876.366415	2533.608306
876.677169	2534.102339
876.987882	2532.106042
877.298554	2530.434899
877.609183	2531.344828
877.919771	2531.949766
878.230317	2533.328522
878.540822	2537.938657
878.851285	2535.418080
879.161707	2540.229861
879.472087	2538.120138
879.782425	2537.237937
880.092722	2544.887888
880.402977	2549.208156
880.713191	2556.699311
881.023363	2570.307906
881.333494	2580.024730
881.643583	2581.655543
881.953631	2577.388206
882.263637	2575.177660
882.573602	2573.899728
882.883526	2569.682803
883.193408	2561.637121
883.503248	2556.643858
883.813048	2552.053888
884.122806	2549.893753
884.432522	2547.698331
884.742197	2543.136087
885.051831	2545.802857
885.361424	2540.741538
885.670975	2540.565098
885.980485	2537.681558
886.289954	2536.955632
886.599382	2537.631147
886.908768	2537.212731
887.218113	2534.336753
887.527417	2534.785415
887.836680	2535.597041
888.145901	2536.270035
888.455082	2530.853315
888.764221	2536.670807
889.073319	2532.728624
889.382376	2533.963707
889.691392	2536.126362
890.000366	2536.280117
890.309300	2531.420445
890.618193	2535.463450
890.927044	2533.973789
891.235855	2532.133768
891.544625	2538.236085
891.853353	2534.276259
892.162041	2533.583100
892.470687	2536.572504
892.779293	2535.624767
893.087858	2532.242153
893.396381	2531.470857
893.704864	2538.679707
894.013306	2537.608461
894.321707	2545.003834
894.630068	2545.845707
894.938387	2552.116902
895.246665	2550.128167
895.554903	2547.592467
895.863100	2544.887887
896.171256	2539.884542
896.479371	2541.159954
896.787446	2542.634492
897.095480	2538.556198
897.403473	2538.208359
897.711425	2537.633667
898.019336	2536.892618
898.327207	2537.011085
898.635038	2537.137113
898.942827	2537.351363
899.250576	2537.464788
899.558284	2534.684592
899.865952	2532.751310
900.173579	2532.826927
900.481165	2536.426311
900.788711	2530.757533
901.096216	2533.056299
901.403681	2534.518234
901.711105	2532.332894
902.018489	2535.062679
902.325832	2535.087884
902.633135	2534.505631
902.940397	2534.808100
903.247619	2536.224665
903.554800	2540.323123
903.861941	2546.178423
904.169041	2550.604556
904.476101	2552.895760
904.783121	2554.771070
905.090100	2551.779145
905.397039	2547.055584
905.703938	2546.533824
906.010796	2541.885880
906.317614	2539.176260
906.624391	2535.803728
906.931129	2534.954294
907.237826	2535.360107
907.544483	2534.719880
907.851099	2537.099305
908.157675	2530.510517
908.464211	2534.402288
908.770707	2529.600588
909.077163	2529.116638
909.383578	2528.199148
909.689954	2530.046731
909.996289	2526.351565
910.302584	2530.876000
910.608839	2531.246525
910.915054	2530.883562
911.221229	2531.667462
911.527363	2531.276772
911.833458	2533.855322
912.139513	2533.656197
912.445527	2529.257790
912.751502	2533.494880
913.057436	2531.763243
913.363331	2534.825744
913.669186	2532.932791
913.975000	2535.367668
914.280775	2535.715508
914.586510	2537.905889
914.892205	2539.526620
915.197859	2542.223638
915.503475	2546.490974
915.809050	2549.435008
916.114585	2553.120092
916.420081	2554.551779
916.725536	2552.585729
917.030952	2551.267468
917.336328	2548.444422
917.641665	2546.286808
917.946961	2543.796478
918.252218	2543.942671
918.557435	2537.053934
918.862612	2538.314223
919.167750	2537.885725
919.472848	2536.126362
919.777906	2532.355579
920.082925	2535.632329
920.387904	2534.457740
920.692843	2532.721063
920.997743	2532.990764
921.302603	2533.283151
921.607423	2530.986906
921.912204	2532.055630
922.216946	2531.823737
922.521647	2534.775333
922.826310	2535.007226
923.130932	2531.743079
923.435516	2532.640404
923.740059	2530.883562
924.044564	2530.520599
924.349028	2531.155784
924.653454	2525.744106
924.957840	2527.488345
925.262186	2527.667306
925.566493	2528.075639
925.870761	2525.691174
926.174989	2530.795342
926.479178	2528.788963
926.783328	2526.449867
927.087438	2530.896165
927.391509	2531.024714
927.695541	2529.696370
927.999533	2528.859539
928.303486	2527.059847
928.607400	2528.650331
928.911275	2529.739220
929.215110	2533.061341
929.518906	2528.564631
929.822663	2527.710156
930.126381	2529.144364
930.430060	2529.565300
930.733699	2527.435413
931.037299	2533.353727
931.340861	2527.677388
931.644383	2526.391894
931.947866	2526.933818
932.251309	2533.469674
932.554714	2531.372554
932.858080	2531.760723
933.161407	2531.690147
933.464694	2530.228212
933.767943	2529.797193
934.071153	2529.945908
934.374323	2530.810465
934.677455	2531.027235
934.980548	2529.461957
935.283602	2528.287368
935.586617	2529.078829
935.889593	2526.674199
936.192530	2529.252749
936.495428	2530.041689
936.798287	2529.247708
937.101108	2527.954652
937.403890	2528.110927
937.706632	2529.056144
938.009336	2532.799201
938.312002	2533.270548
938.614628	2529.073788
938.917216	2527.730320
939.219765	2530.301309
939.522275	2531.054961
939.824747	2530.225692
940.127179	2527.256452
940.429573	2526.941380
940.731929	2528.955321
941.034246	2527.470701
941.336524	2529.751823
941.638763	2528.945238
941.940964	2530.586134
942.243126	2531.775846
942.545250	2528.209230
942.847335	2528.791483
943.149381	2528.647810
943.451389	2527.722759
943.753359	2530.344159
944.055290	2530.407173
944.357182	2529.388860
944.659036	2528.027748
944.960851	2530.036648
945.262628	2530.651669
945.564367	2531.352389
945.866067	2528.678057
946.167729	2530.820548
946.469352	2528.683098
946.770937	2529.257790
947.072484	2526.984230
947.373992	2531.249046
947.675462	2527.475742
947.976893	2528.897348
948.278286	2530.533202
948.579641	2529.202337
948.880958	2528.398273
949.182236	2527.997502
949.483476	2530.049251
949.784678	2532.254756
950.085841	2530.989426
950.386967	2531.364992
950.688054	2529.056144
950.989103	2530.918850
951.290114	2529.693850
951.591087	2528.640249
951.892021	2527.692512
952.192917	2528.166380
952.493776	2531.599406
952.794596	2532.017822
953.095378	2528.020187
953.396122	2530.467667
953.696828	2528.350382
953.997496	2530.170239
954.298126	2530.318953
954.598718	2526.775022
954.899272	2527.221164
955.199788	2531.962369
955.500266	2529.782070
955.800706	2525.900382
956.101108	2524.256965
956.401472	2521.922911
956.701798	2525.539939
957.002087	2526.207892
957.302337	2527.132944
957.602550	2529.555218
957.902724	2527.319466
958.202861	2528.695701
958.502960	2528.587317
958.803022	2531.143182
959.103045	2529.600588
959.403031	2529.051103
959.702979	2525.043385
960.002889	2528.282327
960.302762	2528.252080
960.602596	2529.194776
960.902393	2529.593027
961.202153	2528.357944
961.501875	2527.861390
961.801559	2528.289888
962.101205	2528.998171
962.400814	2528.703263
962.700385	2529.048582
962.999918	2525.592871
963.299414	2526.719569
963.598873	2527.397604
963.898293	2526.623787
964.197677	2529.230064
964.497022	2526.175124
964.796331	2526.364168
965.095601	2529.605630
965.394835	2527.410207
965.694030	2526.487676
965.993189	2528.758716
966.292309	2525.673530
966.591393	2526.885927
966.890439	2526.598581
967.189447	2524.395597
967.488419	2527.548839
967.787353	2526.989271
968.086249	2527.783253
968.385108	2530.833151
968.683930	2526.671678
968.982714	2527.856349
969.281462	2528.559590
969.580172	2526.926256
969.878844	2525.640762
970.177480	2525.408869
970.476078	2529.542615
970.774639	2530.765095
971.073162	2526.412059
971.371649	2525.585309
971.670098	2525.439116
971.968510	2525.245032
972.266885	2523.135309
972.565223	2525.728982
972.863524	2528.489014
973.161788	2526.913653
973.460014	2527.289219
973.758204	2527.959693
974.056356	2527.611853
974.354471	2528.408356
974.652550	2525.184538
974.950591	2527.974816
975.248595	2527.427851
975.546563	2527.611853
975.844493	2526.742254
976.142386	2527.576565
976.440243	2528.282327
976.738062	2526.762419
977.035845	2526.248221
977.333590	2528.216792
977.631299	2528.143695
977.928971	2527.453057
978.226606	2526.170083
978.524204	2529.245187
978.821765	2527.221164
979.119290	2526.734693
979.416777	2526.764939
979.714228	2526.633869
980.011642	2525.812161
980.309020	2531.833820
980.606360	2526.291071
980.903664	2528.995650
981.200931	2527.505989
981.498162	2527.155629
981.795356	2525.429034
982.092513	2527.107738
982.389633	2526.981709
982.686717	2525.827285
982.983764	2529.187214
983.280775	2528.153777
983.577749	2527.919364
983.874686	2528.844415
984.171587	2529.086391
984.468451	2528.763757
984.765279	2526.056657
985.062070	2527.047244
985.358824	2525.386184
985.655543	2528.052954
985.952224	2525.280320
986.248869	2524.597243
986.545478	2524.458612
986.842050	2526.921215
987.138586	2524.130937
987.435086	2525.358458
987.731549	2522.263189
988.027975	2528.640249
988.324366	2524.163704
988.620719	2526.898530
988.917037	2526.422141
989.213318	2527.412728
989.509563	2525.292922
989.805772	2525.696215
990.101944	2524.942562
990.398080	2527.110258
990.694180	2526.001205
990.990244	2526.921215
991.286271	2524.241842
991.582262	2526.961544
991.878217	2529.832482
992.174136	2526.212933
992.470019	2527.838705
992.765865	2525.045906
993.061676	2525.406348
993.357450	2525.449198
993.653188	2526.553211
993.948890	2525.504651
994.244556	2525.774353
994.540186	2529.829961
994.835780	2525.592871
995.131337	2527.097656
995.426859	2524.927439
995.722345	2524.501461
996.017795	2525.434075
996.313208	2526.691843
996.608586	2525.431554
996.903928	2528.685619
997.199234	2524.365350
997.494504	2529.804755
997.789738	2526.797707
998.084936	2525.474404
998.380099	2524.864424
998.675225	2526.137316
998.970316	2526.137316
999.265371	2524.622449
999.560390	2527.821061
999.855373	2525.335772
1000.150320	2526.606143
1000.445232	2525.686133
1000.740108	2525.676050
1001.034948	2524.428365
1001.329752	2527.137985
1001.624521	2526.381812
1001.919254	2521.935514
1002.213951	2524.632531
1002.508613	2520.828981
1002.803239	2524.065402
1003.097829	2520.211439
1003.392384	2528.723428
1003.686903	2526.805269
1003.981386	2525.832326
1004.275834	2526.185207
1004.570246	2528.950280
1004.864623	2527.553880
1005.158964	2526.187727
1005.453270	2526.180166
1005.747540	2524.216636
1006.041775	2525.295443
1006.335974	2525.164373
1006.630138	2524.067922
1006.924266	2527.753006
1007.218359	2524.723272
1007.512416	2523.485669
1007.806438	2525.098838
1008.100425	2526.117151
1008.394376	2524.965247
1008.688292	2526.152439
1008.982172	2526.109589
1009.276017	2526.376771
1009.569827	2524.282171
1009.863602	2525.577748
1010.157341	2524.350227
1010.451045	2524.503982
1010.744714	2526.815351
1011.038347	2525.902902
1011.331945	2524.153622
1011.625508	2526.260824
1011.919036	2525.600433
1012.212528	2525.623118
1012.505986	2524.962727
1012.799408	2527.647141
1013.092795	2525.398787
1013.386147	2528.952800
1013.679464	2525.897861
1013.972745	2525.867614
1014.265992	2527.460619
1014.559204	2523.881399
1014.852380	2524.395597
1015.145521	2524.952645
1015.438628	2525.151770
1015.731699	2524.937521
1016.024736	2522.608508
1016.317737	2527.344672
1016.610703	2529.469518
1016.903635	2523.314270
1017.196531	2523.775535
1017.489393	2523.152953
1017.782219	2519.964423
1018.075011	2524.201513
1018.367768	2524.519105
1018.660490	2529.356092
1018.953177	2529.356092
1019.245829	2529.356092
