Dividing Wavelength (nm)	Counts (n)	Blue Motor Position (mm): 0.000000	Red Motor Position (mm): 34.600000	
326.493990	2125.501696
326.888308	2125.501696
327.282561	2125.501696
327.676750	2096.252922
328.070874	2092.270410
328.464933	2095.196800
328.858929	2103.088726
329.252859	2112.631630
329.646726	2126.333487
330.040528	2135.210958
330.434265	2153.901036
330.827938	2172.949036
331.221547	2186.981088
331.615091	2211.173585
332.008571	2228.305947
332.401986	2248.092475
332.795338	2268.564601
333.188625	2286.490944
333.581847	2307.905766
333.975006	2325.862356
334.368100	2341.119408
334.761129	2358.463498
335.154095	2375.248019
335.546996	2394.021276
335.939833	2415.549524
336.332606	2429.604261
336.725315	2440.581373
337.117960	2450.552776
337.510540	2458.918570
337.903056	2473.225365
338.295508	2476.141672
338.687896	2487.113744
339.080220	2494.415855
339.472480	2501.324757
339.864676	2505.642505
340.256807	2510.822290
340.648875	2512.445542
341.040879	2513.163906
341.432818	2517.186747
341.824694	2518.807478
342.216506	2521.000380
342.608253	2517.219515
342.999937	2519.036851
343.391557	2520.380318
343.783113	2516.082734
344.174605	2515.576098
344.566033	2515.041736
344.957397	2514.015861
345.348697	2512.627023
345.739934	2509.897239
346.131106	2510.207270
346.522215	2509.428411
346.913260	2504.651918
347.304241	2504.727535
347.695159	2502.027998
348.086012	2499.094046
348.476802	2497.349807
348.867528	2497.979951
349.258191	2495.991216
349.648789	2496.802842
350.039324	2494.441061
350.429796	2493.263952
350.820203	2492.253200
351.210548	2492.107007
351.600828	2490.947541
351.991045	2490.632469
352.381198	2486.763384
352.771288	2487.625421
353.161314	2488.192551
353.551276	2485.934114
353.941175	2487.511995
354.331010	2488.714310
354.720782	2488.507623
355.110490	2487.454022
355.500135	2486.249186
355.889717	2487.769094
356.279235	2488.348827
356.668689	2490.423261
357.058080	2489.843529
357.447408	2489.518374
357.836672	2487.731285
358.225873	2488.305977
358.615010	2488.696666
359.004084	2493.158087
359.393095	2493.054744
359.782043	2490.128354
360.170927	2489.132726
360.559748	2494.088180
360.948505	2494.151195
361.337199	2495.744199
361.725830	2497.881648
362.114398	2498.922647
362.502903	2497.082626
362.891344	2497.450630
363.279722	2498.524396
363.668037	2496.926350
364.056289	2502.489263
364.444478	2502.088491
364.832603	2503.439521
365.220665	2501.571773
365.608665	2501.483553
365.996601	2502.796773
366.384474	2504.349449
366.772284	2507.500170
367.160031	2507.812722
367.547715	2506.776764
367.935336	2509.451097
368.322893	2513.675583
368.710388	2516.349916
369.097820	2523.268899
369.485189	2528.552028
369.872495	2533.545291
370.259738	2536.454037
370.646918	2547.942827
371.034035	2555.958261
371.421090	2564.871021
371.808081	2577.269739
372.195010	2583.601428
372.581875	2594.381936
372.968678	2609.376848
373.355418	2621.818416
373.742096	2640.087557
374.128710	2655.836122
374.515262	2668.779284
374.901751	2685.851152
375.288177	2696.525795
375.674540	2720.332644
376.060841	2736.809656
376.447079	2758.912595
376.833254	2778.104267
377.219367	2789.240176
377.605417	2827.104283
377.991404	2838.920747
378.377329	2859.997812
378.763191	2876.812580
379.148991	2915.483271
379.534727	2940.862960
379.920402	2966.330870
380.306013	2981.204794
380.691563	3029.569624
381.077049	3052.857234
381.462474	3070.299627
381.847835	3108.118363
382.233134	3130.806076
382.618371	3130.995119
383.003545	3199.189327
383.388657	3206.259546
383.773706	3238.323805
384.158693	3254.571444
384.543618	3278.189249
384.928480	3321.144921
385.313280	3362.247969
385.698017	3360.879296
386.082692	3413.128335
386.467305	3421.572268
386.851856	3454.042340
387.236344	3473.070175
387.620770	3507.818848
388.005133	3532.185265
388.389435	3557.368349
388.773674	3570.729928
389.157851	3614.519911
389.541965	3627.316880
389.926018	3593.291612
390.310008	3663.555214
390.693936	3682.187319
391.077802	3725.790779
391.461606	3712.464489
391.845348	3775.912451
392.229027	3773.744755
392.612645	3788.714461
392.996200	3864.157849
393.379694	3909.384561
393.763125	3970.132985
394.146494	3939.530661
394.529801	4001.443592
394.913047	4050.728432
395.296230	4014.096888
395.679351	4067.775094
396.062410	4094.402469
396.445408	4076.448399
396.828343	4107.189355
397.211217	4132.190958
397.594028	4054.834452
397.976778	4119.411633
398.359466	4144.632526
398.742092	4173.863656
399.124656	4094.059670
399.507158	4176.341383
399.889598	4201.196792
400.271977	4266.625928
400.654294	4235.201896
401.036549	4240.898399
401.418742	4209.968400
401.800874	4317.634843
402.182944	4337.784335
402.564952	4402.900919
402.946898	4385.776120
403.328783	4383.840317
403.710606	4299.274961
404.092367	4491.758818
404.474067	4450.378506
404.855705	4463.666988
405.237282	4391.558323
405.618797	4503.968492
406.000250	4538.099624
406.381642	4612.975882
406.762972	4579.585800
407.144240	4590.618365
407.525447	4588.543930
407.906593	4644.702384
408.287677	4694.569478
408.668700	4619.055514
409.049661	4672.816899
409.430560	4711.797621
409.811399	4638.380777
410.192176	4799.617042
410.572891	4739.934822
410.953545	4841.395604
411.334138	4721.060742
411.714669	4790.532883
412.095139	4684.043549
412.475547	4827.688707
412.855894	4806.654493
413.236180	4816.101615
413.616405	4769.876755
413.996568	4858.459910
414.376670	4799.627124
414.756711	4756.943675
415.136691	4786.948622
415.516609	4864.405951
415.896466	4901.390376
416.276262	4933.510088
416.655997	4919.987193
417.035670	5099.532928
417.415283	5190.624058
417.794834	5133.268330
418.174324	5090.574798
418.553753	4992.899922
418.933121	5177.726266
419.312428	5247.006843
419.691674	5184.327657
420.070859	5312.635104
420.449983	5221.937185
420.829045	5339.078477
421.208047	5246.646400
421.586988	5317.797246
421.965867	5327.259492
422.344686	5460.368638
422.723444	5315.574097
423.102141	5139.902488
423.480777	5434.159679
423.859352	5203.443712
424.237866	5459.430984
424.616319	5455.425787
424.994712	5561.196756
425.373044	5436.672695
425.751314	5582.412452
426.129524	5385.308378
426.507673	5583.687864
426.885762	5662.501263
427.263789	5592.948464
427.641756	5474.158715
428.019662	5597.490543
428.397508	5605.634527
428.775292	5553.153595
429.153016	5646.704808
429.530679	5580.663172
429.908282	5660.285676
430.285824	5531.983270
430.663305	5806.756401
431.040726	5542.088263
431.418086	5542.695722
431.795385	5649.762268
432.172624	5660.484802
432.549802	5653.210417
432.926920	5669.510988
433.303977	5675.802348
433.680974	5714.664603
434.057910	5733.198405
434.434786	5739.356174
434.811601	5704.206729
435.188355	5941.705569
435.565050	5816.831147
435.941683	5798.904804
436.318257	6013.844481
436.694770	5996.626420
437.071222	6033.015989
437.447614	5963.606862
437.823946	5874.630497
438.200218	6027.100195
438.576429	5894.706892
438.952580	5991.181974
439.328670	6035.821391
439.704700	5947.971723
440.080670	5925.712509
440.456580	6195.482295
440.832429	6085.668320
441.208218	5933.995124
441.583947	6088.662766
441.959616	6095.705258
442.335224	6015.737434
442.710773	6152.768598
443.086261	6181.969482
443.461689	5975.718234
443.837057	6125.523682
444.212365	6282.502693
444.587612	6171.128481
444.962800	6327.552964
445.337927	6307.642927
445.712995	5916.910654
446.088002	6494.846175
446.462949	6323.020967
446.837837	6257.571666
447.212664	6428.348315
447.587431	6569.500622
447.962139	7112.518591
448.336786	8041.895632
448.711374	7781.971219
449.085901	6850.250042
449.460369	6776.263547
449.834776	6703.673453
450.209124	7104.341840
450.583412	7247.666885
450.957640	7396.136427
451.331808	7165.612023
451.705917	6717.345062
452.079965	6640.175079
452.453954	6851.197779
452.827883	6724.632050
453.201752	6818.815927
453.575562	6616.438806
453.949311	6824.116700
454.323001	6712.802982
454.696632	6786.000536
455.070202	6924.932215
455.443713	7078.021975
455.817164	7183.858480
456.190556	7264.728670
456.563888	7340.545103
456.937160	7380.937348
457.310373	7038.970677
457.683526	7059.596558
458.056619	6951.000022
458.429653	6936.998217
458.802628	6872.761314
459.175542	6981.962789
459.548398	7335.927406
459.921194	7498.965883
460.293930	7502.804722
460.666607	8032.642594
461.039224	8342.476951
461.411782	8471.807753
461.784280	8488.892223
462.156719	8376.388793
462.529099	8258.934949
462.901419	7844.511774
463.273680	7736.247954
463.645882	7752.021724
464.018024	7617.274202
464.390106	7784.758977
464.762130	8174.225920
465.134094	8644.343763
465.505999	9663.755812
465.877845	10886.250743
466.249631	11536.975484
466.621358	11152.191773
466.993026	10519.763900
467.364634	10264.671433
467.736184	9899.598633
468.107674	9570.733921
468.479105	9606.942008
468.850477	9365.821099
469.221790	9136.985482
469.593043	8807.785533
469.964238	8667.951487
470.335373	8682.046553
470.706449	8737.519410
471.077467	8725.697904
471.448425	10033.171566
471.819324	11111.010587
472.190164	11136.707869
472.560945	9885.611952
472.931667	9095.625335
473.302330	8962.995098
473.672934	8603.124769
474.043479	8960.378739
474.413965	8900.507476
474.784393	8780.938868
475.154761	8937.149102
475.525070	9025.724696
475.895321	8852.787913
476.265513	9028.018421
476.635645	9199.400008
477.005719	9199.833547
477.375734	9314.497112
477.745691	9546.485971
478.115588	9683.499491
478.485427	9924.862375
478.855207	10464.984201
479.224928	11277.071236
479.594591	11908.359809
479.964194	11718.762013
480.333739	11661.955771
480.703226	11573.249107
481.072653	11665.776965
481.442022	11900.382183
481.811333	12097.264446
482.180584	11902.418809
482.549777	11614.427772
482.918912	11437.291708
483.287988	11451.636312
483.657005	11470.001235
484.025964	11149.240178
484.394864	11281.459561
484.763706	11259.429718
485.132489	10998.726447
485.501213	10971.955400
485.869879	11052.329036
486.238487	10892.060673
486.607036	10996.306693
486.975527	10773.822930
487.343959	10968.666047
487.712333	11008.700370
488.080648	10939.719741
488.448905	10981.208438
488.817104	10921.558985
489.185244	11190.088647
489.553326	11346.165291
489.921350	11886.967673
490.289315	12945.622583
490.657222	13289.464563
491.025070	13195.295810
491.392861	13071.729567
491.760593	12689.962986
492.128267	12339.564985
492.495883	12012.467197
492.863440	11678.682319
493.230939	11335.352016
493.598380	11271.841039
493.965763	11134.225101
494.333088	11039.239680
494.700354	10960.822011
495.067563	11017.282934
495.434713	10853.049704
495.801805	10975.446399
496.168839	10891.622093
496.535815	10829.764614
496.902733	10833.873155
497.269593	10759.047308
497.636395	10852.880825
498.003139	10846.735659
498.369825	10709.515451
498.736453	10868.314318
499.103023	10793.465786
499.469535	10819.886473
499.835989	10801.345109
500.202385	10760.504202
500.568723	10612.959711
500.935003	10833.384163
501.301226	10634.883689
501.667390	10893.343647
502.033497	10982.680454
502.399546	10845.845895
502.765537	10745.284958
503.131470	10814.089146
503.497345	10981.064765
503.863163	10589.619168
504.228923	10896.771631
504.594625	10950.228027
504.960269	10699.780983
505.325856	10917.573953
505.691385	10701.878103
506.056856	10841.931439
506.422270	10861.329799
506.787625	10747.137582
507.152924	10857.551454
507.518164	10830.742598
507.883347	10741.703218
508.248472	10657.304221
508.613540	10874.910668
508.978550	10750.343756
509.343503	10717.866122
509.708398	10819.369755
510.073236	10927.152145
510.438016	10913.200752
510.802738	10855.358552
511.167403	10890.107226
511.532010	10781.213262
511.896561	10992.276291
512.261053	11049.626977
512.625488	10902.483258
512.989866	10875.263548
513.354186	10852.406957
513.718449	10735.426982
514.082655	10910.624722
514.446803	10793.715323
514.810894	10887.863912
515.174927	10743.482746
515.538904	10749.239743
515.902822	10879.425021
516.266684	10749.022974
516.630488	10672.256283
516.994235	10707.491428
517.357925	10744.289330
517.721558	10810.393981
518.085133	10799.875613
518.448651	10782.886925
518.812112	10655.476802
519.175516	10639.670264
519.538863	10724.832997
519.902152	10628.950251
520.265385	10740.725234
520.628560	10632.831939
520.991678	10580.164484
521.354739	10607.217837
521.717743	10522.443273
522.080690	10476.422579
522.443580	10549.867150
522.806413	10483.848199
523.169189	10480.450461
523.531908	10499.188430
523.894569	10296.758377
524.257174	10267.771742
524.619722	10335.933183
524.982213	10258.627089
525.344647	10257.891081
525.707025	10181.275625
526.069345	10221.100740
526.431608	10098.406617
526.793815	10166.048819
527.155964	9938.889386
527.518057	9944.689233
527.880093	9869.848263
528.242072	9875.307833
528.603995	9750.050283
528.965860	9648.932299
529.327669	9646.406681
529.689421	9561.614473
530.051117	9489.195778
530.412755	9526.921252
530.774337	9400.083301
531.135862	9333.736675
531.497331	9312.392430
531.858743	9141.066296
532.220098	9223.005211
532.581396	9079.165968
532.942638	9024.471969
533.303824	8947.186040
533.664953	8897.898678
534.026025	8791.333727
534.387040	8811.873909
534.747999	8764.260211
535.108902	8756.285105
535.469748	8532.266311
535.830537	8556.615084
536.191270	8489.905495
536.551947	8452.608518
536.912567	8403.328719
537.273131	8299.289386
537.633638	8232.393274
537.994089	8172.030498
538.354483	8079.905932
538.714821	8135.406515
539.075103	8080.631858
539.435328	8002.259560
539.795497	7851.755912
540.155609	7881.286991
540.515665	7888.027014
540.875665	7663.423445
541.235609	7654.424986
541.595496	7597.051614
541.955328	7631.495297
542.315102	7515.677308
542.674821	7432.331912
543.034483	7380.801237
543.394090	7325.366189
543.753640	7223.091260
544.113134	7296.067003
544.472571	7168.266191
544.831953	7191.296702
545.191278	7028.613627
545.550548	6996.922413
545.909761	7016.872779
546.268918	6946.596574
546.628019	6937.151972
546.987064	6809.628424
547.346053	6726.162040
547.704986	6709.080090
548.063863	6660.183418
548.422684	6608.761128
548.781449	6503.663153
549.140158	6501.631568
549.498811	6390.035545
549.857408	6281.295336
550.215949	6314.821530
550.574434	6199.258119
550.932864	6181.954359
551.291237	6172.174520
551.649555	6084.725624
552.007817	6046.634666
552.366022	5986.831458
552.724173	5931.482109
553.082267	5877.163677
553.440305	5861.021902
553.798288	5756.765799
554.156215	5749.735910
554.514086	5693.451427
554.871902	5592.245223
555.229661	5557.438576
555.587365	5506.477552
555.945014	5430.230100
556.302606	5407.612963
556.660143	5342.735834
557.017625	5326.208411
557.375050	5252.937760
557.732421	5253.081433
558.089735	5179.558725
558.446994	5137.908712
558.804197	5106.013332
559.161345	5054.212955
559.518437	4976.322087
559.875474	4948.164722
560.232455	4912.271707
560.589381	4866.354357
560.946251	4806.354544
561.303065	4816.210000
561.659825	4742.112600
562.016528	4684.696378
562.373177	4622.095330
562.729770	4602.817957
563.086307	4549.159916
563.442789	4539.153226
563.799216	4455.908652
564.155587	4435.865024
564.511904	4386.091192
564.868164	4351.975183
565.224370	4322.318075
565.580520	4260.901698
565.936615	4244.719594
566.292654	4171.297709
566.648638	4169.082122
567.004567	4121.362559
567.360441	4085.978701
567.716260	4036.925753
568.072023	4025.469731
568.427732	3979.098677
568.783385	3943.888738
569.138982	3915.149120
569.494525	3888.441087
569.850013	3839.221782
570.205445	3824.471365
570.560823	3785.989718
570.916145	3745.945312
571.271412	3728.089545
571.626625	3694.056715
571.981782	3664.308867
572.336884	3630.696973
572.691931	3616.342288
573.046923	3572.706060
573.401860	3544.493243
573.756743	3515.720857
574.111570	3497.020697
574.466342	3473.304588
574.821059	3455.237093
575.175722	3418.076228
575.530330	3395.859863
575.884882	3375.465875
576.239380	3349.511494
576.593823	3327.607681
576.948211	3308.226965
577.302544	3283.250568
577.656823	3260.908174
578.011047	3248.133890
578.365216	3227.901219
578.719330	3201.646890
579.073389	3182.767769
579.427394	3165.574914
579.781344	3151.593273
580.135239	3131.834471
580.489080	3119.823922
580.842866	3095.454984
581.196597	3083.593149
581.550273	3072.689133
581.903895	3055.637431
582.257463	3050.994528
582.610975	3028.195910
582.964434	3021.334899
583.317837	3001.676920
583.671186	2995.811537
584.024481	2979.014413
584.377721	2964.253914
584.730906	2951.842593
585.084037	2941.694751
585.437113	2932.045982
585.790135	2918.316400
586.143103	2904.165881
586.496016	2891.038716
586.848874	2883.108981
587.201679	2878.279556
587.554428	2864.691126
587.907124	2854.661750
588.259765	2845.748990
588.612352	2841.315295
588.964884	2829.874397
589.317362	2823.973726
589.669786	2815.653302
590.022155	2812.815132
590.374470	2804.409008
590.726731	2799.556897
591.078937	2785.958385
591.431090	2782.111985
591.783188	2775.003958
592.135232	2764.909047
592.487222	2762.673295
592.839157	2758.378232
593.191038	2749.435225
593.542866	2743.438773
593.894639	2735.781260
594.246358	2734.233626
594.598022	2729.164746
594.949633	2721.250134
595.301190	2718.066646
595.652692	2715.538507
596.004141	2712.932230
596.355535	2702.789429
596.706876	2697.556711
597.058162	2695.295754
597.409395	2690.728468
597.760573	2689.425330
598.111698	2683.149093
598.462768	2682.957530
598.813785	2677.203052
599.164748	2674.589214
599.515657	2673.638957
599.866511	2664.232164
600.217312	2669.810200
600.568060	2661.729231
600.918753	2668.557474
601.269392	2660.713438
601.619978	2655.228663
601.970510	2655.884013
602.320988	2654.502737
602.671412	2651.276398
603.021783	2649.726243
603.372100	2649.055770
603.722363	2645.290028
604.072572	2643.901190
604.422728	2644.957312
604.772830	2635.522792
605.122878	2634.489356
605.472872	2636.694861
605.822813	2631.933491
606.172701	2632.906434
606.522534	2636.173101
606.872314	2633.589510
607.222041	2634.302833
607.571714	2630.378295
607.921333	2632.959366
608.270899	2630.683285
608.620411	2629.667492
608.969870	2631.469705
609.319276	2629.347379
609.668627	2633.740745
610.017926	2636.417597
610.367171	2636.886425
610.716362	2631.867956
611.065500	2631.207565
611.414585	2628.238325
611.763616	2626.776391
612.112594	2624.354116
612.461518	2627.698922
612.810389	2625.165742
613.159207	2623.209774
613.507971	2621.324383
613.856682	2622.262037
614.205340	2621.578961
614.553945	2622.904784
614.902496	2620.830350
615.250994	2619.446553
615.599439	2621.400000
615.947830	2620.527880
616.296169	2616.615945
616.644454	2616.759618
616.992686	2616.434463
617.340864	2618.874382
617.688990	2616.684001
618.037063	2617.167951
618.385082	2614.909514
618.733048	2617.747684
619.080961	2616.331120
619.428821	2611.373145
619.776628	2615.489247
620.124382	2612.341047
620.472083	2613.593773
620.819731	2613.767693
621.167326	2610.564040
621.514868	2611.594956
621.862357	2608.945829
622.209793	2610.019595
622.557176	2607.950202
622.904506	2605.525407
623.251783	2603.123297
623.599007	2602.556167
623.946179	2601.177411
624.293297	2602.987186
624.640363	2602.470467
624.987376	2605.248143
625.334336	2602.334356
625.681243	2602.346959
626.028097	2599.014756
626.374899	2599.758327
626.721647	2600.277565
627.068343	2597.991402
627.414987	2600.055755
627.761577	2599.407966
628.108115	2596.897472
628.454600	2598.692122
628.801032	2596.347986
629.147412	2598.188007
629.493739	2597.588110
629.840014	2593.592995
630.186236	2595.493510
630.532405	2594.271031
630.878521	2597.394025
631.224585	2596.597523
631.570597	2589.189548
631.916556	2594.908737
632.262462	2593.482090
632.608316	2595.057451
632.954117	2591.387491
633.299866	2593.560228
633.645562	2592.703232
633.991206	2593.482090
634.336797	2589.754157
634.682336	2591.425299
635.027823	2589.287850
635.373257	2589.330700
635.718639	2587.725092
636.063968	2586.588312
636.409245	2584.135791
636.754470	2589.076122
637.099642	2585.895153
637.444762	2588.619897
637.789829	2584.057653
638.134845	2588.904722
638.479808	2584.428178
638.824719	2586.086717
639.169577	2584.937334
639.514383	2585.224680
639.859137	2584.806264
640.203839	2582.613362
640.548489	2584.168558
640.893086	2580.720409
641.237632	2579.064390
641.582125	2577.579770
641.926566	2578.020871
642.270955	2580.145717
642.615292	2582.416757
642.959576	2585.975812
643.303809	2584.624783
643.647990	2580.922055
643.992118	2582.600759
644.336195	2581.106057
644.680219	2581.587487
645.024192	2579.530697
645.368112	2583.896336
645.711981	2582.104206
646.055797	2585.353229
646.399562	2584.753332
646.743274	2584.024885
647.086935	2589.418920
647.430544	2587.805751
647.774101	2586.419433
648.117606	2585.353229
648.461059	2585.670822
648.804460	2588.491348
649.147810	2583.243507
649.491108	2585.010431
649.834354	2585.020513
650.177548	2584.097982
650.520690	2581.000193
650.863781	2579.752507
651.206820	2584.471027
651.549807	2581.012796
651.892742	2579.860892
652.235626	2578.832497
652.578458	2580.763259
652.921238	2581.169072
653.263967	2580.337281
653.606644	2580.758218
653.949269	2579.084555
654.291843	2577.567167
654.634365	2579.813001
654.976836	2580.886767
655.319255	2579.870975
655.661622	2578.366190
656.003938	2578.109091
656.346203	2576.816035
656.688416	2578.043556
657.030577	2576.558937
657.372687	2577.952816
657.714746	2574.413926
658.056753	2575.013823
658.398708	2571.018708
658.740612	2574.880232
659.082465	2570.799418
659.424266	2574.968453
659.766016	2573.360324
660.107715	2576.117836
660.449362	2578.361149
660.790958	2578.638412
661.132503	2577.451221
661.473996	2576.127918
661.815438	2574.857547
662.156829	2578.598083
662.498168	2577.438618
662.839456	2575.691858
663.180693	2574.819738
663.521879	2575.389389
663.863013	2575.943916
664.204097	2577.768813
664.545129	2577.252095
664.886110	2575.941395
665.227040	2577.829307
665.567918	2579.999524
665.908746	2577.211766
666.249522	2580.332240
666.590248	2578.227558
666.930922	2577.317630
667.271545	2576.480799
667.612118	2582.457087
667.952639	2576.997517
668.293109	2579.255954
668.633528	2577.010120
668.973896	2575.197825
669.314213	2574.628175
669.654480	2576.647157
669.994695	2577.078175
670.334859	2577.912486
670.674973	2576.279152
671.015035	2577.625141
671.355047	2578.817373
671.695008	2576.700089
672.034918	2575.301169
672.374777	2578.003227
672.714585	2578.474575
673.054342	2577.718402
673.394049	2574.587845
673.733705	2576.253947
674.073310	2576.637074
674.412864	2577.698237
674.752368	2575.979204
675.091820	2577.118505
675.431223	2576.193453
675.770574	2575.099522
676.109875	2570.108780
676.449125	2574.043401
676.788324	2572.581466
677.127473	2570.978379
677.466571	2571.366548
677.805619	2575.447362
678.144616	2574.063565
678.483562	2575.850654
678.822458	2573.839234
679.161303	2572.962073
679.500098	2573.998030
679.838842	2571.913513
680.177535	2576.090109
680.516179	2575.089440
680.854771	2574.706312
681.193314	2571.051476
681.531805	2576.778227
681.870247	2574.734039
682.208638	2579.061869
682.546978	2580.060018
682.885268	2578.835017
683.223508	2577.494071
683.561697	2576.722774
683.899836	2575.654049
684.237925	2576.511046
684.575963	2576.390058
684.913951	2575.268401
685.251889	2577.171437
685.589776	2574.436611
685.927614	2574.590366
686.265401	2574.386199
686.603137	2578.577919
686.940824	2576.783268
687.278460	2577.572208
687.616046	2576.385017
687.953582	2579.712178
688.291068	2577.128587
688.628504	2577.448700
688.965889	2577.980542
689.303224	2577.776375
689.640510	2576.669842
689.977745	2575.948957
690.314930	2576.168247
690.652065	2574.713874
690.989150	2575.147413
691.326185	2573.781261
691.663170	2574.335788
692.000105	2569.960066
692.336990	2570.320509
692.673825	2570.968297
693.010610	2571.031311
693.347345	2565.642318
693.684030	2564.326577
694.020665	2565.561659
694.357251	2562.690722
694.693786	2566.058213
695.030272	2566.769016
695.366707	2565.246587
695.703093	2565.599468
696.039429	2566.622822
696.375716	2565.728018
696.711952	2567.331104
697.048139	2564.412276
697.384276	2565.160888
697.720363	2567.162226
698.056400	2566.496793
698.392388	2563.779612
698.728326	2563.439334
699.064214	2562.363047
699.400053	2565.871690
699.735842	2564.014025
700.071581	2562.116031
700.407270	2564.503017
700.742910	2561.314487
701.078501	2562.945301
701.414042	2565.014694
701.749533	2561.967317
702.084974	2562.753737
702.420366	2562.103428
702.755709	2562.126113
703.091002	2561.506051
703.426246	2561.420352
703.761440	2563.746844
704.096584	2561.649724
704.431679	2558.604867
704.766725	2562.516802
705.101721	2560.949004
705.436668	2560.233160
705.771565	2562.620146
706.106413	2558.902295
706.441212	2559.580330
706.775961	2561.445557
707.110661	2559.660989
707.445311	2561.964796
707.779913	2561.140567
708.114465	2562.778942
708.448967	2563.388922
708.783421	2563.353634
709.117825	2564.034190
709.452180	2565.392781
709.786485	2566.343038
710.120742	2563.877914
710.454949	2563.504869
710.789107	2562.587379
711.123216	2562.224416
711.457275	2562.763819
711.791286	2565.385219
712.125247	2563.855229
712.459159	2567.368913
712.793023	2569.632391
713.126837	2565.339849
713.460602	2568.115004
713.794318	2566.206927
714.127985	2566.108625
714.461602	2562.733572
714.795171	2568.689695
715.128691	2560.525547
715.462162	2564.341700
715.795584	2560.974209
716.128957	2561.657286
716.462281	2561.924467
716.795556	2560.465053
717.128782	2562.978068
717.461960	2559.383725
717.795088	2560.959086
718.128167	2559.298026
718.461198	2558.194013
718.794180	2559.555125
719.127113	2557.175700
719.459997	2556.820299
719.792833	2557.742830
720.125619	2558.584703
720.458357	2557.717624
720.791046	2557.362223
721.123686	2555.736451
721.456278	2556.986657
721.788821	2557.858776
722.121315	2558.020093
722.453761	2556.164949
722.786158	2555.098745
723.118506	2558.569579
723.450805	2557.258879
723.783056	2557.793241
724.115259	2558.577141
724.447412	2556.837943
724.779518	2554.483724
725.111574	2556.318704
725.443582	2557.649568
725.775542	2555.839794
726.107453	2557.072356
726.439315	2558.582182
726.771129	2562.945301
727.102895	2559.224929
727.434612	2560.303736
727.766281	2561.576627
728.097901	2557.379867
728.429473	2558.370453
728.760996	2557.019424
729.092471	2553.699824
729.423897	2559.509754
729.755276	2561.783315
730.086606	2558.015052
730.417887	2559.968499
730.749120	2561.309446
731.080305	2562.294992
731.411442	2565.430589
731.742530	2560.419682
732.073570	2565.783470
732.404562	2559.514795
732.735506	2563.209961
733.066401	2561.984961
733.397249	2563.424210
733.728048	2560.069322
734.058798	2559.739127
734.389501	2556.117058
734.720156	2557.737789
735.050762	2558.458674
735.381320	2553.974567
735.711831	2558.166287
736.042293	2555.723848
736.372707	2554.327448
736.703073	2555.244938
737.033391	2555.935576
737.363661	2556.424568
737.693883	2554.690411
738.024056	2559.524878
738.354182	2559.439178
738.684260	2557.878941
739.014290	2559.930691
739.344272	2558.506565
739.674207	2558.372974
740.004093	2558.791390
740.333931	2558.554456
740.663722	2557.848694
740.993464	2560.523026
741.323159	2558.735937
741.652806	2557.652089
741.982405	2553.649413
742.311956	2557.296688
742.641460	2557.826009
742.970915	2556.762325
743.300323	2555.111348
743.629683	2553.001625
743.958996	2555.161759
744.288260	2554.423230
744.617477	2556.429609
744.946647	2549.099772
745.275768	2550.657488
745.604842	2548.499874
745.933869	2550.402910
746.262847	2550.544062
746.591778	2552.462221
746.920662	2551.514484
747.249498	2554.377860
747.578286	2552.464742
747.907027	2555.315514
748.235720	2555.000442
748.564365	2553.152859
748.892963	2554.645041
749.221514	2552.560524
749.550017	2554.214022
749.878473	2553.573796
750.206881	2554.909701
750.535242	2552.384083
750.863555	2552.205122
751.191821	2553.790565
751.520039	2552.192519
751.848210	2553.777962
752.176334	2552.303425
752.504411	2554.287119
752.832440	2550.123126
753.160421	2554.203940
753.488356	2548.860317
753.816243	2552.598332
754.144082	2552.449618
754.471875	2552.570606
754.799620	2550.654967
755.127318	2549.689587
755.454969	2551.879968
755.782572	2553.472972
756.110129	2552.124464
756.437638	2551.438867
756.765100	2551.350647
757.092515	2551.149001
757.419882	2550.934752
757.747203	2550.143290
758.074477	2550.554144
758.401703	2552.628579
758.728882	2552.991542
759.056014	2553.485575
759.383099	2553.591440
759.710138	2553.896429
760.037129	2550.380225
760.364073	2553.631769
760.690970	2552.212684
761.017820	2554.554300
761.344623	2552.280740
761.671379	2551.529608
761.998088	2551.950544
762.324751	2553.725030
762.651366	2559.166956
762.977935	2570.131465
763.304456	2572.359655
763.630931	2576.410222
763.957359	2573.992989
764.283740	2566.025446
764.610074	2562.973027
764.936362	2562.920095
765.262602	2558.299877
765.588796	2555.507078
765.914943	2556.767367
766.241044	2552.126984
766.567097	2552.058929
766.893104	2551.007848
767.219064	2551.801830
767.544978	2549.770245
767.870845	2550.723023
768.196665	2551.237221
768.522438	2549.634134
768.848165	2546.470810
769.173846	2550.266799
769.499479	2546.395192
769.825066	2547.668084
770.150607	2547.529452
770.476101	2546.763197
770.801548	2547.579864
771.126949	2542.939482
771.452303	2548.557847
771.777611	2546.576674
772.102872	2549.162786
772.428087	2545.034081
772.753256	2546.584236
773.078378	2543.269677
773.403453	2548.704041
773.728482	2545.550799
774.053465	2545.326468
774.378401	2545.573484
774.703291	2547.970553
775.028135	2544.938299
775.352932	2542.591642
775.677683	2544.960984
776.002388	2547.181612
776.327046	2542.498381
776.651658	2543.748587
776.976224	2544.953422
777.300743	2545.908721
777.625216	2542.949564
777.949643	2544.862682
778.274024	2546.344781
778.598359	2540.872608
778.922647	2537.888245
779.246889	2542.281611
779.571086	2538.049562
779.895236	2544.025850
780.219339	2543.655325
780.543397	2543.040305
780.867409	2544.774462
781.191374	2542.894111
781.515294	2541.633823
781.839167	2543.418391
782.162995	2544.592980
782.486776	2541.212886
782.810511	2545.273536
783.134201	2543.418391
783.457844	2544.736653
783.781441	2545.966694
784.104993	2540.786909
784.428498	2543.531817
784.751958	2544.192208
785.075372	2543.095757
785.398739	2542.765562
785.722061	2544.713968
786.045337	2543.854451
786.368568	2544.280428
786.691752	2540.307999
787.014891	2542.705068
787.337983	2544.555171
787.661030	2544.799667
787.984031	2546.818649
788.306987	2546.498536
788.629897	2547.879812
788.952760	2546.448125
789.275579	2546.049873
789.598351	2548.199926
789.921078	2544.088865
790.243759	2545.384441
790.566395	2543.761190
790.888984	2545.467620
791.211529	2541.593493
791.534027	2543.922507
791.856480	2542.510983
792.178888	2542.899152
792.501249	2542.344625
792.823566	2542.417722
793.145836	2541.701878
793.468062	2542.211035
793.790241	2543.700696
794.112375	2544.114070
794.434464	2542.498381
794.756507	2544.683721
795.078505	2543.564585
795.400457	2543.763710
795.722364	2538.760365
796.044226	2541.359080
796.366042	2541.664070
796.687812	2541.152392
797.009538	2545.717157
797.331218	2543.554502
797.652852	2545.155069
797.974442	2544.489636
798.295986	2546.120450
798.617484	2541.538041
798.938938	2544.025850
799.260346	2543.151210
799.581709	2543.730943
799.903026	2543.410829
800.224299	2544.444266
800.545526	2543.249513
800.866708	2541.580891
801.187845	2542.952084
801.508936	2542.420243
801.829983	2542.314378
802.150984	2540.398740
802.471940	2541.986703
802.792851	2541.669111
803.113717	2543.506611
803.434538	2543.753628
803.755314	2541.984183
804.076045	2538.984696
804.396731	2539.950077
804.717372	2541.417053
805.037967	2540.623071
805.358518	2540.328164
805.679024	2542.760521
805.999485	2543.811601
806.319901	2541.674152
806.640272	2541.296065
806.960598	2542.400078
807.280879	2541.152392
807.601115	2541.837989
807.921306	2541.895963
808.241453	2544.028371
808.561554	2542.543751
808.881611	2540.769265
809.201623	2542.785726
809.521590	2541.301107
809.841513	2542.319420
810.161390	2542.674821
810.481223	2540.688606
810.801011	2541.409491
811.120755	2542.591642
811.440453	2542.886549
811.760107	2542.397557
812.079716	2538.377237
812.399281	2540.348328
812.718801	2540.224820
813.038276	2537.976466
813.357707	2540.741538
813.677093	2541.525438
813.996434	2540.907897
814.315731	2539.387989
814.634983	2543.143648
814.954191	2540.333205
815.273354	2542.891591
815.592473	2538.931764
815.911547	2542.256405
816.230577	2542.231199
816.549562	2544.061138
816.868502	2543.708258
817.187399	2542.868905
817.506250	2544.827394
817.825058	2544.555171
818.143821	2542.160623
818.462539	2546.604400
818.781213	2545.510470
819.099843	2547.980635
819.418429	2545.139945
819.736970	2550.838970
820.055466	2551.577499
820.373919	2556.999260
820.692327	2559.696277
821.010691	2565.566701
821.329011	2584.007241
821.647286	2618.808847
821.965517	2653.996101
822.283704	2676.131807
822.601847	2683.801923
822.919945	2670.866322
823.237999	2644.795995
823.556010	2623.751698
823.873976	2608.726539
824.191897	2594.911257
824.509775	2585.149063
824.827609	2575.893504
825.145398	2571.414439
825.463144	2570.557443
825.780845	2572.014336
826.098502	2576.243864
826.416116	2584.597056
826.733685	2597.555342
827.051210	2604.045828
827.368692	2597.325970
827.686129	2586.933631
828.003522	2578.817373
828.320872	2561.957234
828.638177	2559.081256
828.955439	2553.785524
829.272656	2551.789227
829.589830	2547.322765
829.906960	2547.539534
830.224046	2545.550799
830.541088	2547.380738
830.858086	2545.139945
831.175041	2545.870913
831.491952	2545.523073
831.808819	2543.171375
832.125642	2546.604400
832.442421	2546.213711
832.759157	2552.908363
833.075849	2560.039075
833.392497	2565.654921
833.709101	2570.527196
834.025662	2570.847309
834.342179	2567.278172
834.658653	2562.988150
834.975083	2557.964641
835.291469	2559.781977
835.607811	2548.782179
835.924110	2546.133053
836.240366	2547.315203
836.556578	2542.689944
836.872746	2541.800181
837.188871	2543.486447
837.504952	2541.384286
837.820990	2540.262629
838.136984	2539.236754
838.452935	2539.579552
838.768842	2541.081816
839.084706	2540.461754
839.400526	2546.543907
839.716303	2547.000131
840.032037	2550.919628
840.347727	2551.809392
840.663373	2550.914587
840.978977	2544.083823
841.294537	2544.492157
841.610054	2541.686755
841.925527	2537.845396
842.240957	2538.543595
842.556344	2540.232382
842.871687	2537.303472
843.186987	2539.728267
843.502244	2536.842206
843.817458	2535.304654
844.132629	2536.665766
844.447756	2536.880015
844.762840	2533.845240
845.077881	2533.477236
845.392879	2534.404808
845.707833	2537.164840
846.022745	2533.210055
846.337613	2537.895807
846.652438	2536.527134
846.967221	2535.944881
847.281960	2535.385312
847.596656	2535.047555
847.911309	2535.135775
848.225919	2535.163502
848.540485	2535.768440
848.855009	2535.844057
849.169490	2534.540919
849.483928	2536.544778
849.798323	2534.835827
850.112675	2534.067051
850.426984	2538.173071
850.741251	2533.187369
851.055474	2535.481094
851.369654	2535.027391
851.683792	2535.607123
851.997887	2535.849099
852.311938	2534.248532
852.625947	2536.373379
852.939914	2536.098636
853.253837	2536.872453
853.567718	2533.595703
853.881555	2534.770292
854.195350	2535.750796
854.509103	2538.641898
854.822812	2534.835827
855.136479	2534.324150
855.450103	2534.122503
855.763685	2534.845909
856.077224	2534.281300
856.390720	2534.122503
856.704173	2533.436907
857.017584	2537.469830
857.330953	2532.221988
857.644278	2535.730632
857.957561	2540.123997
858.270802	2538.331867
858.584000	2533.744417
858.897155	2537.363965
859.210268	2534.795498
859.523339	2535.690302
859.836367	2535.783564
860.149352	2533.691485
860.462295	2535.140817
860.775195	2532.355579
861.088054	2531.115455
861.400869	2531.838861
861.713642	2530.946577
862.026373	2534.026722
862.339062	2536.262473
862.651708	2537.288348
862.964312	2535.062679
863.276873	2534.213244
863.589392	2534.296423
863.901869	2535.788605
864.214303	2537.832793
864.526696	2538.054603
864.839045	2533.111752
865.151353	2535.836496
865.463619	2535.559232
865.775842	2538.410005
866.088023	2534.518234
866.400162	2536.113759
866.712258	2538.011754
867.024313	2533.457071
867.336325	2536.567463
867.648296	2537.656352
867.960224	2539.813966
868.272110	2536.753986
868.583954	2537.779861
868.895755	2537.558050
869.207515	2538.394881
869.519233	2536.315405
869.830909	2536.448996
870.142542	2536.131403
870.454134	2536.096115
870.765684	2537.343801
871.077191	2536.582587
871.388657	2539.740869
871.700081	2536.632998
872.011463	2537.469830
872.322803	2537.172402
872.634101	2537.177443
872.945357	2537.190046
873.256571	2539.214069
873.567744	2537.474871
873.878874	2540.582742
874.189963	2537.731970
874.501010	2540.335726
874.812015	2536.663245
875.122979	2538.604089
875.433900	2537.608461
875.744780	2539.508976
876.055618	2539.357742
876.366415	2538.657021
876.677169	2542.848741
876.987882	2538.034439
877.298554	2532.784077
877.609183	2537.593338
877.919771	2534.886238
878.230317	2537.459747
878.540822	2541.109543
878.851285	2545.318906
879.161707	2545.749925
879.472087	2548.182282
879.782425	2549.848383
880.092722	2559.015721
880.402977	2567.590724
880.713191	2587.432705
881.023363	2607.748555
881.333494	2621.513426
881.643583	2622.234311
881.953631	2621.692387
882.263637	2616.046295
882.573602	2608.103957
882.883526	2599.982658
883.193408	2589.348344
883.503248	2581.068249
883.813048	2574.761765
884.122806	2568.735066
884.432522	2566.292627
884.742197	2558.115875
885.051831	2557.657130
885.361424	2552.227808
885.670975	2549.435008
885.980485	2547.095913
886.289954	2546.906870
886.599382	2546.732950
886.908768	2543.970398
887.218113	2543.055428
887.527417	2542.846220
887.836680	2540.756662
888.145901	2542.064841
888.455082	2539.982845
888.764221	2541.795140
889.073319	2540.174409
889.382376	2539.461085
889.691392	2538.057124
890.000366	2540.812115
890.309300	2540.963349
890.618193	2540.670962
890.927044	2539.072917
891.235855	2540.197094
891.544625	2540.297917
891.853353	2540.134079
892.162041	2542.616848
892.470687	2542.193391
892.779293	2543.362938
893.087858	2539.982845
893.396381	2543.191539
893.704864	2545.772610
894.013306	2550.783517
894.321707	2563.255332
894.630068	2563.958572
894.938387	2567.598286
895.246665	2565.196176
895.554903	2564.666855
895.863100	2556.999260
896.171256	2554.743343
896.479371	2554.511450
896.787446	2549.868548
897.095480	2547.567261
897.403473	2546.632127
897.711425	2543.756148
898.019336	2545.177754
898.327207	2543.504091
898.635038	2543.108360
898.942827	2542.667259
899.250576	2541.749769
899.558284	2540.935623
899.865952	2540.537372
900.173579	2539.314892
900.481165	2539.017464
900.788711	2537.885725
901.096216	2538.694830
901.403681	2538.687268
901.711105	2538.389840
902.018489	2538.175591
902.325832	2540.839841
902.633135	2540.497042
902.940397	2539.216589
903.247619	2540.229861
903.554800	2546.813608
903.861941	2560.197872
904.169041	2570.701116
904.476101	2575.412074
904.783121	2577.844431
905.090100	2572.594069
905.397039	2566.464026
905.703938	2557.377346
906.010796	2551.333003
906.317614	2548.252858
906.624391	2543.778834
906.931129	2544.547610
907.237826	2544.066179
907.544483	2540.388658
907.851099	2536.859850
908.157675	2537.563091
908.464211	2535.841537
908.770707	2533.210055
909.077163	2533.089067
909.383578	2532.504293
909.689954	2532.970600
909.996289	2530.865918
910.302584	2534.435055
910.608839	2535.619726
910.915054	2535.506300
911.221229	2532.116124
911.527363	2533.726773
911.833458	2534.608975
912.139513	2537.207690
912.445527	2538.997299
912.751502	2535.597041
913.057436	2535.375230
913.363331	2539.413194
913.669186	2538.901517
913.975000	2538.596527
914.280775	2541.661549
914.586510	2546.861499
914.892205	2546.755635
915.197859	2555.577654
915.503475	2560.512944
915.809050	2565.576783
916.114585	2573.579615
916.420081	2574.025757
916.725536	2574.678586
917.030952	2570.156671
917.336328	2562.577296
917.641665	2560.631411
917.946961	2556.197716
918.252218	2551.769063
918.557435	2551.443908
918.862612	2548.242775
919.167750	2545.603731
919.472848	2546.407795
919.777906	2542.019471
920.082925	2541.938812
920.387904	2537.668955
920.692843	2541.497712
920.997743	2539.420756
921.302603	2538.730118
921.607423	2536.131403
921.912204	2537.865560
922.216946	2536.789274
922.521647	2536.685930
922.826310	2535.478574
923.130932	2537.976466
923.435516	2533.066382
923.740059	2534.818183
924.044564	2535.050076
924.349028	2534.392205
924.653454	2529.519930
924.957840	2529.651000
925.262186	2531.039838
925.566493	2531.344828
925.870761	2530.462626
926.174989	2531.269210
926.479178	2531.962369
926.783328	2532.705939
927.087438	2531.014632
927.391509	2530.485311
927.695541	2530.475229
927.999533	2532.214427
928.303486	2531.246525
928.607400	2530.374406
928.911275	2532.146371
929.215110	2533.144520
929.518906	2532.632843
929.822663	2534.603934
930.126381	2534.329191
930.430060	2531.012112
930.733699	2532.496731
931.037299	2529.298119
931.340861	2530.407173
931.644383	2532.781557
931.947866	2532.529499
932.251309	2532.499252
932.554714	2531.682585
932.858080	2536.726259
933.161407	2531.438089
933.464694	2533.714170
933.767943	2528.816689
934.071153	2533.436907
934.374323	2529.789632
934.677455	2530.276103
934.980548	2531.092770
935.283602	2532.630322
935.586617	2530.828109
935.889593	2530.369364
936.192530	2533.774664
936.495428	2532.829448
936.798287	2530.392050
937.101108	2528.030269
937.403890	2531.062523
937.706632	2531.818696
938.009336	2529.988757
938.312002	2533.499921
938.614628	2533.986392
938.917216	2533.492359
939.219765	2532.872297
939.522275	2534.029242
939.824747	2536.564943
940.127179	2529.696370
940.429573	2529.998840
940.731929	2531.392719
941.034246	2531.428007
941.336524	2529.693850
941.638763	2530.119827
941.940964	2533.610826
942.243126	2533.560415
942.545250	2534.724921
942.847335	2531.455733
943.149381	2528.607481
943.451389	2527.153108
943.753359	2532.315250
944.055290	2531.533871
944.357182	2533.104190
944.659036	2530.691998
944.960851	2530.530681
945.262628	2532.151412
945.564367	2528.940197
945.866067	2531.594365
946.167729	2533.797349
946.469352	2529.920702
946.770937	2530.074457
947.072484	2531.216278
947.373992	2531.511186
947.675462	2532.335414
947.976893	2534.185518
948.278286	2533.383974
948.579641	2532.267359
948.880958	2534.228368
949.182236	2532.184180
949.483476	2532.844571
949.784678	2533.237781
950.085841	2531.652338
950.386967	2532.426155
950.688054	2531.191073
950.989103	2531.720394
951.290114	2531.491021
951.591087	2529.076308
951.892021	2529.116638
952.192917	2531.160826
952.493776	2532.383305
952.794596	2530.676875
953.095378	2531.705270
953.396122	2533.197452
953.696828	2533.013450
953.997496	2530.102183
954.298126	2532.461443
954.598718	2531.027235
954.899272	2530.465146
955.199788	2533.696526
955.500266	2531.649818
955.800706	2528.673016
956.101108	2527.112779
956.401472	2529.628315
956.701798	2524.365350
957.002087	2528.799045
957.302337	2531.178470
957.602550	2530.747451
957.902724	2530.203006
958.202861	2527.011956
958.502960	2527.616894
958.803022	2532.426155
959.103045	2528.491535
959.403031	2528.781401
959.702979	2529.731658
960.002889	2529.587986
960.302762	2526.351565
960.602596	2529.590506
960.902393	2528.844415
961.202153	2529.938346
961.501875	2527.619415
961.801559	2529.378778
962.101205	2525.832326
962.400814	2528.110928
962.700385	2528.299971
962.999918	2529.807276
963.299414	2527.843746
963.598873	2527.722759
963.898293	2530.318953
964.197677	2528.662934
964.497022	2529.466998
964.796331	2528.257121
965.095601	2528.370547
965.394835	2528.874662
965.694030	2529.628315
965.993189	2528.355423
966.292309	2526.608664
966.591393	2528.539426
966.890439	2527.548839
967.189447	2528.688140
967.488419	2527.369878
967.787353	2528.912471
968.086249	2524.756040
968.385108	2526.520443
968.683930	2527.853829
968.982714	2528.181504
969.281462	2526.500279
969.580172	2527.233767
969.878844	2527.332069
970.177480	2527.112779
970.476078	2527.763088
970.774639	2528.897348
971.073162	2530.185362
971.371649	2523.636903
971.670098	2524.317459
971.968510	2527.516071
972.266885	2524.630011
972.565223	2527.674868
972.863524	2529.083870
973.161788	2529.610671
973.460014	2530.235774
973.758204	2528.604961
974.056356	2527.427851
974.354471	2526.422141
974.652550	2530.467667
974.950591	2529.547656
975.248595	2529.681247
975.546563	2529.643438
975.844493	2526.999353
976.142386	2529.318284
976.440243	2527.495907
976.738062	2529.628315
977.035845	2527.261493
977.333590	2530.742410
977.631299	2530.707122
977.928971	2525.731503
978.226606	2527.934487
978.524204	2531.357431
978.821765	2527.735362
979.119290	2528.047913
979.416777	2528.007584
979.714228	2526.459950
980.011642	2521.610360
980.309020	2529.797193
980.606360	2528.935156
980.903664	2527.652182
981.200931	2525.585309
981.498162	2530.238294
981.795356	2527.289219
982.092513	2530.535722
982.389633	2527.611853
982.686717	2527.226205
982.983764	2526.706966
983.280775	2531.276772
983.577749	2528.289888
983.874686	2531.390198
984.171587	2529.509848
984.468451	2528.786442
984.765279	2527.856349
985.062070	2528.673016
985.358824	2530.702081
985.655543	2527.899199
985.952224	2527.037162
986.248869	2527.579086
986.545478	2522.200175
986.842050	2525.965917
987.138586	2524.246883
987.435086	2523.861235
987.731549	2523.634383
988.027975	2526.608664
988.324366	2524.599764
988.620719	2529.126720
988.917037	2529.121679
989.213318	2527.753006
989.509563	2526.674199
989.805772	2528.985568
990.101944	2526.671678
990.398080	2527.276617
990.694180	2526.220495
990.990244	2525.660927
991.286271	2526.540608
991.582262	2526.782583
991.878217	2523.641945
992.174136	2525.943231
992.470019	2525.580268
992.765865	2528.736031
993.061676	2527.909281
993.357450	2526.674199
993.653188	2524.352747
993.948890	2526.648993
994.244556	2528.126051
994.540186	2527.395084
994.835780	2525.529857
995.131337	2526.618746
995.426859	2525.918026
995.722345	2526.719569
996.017795	2527.359796
996.313208	2526.883407
996.608586	2527.480783
996.903928	2525.555063
997.199234	2529.567821
997.494504	2527.410207
997.789738	2528.788963
998.084936	2528.796524
998.380099	2527.727800
998.675225	2525.832326
998.970316	2528.998171
999.265371	2527.576565
999.560390	2526.510361
999.855373	2528.778880
1000.150320	2527.324508
1000.445232	2525.250073
1000.740108	2524.181348
1001.034948	2528.625125
1001.329752	2527.695032
1001.624521	2526.172604
1001.919254	2523.561286
1002.213951	2526.278468
1002.508613	2524.014990
1002.803239	2525.786956
1003.097829	2520.496265
1003.392384	2523.818385
1003.686903	2525.892820
1003.981386	2528.052954
1004.275834	2525.267717
1004.570246	2527.725279
1004.864623	2525.678571
1005.158964	2527.702594
1005.453270	2525.134126
1005.747540	2527.130423
1006.041775	2527.727800
1006.335974	2526.044054
1006.630138	2526.712007
1006.924266	2526.601102
1007.218359	2527.937008
1007.512416	2528.965403
1007.806438	2526.137316
1008.100425	2525.103879
1008.394376	2529.376257
1008.688292	2526.132275
1008.982172	2527.024559
1009.276017	2525.696215
1009.569827	2527.881555
1009.863602	2526.974147
1010.157341	2524.630011
1010.451045	2525.436595
1010.744714	2523.876358
1011.038347	2527.803417
1011.331945	2526.747295
1011.625508	2526.535567
1011.919036	2522.578261
1012.212528	2525.708818
1012.505986	2525.849970
1012.799408	2524.854342
1013.092795	2524.947603
1013.386147	2525.832326
1013.679464	2525.736544
1013.972745	2524.297295
1014.265992	2524.559435
1014.559204	2524.856863
1014.852380	2523.634383
1015.145521	2524.302336
1015.438628	2526.787625
1015.731699	2526.066740
1016.024736	2528.113448
1016.317737	2526.217974
1016.610703	2525.847449
1016.903635	2522.174969
1017.196531	2522.192613
1017.489393	2523.523478
1017.782219	2520.370236
1018.075011	2526.170083
1018.367768	2526.487676
1018.660490	2523.213447
1018.953177	2523.213447
1019.245829	2523.213447
