Dividing Wavelength (nm)	Counts (n)	Blue Motor Position (mm): 0.000000	Red Motor Position (mm): 30.900000	
326.493990	2128.843981
326.888308	2128.843981
327.282561	2128.843981
327.676750	2094.077664
328.070874	2093.634042
328.464933	2095.698395
328.858929	2103.996134
329.252859	2113.357557
329.646726	2124.392642
330.040528	2135.798253
330.434265	2155.839360
330.827938	2170.395692
331.221547	2189.063084
331.615091	2209.232741
332.008571	2228.739486
332.401986	2245.776065
332.795338	2267.206010
333.188625	2284.045985
333.581847	2304.515590
333.975006	2322.207519
334.368100	2343.082937
334.761129	2358.350072
335.154095	2375.545448
335.546996	2394.144785
335.939833	2411.798905
336.332606	2426.264496
336.725315	2437.528955
337.117960	2449.915070
337.510540	2456.108127
337.903056	2469.547843
338.295508	2475.947588
338.687896	2486.067704
339.080220	2493.435351
339.472480	2500.394664
339.864676	2503.663852
340.256807	2505.975221
340.648875	2510.330778
341.040879	2514.598115
341.432818	2518.494927
341.824694	2515.752539
342.216506	2517.093486
342.608253	2518.774711
342.999937	2518.555420
343.391557	2518.933507
343.783113	2515.382014
344.174605	2517.632889
344.566033	2514.978722
344.957397	2514.315810
345.348697	2510.277846
345.739934	2507.868174
346.131106	2511.104595
346.522215	2507.961436
346.913260	2502.539675
347.304241	2503.290807
347.695159	2499.204951
348.086012	2499.305774
348.476802	2496.376864
348.867528	2495.020794
349.258191	2493.727738
349.648789	2491.161790
350.039324	2492.263283
350.429796	2493.483242
350.820203	2489.835967
351.210548	2490.418220
351.600828	2487.481748
351.991045	2488.454691
352.381198	2489.417551
352.771288	2484.754484
353.161314	2485.593836
353.551276	2485.583754
353.941175	2488.278250
354.331010	2485.004021
354.720782	2486.634834
355.110490	2485.205667
355.500135	2485.858497
355.889717	2485.561068
356.279235	2485.213229
356.668689	2484.666264
357.058080	2488.991574
357.447408	2487.199443
357.836672	2485.896305
358.225873	2484.993939
358.615010	2483.146356
359.004084	2489.747747
359.393095	2490.728251
359.782043	2491.665906
360.170927	2488.789928
360.559748	2494.383088
360.948505	2493.831081
361.337199	2494.373005
361.725830	2495.106493
362.114398	2495.565238
362.502903	2495.542553
362.891344	2497.488438
363.279722	2497.496000
363.668037	2497.259066
364.056289	2498.045486
364.444478	2498.446258
364.832603	2497.717811
365.220665	2500.374499
365.608665	2500.319046
365.996601	2499.988851
366.384474	2502.544716
366.772284	2504.450272
367.160031	2504.097391
367.547715	2508.024450
367.935336	2509.902280
368.322893	2510.681138
368.710388	2514.683814
369.097820	2523.621780
369.485189	2524.415762
369.872495	2530.702081
370.259738	2537.452186
370.646918	2545.828063
371.034035	2552.174875
371.421090	2561.201061
371.808081	2573.690520
372.195010	2581.295101
372.581875	2595.122986
372.968678	2608.557661
373.355418	2617.432612
373.742096	2638.106384
374.128710	2652.803868
374.515262	2665.235353
374.901751	2679.370749
375.288177	2696.934129
375.674540	2717.771738
376.060841	2735.950139
376.447079	2753.682397
376.833254	2773.657970
377.219367	2788.544497
377.605417	2824.666885
377.991404	2837.491580
378.377329	2855.438088
378.763191	2872.779657
379.148991	2910.658887
379.534727	2936.101591
379.920402	2964.722742
380.306013	2978.464927
380.691563	3026.363450
381.077049	3048.042932
381.462474	3067.887434
381.847835	3105.227261
382.233134	3128.199799
382.618371	3127.703245
383.003545	3194.148174
383.388657	3202.617312
383.773706	3233.895151
384.158693	3252.933069
384.543618	3276.722274
384.928480	3312.078406
385.313280	3357.408462
385.698017	3358.386445
386.082692	3411.651277
386.467305	3413.266967
386.851856	3450.168213
387.236344	3469.800987
387.620770	3500.622601
388.005133	3526.695449
388.389435	3555.840880
388.773674	3566.628949
389.157851	3607.086729
389.541965	3625.920480
389.926018	3590.342537
390.310008	3660.039009
390.693936	3679.797812
391.077802	3720.404306
391.461606	3708.655897
391.845348	3773.878345
392.229027	3769.492542
392.612645	3780.835138
392.996200	3861.055019
393.379694	3901.540525
393.763125	3967.773725
394.146494	3934.779373
394.529801	3994.580061
394.913047	4044.202659
395.296230	4008.934746
395.679351	4065.277202
396.062410	4089.094134
396.445408	4067.225608
396.828343	4102.775825
397.211217	4128.299187
397.594028	4046.055283
397.976778	4111.426445
398.359466	4139.598933
398.742092	4168.792255
399.124656	4091.730657
399.507158	4171.963141
399.889598	4201.085887
400.271977	4259.616204
400.654294	4229.873396
401.036549	4238.461002
401.418742	4210.457392
401.800874	4310.584790
402.182944	4329.027851
402.564952	4393.000093
402.946898	4380.046848
403.328783	4377.662383
403.710606	4291.519146
404.092367	4481.535358
404.474067	4450.723825
404.855705	4457.448725
405.237282	4382.212024
405.618797	4493.109847
406.000250	4530.991598
406.381642	4609.661324
406.762972	4568.820416
407.144240	4582.660904
407.525447	4584.117797
407.906593	4644.107528
408.287677	4682.924413
408.668700	4611.274493
409.049661	4667.455632
409.430560	4708.145305
409.811399	4628.427019
410.192176	4793.282832
410.572891	4728.488882
410.953545	4834.564841
411.334138	4716.876584
411.714669	4784.763282
412.095139	4674.906457
412.475547	4817.402233
412.855894	4797.661074
413.236180	4810.389988
413.616405	4763.782000
413.996568	4853.668293
414.376670	4795.092606
414.756711	4744.262652
415.136691	4780.972334
415.516609	4854.437069
415.896466	4892.812853
416.276262	4927.004479
416.655997	4913.325308
417.035670	5087.426597
417.415283	5183.821021
417.794834	5124.675683
418.174324	5076.540226
418.553753	4990.061752
418.933121	5172.357437
419.312428	5243.047017
419.691674	5177.943035
420.070859	5302.477179
420.449983	5214.246905
420.829045	5331.574719
421.208047	5240.917129
421.586988	5312.839271
421.965867	5322.684644
422.344686	5459.186488
422.723444	5310.006143
423.102141	5128.461590
423.480777	5423.754738
423.859352	5192.574984
424.237866	5452.050734
424.616319	5447.022183
424.994712	5553.821548
425.373044	5431.560965
425.751314	5575.737965
426.129524	5376.914857
426.507673	5568.072890
426.885762	5655.703267
427.263789	5584.375982
427.641756	5465.319051
428.019662	5587.370427
428.397508	5596.842755
428.775292	5542.703283
429.153016	5644.476618
429.530679	5570.472479
429.908282	5650.470550
430.285824	5522.798287
430.663305	5799.431605
431.040726	5534.103075
431.418086	5533.374628
431.795385	5639.017048
432.172624	5648.842257
432.549802	5643.266741
432.926920	5657.482795
433.303977	5666.874464
433.680974	5706.961720
434.057910	5719.294903
434.434786	5730.640019
434.811601	5693.259864
435.188355	5929.458086
435.565050	5804.916380
435.941683	5788.741838
436.318257	6003.328634
436.694770	5981.031610
437.071222	6024.655235
437.447614	5948.385098
437.823946	5865.891657
438.200218	6017.315315
438.576429	5882.124172
438.952580	5982.211240
439.328670	6027.543816
439.704700	5936.114930
440.080670	5916.645993
440.456580	6194.340474
440.832429	6073.153656
441.208218	5918.798566
441.583947	6076.763122
441.959616	6079.248411
442.335224	6007.696794
442.710773	6141.083204
443.086261	6169.253172
443.461689	5964.287418
443.837057	6112.580520
444.212365	6268.858810
444.587612	6159.269166
444.962800	6311.164173
445.337927	6295.067769
445.712995	5905.409262
446.088002	6478.265820
446.462949	6312.381612
446.837837	6242.607001
447.212664	6419.138127
447.587431	6558.510907
447.962139	7098.746159
448.336786	8024.796038
448.711374	7767.157788
449.085901	6840.079514
449.460369	6761.729901
449.834776	6693.964190
450.209124	7087.146464
450.583412	7235.938640
450.957640	7383.047071
451.331808	7144.792058
451.705917	6699.789243
452.079965	6626.863912
452.453954	6836.628844
452.827883	6708.097065
453.201752	6810.293856
453.575562	6604.476148
453.949311	6806.013917
454.323001	6698.889398
454.696632	6769.894049
455.070202	6909.541573
455.443713	7061.164357
455.817164	7163.071282
456.190556	7246.880465
456.563888	7320.753533
456.937160	7365.271963
457.310373	7019.872266
457.683526	7045.879578
458.056619	6935.813546
458.429653	6924.962462
458.802628	6857.897472
459.175542	6968.137424
459.548398	7325.401477
459.921194	7481.175651
460.293930	7482.045250
460.666607	8017.453598
461.039224	8324.633787
461.411782	8444.328423
461.784280	8469.292217
462.156719	8356.637552
462.529099	8231.090136
462.901419	7823.147364
463.273680	7717.157104
463.645882	7728.313178
464.018024	7592.862415
464.390106	7764.884228
464.762130	8147.754822
465.134094	8609.393444
465.505999	9633.266913
465.877845	10854.345280
466.249631	11494.085348
466.621358	11110.975299
466.993026	10485.310134
467.364634	10221.982942
467.736184	9858.752684
468.107674	9528.426037
468.479105	9558.408299
468.850477	9321.040529
469.221790	9091.925128
469.593043	8756.537163
469.964238	8619.158159
470.335373	8633.341445
470.706449	8685.088889
471.077467	8661.760950
471.448425	9958.350760
471.819324	11013.033242
472.190164	11036.184741
472.560945	9792.302714
472.931667	9005.847426
473.302330	8864.523719
473.672934	8505.686827
474.043479	8847.497222
474.413965	8789.728120
474.784393	8668.541302
475.154761	8803.505593
475.525070	8882.918890
475.895321	8705.815593
476.265513	8871.566211
476.635645	9032.177373
477.005719	9014.175412
477.375734	9113.718036
477.745691	9327.309204
478.115588	9446.948388
478.485427	9665.701697
478.855207	10170.895889
479.224928	10919.255177
479.594591	11511.401711
479.964194	11311.325877
480.333739	11245.044786
480.703226	11142.359002
481.072653	11199.417302
481.442022	11385.735828
481.811333	11543.211392
482.180584	11328.367497
482.549777	11032.066118
482.918912	10846.113076
483.287988	10828.038019
483.657005	10813.446399
484.025964	10485.771399
484.394864	10583.025339
484.763706	10513.527992
485.132489	10266.957596
485.501213	10203.139109
485.869879	10234.043903
486.238487	10049.106653
486.607036	10122.951995
486.975527	9875.040652
487.343959	10016.603814
487.712333	10007.701136
488.080648	9909.486856
488.448905	9892.709896
488.817104	9802.090115
489.185244	9986.157765
489.553326	10063.743643
489.921350	10455.176637
490.289315	11252.730025
490.657222	11487.209214
491.025070	11344.705877
491.392861	11182.821824
491.760593	10836.111427
492.128267	10500.632721
492.495883	10179.997692
492.863440	9842.202576
493.230939	9516.970015
493.598380	9395.954596
493.965763	9234.171366
494.333088	9101.941901
494.700354	8967.766550
495.067563	8961.959141
495.434713	8760.398687
495.801805	8796.889079
496.168839	8665.173811
496.535815	8552.672901
496.902733	8493.777101
497.269593	8372.701188
497.636395	8385.326758
498.003139	8293.872666
498.369825	8148.594174
498.736453	8174.775406
499.103023	8058.811224
499.469535	8002.188984
499.835989	7931.295237
500.202385	7836.279569
500.568723	7661.563259
500.935003	7739.103767
501.301226	7517.371136
501.667390	7626.315512
502.033497	7604.411698
502.399546	7452.574665
502.765537	7324.128586
503.131470	7292.386960
503.497345	7311.689538
503.863163	7027.945674
504.228923	7120.788604
504.594625	7081.137408
504.960269	6878.520832
505.325856	6910.620380
505.691385	6729.834520
506.056856	6735.563792
506.422270	6675.896695
506.787625	6559.607358
507.152924	6533.136259
507.518164	6458.837213
507.883347	6346.553073
508.248472	6238.382514
508.613540	6267.903511
508.978550	6143.303832
509.343503	6064.699641
509.708398	6041.343975
510.073236	6014.381364
510.438016	5943.780004
510.802738	5851.166446
511.167403	5803.812367
511.532010	5687.107135
511.896561	5715.181321
512.261053	5671.436709
512.625488	5549.055137
512.989866	5468.310976
513.354186	5399.325306
513.718449	5295.530469
514.082655	5303.586233
514.446803	5201.722158
514.810894	5182.046534
515.174927	5067.735850
515.538904	5025.110374
515.902822	4992.441177
516.266684	4906.144184
516.630488	4824.606042
516.994235	4788.536586
517.357925	4733.930807
517.721558	4703.124316
518.085133	4647.278414
518.448651	4599.455508
518.812112	4515.976521
519.175516	4459.324034
519.538863	4428.212553
519.902152	4364.172255
520.265385	4340.125951
520.628560	4272.992905
520.991678	4210.568297
521.354739	4178.148637
521.717743	4120.039257
522.080690	4070.767019
522.443580	4039.542112
522.806413	3987.177126
523.169189	3950.142290
523.531908	3910.382709
523.894569	3843.605065
524.257174	3801.632418
524.619722	3777.369344
524.982213	3736.231008
525.344647	3698.903785
525.707025	3657.160510
526.069345	3630.664206
526.431608	3582.609407
526.793815	3557.834656
527.155964	3502.684433
527.518057	3475.971359
527.880093	3436.816717
528.242072	3412.709919
528.603995	3370.013867
528.965860	3335.066068
529.327669	3311.513797
529.689421	3280.077162
530.051117	3249.547934
530.412755	3227.331569
530.774337	3199.607743
531.135862	3169.272600
531.497331	3150.383397
531.858743	3113.451903
532.220098	3103.755244
532.581396	3073.760379
532.942638	3054.402348
533.303824	3036.347455
533.664953	3017.077645
534.026025	2994.072339
534.387040	2981.686224
534.747999	2964.964717
535.108902	2950.748663
535.469748	2927.375353
535.830537	2915.541245
536.191270	2899.807803
536.551947	2889.995198
536.912567	2877.001623
537.273131	2862.483100
537.633638	2846.706809
537.994089	2836.132989
538.354483	2823.993891
538.714821	2817.503405
539.075103	2808.063845
539.435328	2798.223512
539.795497	2786.218004
540.155609	2780.334978
540.515665	2773.378186
540.875665	2757.559045
541.235609	2753.470669
541.595496	2748.749628
541.955328	2744.764596
542.315102	2734.493245
542.674821	2726.192986
543.034483	2721.240052
543.394090	2714.351315
543.753640	2711.944164
544.113134	2706.222455
544.472571	2701.967721
544.831953	2700.294058
545.191278	2692.344158
545.550548	2687.746626
545.909761	2688.210412
546.268918	2684.106913
546.628019	2684.666481
546.987064	2678.460820
547.346053	2674.110305
547.704986	2670.929337
548.063863	2670.357166
548.422684	2665.658810
548.781449	2663.075219
549.140158	2660.761329
549.498811	2662.457677
549.857408	2652.362767
550.215949	2650.363949
550.574434	2647.263640
550.932864	2651.125164
551.291237	2645.842034
551.649555	2651.644402
552.007817	2649.005358
552.366022	2647.757673
552.724173	2646.610810
553.082267	2642.023360
553.440305	2642.487147
553.798288	2641.499080
554.156215	2640.294245
554.514086	2640.304327
554.871902	2637.430869
555.229661	2637.168729
555.587365	2639.376755
555.945014	2632.518265
556.302606	2632.684623
556.660143	2634.728811
557.017625	2630.753861
557.375050	2631.386526
557.732421	2631.830147
558.089735	2631.142030
558.446994	2628.059364
558.804197	2630.088429
559.161345	2629.334776
559.518437	2626.718417
559.875474	2627.416617
560.232455	2627.237656
560.589381	2626.539456
560.946251	2628.129940
561.303065	2626.151287
561.659825	2622.756070
562.016528	2625.705145
562.373177	2622.630042
562.729770	2620.452263
563.086307	2622.816564
563.442789	2622.312449
563.799216	2621.236162
564.155587	2622.380504
564.511904	2618.450925
564.868164	2620.054012
565.224370	2618.251799
565.580520	2620.573251
565.936615	2617.236007
566.292654	2615.244751
566.648638	2618.624845
567.004567	2616.789865
567.360441	2618.274485
567.716260	2616.101747
568.072023	2618.153497
568.427732	2609.727208
568.783385	2612.383896
569.138982	2611.799123
569.494525	2614.354987
569.850013	2611.368104
570.205445	2615.176696
570.560823	2613.697117
570.916145	2611.796602
571.271412	2613.732405
571.626625	2613.961777
571.981782	2610.185953
572.336884	2611.050511
572.691931	2612.852724
573.046923	2610.778289
573.401860	2612.048660
573.756743	2607.718308
574.111570	2610.296859
574.466342	2610.518669
574.821059	2610.392641
575.175722	2610.758124
575.530330	2609.954060
575.884882	2612.000769
576.239380	2608.482043
576.593823	2610.120418
576.948211	2608.784512
577.302544	2607.415839
577.656823	2605.603544
578.011047	2608.625716
578.365216	2606.344594
578.719330	2605.409460
579.073389	2607.110849
579.427394	2604.887701
579.781344	2602.654469
580.135239	2605.424583
580.489080	2604.663369
580.842866	2602.437700
581.196597	2606.689913
581.550273	2605.785026
581.903895	2603.138420
582.257463	2603.350149
582.610975	2602.720004
582.964434	2604.408791
583.317837	2600.388471
583.671186	2602.964500
584.024481	2599.402925
584.377721	2604.008019
584.730906	2602.616661
585.084037	2604.081116
585.437113	2603.297217
585.790135	2602.246136
586.143103	2600.401074
586.496016	2599.660024
586.848874	2597.053748
587.201679	2599.334870
587.554428	2596.665579
587.907124	2599.045003
588.259765	2597.457040
588.612352	2599.753285
588.964884	2600.454006
589.317362	2597.633480
589.669786	2597.192379
590.022155	2597.794797
590.374470	2599.536516
590.726731	2600.343100
591.078937	2596.176587
591.431090	2598.898810
591.783188	2598.119952
592.135232	2599.042483
592.487222	2597.182297
592.839157	2599.687750
593.191038	2598.583738
593.542866	2596.075764
593.894639	2596.194231
594.246358	2596.216916
594.598022	2596.436206
594.949633	2593.630804
595.301190	2593.678695
595.652692	2594.071905
596.004141	2595.627101
596.355535	2595.259097
596.706876	2592.335227
597.058162	2590.795155
597.409395	2592.962851
597.760573	2592.199116
598.111698	2591.947059
598.462768	2595.916967
598.813785	2595.412852
599.164748	2595.228850
599.515657	2593.834971
599.866511	2594.568459
600.217312	2591.654672
600.568060	2593.340938
600.918753	2596.713470
601.269392	2593.328335
601.619978	2592.902357
601.970510	2592.284816
602.320988	2590.671647
602.671412	2595.102821
603.021783	2591.826071
603.372100	2591.687439
603.722363	2588.869434
604.072572	2591.856318
604.422728	2593.837491
604.772830	2591.105186
605.122878	2587.127716
605.472872	2590.462439
605.822813	2587.324321
606.172701	2588.929928
606.522534	2592.365474
606.872314	2591.939497
607.222041	2592.972933
607.571714	2592.320104
607.921333	2593.587954
608.270899	2592.604929
608.620411	2593.782039
608.969870	2594.838160
609.319276	2594.510485
609.668627	2597.028542
610.017926	2601.764706
610.367171	2599.821341
610.716362	2599.465940
611.065500	2599.584407
611.414585	2595.753130
611.763616	2596.380753
612.112594	2597.426793
612.461518	2593.267841
612.810389	2595.967379
613.159207	2595.299426
613.507971	2592.660382
613.856682	2595.480907
614.205340	2592.486462
614.553945	2595.722883
614.902496	2595.236412
615.250994	2593.935794
615.599439	2593.189703
615.947830	2595.826227
616.296169	2593.754312
616.644454	2595.508634
616.992686	2590.296081
617.340864	2593.915629
617.688990	2593.981164
618.037063	2593.560228
618.385082	2592.940166
618.733048	2594.543253
619.080961	2591.954620
619.428821	2597.484766
619.776628	2593.598037
620.124382	2593.451843
620.472083	2594.233222
620.819731	2594.041658
621.167326	2594.205496
621.514868	2593.560228
621.862357	2591.505958
622.209793	2593.509816
622.557176	2593.666092
622.904506	2589.844898
623.251783	2586.124526
623.599007	2588.445977
623.946179	2586.731985
624.293297	2585.653178
624.640363	2587.352047
624.987376	2588.834146
625.334336	2585.854824
625.681243	2586.421954
626.028097	2588.448498
626.374899	2588.932449
626.721647	2585.529670
627.068343	2586.235431
627.414987	2586.734506
627.761577	2586.041347
628.108115	2584.760894
628.454600	2583.162848
628.801032	2588.629979
629.147412	2585.791810
629.493739	2587.054619
629.840014	2584.871799
630.186236	2587.735175
630.532405	2586.023703
630.878521	2584.221490
631.224585	2584.561768
631.570597	2583.886254
631.916556	2584.612180
632.262462	2583.243507
632.608316	2581.978177
632.954117	2581.474062
633.299866	2582.091603
633.645562	2582.469689
633.991206	2582.691500
634.336797	2579.422312
634.682336	2581.907601
635.027823	2579.291242
635.373257	2582.948599
635.718639	2580.710327
636.063968	2580.710327
636.409245	2577.846951
636.754470	2580.780903
637.099642	2575.812846
637.444762	2580.216294
637.789829	2578.063721
638.134845	2576.551375
638.479808	2575.535582
638.824719	2578.673701
639.169577	2577.002558
639.514383	2576.279152
639.859137	2576.102712
640.203839	2578.033474
640.548489	2575.462486
640.893086	2572.266394
641.237632	2574.786971
641.582125	2572.175653
641.926566	2570.718760
642.270955	2576.107753
642.615292	2573.859399
642.959576	2577.146231
643.303809	2576.727815
643.647990	2576.395099
643.992118	2573.574573
644.336195	2573.529203
644.680219	2575.255798
645.024192	2576.100192
645.368112	2578.141859
645.711981	2574.792012
646.055797	2578.431725
646.399562	2574.108936
646.743274	2577.090778
647.086935	2576.309399
647.430544	2579.387024
647.774101	2581.027919
648.117606	2579.346695
648.461059	2579.588670
648.804460	2580.390213
649.147810	2577.426015
649.491108	2576.921900
649.834354	2576.291755
650.177548	2574.814697
650.520690	2578.570357
650.863781	2576.609348
651.206820	2577.153793
651.549807	2577.156313
651.892742	2573.319995
652.235626	2574.713874
652.578458	2575.570870
652.921238	2571.215313
653.263967	2577.052970
653.606644	2572.735221
653.949269	2573.191446
654.291843	2570.570046
654.634365	2573.025088
654.976836	2570.701116
655.319255	2575.293607
655.661622	2573.960222
656.003938	2574.003072
656.346203	2570.028122
656.688416	2573.866960
657.030577	2569.768502
657.372687	2571.104408
657.714746	2571.159861
658.056753	2572.097515
658.398708	2569.264387
658.740612	2569.617268
659.082465	2566.615261
659.424266	2569.851681
659.766016	2566.103583
660.107715	2571.570715
660.449362	2573.330077
660.790958	2571.875705
661.132503	2570.905283
661.473996	2570.222206
661.815438	2571.028791
662.156829	2572.276476
662.498168	2570.534758
662.839456	2571.215313
663.180693	2573.748493
663.521879	2571.280848
663.863013	2569.201372
664.204097	2570.023081
664.545129	2570.837227
664.886110	2572.266394
665.227040	2572.999882
665.567918	2574.033318
665.908746	2572.344532
666.249522	2573.851837
666.590248	2572.457958
666.930922	2575.149934
667.271545	2573.236816
667.612118	2574.381158
667.952639	2572.354614
668.293109	2570.852350
668.633528	2570.988462
668.973896	2569.655076
669.314213	2572.122721
669.654480	2572.243709
669.994695	2573.030129
670.334859	2572.349573
670.674973	2571.185067
671.015035	2573.614903
671.355047	2568.757751
671.695008	2571.185067
672.034918	2572.031980
672.374777	2570.121383
672.714585	2571.893349
673.054342	2570.847309
673.394049	2573.022567
673.733705	2572.536096
674.073310	2571.868143
674.412864	2572.982238
674.752368	2569.385375
675.091820	2570.612896
675.431223	2573.042732
675.770574	2572.016857
676.109875	2564.959242
676.449125	2567.643656
676.788324	2566.002760
677.127473	2568.367062
677.466571	2565.400342
677.805619	2569.219017
678.144616	2569.289593
678.483562	2567.585683
678.822458	2568.344376
679.161303	2569.511403
679.500098	2567.263049
679.838842	2569.156002
680.177535	2565.990158
680.516179	2569.017370
680.854771	2567.724314
681.193314	2569.725652
681.531805	2569.448389
681.870247	2571.865622
682.208638	2571.285890
682.546978	2574.517269
682.885268	2570.912844
683.223508	2574.481981
683.561697	2570.355797
683.899836	2570.449058
684.237925	2570.202042
684.575963	2570.630540
684.913951	2568.462843
685.251889	2572.455437
685.589776	2574.920562
685.927614	2571.837896
686.265401	2571.701785
686.603137	2571.311095
686.940824	2573.130952
687.278460	2572.601631
687.616046	2571.323698
687.953582	2573.292269
688.291068	2573.725808
688.628504	2575.238154
688.965889	2571.318657
689.303224	2570.149109
689.640510	2572.286559
689.977745	2568.989644
690.314930	2570.383523
690.652065	2571.880746
690.989150	2568.787998
691.326185	2564.797925
691.663170	2566.385888
692.000105	2566.035528
692.336990	2566.088460
692.673825	2565.901937
693.010610	2564.379509
693.347345	2563.464539
693.684030	2559.804662
694.020665	2561.148129
694.357251	2558.201575
694.693786	2562.582338
695.030272	2561.644683
695.366707	2561.057388
695.703093	2561.717780
696.039429	2561.256514
696.375716	2562.713407
696.711952	2559.421534
697.048139	2561.463201
697.384276	2560.785166
697.720363	2562.088304
698.056400	2561.705177
698.392388	2558.637635
698.728326	2560.800290
699.064214	2559.000598
699.400053	2562.267265
699.735842	2558.098231
700.071581	2560.134857
700.407270	2562.461350
700.742910	2562.088304
701.078501	2554.995401
701.414042	2560.759960
701.749533	2561.062430
702.084974	2561.425393
702.420366	2561.150650
702.755709	2559.275341
703.091002	2556.527912
703.426246	2560.517985
703.761440	2557.873900
704.096584	2557.631924
704.431679	2560.165104
704.766725	2558.166287
705.101721	2556.298539
705.436668	2556.933725
705.771565	2559.792059
706.106413	2555.388611
706.441212	2559.653427
706.775961	2557.236194
707.110661	2557.216029
707.445311	2558.511606
707.779913	2557.883982
708.114465	2560.298695
708.448967	2558.549414
708.783421	2559.013201
709.117825	2560.752399
709.452180	2559.638304
709.786485	2560.873386
710.120742	2561.553942
710.454949	2564.709704
710.789107	2559.275341
711.123216	2558.798952
711.457275	2561.047306
711.791286	2562.887327
712.125247	2559.918088
712.459159	2565.057544
712.793023	2565.659962
713.126837	2561.069991
713.460602	2560.424724
713.794318	2561.599312
714.127985	2561.158212
714.461602	2560.802810
714.795171	2565.566701
715.128691	2561.775753
715.462162	2559.920608
715.795584	2558.499003
716.128957	2559.494631
716.462281	2562.116031
716.795556	2559.802141
717.128782	2558.335165
717.461960	2556.969013
717.795088	2556.520350
718.128167	2555.466749
718.461198	2555.292829
718.794180	2556.739640
719.127113	2554.551779
719.459997	2554.236707
719.792833	2556.336348
720.125619	2556.585885
720.458357	2553.467931
720.791046	2554.317366
721.123686	2555.035730
721.456278	2557.954558
721.788821	2552.860472
722.121315	2552.578168
722.453761	2554.042623
722.786158	2553.273847
723.118506	2552.880637
723.450805	2554.849207
723.783056	2554.929866
724.115259	2554.602191
724.447412	2553.455328
724.779518	2554.806358
725.111574	2553.571275
725.443582	2554.105637
725.775542	2553.276367
726.107453	2555.267623
726.439315	2557.253838
726.771129	2555.953220
727.102895	2555.572613
727.434612	2557.364743
727.766281	2554.304763
728.097901	2553.220915
728.429473	2551.814433
728.760996	2553.500699
729.092471	2553.233518
729.423897	2557.667212
729.755276	2555.002963
730.086606	2556.530432
730.417887	2558.582182
730.749120	2559.605536
731.080305	2557.636966
731.411442	2560.717111
731.742530	2559.093859
732.073570	2561.523695
732.404562	2560.535629
732.735506	2559.398849
733.066401	2557.460525
733.397249	2555.625545
733.728048	2558.559497
734.058798	2556.389280
734.389501	2557.238714
734.720156	2557.256358
735.050762	2552.104299
735.381320	2553.709907
735.711831	2553.263765
736.042293	2553.704866
736.372707	2552.338713
736.703073	2552.961295
737.033391	2551.821995
737.363661	2555.658313
737.693883	2553.704866
738.024056	2557.679815
738.354182	2552.374001
738.684260	2553.059598
739.014290	2555.106306
739.344272	2554.690411
739.674207	2553.893909
740.004093	2558.751061
740.333931	2555.391132
740.663722	2554.019938
740.993464	2555.786862
741.323159	2555.746533
741.652806	2552.865513
741.982405	2556.482541
742.311956	2554.342572
742.641460	2552.668908
742.970915	2552.678991
743.300323	2555.156718
743.629683	2554.856769
743.958996	2554.216543
744.288260	2553.392314
744.617477	2552.162272
744.946647	2546.042312
745.275768	2549.513146
745.604842	2546.773279
745.933869	2545.802857
746.262847	2547.847045
746.591778	2551.169165
746.920662	2550.473486
747.249498	2553.702345
747.578286	2551.327962
747.907027	2549.835780
748.235720	2550.874258
748.564365	2552.051367
748.892963	2550.465924
749.221514	2549.704710
749.550017	2550.690256
749.878473	2551.932900
750.206881	2550.599515
750.535242	2550.261757
750.863555	2548.439380
751.191821	2549.382076
751.520039	2548.726726
751.848210	2549.687066
752.176334	2553.346944
752.504411	2550.589432
752.832440	2549.850903
753.160421	2550.110523
753.488356	2550.977601
753.816243	2551.590102
754.144082	2550.705379
754.471875	2551.421223
754.799620	2548.194884
755.127318	2548.507436
755.454969	2548.308310
755.782572	2548.693959
756.110129	2548.499874
756.437638	2551.423743
756.765100	2548.152035
757.092515	2547.511808
757.419882	2549.404761
757.747203	2548.862837
758.074477	2549.336706
758.401703	2548.134391
758.728882	2553.533466
759.056014	2551.320400
759.383099	2548.552806
759.710138	2551.769063
760.037129	2550.292004
760.364073	2552.583209
760.690970	2549.876109
761.017820	2552.351316
761.344623	2550.183620
761.671379	2549.906356
761.998088	2546.848896
762.324751	2552.099258
762.651366	2557.021945
762.977935	2565.554098
763.304456	2569.085426
763.630931	2571.931157
763.957359	2571.157340
764.283740	2565.886814
764.610074	2561.009497
764.936362	2558.894733
765.262602	2554.579506
765.588796	2553.228477
765.914943	2549.782848
766.241044	2552.852911
766.567097	2550.360060
766.893104	2551.600184
767.219064	2547.773948
767.544978	2549.077086
767.870845	2550.463404
768.196665	2548.572971
768.522438	2546.150697
768.848165	2545.349153
769.173846	2546.894267
769.499479	2546.801005
769.825066	2545.059287
770.150607	2544.666077
770.476101	2545.402085
770.801548	2546.485933
771.126949	2544.464431
771.452303	2546.143135
771.777611	2541.974101
772.102872	2545.291180
772.428087	2543.957795
772.753256	2544.948381
773.078378	2544.751776
773.403453	2544.555171
773.728482	2542.042156
774.053465	2541.354039
774.378401	2543.425953
774.703291	2545.245809
775.028135	2541.061652
775.352932	2544.040974
775.677683	2543.441076
776.002388	2543.960315
776.327046	2542.828576
776.651658	2542.067362
776.976224	2541.449821
777.300743	2544.144317
777.625216	2545.467620
777.949643	2541.391847
778.274024	2543.841848
778.598359	2539.214069
778.922647	2539.128369
779.246889	2539.032587
779.571086	2538.218441
779.895236	2541.114584
780.219339	2543.630120
780.543397	2538.833462
780.867409	2545.659184
781.191374	2542.389996
781.515294	2543.988042
781.839167	2541.676672
782.162995	2541.265818
782.486776	2542.939482
782.810511	2542.813453
783.134201	2542.647095
783.457844	2542.306817
783.781441	2543.889739
784.104993	2543.841848
784.428498	2543.609955
784.751958	2541.233051
785.075372	2541.596014
785.398739	2543.927548
785.722061	2543.869574
786.045337	2542.818494
786.368568	2543.302445
786.691752	2539.377906
787.014891	2544.134235
787.337983	2542.430325
787.661030	2546.175902
787.984031	2545.684390
788.306987	2546.831252
788.629897	2544.489636
788.952760	2545.545758
789.275579	2545.263453
789.598351	2544.910573
789.921078	2543.607434
790.243759	2546.191026
790.566395	2544.242620
790.888984	2543.194060
791.211529	2542.768082
791.534027	2541.308668
791.856480	2539.955118
792.178888	2543.189019
792.501249	2539.808925
792.823566	2542.929399
793.145836	2541.560726
793.468062	2543.584749
793.790241	2543.156251
794.112375	2539.965201
794.434464	2541.437218
794.756507	2542.498381
795.078505	2544.676159
795.400457	2539.889583
795.722364	2538.077289
796.044226	2540.063503
796.366042	2538.825900
796.687812	2540.597866
797.009538	2543.310006
797.331218	2542.606765
797.652852	2542.337064
797.974442	2542.132897
798.295986	2540.781868
798.617484	2541.769934
798.938938	2542.821014
799.260346	2542.205994
799.581709	2542.987373
799.903026	2541.805222
800.224299	2542.516025
800.545526	2542.818494
800.866708	2540.202135
801.187845	2543.768751
801.508936	2541.003678
801.829983	2540.134079
802.150984	2536.786753
802.471940	2539.259439
802.792851	2543.473844
803.113717	2541.855633
803.434538	2539.592155
803.755314	2541.235572
804.076045	2540.660880
804.396731	2541.895963
804.717372	2541.170037
805.037967	2540.381096
805.358518	2541.800181
805.679024	2539.579552
805.999485	2539.927392
806.319901	2545.376879
806.640272	2537.986548
806.960598	2540.325643
807.280879	2539.629964
807.601115	2543.017619
807.921306	2541.971580
808.241453	2538.742721
808.561554	2540.519728
808.881611	2541.999306
809.201623	2540.459234
809.521590	2541.790098
809.841513	2539.866898
810.161390	2541.419574
810.481223	2538.785571
810.801011	2541.527958
811.120755	2542.929399
811.440453	2542.541230
811.760107	2540.297917
812.079716	2535.435724
812.399281	2535.276928
812.718801	2537.109387
813.038276	2534.137627
813.357707	2539.730787
813.677093	2539.390509
813.996434	2536.698533
814.315731	2539.662732
814.634983	2536.451517
814.954191	2540.829759
815.273354	2542.541230
815.592473	2540.607948
815.911547	2543.138607
816.230577	2540.134079
816.549562	2542.621889
816.868502	2540.827238
817.187399	2543.582229
817.506250	2545.238248
817.825058	2542.689944
818.143821	2539.619882
818.462539	2543.423432
818.781213	2543.942671
819.099843	2543.320089
819.418429	2546.201108
819.736970	2548.174720
820.055466	2550.065152
820.373919	2553.382232
820.692327	2558.902295
821.010691	2560.210475
821.329011	2580.463310
821.647286	2609.538165
821.965517	2643.795326
822.283704	2663.029848
822.601847	2668.844819
822.919945	2653.572644
823.237999	2633.723101
823.556010	2616.134515
823.873976	2601.172370
824.191897	2589.580237
824.509775	2575.258319
824.827609	2570.058369
825.145398	2567.247925
825.463144	2566.305230
825.780845	2569.443348
826.098502	2572.531055
826.416116	2580.758218
826.733685	2588.907243
827.051210	2594.515527
827.368692	2590.222984
827.686129	2581.600090
828.003522	2572.135324
828.320872	2558.582182
828.638177	2551.965667
828.955439	2549.782848
829.272656	2544.978628
829.589830	2543.093237
829.906960	2546.223793
830.224046	2546.838814
830.541088	2544.235058
830.858086	2545.447456
831.175041	2541.308668
831.491952	2542.846220
831.808819	2542.606765
832.125642	2541.921168
832.442421	2545.636499
832.759157	2549.619010
833.075849	2556.369115
833.392497	2561.899261
833.709101	2568.790518
834.025662	2566.164077
834.342179	2563.227605
834.658653	2558.796431
834.975083	2556.013714
835.291469	2558.065464
835.607811	2548.104144
835.924110	2545.964174
836.240366	2543.350336
836.556578	2544.401416
836.872746	2542.596683
837.188871	2540.035777
837.504952	2541.671631
837.820990	2539.506456
838.136984	2538.407484
838.452935	2539.095602
838.768842	2540.844882
839.084706	2538.828421
839.400526	2540.229861
839.716303	2546.261602
840.032037	2551.464073
840.347727	2547.335368
840.663373	2550.279402
840.978977	2544.058618
841.294537	2541.550644
841.610054	2539.982845
841.925527	2538.893956
842.240957	2538.770447
842.556344	2539.274563
842.871687	2536.852288
843.186987	2536.330529
843.502244	2535.032432
843.817458	2535.045035
844.132629	2535.188707
844.447756	2535.158461
844.762840	2531.138140
845.077881	2530.200486
845.392879	2532.252235
845.707833	2533.323481
846.022745	2531.841381
846.337613	2534.969417
846.652438	2537.457227
846.967221	2535.264325
847.281960	2534.477905
847.596656	2533.870446
847.911309	2534.092257
848.225919	2535.012267
848.540485	2536.222144
848.855009	2536.474202
849.169490	2533.852802
849.483928	2536.433873
849.798323	2534.717360
850.112675	2533.699047
850.426984	2534.321629
850.741251	2536.242309
851.055474	2534.946732
851.369654	2532.438758
851.683792	2535.690302
851.997887	2535.465971
852.311938	2534.422452
852.625947	2536.020498
852.939914	2534.498069
853.253837	2534.994623
853.567718	2534.682072
853.881555	2535.226516
854.195350	2532.138809
854.509103	2536.045704
854.822812	2532.143851
855.136479	2536.280117
855.450103	2534.150230
855.763685	2534.583769
856.077224	2536.068389
856.390720	2534.258615
856.704173	2535.849099
857.017584	2533.368851
857.330953	2535.634850
857.644278	2534.815662
857.957561	2540.678524
858.270802	2532.703419
858.584000	2536.328008
858.897155	2536.612833
859.210268	2531.337266
859.523339	2536.670807
859.836367	2532.610157
860.149352	2535.178625
860.462295	2537.749614
860.775195	2532.239633
861.088054	2529.703932
861.400869	2534.251053
861.713642	2529.295599
862.026373	2534.694674
862.339062	2539.037628
862.651708	2533.467153
862.964312	2536.496887
863.276873	2533.641073
863.589392	2534.752648
863.901869	2536.328008
864.214303	2534.576207
864.526696	2534.863553
864.839045	2532.852133
865.151353	2537.860519
865.463619	2535.226516
865.775842	2531.675023
866.088023	2536.244829
866.400162	2534.278779
866.712258	2537.222813
867.024313	2535.649973
867.336325	2534.485467
867.648296	2536.796836
867.960224	2536.512010
868.272110	2534.601413
868.583954	2537.530323
868.895755	2534.661907
869.207515	2537.724408
869.519233	2534.200641
869.830909	2534.311547
870.142542	2535.813811
870.454134	2535.584438
870.765684	2537.159799
871.077191	2538.450334
871.388657	2538.891435
871.700081	2534.235929
872.011463	2536.428831
872.322803	2538.447813
872.634101	2536.786753
872.945357	2535.294572
873.256571	2537.600900
873.567744	2533.998995
873.878874	2538.926723
874.189963	2534.414890
874.501010	2539.554347
874.812015	2538.316743
875.122979	2537.822710
875.433900	2537.593338
875.744780	2537.757175
876.055618	2538.606610
876.366415	2538.838503
876.677169	2537.421939
876.987882	2533.633512
877.298554	2533.731814
877.609183	2537.530323
877.919771	2536.164171
878.230317	2536.759027
878.540822	2540.635674
878.851285	2541.038967
879.161707	2543.388144
879.472087	2544.608103
879.782425	2547.521890
880.092722	2553.314176
880.402977	2564.767678
880.713191	2582.121850
881.023363	2597.605754
881.333494	2610.067486
881.643583	2612.371293
881.953631	2612.381376
882.263637	2607.642691
882.573602	2599.339911
882.883526	2592.854466
883.193408	2583.006572
883.503248	2575.185222
883.813048	2567.603327
884.122806	2565.871690
884.432522	2560.994374
884.742197	2556.243087
885.051831	2552.747046
885.361424	2547.647919
885.670975	2549.392158
885.980485	2546.811088
886.289954	2543.791437
886.599382	2544.754297
886.908768	2545.313865
887.218113	2540.489481
887.527417	2542.972249
887.836680	2540.257588
888.145901	2542.631971
888.455082	2537.895807
888.764221	2540.928061
889.073319	2538.195756
889.382376	2539.047711
889.691392	2537.699202
890.000366	2537.590817
890.309300	2538.097453
890.618193	2540.595345
890.927044	2537.242978
891.235855	2536.098636
891.544625	2538.621733
891.853353	2538.283976
892.162041	2537.704243
892.470687	2540.499563
892.779293	2538.394881
893.087858	2538.427649
893.396381	2537.842875
893.704864	2542.979811
894.013306	2546.982487
894.321707	2557.132850
894.630068	2559.630742
894.938387	2562.957903
895.246665	2559.812223
895.554903	2559.620660
895.863100	2556.036399
896.171256	2552.268137
896.479371	2550.171017
896.787446	2546.866540
897.095480	2543.224307
897.403473	2542.992414
897.711425	2541.028884
898.019336	2542.074924
898.327207	2541.540561
898.635038	2543.481406
898.942827	2537.568132
899.250576	2540.804553
899.558284	2538.387320
899.865952	2540.628113
900.173579	2536.259953
900.481165	2536.080992
900.788711	2536.043183
901.096216	2539.060314
901.403681	2534.480425
901.711105	2538.901517
902.018489	2536.943029
902.325832	2539.234233
902.633135	2534.863553
902.940397	2540.814635
903.247619	2538.828421
903.554800	2544.426622
903.861941	2555.486913
904.169041	2566.239695
904.476101	2571.870663
904.783121	2573.730849
905.090100	2569.708008
905.397039	2564.114848
905.703938	2553.783003
906.010796	2551.126315
906.317614	2547.347971
906.624391	2544.159441
906.931129	2542.427804
907.237826	2541.439738
907.544483	2537.749614
907.851099	2539.453524
908.157675	2534.498069
908.464211	2535.271887
908.770707	2531.813655
909.077163	2533.946063
909.383578	2530.724766
909.689954	2531.102852
909.996289	2528.252080
910.302584	2532.993285
910.608839	2532.733666
910.915054	2531.876669
911.221229	2534.692154
911.527363	2534.480425
911.833458	2532.897503
912.139513	2534.785415
912.445527	2536.703574
912.751502	2532.761392
913.057436	2535.665097
913.363331	2535.665097
913.669186	2536.297761
913.975000	2539.088040
914.280775	2541.933771
914.586510	2542.586601
914.892205	2547.380738
915.197859	2549.576161
915.503475	2557.818447
915.809050	2562.400856
916.114585	2569.728173
916.420081	2567.499983
916.725536	2569.009809
917.030952	2567.918399
917.336328	2559.330793
917.641665	2559.676112
917.946961	2554.206460
918.252218	2552.913404
918.557435	2547.479041
918.862612	2545.356715
919.167750	2545.112219
919.472848	2542.415202
919.777906	2540.078627
920.082925	2539.410674
920.387904	2537.265663
920.692843	2538.462937
920.997743	2539.705581
921.302603	2537.316074
921.607423	2534.551002
921.912204	2536.804397
922.216946	2536.428831
922.521647	2535.793646
922.826310	2534.835827
923.130932	2537.805066
923.435516	2535.271887
923.740059	2532.922709
924.044564	2533.802390
924.349028	2532.300126
924.653454	2526.943900
924.957840	2529.535053
925.262186	2529.497245
925.566493	2531.649817
925.870761	2527.208561
926.174989	2532.365661
926.479178	2530.876000
926.783328	2531.072605
927.087438	2530.061854
927.391509	2529.885414
927.695541	2530.616381
927.999533	2533.547812
928.303486	2530.452543
928.607400	2532.602596
928.911275	2532.267359
929.215110	2532.647966
929.518906	2530.434899
929.822663	2530.397091
930.126381	2531.337266
930.430060	2528.715866
930.733699	2531.430527
931.037299	2530.989426
931.340861	2531.107893
931.644383	2529.905578
931.947866	2530.916330
932.251309	2531.801052
932.554714	2532.118645
932.858080	2532.499252
933.161407	2529.083870
933.464694	2531.911957
933.767943	2529.494724
934.071153	2530.843233
934.374323	2530.772657
934.677455	2530.026566
934.980548	2531.614529
935.283602	2531.637215
935.586617	2530.916330
935.889593	2531.730476
936.192530	2530.049251
936.495428	2530.694519
936.798287	2530.296268
937.101108	2531.808614
937.403890	2531.218799
937.706632	2533.764582
938.009336	2533.212575
938.312002	2532.995806
938.614628	2532.577390
938.917216	2536.983358
939.219765	2532.237112
939.522275	2534.041845
939.824747	2532.968079
940.127179	2531.697708
940.429573	2527.916843
940.731929	2530.427338
941.034246	2529.393901
941.336524	2533.152081
941.638763	2531.808614
941.940964	2532.017822
942.243126	2530.954138
942.545250	2530.729807
942.847335	2532.968079
943.149381	2530.371885
943.451389	2531.180990
943.753359	2530.387008
944.055290	2530.593696
944.357182	2531.496062
944.659036	2532.113604
944.960851	2532.244674
945.262628	2533.812473
945.564367	2529.822399
945.866067	2534.190559
946.167729	2531.014632
946.469352	2530.515558
946.770937	2530.830630
947.072484	2530.099663
947.373992	2530.442461
947.675462	2529.202337
947.976893	2534.195600
948.278286	2532.085877
948.579641	2531.428007
948.880958	2530.351720
949.182236	2532.781557
949.483476	2532.587472
949.784678	2529.406504
950.085841	2526.608664
950.386967	2531.123017
950.688054	2529.605630
950.989103	2532.466484
951.290114	2529.230064
951.591087	2533.106711
951.892021	2533.515044
952.192917	2530.893644
952.493776	2528.426000
952.794596	2533.199972
953.095378	2531.654859
953.396122	2533.051258
953.696828	2531.493542
953.997496	2531.186031
954.298126	2530.296268
954.598718	2531.221319
954.899272	2529.782070
955.199788	2530.238294
955.500266	2532.390867
955.800706	2528.012625
956.101108	2528.083201
956.401472	2525.464322
956.701798	2525.081194
957.002087	2524.602284
957.302337	2529.764426
957.602550	2529.575383
957.902724	2526.704446
958.202861	2530.041689
958.502960	2529.051103
958.803022	2527.715197
959.103045	2528.428520
959.403031	2528.463808
959.702979	2530.906247
960.002889	2527.894158
960.302762	2526.734692
960.602596	2528.804086
960.902393	2528.161339
961.202153	2526.858201
961.501875	2528.635208
961.801559	2526.215454
962.101205	2529.615712
962.400814	2530.049251
962.700385	2527.621936
962.999918	2527.513551
963.299414	2528.504137
963.598873	2529.356092
963.898293	2526.464991
964.197677	2529.441792
964.497022	2526.848118
964.796331	2527.805938
965.095601	2527.821061
965.394835	2529.890455
965.694030	2526.858201
965.993189	2529.497245
966.292309	2528.083201
966.591393	2526.676719
966.890439	2524.937521
967.189447	2527.241328
967.488419	2528.199148
967.787353	2527.329549
968.086249	2529.068747
968.385108	2528.007584
968.683930	2527.019518
968.982714	2525.786956
969.281462	2525.834847
969.580172	2526.762419
969.878844	2525.459281
970.177480	2527.705115
970.476078	2528.204189
970.774639	2530.674354
971.073162	2527.677388
971.371649	2526.001205
971.670098	2525.973478
971.968510	2526.286030
972.266885	2526.399456
972.565223	2527.385001
972.863524	2530.167718
973.161788	2527.856349
973.460014	2527.087573
973.758204	2527.488345
974.056356	2526.812830
974.354471	2528.126051
974.652550	2528.040351
974.950591	2529.792152
975.248595	2526.850639
975.546563	2527.861390
975.844493	2528.683098
976.142386	2529.545136
976.440243	2526.228057
976.738062	2527.624456
977.035845	2526.298633
977.333590	2525.842408
977.631299	2526.981709
977.928971	2529.857687
978.226606	2526.598581
978.524204	2528.935156
978.821765	2529.368695
979.119290	2527.085053
979.416777	2528.990609
979.714228	2526.948942
980.011642	2528.914992
980.309020	2529.305681
980.606360	2528.310053
980.903664	2529.051103
981.200931	2528.393232
981.498162	2529.282996
981.795356	2527.175793
982.092513	2526.528005
982.389633	2528.133613
982.686717	2530.429858
982.983764	2526.550690
983.280775	2530.099663
983.577749	2529.262831
983.874686	2530.323994
984.171587	2530.142513
984.468451	2530.649148
984.765279	2528.506658
985.062070	2527.430372
985.358824	2528.330218
985.655543	2527.853829
985.952224	2529.550177
986.248869	2529.484642
986.545478	2522.442150
986.842050	2525.166894
987.138586	2524.912315
987.435086	2524.246883
987.731549	2522.815195
988.027975	2526.943900
988.324366	2525.502130
988.620719	2524.922398
988.917037	2527.135464
989.213318	2526.250742
989.509563	2525.328211
989.805772	2529.867770
990.101944	2526.396935
990.398080	2525.242511
990.694180	2525.176976
990.990244	2527.695032
991.286271	2524.506502
991.582262	2527.689991
991.878217	2524.544311
992.174136	2526.805269
992.470019	2525.232429
992.765865	2528.194107
993.061676	2526.487676
993.357450	2528.065557
993.653188	2525.169414
993.948890	2526.500279
994.244556	2526.059178
994.540186	2526.485155
994.835780	2527.009435
995.131337	2526.349044
995.426859	2525.713859
995.722345	2526.432223
996.017795	2527.374919
996.313208	2526.691843
996.608586	2524.937521
996.903928	2525.860052
997.199234	2525.665968
997.494504	2527.077491
997.789738	2527.503468
998.084936	2524.960206
998.380099	2528.047913
998.675225	2525.713859
998.970316	2527.132944
999.265371	2526.722090
999.560390	2529.424148
999.855373	2526.424662
1000.150320	2529.262831
1000.445232	2525.923067
1000.740108	2525.860052
1001.034948	2526.560773
1001.329752	2526.994312
1001.624521	2524.693025
1001.919254	2520.713034
1002.213951	2526.654034
1002.508613	2520.836542
1002.803239	2524.337624
1003.097829	2521.764115
1003.392384	2524.859383
1003.686903	2524.940042
1003.981386	2525.388704
1004.275834	2525.446678
1004.570246	2525.411390
1004.864623	2524.561955
1005.158964	2527.730320
1005.453270	2527.165711
1005.747540	2528.209230
1006.041775	2526.676719
1006.335974	2526.487676
1006.630138	2524.877027
1006.924266	2526.865762
1007.218359	2526.147398
1007.512416	2525.204702
1007.806438	2527.395084
1008.100425	2525.504651
1008.394376	2526.510361
1008.688292	2524.819054
1008.982172	2526.843077
1009.276017	2527.473222
1009.569827	2525.940711
1009.863602	2527.014477
1010.157341	2527.153108
1010.451045	2525.300484
1010.744714	2526.432223
1011.038347	2525.807120
1011.331945	2528.143695
1011.625508	2524.715710
1011.919036	2524.483817
1012.212528	2525.247552
1012.505986	2524.509023
1012.799408	2525.585309
1013.092795	2525.053468
1013.386147	2526.648993
1013.679464	2526.512882
1013.972745	2524.382994
1014.265992	2526.303674
1014.559204	2524.829136
1014.852380	2527.115300
1015.145521	2527.387522
1015.438628	2527.541277
1015.731699	2527.059847
1016.024736	2523.326873
1016.317737	2528.441123
1016.610703	2524.970289
1016.903635	2524.645134
1017.196531	2519.520801
1017.489393	2524.947603
1017.782219	2522.527850
1018.075011	2524.909795
1018.367768	2527.062367
1018.660490	2527.989940
1018.953177	2527.989940
1019.245829	2527.989940
