Dividing Wavelength (nm)	Counts (n)	Blue Motor Position (mm): 0.000000	Red Motor Position (mm): 34.100000	
326.493990	2127.659310
326.888308	2127.659310
327.282561	2127.659310
327.676750	2094.927098
328.070874	2091.708321
328.464933	2097.266193
328.858929	2103.635691
329.252859	2113.229007
329.646726	2124.117899
330.040528	2137.285393
330.434265	2153.117137
330.827938	2172.853254
331.221547	2188.871521
331.615091	2206.631506
332.008571	2228.595813
332.401986	2246.159193
332.795338	2266.346493
333.188625	2288.013373
333.581847	2303.792184
333.975006	2323.959320
334.368100	2341.585715
334.761129	2357.568693
335.154095	2372.687113
335.546996	2391.495658
335.939833	2414.969791
336.332606	2429.634508
336.725315	2438.854778
337.117960	2452.927159
337.510540	2457.494444
337.903056	2472.242340
338.295508	2475.602269
338.687896	2485.823208
339.080220	2493.775629
339.472480	2500.586227
339.864676	2504.309120
340.256807	2510.844976
340.648875	2513.058042
341.040879	2518.237828
341.432818	2516.889319
341.824694	2521.451563
342.216506	2519.006604
342.608253	2520.781090
342.999937	2518.812519
343.391557	2517.832015
343.783113	2517.461490
344.174605	2518.966274
344.566033	2514.343536
344.957397	2511.989318
345.348697	2511.878412
345.739934	2511.263391
346.131106	2509.902280
346.522215	2506.214676
346.913260	2504.147803
347.304241	2503.056393
347.695159	2501.624705
348.086012	2501.929695
348.476802	2498.143788
348.867528	2497.775784
349.258191	2496.974241
349.648789	2495.320742
350.039324	2492.764877
350.429796	2494.141112
350.820203	2492.096924
351.210548	2490.471152
351.600828	2489.878817
351.991045	2488.207674
352.381198	2484.101654
352.771288	2491.774291
353.161314	2486.261789
353.551276	2488.663899
353.941175	2486.781028
354.331010	2488.641213
354.720782	2485.803044
355.110490	2486.581902
355.500135	2488.472335
355.889717	2486.811275
356.279235	2486.304639
356.668689	2489.185658
357.058080	2488.396717
357.447408	2489.112561
357.836672	2484.119298
358.225873	2488.726913
358.615010	2485.344299
359.004084	2489.760350
359.393095	2490.549290
359.782043	2492.427120
360.170927	2494.461226
360.559748	2493.589106
360.948505	2495.328304
361.337199	2494.771257
361.725830	2493.440392
362.114398	2497.493480
362.502903	2496.210506
362.891344	2497.609426
363.279722	2498.549601
363.668037	2496.991885
364.056289	2498.468943
364.444478	2501.234016
364.832603	2500.250991
365.220665	2502.587566
365.608665	2505.430776
365.996601	2501.596979
366.384474	2503.764675
366.772284	2504.225941
367.160031	2505.002278
367.547715	2511.497805
367.935336	2511.812877
368.322893	2512.818587
368.710388	2515.064421
369.097820	2522.840401
369.485189	2526.175124
369.872495	2532.758871
370.259738	2540.834800
370.646918	2547.327806
371.034035	2550.226469
371.421090	2566.133830
371.808081	2577.962898
372.195010	2582.941037
372.581875	2597.683892
372.968678	2610.715274
373.355418	2620.021244
373.742096	2637.113277
374.128710	2653.197078
374.515262	2668.882628
374.901751	2681.563651
375.288177	2696.145188
375.674540	2716.312324
376.060841	2736.842423
376.447079	2756.613828
376.833254	2777.980759
377.219367	2790.593726
377.605417	2825.241576
377.991404	2837.340346
378.377329	2859.917153
378.763191	2872.769575
379.148991	2910.737025
379.534727	2939.370779
379.920402	2965.501600
380.306013	2978.091882
380.691563	3029.559542
381.077049	3050.545865
381.462474	3069.679565
381.847835	3107.641974
382.233134	3129.147536
382.618371	3129.134933
383.003545	3195.065664
383.388657	3204.094370
383.773706	3237.396232
384.158693	3253.880806
384.543618	3282.292749
384.928480	3317.361535
385.313280	3362.152187
385.698017	3358.197402
386.082692	3414.738984
386.467305	3418.285435
386.851856	3452.572843
387.236344	3475.769713
387.620770	3503.251563
388.005133	3530.501520
388.389435	3560.808937
388.773674	3569.479722
389.157851	3612.599231
389.541965	3628.708238
389.926018	3592.174996
390.310008	3660.220491
390.693936	3681.645395
391.077802	3727.222467
391.461606	3713.419787
391.845348	3773.515382
392.229027	3774.682409
392.612645	3792.560862
392.996200	3864.951831
393.379694	3904.396339
393.763125	3967.970330
394.146494	3937.236936
394.529801	4002.270341
394.913047	4047.749110
395.296230	4013.469264
395.679351	4067.855753
396.062410	4091.281994
396.445408	4072.967482
396.828343	4107.063327
397.211217	4127.376656
397.594028	4049.218607
397.976778	4113.505921
398.359466	4143.500787
398.742092	4171.501876
399.124656	4090.982046
399.507158	4174.826517
399.889598	4197.219322
400.271977	4262.048560
400.654294	4230.120413
401.036549	4239.565014
401.418742	4210.331363
401.800874	4310.710818
402.182944	4332.672605
402.564952	4399.364550
402.946898	4387.129670
403.328783	4379.278072
403.710606	4299.267399
404.092367	4485.487622
404.474067	4448.966983
404.855705	4460.848983
405.237282	4391.149990
405.618797	4499.028162
406.000250	4531.846073
406.381642	4612.529740
406.762972	4573.014656
407.144240	4585.952777
407.525447	4583.901028
407.906593	4643.079133
408.287677	4687.751317
408.668700	4614.218527
409.049661	4669.507382
409.430560	4709.511458
409.811399	4633.682422
410.192176	4792.536741
410.572891	4735.208740
410.953545	4839.502651
411.334138	4718.731728
411.714669	4784.453251
412.095139	4682.168240
412.475547	4826.188964
412.855894	4802.540911
413.236180	4810.019463
413.616405	4766.317700
413.996568	4854.003530
414.376670	4795.969767
414.756711	4749.354217
415.136691	4779.011326
415.516609	4862.167679
415.896466	4896.447525
416.276262	4935.231642
416.655997	4909.854474
417.035670	5093.425570
417.415283	5183.760527
417.794834	5128.721209
418.174324	5080.968879
418.553753	4986.795084
418.933121	5169.110934
419.312428	5244.695474
419.691674	5182.051576
420.070859	5305.317869
420.449983	5218.552050
420.829045	5332.396427
421.208047	5242.245473
421.586988	5316.413449
421.965867	5324.464172
422.344686	5455.367814
422.723444	5310.830371
423.102141	5128.648112
423.480777	5432.105409
423.859352	5191.901990
424.237866	5456.950736
424.616319	5445.787101
424.994712	5559.210542
425.373044	5435.548517
425.751314	5578.792904
426.129524	5376.390577
426.507673	5572.047840
426.885762	5655.920037
427.263789	5587.332618
427.641756	5472.444722
428.019662	5589.845634
428.397508	5600.777376
428.775292	5544.502975
429.153016	5648.156660
429.530679	5568.929886
429.908282	5654.674872
430.285824	5526.362383
430.663305	5802.032840
431.040726	5537.790679
431.418086	5538.395617
431.795385	5641.582996
432.172624	5657.654194
432.549802	5647.622298
432.926920	5658.463299
433.303977	5670.062994
433.680974	5708.050609
434.057910	5727.365790
434.434786	5729.178085
434.811601	5700.879568
435.188355	5941.728254
435.565050	5809.365198
435.941683	5790.047497
436.318257	6002.169168
436.694770	5988.774823
437.071222	6021.602817
437.447614	5955.987158
437.823946	5866.398293
438.200218	6025.008116
438.576429	5884.664913
438.952580	5984.807435
439.328670	6028.206728
439.704700	5940.152894
440.080670	5923.789308
440.456580	6195.593200
440.832429	6075.144912
441.208218	5917.989461
441.583947	6078.071301
441.959616	6081.471560
442.335224	6008.379870
442.710773	6148.299616
443.086261	6175.834398
443.461689	5971.627338
443.837057	6112.104131
444.212365	6273.181599
444.587612	6161.910731
444.962800	6318.783877
445.337927	6301.044057
445.712995	5907.440847
446.088002	6488.915257
446.462949	6313.946890
446.837837	6249.286530
447.212664	6421.822541
447.587431	6561.462502
447.962139	7101.438135
448.336786	8027.084722
448.711374	7772.556864
449.085901	6847.772315
449.460369	6764.767196
449.834776	6699.358225
450.209124	7092.328770
450.583412	7242.824856
450.957640	7389.313225
451.331808	7150.370095
451.705917	6705.024482
452.079965	6629.853316
452.453954	6838.630182
452.827883	6717.503858
453.201752	6813.222767
453.575562	6608.352795
453.949311	6813.983981
454.323001	6704.631272
454.696632	6772.333968
455.070202	6914.960813
455.443713	7067.672487
455.817164	7167.784761
456.190556	7251.412462
456.563888	7332.663259
456.937160	7374.086420
457.310373	7029.233688
457.683526	7051.276134
458.056619	6941.903260
458.429653	6933.381189
458.802628	6864.428287
459.175542	6975.114381
459.548398	7329.804925
459.921194	7491.527661
460.293930	7495.726942
460.666607	8021.453753
461.039224	8325.805855
461.411782	8451.965771
461.784280	8472.735325
462.156719	8373.843010
462.529099	8239.236640
462.901419	7828.828744
463.273680	7724.471818
463.645882	7737.089826
464.018024	7604.028571
464.390106	7768.377748
464.762130	8153.181624
465.134094	8626.243501
465.505999	9651.646960
465.877845	10866.529749
466.249631	11513.894562
466.621358	11138.489917
466.993026	10509.840388
467.364634	10248.675852
467.736184	9887.283094
468.107674	9553.041991
468.479105	9590.661602
468.850477	9352.905663
469.221790	9124.541394
469.593043	8801.479049
469.964238	8657.120568
470.335373	8670.199842
470.706449	8730.030776
471.077467	8707.534627
471.448425	10018.748825
471.819324	11086.034191
472.190164	11113.193407
472.560945	9865.888437
472.931667	9082.566226
473.302330	8945.209907
473.672934	8583.118950
474.043479	8939.183208
474.413965	8885.721771
474.784393	8769.046786
475.154761	8928.959748
475.525070	9009.046038
475.895321	8838.002209
476.265513	9016.595166
476.635645	9186.587915
477.005719	9184.936937
477.375734	9300.911202
477.745691	9529.353609
478.115588	9665.439557
478.485427	9911.636908
478.855207	10442.205748
479.224928	11255.180026
479.594591	11884.116900
479.964194	11701.662419
480.333739	11635.431740
480.703226	11557.613968
481.072653	11645.269551
481.442022	11882.685212
481.811333	12065.994169
482.180584	11872.822195
482.549777	11585.622619
482.918912	11412.935373
483.287988	11436.603591
483.657005	11445.488624
484.025964	11131.228135
484.394864	11258.998700
484.763706	11227.529297
485.132489	10978.511420
485.501213	10943.961872
485.869879	11022.193018
486.238487	10865.143432
486.607036	10970.382560
486.975527	10756.672925
487.343959	10946.374064
487.712333	10987.020888
488.080648	10921.644684
488.448905	10959.521394
488.817104	10907.451316
489.185244	11168.255410
489.553326	11321.498925
489.921350	11855.362158
490.289315	12917.997060
490.657222	13254.370571
491.025070	13154.676713
491.392861	13040.398796
491.760593	12663.070951
492.128267	12306.885706
492.495883	11983.785553
492.863440	11642.338120
493.230939	11299.821963
493.598380	11234.317210
493.965763	11102.808630
494.333088	11003.661737
494.700354	10921.614437
495.067563	10980.462347
495.434713	10807.187807
495.801805	10935.596078
496.168839	10851.512152
496.535815	10785.735177
496.902733	10785.694847
497.269593	10714.566687
497.636395	10814.865484
498.003139	10793.672473
498.369825	10659.270271
498.736453	10806.149329
499.103023	10730.279964
499.469535	10755.289128
499.835989	10742.010729
500.202385	10692.438542
500.568723	10542.854905
500.935003	10756.219221
501.301226	10552.110463
501.667390	10808.743003
502.033497	10887.838707
502.399546	10749.224620
502.765537	10650.778447
503.131470	10709.858249
503.497345	10879.571214
503.863163	10486.308282
504.228923	10780.716708
504.594625	10832.509523
504.960269	10575.239277
505.325856	10782.430700
505.691385	10567.909439
506.056856	10709.283558
506.422270	10722.992976
506.787625	10607.883269
507.152924	10697.696466
507.518164	10671.684112
507.883347	10574.606612
508.248472	10487.785340
508.613540	10699.410458
508.978550	10562.737216
509.343503	10527.993583
509.708398	10619.152768
510.073236	10714.801101
510.438016	10695.750580
510.802738	10622.880702
511.167403	10664.533235
511.532010	10540.208299
511.896561	10743.059289
512.261053	10782.428180
512.625488	10635.980140
512.989866	10599.323390
513.354186	10564.337782
513.718449	10441.696591
514.082655	10595.592936
514.446803	10472.959307
514.810894	10555.135156
515.174927	10405.659903
515.538904	10401.306867
515.902822	10511.677889
516.266684	10369.091373
516.630488	10281.266911
516.994235	10315.100615
517.357925	10327.080917
517.721558	10377.580676
518.085133	10355.283652
518.448651	10335.487041
518.812112	10191.002531
519.175516	10162.983798
519.538863	10229.451411
519.902152	10126.904260
520.265385	10220.780627
520.628560	10111.596796
520.991678	10039.253718
521.354739	10068.757071
521.717743	9968.465836
522.080690	9914.129759
522.443580	9967.825609
522.806413	9888.724864
523.169189	9866.417758
523.531908	9874.987720
523.894569	9681.059572
524.257174	9634.360844
524.619722	9674.432976
524.982213	9600.814486
525.344647	9580.130631
525.707025	9500.011573
526.069345	9518.767186
526.431608	9399.546418
526.793815	9434.368188
527.155964	9218.304335
527.518057	9209.809990
527.880093	9110.781564
528.242072	9120.521073
528.603995	8986.575095
528.965860	8884.161534
529.327669	8863.707052
529.689421	8774.110625
530.051117	8706.775933
530.412755	8705.445069
530.774337	8590.484076
531.135862	8502.236157
531.497331	8473.438566
531.858743	8308.703740
532.220098	8369.981486
532.581396	8224.332469
532.942638	8162.565732
533.303824	8085.660409
533.664953	8028.922222
534.026025	7920.139164
534.387040	7923.428517
534.747999	7865.367027
535.108902	7841.308120
535.469748	7639.805639
535.830537	7644.561968
536.191270	7576.390445
536.551947	7525.835233
536.912567	7465.384237
537.273131	7374.005762
537.633638	7303.008672
537.994089	7234.698516
538.354483	7155.685992
538.714821	7185.219591
539.075103	7131.735470
539.435328	7050.741771
539.795497	6914.108858
540.155609	6927.331805
540.515665	6919.964158
540.875665	6735.193267
541.235609	6707.991201
541.595496	6653.390463
541.955328	6660.248953
542.315102	6556.365896
542.674821	6482.812941
543.034483	6424.287665
543.394090	6371.874789
543.753640	6285.620646
544.113134	6323.719167
544.472571	6209.592485
544.831953	6211.195572
545.191278	6068.296504
545.550548	6036.078490
545.909761	6040.116454
546.268918	5965.623324
546.628019	5948.362413
546.987064	5839.750753
547.346053	5768.332727
547.704986	5739.431792
548.063863	5687.359193
548.422684	5645.497452
548.781449	5549.599582
549.140158	5538.080545
549.498811	5444.408345
549.857408	5358.028174
550.215949	5370.963775
550.574434	5276.898365
550.932864	5251.339715
551.291237	5234.184668
551.649555	5155.358666
552.007817	5122.092092
552.366022	5069.492693
552.724173	5015.945556
553.082267	4972.198423
553.440305	4953.863747
553.798288	4867.670098
554.156215	4854.731977
554.514086	4808.071057
554.871902	4728.622472
555.229661	4697.311866
555.587365	4648.866377
555.945014	4590.799847
556.302606	4567.862597
556.660143	4516.533568
557.017625	4500.550590
557.375050	4438.889717
557.732421	4428.000824
558.089735	4369.568810
558.446994	4333.035568
558.804197	4305.047082
559.161345	4263.724744
559.518437	4202.101679
559.875474	4175.282741
560.232455	4148.751148
560.589381	4108.711784
560.946251	4059.026172
561.303065	4055.472158
561.659825	4003.054240
562.016528	3959.153352
562.373177	3911.257349
562.729770	3893.840163
563.086307	3848.855427
563.442789	3840.194724
563.799216	3780.071403
564.155587	3761.908126
564.511904	3720.308524
564.868164	3694.044112
565.224370	3673.120803
565.580520	3625.683546
565.936615	3610.663428
566.292654	3560.314904
566.648638	3556.856672
567.004567	3522.596991
567.360441	3500.153774
567.716260	3461.649441
568.072023	3451.103347
568.427732	3419.326434
568.783385	3392.462125
569.138982	3371.858929
569.494525	3356.112885
569.850013	3323.574758
570.205445	3310.402223
570.560823	3288.382463
570.916145	3255.050353
571.271412	3242.825555
571.626625	3220.273953
571.981782	3199.068340
572.336884	3180.521935
572.691931	3164.906961
573.046923	3140.606079
573.401860	3124.555045
573.756743	3101.554780
574.111570	3089.849221
574.466342	3078.436049
574.821059	3061.626321
575.175722	3038.903320
575.530330	3022.030578
575.884882	3012.210411
576.239380	2994.014366
576.593823	2981.441728
576.948211	2969.625264
577.302544	2951.557768
577.656823	2939.269956
578.011047	2930.669747
578.365216	2916.002510
578.719330	2901.920047
579.073389	2893.042575
579.427394	2883.623179
579.781344	2871.869729
580.135239	2859.201309
580.489080	2855.112933
580.842866	2839.903772
581.196597	2834.545026
581.550273	2829.942452
581.903895	2818.909887
582.257463	2816.076759
582.610975	2805.172743
582.964434	2796.398615
583.317837	2787.198509
583.671186	2781.333126
584.024481	2775.621499
584.377721	2766.098759
584.730906	2760.901330
585.084037	2755.424116
585.437113	2748.716861
585.790135	2740.782085
586.143103	2735.521641
586.496016	2731.075343
586.848874	2724.915053
587.201679	2720.292315
587.554428	2711.278732
587.907124	2713.501881
588.259765	2707.213041
588.612352	2706.131714
588.964884	2700.067206
589.317362	2698.973275
589.669786	2695.633511
590.022155	2692.674354
590.374470	2689.957172
590.726731	2687.799558
591.078937	2677.681962
591.431090	2677.215655
591.783188	2671.904800
592.135232	2669.152330
592.487222	2666.432627
592.839157	2665.472287
593.191038	2665.202586
593.542866	2664.733758
593.894639	2658.296205
594.246358	2655.334527
594.598022	2653.549959
594.949633	2651.052067
595.301190	2649.842190
595.652692	2646.394041
596.004141	2645.756335
596.355535	2645.189205
596.706876	2641.584780
597.058162	2639.016312
597.409395	2638.381127
597.760573	2638.169398
598.111698	2634.328039
598.462768	2633.760909
598.813785	2633.307205
599.164748	2632.936681
599.515657	2628.417286
599.866511	2626.728500
600.217312	2630.186731
600.568060	2625.316977
600.918753	2628.959210
601.269392	2626.274796
601.619978	2623.338324
601.970510	2625.879065
602.320988	2625.178345
602.671412	2624.636421
603.021783	2622.647686
603.372100	2622.824126
603.722363	2620.444701
604.072572	2622.433437
604.422728	2621.586523
604.772830	2615.869854
605.122878	2613.860954
605.472872	2614.002107
605.822813	2611.005141
606.172701	2613.351798
606.522534	2617.762807
606.872314	2617.583847
607.222041	2613.208125
607.571714	2613.722323
607.921333	2613.805502
608.270899	2612.109153
608.620411	2614.188629
608.969870	2611.272322
609.319276	2612.822477
609.668627	2617.215842
610.017926	2617.384721
610.367171	2618.549227
610.716362	2617.921604
611.065500	2618.435802
611.414585	2612.373814
611.763616	2613.724843
612.112594	2612.777106
612.461518	2612.877929
612.810389	2613.382045
613.159207	2611.763834
613.507971	2607.839296
613.856682	2610.425408
614.205340	2605.782505
614.553945	2608.706375
614.902496	2610.387599
615.250994	2609.807867
615.599439	2606.788216
615.947830	2604.885180
616.296169	2609.258381
616.644454	2606.485746
616.992686	2605.911055
617.340864	2607.751076
617.688990	2602.720004
618.037063	2606.725201
618.385082	2603.836620
618.733048	2607.236878
619.080961	2604.189501
619.428821	2604.807042
619.776628	2606.263936
620.124382	2608.998762
620.472083	2606.221086
620.819731	2605.071703
621.167326	2602.659511
621.514868	2605.472474
621.862357	2603.834099
622.209793	2601.477360
622.557176	2603.934922
622.904506	2600.209510
623.251783	2593.398911
623.599007	2596.705908
623.946179	2596.824375
624.293297	2596.748758
624.640363	2596.458891
624.987376	2598.442585
625.334336	2597.762030
625.681243	2596.010229
626.028097	2597.915785
626.374899	2595.145671
626.721647	2593.401432
627.068343	2593.555187
627.414987	2595.170877
627.761577	2594.122317
628.108115	2592.708273
628.454600	2592.446133
628.801032	2590.782552
629.147412	2593.252717
629.493739	2591.947059
629.840014	2595.445619
630.186236	2593.613160
630.532405	2590.175093
630.878521	2591.624425
631.224585	2594.691967
631.570597	2590.333889
631.916556	2592.879672
632.262462	2592.851946
632.608316	2590.618715
632.954117	2590.008735
633.299866	2591.253900
633.645562	2590.212902
633.991206	2591.107707
634.336797	2585.912797
634.682336	2588.546800
635.027823	2588.158632
635.373257	2583.954309
635.718639	2583.354412
636.063968	2585.146542
636.409245	2583.321644
636.754470	2584.216449
637.099642	2584.024885
637.444762	2583.515729
637.789829	2583.155286
638.134845	2582.394072
638.479808	2581.519432
638.824719	2581.312745
639.169577	2582.615883
639.514383	2583.021696
639.859137	2583.848445
640.203839	2582.010944
640.548489	2586.089238
640.893086	2580.102868
641.237632	2577.478947
641.582125	2580.259143
641.926566	2573.814028
642.270955	2579.505491
642.615292	2581.852148
642.959576	2579.339133
643.303809	2580.198650
643.647990	2582.792323
643.992118	2581.295101
644.336195	2581.075810
644.680219	2578.225038
645.024192	2582.595718
645.368112	2578.441808
645.711981	2583.866089
646.055797	2582.729309
646.399562	2582.676377
646.743274	2582.719227
647.086935	2586.570668
647.430544	2583.651840
647.774101	2583.046902
648.117606	2582.716706
648.461059	2584.307190
648.804460	2584.649988
649.147810	2582.343661
649.491108	2582.177302
649.834354	2581.075810
650.177548	2581.136304
650.520690	2581.055646
650.863781	2582.152097
651.206820	2579.450038
651.549807	2578.953485
651.892742	2581.610173
652.235626	2578.267888
652.578458	2576.664801
652.921238	2576.692527
653.263967	2575.833010
653.606644	2577.403330
653.949269	2575.843093
654.291843	2576.364852
654.634365	2575.495253
654.976836	2575.341498
655.319255	2577.879719
655.661622	2574.822259
656.003938	2579.775193
656.346203	2575.727146
656.688416	2576.553895
657.030577	2576.264029
657.372687	2575.923751
657.714746	2576.808474
658.056753	2574.676066
658.398708	2571.399316
658.740612	2573.143555
659.082465	2573.433421
659.424266	2569.806311
659.766016	2572.145406
660.107715	2576.145562
660.449362	2574.071127
660.790958	2574.507187
661.132503	2574.797053
661.473996	2575.301169
661.815438	2578.784606
662.156829	2574.182033
662.498168	2574.998699
662.839456	2574.242526
663.180693	2572.417629
663.521879	2577.121025
663.863013	2574.305541
664.204097	2575.154975
664.545129	2573.330077
664.886110	2578.711509
665.227040	2574.797053
665.567918	2574.214800
665.908746	2578.915676
666.249522	2576.165727
666.590248	2575.039029
666.930922	2576.624472
667.271545	2576.911817
667.612118	2575.364183
667.952639	2578.867785
668.293109	2576.954667
668.633528	2576.334605
668.973896	2575.585994
669.314213	2576.329564
669.654480	2577.158834
669.994695	2573.559450
670.334859	2575.606158
670.674973	2575.172619
671.015035	2578.303176
671.355047	2573.768658
671.695008	2574.608010
672.034918	2574.784450
672.374777	2576.790830
672.714585	2576.145562
673.054342	2576.264029
673.394049	2575.568350
673.733705	2576.294276
674.073310	2572.331929
674.412864	2574.948288
674.752368	2573.312433
675.091820	2577.831828
675.431223	2575.838052
675.770574	2575.331416
676.109875	2569.730694
676.449125	2570.176836
676.788324	2569.828996
677.127473	2571.802608
677.466571	2566.441341
677.805619	2573.990469
678.144616	2572.319326
678.483562	2570.685992
678.822458	2571.525344
679.161303	2574.245047
679.500098	2570.096177
679.838842	2571.923596
680.177535	2572.087433
680.516179	2570.663307
680.854771	2573.067937
681.193314	2573.113308
681.531805	2574.431570
681.870247	2574.643298
682.208638	2579.308886
682.546978	2576.725295
682.885268	2577.010120
683.223508	2573.476271
683.561697	2574.229923
683.899836	2574.905438
684.237925	2575.407033
684.575963	2574.149265
684.913951	2572.268915
685.251889	2575.119687
685.589776	2575.986766
685.927614	2575.893504
686.265401	2573.907290
686.603137	2573.327557
686.940824	2577.859554
687.278460	2576.664801
687.616046	2577.748649
687.953582	2576.773186
688.291068	2576.412743
688.628504	2575.084399
688.965889	2580.110429
689.303224	2576.475757
689.640510	2575.631364
689.977745	2576.896694
690.314930	2568.747669
690.652065	2573.453586
690.989150	2571.215313
691.326185	2571.989131
691.663170	2572.092474
692.000105	2570.912844
692.336990	2569.254305
692.673825	2568.881259
693.010610	2570.249932
693.347345	2565.503686
693.684030	2562.400856
694.020665	2561.841288
694.357251	2562.272307
694.693786	2561.929508
695.030272	2565.811197
695.366707	2566.232133
695.703093	2565.337328
696.039429	2564.180383
696.375716	2564.717266
696.711952	2562.834395
697.048139	2562.022769
697.384276	2564.896227
697.720363	2566.330435
698.056400	2565.584345
698.392388	2562.564693
698.728326	2564.162739
699.064214	2563.361196
699.400053	2562.524364
699.735842	2563.000753
700.071581	2563.648542
700.407270	2564.538305
700.742910	2560.134857
701.078501	2559.058571
701.414042	2564.324056
701.749533	2560.749878
702.084974	2560.167625
702.420366	2561.387584
702.755709	2561.185938
703.091002	2558.844322
703.426246	2558.796431
703.761440	2562.214333
704.096584	2562.315156
704.431679	2560.820454
704.766725	2562.668037
705.101721	2557.379867
705.436668	2561.569066
705.771565	2561.352296
706.106413	2561.047306
706.441212	2559.061092
706.775961	2561.874055
707.110661	2561.594271
707.445311	2559.091338
707.779913	2563.036041
708.114465	2561.226267
708.448967	2561.296843
708.783421	2564.513099
709.117825	2560.835578
709.452180	2562.368088
709.786485	2564.376988
710.120742	2562.602502
710.454949	2565.218861
710.789107	2565.977555
711.123216	2561.954714
711.457275	2562.587379
711.791286	2562.552091
712.125247	2564.606361
712.459159	2566.753892
712.793023	2570.496949
713.126837	2566.340518
713.460602	2564.871021
713.794318	2566.201886
714.127985	2566.070816
714.461602	2561.700136
714.795171	2563.290620
715.128691	2561.916905
715.462162	2562.912533
715.795584	2560.666699
716.128957	2561.521175
716.462281	2558.115875
716.795556	2559.285423
717.128782	2558.370453
717.461960	2557.929352
717.795088	2560.480176
718.128167	2558.025134
718.461198	2557.924311
718.794180	2561.067471
719.127113	2556.845504
719.459997	2558.637635
719.792833	2555.388611
720.125619	2559.706359
720.458357	2557.861297
720.791046	2557.868859
721.123686	2558.073025
721.456278	2555.897767
721.788821	2557.195865
722.121315	2556.452294
722.453761	2554.640000
722.786158	2554.753426
723.118506	2555.096224
723.450805	2553.654454
723.783056	2554.123281
724.115259	2554.120761
724.447412	2554.861810
724.779518	2556.565720
725.111574	2554.166131
725.443582	2556.830381
725.775542	2554.075390
726.107453	2557.808365
726.439315	2556.898437
726.771129	2563.656103
727.102895	2556.674105
727.434612	2560.333983
727.766281	2557.185782
728.097901	2555.547407
728.429473	2553.359547
728.760996	2558.625032
729.092471	2556.608570
729.423897	2557.591595
729.755276	2558.730896
730.086606	2559.713921
730.417887	2562.121072
730.749120	2557.233673
731.080305	2559.827347
731.411442	2563.509910
731.742530	2559.754250
732.073570	2563.605692
732.404562	2562.882286
732.735506	2561.317008
733.066401	2561.289282
733.397249	2562.915054
733.728048	2560.389436
734.058798	2558.993036
734.389501	2556.611091
734.720156	2557.828529
735.050762	2555.560010
735.381320	2556.356513
735.711831	2556.175031
736.042293	2555.307953
736.372707	2554.985319
736.703073	2554.395504
737.033391	2556.333827
737.363661	2556.449774
737.693883	2557.727706
738.024056	2557.669733
738.354182	2556.185113
738.684260	2553.089845
739.014290	2558.088149
739.344272	2555.993549
739.674207	2556.285936
740.004093	2559.015721
740.333931	2557.445402
740.663722	2557.692418
740.993464	2555.305432
741.323159	2557.762994
741.652806	2556.079249
741.982405	2556.157387
742.311956	2558.914898
742.641460	2558.408262
742.970915	2555.970864
743.300323	2555.567572
743.629683	2556.469938
743.958996	2554.156049
744.288260	2551.965667
744.617477	2552.989022
744.946647	2548.847714
745.275768	2549.987015
745.604842	2549.792930
745.933869	2551.075904
746.262847	2549.528270
746.591778	2552.558003
746.920662	2551.917777
747.249498	2551.206974
747.578286	2551.136398
747.907027	2553.793086
748.235720	2553.641851
748.564365	2554.337530
748.892963	2552.860472
749.221514	2552.058929
749.550017	2554.294681
749.878473	2553.440205
750.206881	2553.656975
750.535242	2550.617159
750.863555	2554.173693
751.191821	2551.171686
751.520039	2553.099927
751.848210	2552.197561
752.176334	2552.240410
752.504411	2553.472972
752.832440	2551.030533
753.160421	2551.459032
753.488356	2551.675801
753.816243	2553.669577
754.144082	2550.627241
754.471875	2553.253682
754.799620	2554.594629
755.127318	2551.302756
755.454969	2552.542880
755.782572	2549.649257
756.110129	2550.072714
756.437638	2551.852242
756.765100	2551.063301
757.092515	2552.316028
757.419882	2551.948023
757.747203	2550.382745
758.074477	2550.705379
758.401703	2550.899463
758.728882	2549.797971
759.056014	2549.886192
759.383099	2549.271171
759.710138	2551.403579
760.037129	2553.528425
760.364073	2552.850390
760.690970	2549.475337
761.017820	2552.207643
761.344623	2552.033723
761.671379	2556.323745
761.998088	2549.737478
762.324751	2556.061605
762.651366	2556.868190
762.977935	2568.911506
763.304456	2571.109449
763.630931	2574.179512
763.957359	2571.963925
764.283740	2568.780436
764.610074	2562.176525
764.936362	2560.805331
765.262602	2553.992211
765.588796	2557.977243
765.914943	2555.043292
766.241044	2553.185627
766.567097	2550.087838
766.893104	2552.268137
767.219064	2550.770914
767.544978	2549.931562
767.870845	2549.772766
768.196665	2549.145142
768.522438	2553.394835
768.848165	2546.576674
769.173846	2548.459545
769.499479	2547.889895
769.825066	2547.547096
770.150607	2546.879143
770.476101	2546.599359
770.801548	2548.525080
771.126949	2546.148176
771.452303	2545.828063
771.777611	2549.770245
772.102872	2545.271015
772.428087	2543.390665
772.753256	2544.613145
773.078378	2546.614483
773.403453	2543.241951
773.728482	2543.226827
774.053465	2545.906201
774.378401	2543.342774
774.703291	2543.246992
775.028135	2544.703885
775.352932	2544.308155
775.677683	2544.411498
776.002388	2544.240099
776.327046	2543.851930
776.651658	2545.807898
776.976224	2545.281098
777.300743	2545.250851
777.625216	2542.480737
777.949643	2543.650284
778.274024	2545.586087
778.598359	2543.478885
778.922647	2536.244829
779.246889	2540.363452
779.571086	2540.013092
779.895236	2543.478885
780.219339	2542.236241
780.543397	2544.177085
780.867409	2541.769934
781.191374	2544.383772
781.515294	2542.914276
781.839167	2545.152548
782.162995	2541.737166
782.486776	2545.462579
782.810511	2542.097609
783.134201	2542.843700
783.457844	2545.084492
783.781441	2541.855633
784.104993	2540.723894
784.428498	2542.447969
784.751958	2540.192053
785.075372	2543.335212
785.398739	2542.195911
785.722061	2544.829914
786.045337	2543.962836
786.368568	2542.213555
786.691752	2539.428318
787.014891	2544.103988
787.337983	2542.810932
787.661030	2547.481561
787.984031	2545.379400
788.306987	2548.192364
788.629897	2547.988197
788.952760	2547.849565
789.275579	2544.557692
789.598351	2548.033567
789.921078	2544.729091
790.243759	2541.832948
790.566395	2543.957795
790.888984	2541.870757
791.211529	2544.459389
791.534027	2544.224976
791.856480	2543.574667
792.178888	2539.884542
792.501249	2540.812115
792.823566	2544.955943
793.145836	2540.723894
793.468062	2542.407640
793.790241	2543.022661
794.112375	2542.269008
794.434464	2541.893442
794.756507	2541.570808
795.078505	2543.342774
795.400457	2541.172557
795.722364	2539.771116
796.044226	2541.452341
796.366042	2539.889583
796.687812	2541.164995
797.009538	2544.618186
797.331218	2541.540561
797.652852	2543.950233
797.974442	2545.137425
798.295986	2543.196580
798.617484	2543.120963
798.938938	2543.307486
799.260346	2539.922351
799.581709	2543.267157
799.903026	2544.426622
800.224299	2540.290355
800.545526	2541.248174
800.866708	2541.495191
801.187845	2542.876467
801.508936	2540.681045
801.829983	2542.132897
802.150984	2542.677342
802.471940	2540.892773
802.792851	2539.975283
803.113717	2541.114584
803.434538	2541.580891
803.755314	2540.209697
804.076045	2539.692978
804.396731	2540.991076
804.717372	2538.536034
805.037967	2540.928061
805.358518	2541.142310
805.679024	2539.256919
805.999485	2542.042156
806.319901	2539.186342
806.640272	2541.391847
806.960598	2539.985365
807.280879	2542.410160
807.601115	2542.836138
807.921306	2540.547454
808.241453	2538.210879
808.561554	2540.628113
808.881611	2544.434184
809.201623	2542.034594
809.521590	2542.652136
809.841513	2541.734646
810.161390	2544.482075
810.481223	2540.537372
810.801011	2541.711961
811.120755	2541.084337
811.440453	2542.808412
811.760107	2541.326312
812.079716	2537.550488
812.399281	2535.861702
812.718801	2537.268183
813.038276	2533.971269
813.357707	2539.103163
813.677093	2541.021322
813.996434	2541.159954
814.315731	2538.989738
814.634983	2538.309182
814.954191	2541.616179
815.273354	2539.531662
815.592473	2541.245654
815.911547	2542.652136
816.230577	2541.863195
816.549562	2541.843031
816.868502	2542.301776
817.187399	2542.306817
817.506250	2541.328833
817.825058	2544.111550
818.143821	2544.794626
818.462539	2543.758669
818.781213	2542.710109
819.099843	2543.937630
819.418429	2549.361912
819.736970	2550.571788
820.055466	2550.375183
820.373919	2554.912222
820.692327	2557.566389
821.010691	2564.702143
821.329011	2582.489854
821.647286	2618.748353
821.965517	2654.003662
822.283704	2675.932682
822.601847	2682.501305
822.919945	2667.851712
823.237999	2644.410347
823.556010	2625.213633
823.873976	2605.961466
824.191897	2594.071905
824.509775	2581.811819
824.827609	2572.515931
825.145398	2570.990982
825.463144	2570.670869
825.780845	2572.253791
826.098502	2574.003072
826.416116	2584.743250
826.733685	2592.562079
827.051210	2599.491145
827.368692	2596.012749
827.686129	2584.864238
828.003522	2575.434759
828.320872	2563.610733
828.638177	2557.500854
828.955439	2551.632951
829.272656	2547.587425
829.589830	2546.692621
829.906960	2546.160779
830.224046	2544.915614
830.541088	2546.145655
830.858086	2544.971067
831.175041	2546.576674
831.491952	2544.832435
831.808819	2545.119781
832.125642	2541.832948
832.442421	2549.281253
832.759157	2553.425082
833.075849	2558.998077
833.392497	2566.131310
833.709101	2571.374110
834.025662	2572.384861
834.342179	2567.290775
834.658653	2562.836916
834.975083	2555.663354
835.291469	2559.189641
835.607811	2549.699669
835.924110	2546.193546
836.240366	2544.706406
836.556578	2541.129707
836.872746	2542.689944
837.188871	2542.697506
837.504952	2542.483257
837.820990	2537.847916
838.136984	2537.926054
838.452935	2538.389840
838.768842	2540.300438
839.084706	2538.427649
839.400526	2542.034594
839.716303	2545.487785
840.032037	2550.203784
840.347727	2551.214536
840.663373	2551.481717
840.978977	2544.333361
841.294537	2541.911086
841.610054	2541.419574
841.925527	2541.543082
842.240957	2539.859337
842.556344	2540.247505
842.871687	2539.171219
843.186987	2535.750796
843.502244	2537.792463
843.817458	2537.464788
844.132629	2532.854653
844.447756	2535.536547
844.762840	2530.308871
845.077881	2532.431196
845.392879	2530.210568
845.707833	2533.731814
846.022745	2530.888603
846.337613	2536.133924
846.652438	2534.409849
846.967221	2534.314067
847.281960	2534.782895
847.596656	2536.562422
847.911309	2534.498069
848.225919	2534.301464
848.540485	2533.991433
848.855009	2534.805580
849.169490	2533.326001
849.483928	2536.106197
849.798323	2534.059489
850.112675	2534.293903
850.426984	2536.259953
850.741251	2534.568646
851.055474	2536.282638
851.369654	2537.381609
851.683792	2535.496218
851.997887	2536.617875
852.311938	2534.936650
852.625947	2534.223327
852.939914	2534.193080
853.253837	2537.379089
853.567718	2535.264325
853.881555	2534.422452
854.195350	2535.105528
854.509103	2534.596372
854.822812	2534.276259
855.136479	2533.726773
855.450103	2535.760878
855.763685	2532.065713
856.077224	2535.496218
856.390720	2534.871115
856.704173	2533.724252
857.017584	2535.660055
857.330953	2536.237268
857.644278	2535.196269
857.957561	2541.706919
858.270802	2535.954963
858.584000	2535.287010
858.897155	2533.394057
859.210268	2534.021680
859.523339	2534.019160
859.836367	2535.649973
860.149352	2538.087371
860.462295	2535.052596
860.775195	2533.424304
861.088054	2530.956659
861.400869	2531.972451
861.713642	2529.474560
862.026373	2535.743234
862.339062	2535.478574
862.651708	2535.859181
862.964312	2535.957483
863.276873	2534.079654
863.589392	2532.645445
863.901869	2535.849099
864.214303	2534.445137
864.526696	2536.572504
864.839045	2535.491177
865.151353	2534.747607
865.463619	2535.312216
865.775842	2533.446989
866.088023	2537.381609
866.400162	2535.516382
866.712258	2536.660724
867.024313	2538.379758
867.336325	2536.698533
867.648296	2532.915147
867.960224	2535.551671
868.272110	2536.496887
868.583954	2537.351362
868.895755	2534.150230
869.207515	2536.413708
869.519233	2537.401774
869.830909	2538.072247
870.142542	2537.215251
870.454134	2535.244160
870.765684	2536.912782
871.077191	2533.439427
871.388657	2538.034439
871.700081	2535.609644
872.011463	2535.776002
872.322803	2537.056455
872.634101	2538.878832
872.945357	2538.273894
873.256571	2536.897659
873.567744	2537.971424
873.878874	2539.234233
874.189963	2539.680376
874.501010	2538.709953
874.812015	2539.178781
875.122979	2539.279604
875.433900	2538.281455
875.744780	2538.594007
876.055618	2539.216589
876.366415	2539.143493
876.677169	2537.706764
876.987882	2538.266332
877.298554	2535.740714
877.609183	2536.118800
877.919771	2537.999151
878.230317	2535.153419
878.540822	2540.471837
878.851285	2541.666590
879.161707	2544.527445
879.472087	2547.816798
879.782425	2548.986346
880.092722	2558.332645
880.402977	2567.555436
880.713191	2586.855493
881.023363	2606.326950
881.333494	2618.730709
881.643583	2618.198867
881.953631	2617.349433
882.263637	2615.164093
882.573602	2606.866353
882.883526	2598.329159
883.193408	2590.371698
883.503248	2578.968608
883.813048	2572.785633
884.122806	2570.111301
884.432522	2561.541339
884.742197	2560.023952
885.051831	2555.181924
885.361424	2552.091696
885.670975	2548.537683
885.980485	2549.203115
886.289954	2545.031560
886.599382	2546.443083
886.908768	2543.204142
887.218113	2543.627599
887.527417	2542.284132
887.836680	2543.299924
888.145901	2540.078627
888.455082	2539.297248
888.764221	2539.347659
889.073319	2537.931095
889.382376	2540.207176
889.691392	2539.829090
890.000366	2538.886394
890.309300	2539.224151
890.618193	2539.546785
890.927044	2539.209028
891.235855	2542.339584
891.544625	2543.743546
891.853353	2538.727597
892.162041	2539.508976
892.470687	2542.573998
892.779293	2542.899152
893.087858	2540.784388
893.396381	2541.580891
893.704864	2545.238248
894.013306	2548.865358
894.321707	2558.037737
894.630068	2564.450085
894.938387	2566.663152
895.246665	2567.729356
895.554903	2562.907492
895.863100	2556.595967
896.171256	2553.029351
896.479371	2552.943651
896.787446	2550.503733
897.095480	2543.983000
897.403473	2543.115922
897.711425	2542.889070
898.019336	2545.323947
898.327207	2541.661549
898.635038	2541.822866
898.942827	2539.584594
899.250576	2541.412012
899.558284	2539.987886
899.865952	2540.146682
900.173579	2540.403781
900.481165	2537.812628
900.788711	2540.287835
901.096216	2538.042001
901.403681	2538.054603
901.711105	2535.067720
902.018489	2536.534696
902.325832	2538.150385
902.633135	2540.292876
902.940397	2540.287835
903.247619	2540.497042
903.554800	2547.549617
903.861941	2557.702501
904.169041	2570.501990
904.476101	2578.789647
904.783121	2577.844431
905.090100	2568.747669
905.397039	2565.153326
905.703938	2555.433981
906.010796	2553.911553
906.317614	2550.334854
906.624391	2546.758156
906.931129	2541.432177
907.237826	2539.710622
907.544483	2539.859337
907.851099	2539.080478
908.157675	2538.165509
908.464211	2537.215251
908.770707	2531.203675
909.077163	2536.270035
909.383578	2532.461443
909.689954	2531.538912
909.996289	2530.071936
910.302584	2531.584282
910.608839	2534.281300
910.915054	2535.942360
911.221229	2532.428676
911.527363	2536.207021
911.833458	2531.808614
912.139513	2535.715508
912.445527	2534.130065
912.751502	2534.233409
913.057436	2537.119469
913.363331	2537.242978
913.669186	2536.328008
913.975000	2539.201466
914.280775	2541.238092
914.586510	2545.255892
914.892205	2546.516180
915.197859	2551.985832
915.503475	2558.544373
915.809050	2568.946794
916.114585	2572.132803
916.420081	2574.998699
916.725536	2575.099523
917.030952	2569.163564
917.336328	2562.731052
917.641665	2561.584189
917.946961	2556.301060
918.252218	2552.941131
918.557435	2548.585574
918.862612	2546.866540
919.167750	2543.620037
919.472848	2544.860161
919.777906	2540.441590
920.082925	2539.403112
920.387904	2539.181301
920.692843	2539.183822
920.997743	2538.324305
921.302603	2538.760365
921.607423	2539.133410
921.912204	2537.883204
922.216946	2537.056455
922.521647	2533.767102
922.826310	2534.694674
923.130932	2536.315405
923.435516	2533.071423
923.740059	2536.935467
924.044564	2533.298275
924.349028	2535.433203
924.653454	2529.930784
924.957840	2532.297606
925.262186	2528.559590
925.566493	2531.448171
925.870761	2522.714372
926.174989	2533.774664
926.479178	2532.567308
926.783328	2533.021011
927.087438	2533.207534
927.391509	2530.818027
927.695541	2529.484642
927.999533	2530.273583
928.303486	2532.181659
928.607400	2532.784077
928.911275	2529.928263
929.215110	2530.923891
929.518906	2528.761236
929.822663	2529.545136
930.126381	2528.562111
930.430060	2532.164015
930.733699	2532.365661
931.037299	2531.962369
931.340861	2530.777698
931.644383	2532.612678
931.947866	2529.754344
932.251309	2535.649973
932.554714	2530.810465
932.858080	2532.521937
933.161407	2530.316432
933.464694	2534.588810
933.767943	2534.901362
934.071153	2530.477749
934.374323	2532.199303
934.677455	2533.149561
934.980548	2529.719056
935.283602	2530.273582
935.586617	2529.497245
935.889593	2529.225022
936.192530	2529.923222
936.495428	2527.619415
936.798287	2531.301978
937.101108	2529.882893
937.403890	2530.949097
937.706632	2531.982534
938.009336	2530.951618
938.312002	2535.922195
938.614628	2533.220137
938.917216	2533.454551
939.219765	2532.577390
939.522275	2533.487318
939.824747	2534.581248
940.127179	2530.571011
940.429573	2530.755013
940.731929	2531.672503
941.034246	2526.923736
941.336524	2531.659900
941.638763	2531.801052
941.940964	2532.368182
942.243126	2530.757533
942.545250	2532.191742
942.847335	2532.486649
943.149381	2531.649817
943.451389	2530.013963
943.753359	2534.500590
944.055290	2531.599406
944.357182	2532.287523
944.659036	2530.669313
944.960851	2530.697039
945.262628	2531.367513
945.564367	2532.012781
945.866067	2530.480270
946.167729	2530.200486
946.469352	2532.002698
946.770937	2535.413039
947.072484	2531.521268
947.373992	2531.012112
947.675462	2530.439941
947.976893	2530.374406
948.278286	2531.927081
948.579641	2531.163346
948.880958	2528.108407
949.182236	2532.894982
949.483476	2527.858870
949.784678	2532.252235
950.085841	2533.749458
950.386967	2532.708460
950.688054	2530.109745
950.989103	2530.064375
951.290114	2530.165198
951.591087	2531.727955
951.892021	2533.641073
952.192917	2533.076464
952.493776	2530.588655
952.794596	2530.828109
953.095378	2530.795342
953.396122	2531.342307
953.696828	2531.334745
953.997496	2533.530168
954.298126	2531.342307
954.598718	2530.525640
954.899272	2530.510517
955.199788	2530.208047
955.500266	2530.323994
955.800706	2528.481452
956.101108	2526.280989
956.401472	2529.192255
956.701798	2525.187058
957.002087	2528.930115
957.302337	2528.259642
957.602550	2529.096473
957.902724	2528.025228
958.202861	2531.022194
958.502960	2528.902389
958.803022	2531.614529
959.103045	2529.908099
959.403031	2530.971782
959.702979	2527.178314
960.002889	2528.998171
960.302762	2528.045393
960.602596	2526.901051
960.902393	2528.652852
961.202153	2527.979858
961.501875	2529.162008
961.801559	2528.471370
962.101205	2524.680422
962.400814	2527.979858
962.700385	2525.950793
962.999918	2529.315763
963.299414	2527.354754
963.598873	2530.001360
963.898293	2529.096473
964.197677	2527.011956
964.497022	2525.902902
964.796331	2528.572193
965.095601	2525.726462
965.394835	2528.466329
965.694030	2526.328880
965.993189	2525.963396
966.292309	2526.994312
966.591393	2524.602284
966.890439	2525.242511
967.189447	2529.761905
967.488419	2529.154446
967.787353	2526.863242
968.086249	2526.810310
968.385108	2530.255938
968.683930	2526.845598
968.982714	2526.991791
969.281462	2528.305012
969.580172	2527.344672
969.878844	2526.444826
970.177480	2529.320804
970.476078	2527.571524
970.774639	2529.494724
971.073162	2529.746782
971.371649	2526.500279
971.670098	2524.014990
971.968510	2526.482635
972.266885	2523.576410
972.565223	2527.518592
972.863524	2526.994312
973.161788	2528.529343
973.460014	2527.533715
973.758204	2527.029600
974.056356	2528.032790
974.354471	2527.465660
974.652550	2528.448685
974.950591	2527.879034
975.248595	2528.841895
975.546563	2526.167563
975.844493	2526.021369
976.142386	2527.937008
976.440243	2527.546318
976.738062	2527.672347
977.035845	2528.904909
977.333590	2527.579086
977.631299	2527.964734
977.928971	2531.846422
978.226606	2526.727131
978.524204	2526.366688
978.821765	2526.742254
979.119290	2526.328880
979.416777	2529.109076
979.714228	2528.857018
980.011642	2526.555732
980.309020	2528.531864
980.606360	2526.926256
980.903664	2524.435926
981.200931	2525.953314
981.498162	2527.838705
981.795356	2527.377440
982.092513	2529.517409
982.389633	2528.887265
982.686717	2529.552697
982.983764	2530.666792
983.280775	2529.376257
983.577749	2526.706966
983.874686	2530.414735
984.171587	2531.143182
984.468451	2531.624612
984.765279	2531.914478
985.062070	2532.131248
985.358824	2527.944569
985.655543	2529.645959
985.952224	2526.908612
986.248869	2527.057326
986.545478	2521.726306
986.842050	2527.420289
987.138586	2520.592047
987.435086	2523.170597
987.731549	2521.391069
988.027975	2528.163860
988.324366	2528.806607
988.620719	2527.382481
988.917037	2526.964065
989.213318	2527.505989
989.509563	2528.073119
989.805772	2527.841226
990.101944	2525.686133
990.398080	2530.321473
990.694180	2522.716893
990.990244	2523.987264
991.286271	2525.464322
991.582262	2524.750998
991.878217	2526.802748
992.174136	2527.069929
992.470019	2526.948942
992.765865	2523.838550
993.061676	2526.787625
993.357450	2524.839219
993.653188	2522.605988
993.948890	2526.094466
994.244556	2526.127233
994.540186	2526.530526
994.835780	2526.737213
995.131337	2527.556401
995.426859	2528.481452
995.722345	2526.717048
996.017795	2527.962213
996.313208	2528.345341
996.608586	2526.464991
996.903928	2527.931967
997.199234	2523.730165
997.494504	2528.426000
997.789738	2523.659589
998.084936	2525.776873
998.380099	2525.353416
998.675225	2528.952800
998.970316	2525.769312
999.265371	2526.223015
999.560390	2523.833508
999.855373	2526.059178
1000.150320	2525.771832
1000.445232	2524.869466
1000.740108	2526.628828
1001.034948	2526.134795
1001.329752	2525.055988
1001.624521	2526.139836
1001.919254	2524.201513
1002.213951	2526.555732
1002.508613	2526.044054
1002.803239	2524.201513
1003.097829	2521.685977
1003.392384	2524.262007
1003.686903	2526.452388
1003.981386	2528.552028
1004.275834	2525.923067
1004.570246	2527.054806
1004.864623	2525.882738
1005.158964	2527.074970
1005.453270	2523.261338
1005.747540	2526.603623
1006.041775	2525.736544
1006.335974	2524.617408
1006.630138	2525.726462
1006.924266	2527.228726
1007.218359	2523.939373
1007.512416	2525.734023
1007.806438	2526.722090
1008.100425	2524.619928
1008.394376	2526.764939
1008.688292	2526.296112
1008.982172	2525.335772
1009.276017	2525.688653
1009.569827	2525.688653
1009.863602	2525.786956
1010.157341	2525.499610
1010.451045	2525.713859
1010.744714	2525.852491
1011.038347	2522.898374
1011.331945	2525.464322
1011.625508	2525.156811
1011.919036	2524.859383
1012.212528	2521.539783
1012.505986	2524.360309
1012.799408	2528.249559
1013.092795	2525.718900
1013.386147	2525.759229
1013.679464	2524.254445
1013.972745	2525.000536
1014.265992	2526.270906
1014.559204	2524.458612
1014.852380	2523.911646
1015.145521	2522.167407
1015.438628	2525.895340
1015.731699	2528.438603
1016.024736	2524.360309
1016.317737	2527.379960
1016.610703	2524.814013
1016.903635	2523.914167
1017.196531	2521.701100
1017.489393	2523.052130
1017.782219	2521.728827
1018.075011	2525.113962
1018.367768	2523.016842
1018.660490	2525.232429
1018.953177	2525.232429
1019.245829	2525.232429
