Dividing Wavelength (nm)	Counts (n)	Blue Motor Position (mm): 0.000000	Red Motor Position (mm): 20.400000	
326.493990	2126.646038
326.888308	2126.646038
327.282561	2126.646038
327.676750	2094.702767
328.070874	2096.104208
328.464933	2097.306523
328.858929	2104.805239
329.252859	2114.030551
329.646726	2125.912550
330.040528	2136.090640
330.434265	2153.021355
330.827938	2170.751093
331.221547	2190.514937
331.615091	2208.534541
332.008571	2228.411811
332.401986	2247.031313
332.795338	2265.766761
333.188625	2285.976747
333.581847	2305.153296
333.975006	2326.346307
334.368100	2343.748370
334.761129	2361.125227
335.154095	2377.698020
335.546996	2394.283416
335.939833	2409.573236
336.332606	2425.447829
336.725315	2435.540219
337.117960	2446.761828
337.510540	2454.235338
337.903056	2467.574232
338.295508	2473.681589
338.687896	2479.869606
339.080220	2489.616677
339.472480	2496.356699
339.864676	2500.830723
340.256807	2506.643174
340.648875	2508.175685
341.040879	2510.928155
341.432818	2515.268588
341.824694	2514.582991
342.216506	2513.027795
342.608253	2516.417971
342.999937	2514.557785
343.391557	2511.336488
343.783113	2513.163906
344.174605	2513.980573
344.566033	2510.335819
344.957397	2508.331960
345.348697	2507.842968
345.739934	2504.626712
346.131106	2502.854747
346.522215	2503.474809
346.913260	2500.180415
347.304241	2501.803666
347.695159	2495.131699
348.086012	2496.611278
348.476802	2492.623725
348.867528	2493.941987
349.258191	2492.953921
349.648789	2491.217243
350.039324	2492.069198
350.429796	2489.150370
350.820203	2486.002169
351.210548	2483.655512
351.600828	2485.046871
351.991045	2481.142497
352.381198	2485.261120
352.771288	2484.111737
353.161314	2482.221304
353.551276	2484.131901
353.941175	2481.429843
354.331010	2483.869761
354.720782	2481.540748
355.110490	2483.501757
355.500135	2482.264154
355.889717	2482.307004
356.279235	2479.637713
356.668689	2483.615183
357.058080	2483.489154
357.447408	2483.665595
357.836672	2482.488485
358.225873	2480.308186
358.615010	2483.375728
359.004084	2486.506285
359.393095	2488.280771
359.782043	2487.199443
360.170927	2489.019300
360.559748	2487.738847
360.948505	2491.058447
361.337199	2490.322438
361.725830	2489.437716
362.114398	2490.360247
362.502903	2491.731441
362.891344	2492.427120
363.279722	2492.618684
363.668037	2494.070536
364.056289	2491.255052
364.444478	2499.116731
364.832603	2493.941987
365.220665	2497.629591
365.608665	2495.827378
365.996601	2498.481546
366.384474	2499.255363
366.772284	2498.350476
367.160031	2502.290137
367.547715	2503.023625
367.935336	2506.318019
368.322893	2510.234996
368.710388	2511.621313
369.097820	2521.355781
369.485189	2519.374608
369.872495	2527.238808
370.259738	2534.455220
370.646918	2541.338915
371.034035	2546.148176
371.421090	2557.649568
371.808081	2567.867987
372.195010	2576.886612
372.581875	2587.984712
372.968678	2605.006168
373.355418	2615.277519
373.742096	2632.099849
374.128710	2647.944196
374.515262	2663.450785
374.901751	2679.330419
375.288177	2689.528674
375.674540	2713.640512
376.060841	2729.484859
376.447079	2752.442274
376.833254	2772.972373
377.219367	2785.219856
377.605417	2824.089673
377.991404	2832.296671
378.377329	2852.093282
378.763191	2871.569780
379.148991	2908.987745
379.534727	2932.948349
379.920402	2962.388687
380.306013	2972.796149
380.691563	3023.389169
381.077049	3047.062428
381.462474	3065.051785
381.847835	3102.288268
382.233134	3123.241824
382.618371	3120.386011
383.003545	3191.579706
383.388657	3198.380222
383.773706	3231.314080
384.158693	3248.237234
384.543618	3272.782612
384.928480	3310.646718
385.313280	3351.729602
385.698017	3354.817308
386.082692	3407.162129
386.467305	3413.319899
386.851856	3443.952470
387.236344	3465.059781
387.620770	3498.086901
388.005133	3524.174872
388.389435	3550.608162
388.773674	3567.223805
389.157851	3605.455916
389.541965	3618.991414
389.926018	3583.214345
390.310008	3655.118843
390.693936	3674.701205
391.077802	3716.174778
391.461606	3702.649362
391.845348	3769.028755
392.229027	3765.699073
392.612645	3779.247174
392.996200	3860.641644
393.379694	3896.630442
393.763125	3961.431954
394.146494	3928.697221
394.529801	3989.712827
394.913047	4038.112945
395.296230	4002.144312
395.679351	4061.445925
396.062410	4081.545006
396.445408	4061.261923
396.828343	4095.806430
397.211217	4117.828711
397.594028	4041.001526
397.976778	4107.209520
398.359466	4132.788335
398.742092	4164.605577
399.124656	4084.463834
399.507158	4161.255730
399.889598	4189.604659
400.271977	4252.120008
400.654294	4224.204618
401.036549	4229.570927
401.418742	4201.776525
401.800874	4301.649344
402.182944	4321.491326
402.564952	4386.116398
402.946898	4372.079305
403.328783	4369.379767
403.710606	4282.366931
404.092367	4475.433041
404.474067	4440.205458
404.855705	4450.063434
405.237282	4374.057958
405.618797	4484.154237
406.000250	4519.580946
406.381642	4598.802678
406.762972	4559.443870
407.144240	4570.657917
407.525447	4572.351744
407.906593	4630.466166
408.287677	4671.848998
408.668700	4599.470631
409.049661	4650.333353
409.430560	4692.346329
409.811399	4618.460658
410.192176	4775.991674
410.572891	4712.082447
410.953545	4815.955422
411.334138	4693.843552
411.714669	4756.855454
412.095139	4652.705216
412.475547	4790.311072
412.855894	4768.424902
413.236180	4771.031179
413.616405	4719.465216
413.996568	4799.551507
414.376670	4735.428030
414.756711	4687.819373
415.136691	4705.231518
415.516609	4774.128968
415.896466	4798.669305
416.276262	4827.471937
416.655997	4793.885250
417.035670	4955.779385
417.415283	5029.881826
417.794834	4961.014623
418.174324	4904.407507
418.553753	4800.773987
418.933121	4957.022030
419.312428	4998.382176
419.691674	4924.710754
420.070859	5015.123848
420.449983	4920.093057
420.829045	4995.107947
421.208047	4890.388058
421.586988	4927.032205
421.965867	4911.165174
422.344686	4990.704499
422.723444	4844.879042
423.102141	4666.054191
423.480777	4881.258528
423.859352	4659.604035
424.237866	4835.399152
424.616319	4791.750321
424.994712	4844.503476
425.373044	4702.531981
425.751314	4773.012352
426.129524	4585.554526
426.507673	4691.517059
426.885762	4710.865008
427.263789	4610.604020
427.641756	4492.648581
428.019662	4524.717882
428.397508	4485.409484
428.775292	4399.026793
429.153016	4414.707302
429.530679	4326.023323
429.908282	4324.173220
430.285824	4208.665262
430.663305	4307.633194
431.040726	4110.559367
431.418086	4067.601174
431.795385	4071.147626
432.172624	4025.777241
432.549802	3977.407370
432.926920	3932.551183
433.303977	3882.868092
433.680974	3856.782641
434.057910	3810.915703
434.434786	3763.402828
434.811601	3703.539126
435.188355	3747.472782
435.565050	3654.115653
435.941683	3598.305039
436.318257	3617.347998
436.694770	3564.209195
437.071222	3525.699821
437.447614	3460.613484
437.823946	3396.734503
438.200218	3394.166035
438.576429	3320.905467
438.952580	3297.751447
439.328670	3269.561315
439.704700	3217.655074
440.080670	3175.962211
440.456580	3182.011596
440.832429	3126.102679
441.208218	3070.652507
441.583947	3061.969120
441.959616	3030.489635
442.335224	2987.591936
442.710773	2980.118425
443.086261	2951.073818
443.461689	2904.415418
443.837057	2893.859242
444.212365	2880.570760
444.587612	2851.692511
444.962800	2837.965449
445.337927	2814.302272
445.712995	2768.168153
446.088002	2784.272119
446.462949	2756.018972
446.837837	2736.653380
447.212664	2728.090980
447.587431	2720.869527
447.962139	2727.695249
448.336786	2751.396234
448.711374	2728.574931
449.085901	2679.791685
449.460369	2663.569252
449.834776	2652.662716
450.209124	2652.854279
450.583412	2647.087199
450.957640	2643.457569
451.331808	2628.898716
451.705917	2612.262909
452.079965	2606.911724
452.453954	2601.590786
452.827883	2597.905702
453.201752	2592.990577
453.575562	2586.215267
453.949311	2584.032447
454.323001	2577.788978
454.696632	2577.640264
455.070202	2580.891808
455.443713	2575.931313
455.817164	2571.530386
456.190556	2570.575087
456.563888	2573.282187
456.937160	2568.001578
457.310373	2567.573080
457.683526	2565.387740
458.056619	2564.397153
458.429653	2562.799107
458.802628	2562.294992
459.175542	2562.156360
459.548398	2564.142575
459.921194	2563.945970
460.293930	2562.098387
460.666607	2565.695250
461.039224	2567.348748
461.411782	2567.653738
461.784280	2565.685168
462.156719	2565.120558
462.529099	2565.526371
462.901419	2563.366237
463.273680	2561.712738
463.645882	2559.996226
464.018024	2561.304405
464.390106	2560.097049
464.762130	2563.454457
465.134094	2565.770867
465.505999	2573.456106
465.877845	2577.093299
466.249631	2582.240317
466.621358	2577.925089
466.993026	2575.961560
467.364634	2579.893660
467.736184	2572.720098
468.107674	2569.886969
468.479105	2569.624829
468.850477	2568.336815
469.221790	2567.605847
469.593043	2566.199365
469.964238	2566.557287
470.335373	2567.948646
470.706449	2566.103583
471.077467	2566.723645
471.448425	2572.949470
471.819324	2580.521283
472.190164	2578.323340
472.560945	2570.905282
472.931667	2569.581980
473.302330	2567.827658
473.672934	2565.241546
474.043479	2567.996537
474.413965	2568.089798
474.784393	2563.429251
475.154761	2564.059396
475.525070	2566.806824
475.895321	2565.365054
476.265513	2565.523851
476.635645	2570.348235
477.005719	2571.263204
477.375734	2572.221024
477.745691	2572.957032
478.115588	2573.806467
478.485427	2574.411405
478.855207	2581.741243
479.224928	2582.159658
479.594591	2586.474886
479.964194	2582.512539
480.333739	2584.760894
480.703226	2585.716192
481.072653	2585.577561
481.442022	2587.765422
481.811333	2586.346337
482.180584	2588.786255
482.549777	2586.767273
482.918912	2583.140163
483.287988	2583.762745
483.657005	2582.036150
484.025964	2583.717375
484.394864	2580.619586
484.763706	2582.318455
485.132489	2580.571695
485.501213	2582.570512
485.869879	2580.448187
486.238487	2578.189750
486.607036	2580.720409
486.975527	2580.498598
487.343959	2580.410378
487.712333	2583.067066
488.080648	2580.687642
488.448905	2581.307703
488.817104	2579.046746
489.185244	2578.610686
489.553326	2581.837025
489.921350	2583.540935
490.289315	2586.396748
490.657222	2591.279106
491.025070	2590.976637
491.392861	2590.394383
491.760593	2587.349526
492.128267	2584.798702
492.495883	2583.966912
492.863440	2586.555545
493.230939	2579.402147
493.598380	2579.402147
493.965763	2577.058011
494.333088	2575.951478
494.700354	2573.917372
495.067563	2575.762434
495.434713	2571.086764
495.801805	2576.495922
496.168839	2574.877712
496.535815	2576.291755
496.902733	2576.697568
497.269593	2575.712023
497.636395	2575.989286
498.003139	2575.154975
498.369825	2575.442321
498.736453	2575.172619
499.103023	2575.001220
499.469535	2575.333936
499.835989	2576.112794
500.202385	2573.118349
500.568723	2574.905438
500.935003	2574.297979
501.301226	2573.874522
501.667390	2579.056828
502.033497	2574.703792
502.399546	2577.332754
502.765537	2575.132290
503.131470	2573.236816
503.497345	2579.770152
503.863163	2575.432239
504.228923	2576.158165
504.594625	2575.649008
504.960269	2573.776220
505.325856	2579.248392
505.691385	2574.547516
506.056856	2576.427867
506.422270	2575.270922
506.787625	2576.170768
507.152924	2574.978535
507.518164	2575.931313
507.883347	2574.368555
508.248472	2577.872157
508.613540	2578.439287
508.978550	2574.164388
509.343503	2576.241344
509.708398	2578.083886
510.073236	2578.608166
510.438016	2579.160172
510.802738	2578.598083
511.167403	2577.859554
511.532010	2576.299317
511.896561	2578.703947
512.261053	2576.314441
512.625488	2576.899214
512.989866	2572.629357
513.354186	2577.163875
513.718449	2575.124728
514.082655	2579.407188
514.446803	2578.620768
514.810894	2577.436097
515.174927	2581.184195
515.538904	2579.497929
515.902822	2581.083372
516.266684	2577.395768
516.630488	2578.451890
516.994235	2580.559092
517.357925	2578.598083
517.721558	2581.305183
518.085133	2580.448187
518.448651	2580.294432
518.812112	2579.044225
519.175516	2578.935841
519.538863	2582.878023
519.902152	2583.787951
520.265385	2582.142014
520.628560	2582.336099
520.991678	2578.958526
521.354739	2580.478434
521.717743	2580.637230
522.080690	2580.488516
522.443580	2582.008424
522.806413	2582.439443
523.169189	2579.933989
523.531908	2582.346181
523.894569	2582.046232
524.257174	2581.920204
524.619722	2580.115471
524.982213	2581.584967
525.344647	2583.578743
525.707025	2580.980028
526.069345	2582.144535
526.431608	2582.177302
526.793815	2583.099834
527.155964	2581.595049
527.518057	2582.111767
527.880093	2580.985070
528.242072	2583.238465
528.603995	2581.809298
528.965860	2578.106571
529.327669	2581.590008
529.689421	2581.736202
530.051117	2581.411047
530.412755	2580.705286
530.774337	2581.945409
531.135862	2580.430543
531.497331	2580.702765
531.858743	2576.296797
532.220098	2578.283011
532.581396	2578.870306
532.942638	2580.624627
533.303824	2580.284349
533.664953	2579.752507
534.026025	2581.065728
534.387040	2582.668815
534.747999	2580.811150
535.108902	2582.295770
535.469748	2580.082703
535.830537	2579.762590
536.191270	2578.651015
536.551947	2581.655543
536.912567	2583.268712
537.273131	2577.673032
537.633638	2576.964749
537.994089	2579.576067
538.354483	2577.942733
538.714821	2579.848289
539.075103	2577.509194
539.435328	2581.022878
539.795497	2581.733681
540.155609	2583.636717
540.515665	2580.932138
540.875665	2581.229566
541.235609	2577.426015
541.595496	2582.094123
541.955328	2580.947261
542.315102	2583.324165
542.674821	2581.912642
543.034483	2581.181675
543.394090	2582.820050
543.753640	2579.548341
544.113134	2582.053794
544.472571	2581.721078
544.831953	2581.884916
545.191278	2579.729822
545.550548	2581.743763
545.909761	2581.678228
546.268918	2583.240986
546.628019	2580.057497
546.987064	2579.134966
547.346053	2581.368197
547.704986	2583.853486
548.063863	2581.426171
548.422684	2579.800398
548.781449	2578.252764
549.140158	2584.271902
549.498811	2578.577919
549.857408	2579.210583
550.215949	2577.350398
550.574434	2577.093299
550.932864	2578.043556
551.291237	2574.673545
551.649555	2579.628999
552.007817	2580.612024
552.366022	2581.983218
552.724173	2579.974318
553.082267	2582.492375
553.440305	2582.167220
553.798288	2579.276118
554.156215	2579.823084
554.514086	2582.489854
554.871902	2578.950964
555.229661	2579.550861
555.587365	2581.645461
555.945014	2577.141190
556.302606	2579.003896
556.660143	2580.062538
557.017625	2582.978846
557.375050	2580.811150
557.732421	2580.128073
558.089735	2580.854000
558.446994	2580.821232
558.804197	2580.952302
559.161345	2580.279308
559.518437	2579.855851
559.875474	2575.578432
560.232455	2580.864082
560.589381	2581.063207
560.946251	2581.000193
561.303065	2580.231417
561.659825	2579.162692
562.016528	2578.436766
562.373177	2579.891139
562.729770	2580.599421
563.086307	2581.700913
563.442789	2581.637899
563.799216	2578.207394
564.155587	2580.034812
564.511904	2580.622107
564.868164	2580.521283
565.224370	2581.693352
565.580520	2579.669328
565.936615	2580.654874
566.292654	2576.614389
566.648638	2580.095306
567.004567	2579.351736
567.360441	2579.424832
567.716260	2577.163875
568.072023	2577.143710
568.427732	2573.652711
568.783385	2577.085737
569.138982	2577.332754
569.494525	2575.187743
569.850013	2573.546847
570.205445	2579.192939
570.560823	2579.835687
570.916145	2576.465675
571.271412	2577.247054
571.626625	2579.596232
571.981782	2576.707651
572.336884	2578.648495
572.691931	2580.072621
573.046923	2576.624472
573.401860	2575.444842
573.756743	2576.647157
574.111570	2577.216807
574.466342	2578.562795
574.821059	2576.173288
575.175722	2575.417115
575.530330	2576.546334
575.884882	2575.777558
576.239380	2574.401323
576.593823	2578.305696
576.948211	2576.374934
577.302544	2576.490881
577.656823	2577.017682
578.011047	2578.217476
578.365216	2574.855027
578.719330	2577.153793
579.073389	2574.043401
579.427394	2573.924934
579.781344	2573.549368
580.135239	2575.056673
580.489080	2575.049111
580.842866	2574.817218
581.196597	2577.544482
581.550273	2574.852506
581.903895	2575.225551
582.257463	2575.361662
582.610975	2572.909141
582.964434	2574.280335
583.317837	2572.944429
583.671186	2576.006930
584.024481	2574.449214
584.377721	2573.655232
584.730906	2571.621126
585.084037	2576.112794
585.437113	2575.079358
585.790135	2570.799418
586.143103	2573.572053
586.496016	2572.934347
586.848874	2567.747000
587.201679	2570.532237
587.554428	2568.064592
587.907124	2571.134655
588.259765	2567.061403
588.612352	2570.325550
588.964884	2573.415777
589.317362	2569.355128
589.669786	2570.736404
590.022155	2574.335788
590.374470	2572.326888
590.726731	2572.125242
591.078937	2571.192628
591.431090	2572.331929
591.783188	2570.350756
592.135232	2568.926630
592.487222	2573.594738
592.839157	2569.899572
593.191038	2568.460323
593.542866	2570.317988
593.894639	2570.161712
594.246358	2569.418142
594.598022	2568.636763
594.949633	2569.617268
595.301190	2568.009140
595.652692	2569.289593
596.004141	2568.793039
596.355535	2571.716908
596.706876	2570.577607
597.058162	2566.527040
597.409395	2568.157854
597.760573	2567.391598
598.111698	2569.377813
598.462768	2569.791187
598.813785	2570.577607
599.164748	2567.449572
599.515657	2567.610888
599.866511	2569.236661
600.217312	2567.305899
600.568060	2567.336146
600.918753	2567.562998
601.269392	2568.351938
601.619978	2566.854715
601.970510	2568.765313
602.320988	2568.767833
602.671412	2567.883111
603.021783	2568.213306
603.372100	2568.389747
603.722363	2565.788511
604.072572	2566.932853
604.422728	2567.875549
604.772830	2561.579148
605.122878	2564.581155
605.472872	2565.266752
605.822813	2561.337173
606.172701	2564.863460
606.522534	2568.210786
606.872314	2565.914540
607.222041	2566.388409
607.571714	2567.444530
607.921333	2567.507545
608.270899	2566.539643
608.620411	2568.805642
608.969870	2568.606516
609.319276	2567.129458
609.668627	2570.693554
610.017926	2571.243040
610.367171	2575.011302
610.716362	2575.391909
611.065500	2572.571384
611.414585	2571.016188
611.763616	2570.191959
612.112594	2567.631053
612.461518	2570.559963
612.810389	2569.524006
613.159207	2570.824624
613.507971	2569.087947
613.856682	2568.241033
614.205340	2570.408729
614.553945	2569.728173
614.902496	2568.067113
615.250994	2567.867987
615.599439	2568.543502
615.947830	2568.684654
616.296169	2567.888152
616.644454	2567.973852
616.992686	2567.202555
617.340864	2567.134499
617.688990	2567.595765
618.037063	2566.116186
618.385082	2564.873542
618.733048	2567.467216
619.080961	2564.235836
619.428821	2568.732545
619.776628	2565.695250
620.124382	2570.512072
620.472083	2567.411763
620.819731	2566.529561
621.167326	2566.017884
621.514868	2569.433266
621.862357	2567.240364
622.209793	2566.708522
622.557176	2568.404870
622.904506	2564.016546
623.251783	2559.328273
623.599007	2563.126782
623.946179	2557.110165
624.293297	2561.329611
624.640363	2563.562842
624.987376	2563.585527
625.334336	2565.181052
625.681243	2564.271124
626.028097	2561.679971
626.374899	2564.805486
626.721647	2562.216854
627.068343	2564.583676
627.414987	2564.351782
627.761577	2562.358006
628.108115	2562.720969
628.454600	2562.814231
628.801032	2561.422872
629.147412	2563.507389
629.493739	2565.332287
629.840014	2562.110990
630.186236	2564.923953
630.532405	2560.001267
630.878521	2561.475804
631.224585	2559.479507
631.570597	2563.638459
631.916556	2564.036710
632.262462	2561.069991
632.608316	2561.770712
632.954117	2561.319528
633.299866	2560.233160
633.645562	2560.709549
633.991206	2559.718962
634.336797	2562.128634
634.682336	2561.627039
635.027823	2558.834240
635.373257	2561.606874
635.718639	2558.206616
636.063968	2561.102759
636.409245	2557.369784
636.754470	2557.286605
637.099642	2558.292316
637.444762	2560.066802
637.789829	2561.501010
638.134845	2559.764333
638.479808	2558.304918
638.824719	2560.815413
639.169577	2556.099414
639.514383	2555.517160
639.859137	2559.199723
640.203839	2557.606719
640.548489	2555.320555
640.893086	2554.478683
641.237632	2553.130174
641.582125	2555.484393
641.926566	2551.070863
642.270955	2555.244938
642.615292	2553.321738
642.959576	2557.238714
643.303809	2556.588406
643.647990	2555.769218
643.992118	2556.785011
644.336195	2556.921122
644.680219	2554.934907
645.024192	2556.318704
645.368112	2556.646379
645.711981	2555.572613
646.055797	2556.729558
646.399562	2557.629404
646.743274	2557.090000
647.086935	2558.234342
647.430544	2557.611760
647.774101	2557.831050
648.117606	2560.170145
648.461059	2560.313818
648.804460	2563.149467
649.147810	2557.707542
649.491108	2558.617470
649.834354	2555.413817
650.177548	2555.350802
650.520690	2558.110834
650.863781	2556.220401
651.206820	2559.270299
651.549807	2556.258210
651.892742	2556.122099
652.235626	2552.237890
652.578458	2553.936759
652.921238	2552.379042
653.263967	2557.415155
653.606644	2554.057746
653.949269	2556.273333
654.291843	2554.791234
654.634365	2556.583364
654.976836	2554.980278
655.319255	2553.223435
655.661622	2553.581357
656.003938	2554.932387
656.346203	2553.112530
656.688416	2554.546738
657.030577	2554.874413
657.372687	2554.592109
657.714746	2550.181099
658.056753	2550.634803
658.398708	2550.057591
658.740612	2550.665050
659.082465	2549.107333
659.424266	2550.483568
659.766016	2548.439380
660.107715	2553.251162
660.449362	2553.770401
660.790958	2554.090514
661.132503	2553.460370
661.473996	2557.037068
661.815438	2552.888199
662.156829	2551.474155
662.498168	2555.514640
662.839456	2554.100596
663.180693	2553.987170
663.521879	2555.988508
663.863013	2554.821481
664.204097	2555.796944
664.545129	2554.944989
664.886110	2555.756615
665.227040	2554.655123
665.567918	2554.246790
665.908746	2551.814433
666.249522	2558.027655
666.590248	2556.122099
666.930922	2552.459701
667.271545	2554.294681
667.612118	2554.065308
667.952639	2554.529094
668.293109	2555.184444
668.633528	2552.610935
668.973896	2551.443908
669.314213	2552.943651
669.654480	2553.798127
669.994695	2551.166645
670.334859	2557.773077
670.674973	2553.160421
671.015035	2556.364074
671.355047	2554.090514
671.695008	2553.495658
672.034918	2554.927345
672.374777	2551.335523
672.714585	2552.560524
673.054342	2552.626059
673.394049	2553.914073
673.733705	2553.646892
674.073310	2553.057077
674.412864	2556.500185
674.752368	2554.042623
675.091820	2551.368291
675.431223	2554.788714
675.770574	2553.392314
676.109875	2550.498692
676.449125	2549.664381
676.788324	2550.438198
677.127473	2551.431305
677.466571	2549.467776
677.805619	2554.261913
678.144616	2551.426264
678.483562	2553.999773
678.822458	2551.164124
679.161303	2553.220915
679.500098	2550.723023
679.838842	2553.246121
680.177535	2553.251162
680.516179	2553.110009
680.854771	2549.117416
681.193314	2554.496327
681.531805	2552.374001
681.870247	2552.321069
682.208638	2553.024310
682.546978	2554.292160
682.885268	2555.010524
683.223508	2549.936603
683.561697	2554.939948
683.899836	2553.982129
684.237925	2552.739485
684.575963	2551.237221
684.913951	2551.418702
685.251889	2551.965668
685.589776	2551.262427
685.927614	2554.176213
686.265401	2552.293342
686.603137	2553.873744
686.940824	2550.723023
687.278460	2551.680842
687.616046	2554.382901
687.953582	2557.011863
688.291068	2552.810061
688.628504	2554.070349
688.965889	2553.420040
689.303224	2553.825853
689.640510	2553.682180
689.977745	2552.812581
690.314930	2551.602704
690.652065	2554.486244
690.989150	2549.908877
691.326185	2552.754608
691.663170	2552.104299
692.000105	2548.588094
692.336990	2551.577499
692.673825	2551.416182
693.010610	2550.571788
693.347345	2547.506767
693.684030	2548.162117
694.020665	2544.764379
694.357251	2544.265305
694.693786	2547.136242
695.030272	2545.853268
695.366707	2548.058773
695.703093	2547.632796
696.039429	2546.730429
696.375716	2548.109185
696.711952	2547.257230
697.048139	2548.812426
697.384276	2545.976777
697.720363	2545.878474
698.056400	2548.063814
698.392388	2548.560368
698.728326	2547.731098
699.064214	2547.529452
699.400053	2548.756973
699.735842	2550.231511
700.071581	2545.432332
700.407270	2545.568443
700.742910	2548.436860
701.078501	2546.269164
701.414042	2546.407795
701.749533	2545.409647
702.084974	2547.035419
702.420366	2545.122301
702.755709	2545.437373
703.091002	2545.311344
703.426246	2546.377548
703.761440	2546.836293
704.096584	2548.134391
704.431679	2543.917465
704.766725	2547.123639
705.101721	2544.368649
705.436668	2546.072559
705.771565	2545.059287
706.106413	2546.168341
706.441212	2545.863351
706.775961	2546.927034
707.110661	2547.042981
707.445311	2545.268495
707.779913	2547.211859
708.114465	2546.856458
708.448967	2549.124977
708.783421	2545.941489
709.117825	2549.550955
709.452180	2548.454504
709.786485	2546.039791
710.120742	2547.589946
710.454949	2549.482899
710.789107	2547.773948
711.123216	2543.310006
711.457275	2543.836807
711.791286	2544.487116
712.125247	2545.560882
712.459159	2546.609442
712.793023	2552.182437
713.126837	2546.349822
713.460602	2549.946685
713.794318	2545.770089
714.127985	2548.628424
714.461602	2549.460214
714.795171	2547.224462
715.128691	2549.087169
715.462162	2545.576005
715.795584	2547.113557
716.128957	2547.078269
716.462281	2546.753114
716.795556	2546.896787
717.128782	2547.095913
717.461960	2544.270346
717.795088	2545.268495
718.128167	2545.334030
718.461198	2544.063659
718.794180	2545.979297
719.127113	2544.920655
719.459997	2545.094575
719.792833	2544.895449
720.125619	2545.306303
720.458357	2545.361756
720.791046	2542.445448
721.123686	2543.821683
721.456278	2545.081972
721.788821	2544.540048
722.121315	2544.509801
722.453761	2542.702547
722.786158	2542.548792
723.118506	2545.646581
723.450805	2542.644574
723.783056	2544.746735
724.115259	2543.922507
724.447412	2544.963505
724.779518	2542.710109
725.111574	2544.295552
725.443582	2544.015768
725.775542	2544.517363
726.107453	2546.569112
726.439315	2543.635161
726.771129	2549.868547
727.102895	2542.495860
727.434612	2546.924514
727.766281	2543.584749
728.097901	2544.265305
728.429473	2541.036446
728.760996	2545.079451
729.092471	2541.212886
729.423897	2542.120294
729.755276	2544.683721
730.086606	2544.839997
730.417887	2544.948381
730.749120	2546.284287
731.080305	2543.468803
731.411442	2545.293700
731.742530	2545.591128
732.073570	2546.528783
732.404562	2546.619524
732.735506	2548.676315
733.066401	2544.550130
733.397249	2544.920655
733.728048	2545.538196
734.058798	2545.497867
734.389501	2542.692465
734.720156	2544.923176
735.050762	2545.023999
735.381320	2543.231868
735.711831	2543.952753
736.042293	2542.195911
736.372707	2543.642722
736.703073	2543.166333
737.033391	2545.916283
737.363661	2543.229348
737.693883	2544.950902
738.024056	2547.433670
738.354182	2542.148020
738.684260	2543.017619
739.014290	2543.546941
739.344272	2546.044832
739.674207	2543.080634
740.004093	2542.334543
740.333931	2542.705068
740.663722	2542.183308
740.993464	2544.782023
741.323159	2542.269008
741.652806	2541.296065
741.982405	2542.405119
742.311956	2542.304296
742.641460	2544.139276
742.970915	2540.703730
743.300323	2542.924358
743.629683	2541.086857
743.958996	2545.641540
744.288260	2541.830428
744.617477	2539.541744
744.946647	2537.379089
745.275768	2539.072917
745.604842	2537.053934
745.933869	2538.248688
746.262847	2537.510159
746.591778	2541.815304
746.920662	2541.505273
747.249498	2542.619368
747.578286	2541.822866
747.907027	2542.818494
748.235720	2541.389327
748.564365	2541.036446
748.892963	2541.674152
749.221514	2542.483257
749.550017	2539.849254
749.878473	2541.906045
750.206881	2541.318751
750.535242	2543.010058
750.863555	2540.169368
751.191821	2541.953936
751.520039	2539.909748
751.848210	2542.236241
752.176334	2542.758000
752.504411	2540.519728
752.832440	2540.678524
753.160421	2542.125335
753.488356	2541.744728
753.816243	2542.579039
754.144082	2540.388658
754.471875	2541.485109
754.799620	2543.113401
755.127318	2539.226672
755.454969	2541.023843
755.782572	2544.275387
756.110129	2542.178267
756.437638	2542.289173
756.765100	2540.118956
757.092515	2539.748431
757.419882	2540.590304
757.747203	2543.373021
758.074477	2539.745911
758.401703	2541.694317
758.728882	2540.726415
759.056014	2542.213555
759.383099	2541.318751
759.710138	2541.457382
760.037129	2540.978473
760.364073	2540.159285
760.690970	2544.396375
761.017820	2543.181457
761.344623	2544.040974
761.671379	2542.826056
761.998088	2538.714995
762.324751	2542.735315
762.651366	2538.848585
762.977935	2546.869061
763.304456	2548.845193
763.630931	2554.332489
763.957359	2551.330482
764.283740	2547.894936
764.610074	2547.481561
764.936362	2546.369987
765.262602	2543.310006
765.588796	2545.717157
765.914943	2542.823535
766.241044	2541.449821
766.567097	2542.342105
766.893104	2539.561908
767.219064	2537.737011
767.544978	2540.786909
767.870845	2538.296579
768.196665	2539.536703
768.522438	2537.404295
768.848165	2541.167516
769.173846	2540.413863
769.499479	2541.432177
769.825066	2539.380427
770.150607	2540.527289
770.476101	2540.544933
770.801548	2540.330684
771.126949	2539.188863
771.452303	2538.147865
771.777611	2535.342463
772.102872	2539.763555
772.428087	2539.277083
772.753256	2539.682896
773.078378	2537.200128
773.403453	2538.573842
773.728482	2539.730787
774.053465	2536.885056
774.378401	2536.554860
774.703291	2538.904038
775.028135	2539.531662
775.352932	2537.137113
775.677683	2540.358411
776.002388	2539.438400
776.327046	2537.031249
776.651658	2540.660880
776.976224	2537.326157
777.300743	2535.435724
777.625216	2537.263142
777.949643	2539.201466
778.274024	2538.001671
778.598359	2533.913296
778.922647	2533.706608
779.246889	2537.681558
779.571086	2529.771988
779.895236	2536.310364
780.219339	2537.290869
780.543397	2539.332536
780.867409	2536.917823
781.191374	2537.195087
781.515294	2538.757844
781.839167	2538.261291
782.162995	2536.748945
782.486776	2536.035621
782.810511	2537.981507
783.134201	2536.338091
783.457844	2537.610982
783.781441	2538.079809
784.104993	2536.466640
784.428498	2537.336239
784.751958	2536.824562
785.075372	2537.323636
785.398739	2538.377237
785.722061	2537.326157
786.045337	2537.787422
786.368568	2535.672658
786.691752	2536.882535
787.014891	2536.963194
787.337983	2536.559901
787.661030	2539.080478
787.984031	2539.750952
788.306987	2540.176929
788.629897	2536.491846
788.952760	2541.555685
789.275579	2535.052596
789.598351	2540.444110
789.921078	2539.231713
790.243759	2538.067206
790.566395	2535.602082
790.888984	2533.474715
791.211529	2539.100643
791.534027	2535.092926
791.856480	2538.780530
792.178888	2538.286497
792.501249	2536.655683
792.823566	2537.512679
793.145836	2536.360776
793.468062	2535.637370
793.790241	2534.480425
794.112375	2539.660211
794.434464	2536.043183
794.756507	2536.990920
795.078505	2537.918492
795.400457	2534.644263
795.722364	2533.913296
796.044226	2534.041845
796.366042	2531.508665
796.687812	2533.502442
797.009538	2537.994110
797.331218	2538.170550
797.652852	2538.536034
797.974442	2540.544933
798.295986	2536.658204
798.617484	2536.234747
798.938938	2537.653832
799.260346	2537.815149
799.581709	2535.493697
799.903026	2542.432846
800.224299	2536.643080
800.545526	2535.216434
800.866708	2536.443955
801.187845	2537.043852
801.508936	2534.845909
801.829983	2537.550488
802.150984	2535.889428
802.471940	2536.227185
802.792851	2536.186856
803.113717	2538.084850
803.434538	2536.890097
803.755314	2532.849612
804.076045	2535.196269
804.396731	2537.230375
804.717372	2536.549819
805.037967	2536.320447
805.358518	2537.560570
805.679024	2537.452186
805.999485	2537.376568
806.319901	2536.091074
806.640272	2535.443286
806.960598	2533.769623
807.280879	2537.164840
807.601115	2538.825900
807.921306	2534.671989
808.241453	2536.847247
808.561554	2536.141486
808.881611	2537.376568
809.201623	2535.927237
809.521590	2536.456558
809.841513	2537.270704
810.161390	2536.983358
810.481223	2535.274407
810.801011	2536.512010
811.120755	2535.231557
811.440453	2538.374717
811.760107	2535.821372
812.079716	2530.331556
812.399281	2532.703419
812.718801	2534.465302
813.038276	2530.182842
813.357707	2535.692823
813.677093	2537.134593
813.996434	2536.302802
814.315731	2534.848430
814.634983	2535.256763
814.954191	2535.977648
815.273354	2537.273225
815.592473	2536.675848
815.911547	2533.046217
816.230577	2537.578214
816.549562	2536.010416
816.868502	2534.848430
817.187399	2535.970086
817.506250	2534.578728
817.825058	2538.001671
818.143821	2536.322967
818.462539	2538.735159
818.781213	2537.827752
819.099843	2539.385468
819.418429	2538.321785
819.736970	2541.044008
820.055466	2540.870088
820.373919	2542.601724
820.692327	2543.123484
821.010691	2549.795451
821.329011	2558.317521
821.647286	2572.684810
821.965517	2587.042016
822.283704	2598.437544
822.601847	2603.904676
822.919945	2594.104672
823.237999	2586.603436
823.556010	2571.986610
823.873976	2567.850343
824.191897	2559.257697
824.509775	2557.720145
824.827609	2549.440049
825.145398	2549.492982
825.463144	2550.685214
825.780845	2547.458876
826.098502	2550.589433
826.416116	2554.851728
826.733685	2561.032183
827.051210	2563.212482
827.368692	2557.437840
827.686129	2554.738302
828.003522	2552.021120
828.320872	2544.822353
828.638177	2542.112732
828.955439	2539.640046
829.272656	2539.166178
829.589830	2533.930940
829.906960	2539.193904
830.224046	2537.956301
830.541088	2536.801877
830.858086	2536.688451
831.175041	2537.537885
831.491952	2536.653163
831.808819	2538.684748
832.125642	2535.680220
832.442421	2539.831610
832.759157	2537.903369
833.075849	2545.800336
833.392497	2546.521221
833.709101	2550.029864
834.025662	2548.802343
834.342179	2546.861499
834.658653	2545.699513
834.975083	2544.537527
835.291469	2544.661036
835.607811	2539.146013
835.924110	2538.125180
836.240366	2535.977648
836.556578	2536.713657
836.872746	2537.215251
837.188871	2536.017977
837.504952	2535.612164
837.820990	2536.184335
838.136984	2532.363141
838.452935	2536.680889
838.768842	2537.424459
839.084706	2535.360107
839.400526	2534.704757
839.716303	2538.810777
840.032037	2542.735315
840.347727	2539.909748
840.663373	2541.228010
840.978977	2536.136444
841.294537	2535.884387
841.610054	2534.687113
841.925527	2534.792977
842.240957	2534.735004
842.556344	2533.482277
842.871687	2533.764582
843.186987	2535.355066
843.502244	2533.953625
843.817458	2534.644263
844.132629	2532.821886
844.447756	2536.922864
844.762840	2528.942718
845.077881	2531.813655
845.392879	2529.141843
845.707833	2530.266021
846.022745	2529.023376
846.337613	2533.986392
846.652438	2533.411701
846.967221	2531.995137
847.281960	2531.301978
847.596656	2532.970600
847.911309	2535.937319
848.225919	2532.279962
848.540485	2531.720394
848.855009	2534.593851
849.169490	2530.407173
849.483928	2535.256763
849.798323	2532.595034
850.112675	2533.784746
850.426984	2532.930271
850.741251	2532.552184
851.055474	2533.358769
851.369654	2532.292565
851.683792	2532.186700
851.997887	2531.843902
852.311938	2531.916999
852.625947	2532.310209
852.939914	2531.730476
853.253837	2535.443286
853.567718	2530.760054
853.881555	2531.937163
854.195350	2533.338604
854.509103	2533.363810
854.822812	2533.169725
855.136479	2534.157792
855.450103	2534.853471
855.763685	2529.663603
856.077224	2529.623274
856.390720	2535.178625
856.704173	2531.125537
857.017584	2534.082174
857.330953	2532.627801
857.644278	2532.320291
857.957561	2532.486649
858.270802	2533.323481
858.584000	2533.167205
858.897155	2534.039324
859.210268	2533.031094
859.523339	2533.983872
859.836367	2530.974303
860.149352	2532.133768
860.462295	2531.962369
860.775195	2528.965403
861.088054	2526.064219
861.400869	2530.364323
861.713642	2528.720907
862.026373	2529.789632
862.339062	2530.969262
862.651708	2536.756506
862.964312	2532.542102
863.276873	2534.523275
863.589392	2533.512524
863.901869	2531.705270
864.214303	2533.673841
864.526696	2533.240302
864.839045	2534.911444
865.151353	2531.662420
865.463619	2531.012112
865.775842	2532.857174
866.088023	2532.973120
866.400162	2536.118800
866.712258	2532.317770
867.024313	2532.373223
867.336325	2534.737524
867.648296	2534.513193
867.960224	2534.540919
868.272110	2533.905734
868.583954	2534.997144
868.895755	2533.971269
869.207515	2534.430014
869.519233	2533.220137
869.830909	2532.348017
870.142542	2534.409849
870.454134	2534.861033
870.765684	2533.547812
871.077191	2534.190559
871.388657	2534.208203
871.700081	2535.831455
872.011463	2532.842050
872.322803	2532.781557
872.634101	2534.321629
872.945357	2536.083512
873.256571	2532.302647
873.567744	2532.786598
873.878874	2536.718698
874.189963	2533.426824
874.501010	2532.471526
874.812015	2533.436907
875.122979	2534.218285
875.433900	2533.668800
875.744780	2534.813142
876.055618	2533.769623
876.366415	2533.192411
876.677169	2534.747607
876.987882	2534.656866
877.298554	2529.225022
877.609183	2534.939170
877.919771	2530.389529
878.230317	2529.683767
878.540822	2537.752134
878.851285	2534.361958
879.161707	2536.804397
879.472087	2542.634492
879.782425	2539.733308
880.092722	2544.048535
880.402977	2546.828732
880.713191	2554.453477
881.023363	2563.557801
881.333494	2570.648184
881.643583	2573.125911
881.953631	2571.290931
882.263637	2571.822772
882.573602	2564.969324
882.883526	2563.356155
883.193408	2558.912378
883.503248	2550.798640
883.813048	2550.012220
884.122806	2546.105326
884.432522	2546.589277
884.742197	2543.002496
885.051831	2540.842362
885.361424	2540.086188
885.670975	2539.501415
885.980485	2538.601569
886.289954	2535.904551
886.599382	2537.437062
886.908768	2538.775488
887.218113	2534.430014
887.527417	2533.941022
887.836680	2535.423121
888.145901	2536.229706
888.455082	2533.467153
888.764221	2534.011598
889.073319	2532.055630
889.382376	2536.023018
889.691392	2532.675692
890.000366	2533.774664
890.309300	2532.095960
890.618193	2532.378264
890.927044	2533.716691
891.235855	2534.359438
891.544625	2534.619057
891.853353	2534.606454
892.162041	2531.798532
892.470687	2534.351876
892.779293	2535.884387
893.087858	2532.708460
893.396381	2533.767102
893.704864	2537.094264
894.013306	2532.108562
894.321707	2542.427804
894.630068	2543.917465
894.938387	2548.842673
895.246665	2546.876623
895.554903	2544.542568
895.863100	2543.932589
896.171256	2541.321271
896.479371	2542.440407
896.787446	2540.101312
897.095480	2536.164171
897.403473	2539.869419
897.711425	2533.862884
898.019336	2536.638039
898.327207	2532.779036
898.635038	2537.316074
898.942827	2536.179294
899.250576	2538.548637
899.558284	2533.081505
899.865952	2534.346835
900.173579	2532.358100
900.481165	2535.216434
900.788711	2535.881866
901.096216	2534.949253
901.403681	2535.168543
901.711105	2534.326670
902.018489	2532.698377
902.325832	2534.132586
902.633135	2534.021680
902.940397	2534.571166
903.247619	2537.207690
903.554800	2538.533513
903.861941	2540.454193
904.169041	2548.046170
904.476101	2551.839639
904.783121	2551.378373
905.090100	2544.444266
905.397039	2545.883515
905.703938	2542.112732
906.010796	2540.204656
906.317614	2538.558719
906.624391	2535.995292
906.931129	2535.695343
907.237826	2535.783564
907.544483	2533.262987
907.851099	2535.206352
908.157675	2532.108563
908.464211	2534.598892
908.770707	2528.766278
909.077163	2529.643438
909.383578	2530.071936
909.689954	2528.937677
909.996289	2530.024045
910.302584	2529.968593
910.608839	2529.313243
910.915054	2534.843388
911.221229	2530.848274
911.527363	2532.141330
911.833458	2529.638397
912.139513	2533.570497
912.445527	2534.606454
912.751502	2533.043697
913.057436	2534.243491
913.363331	2531.231402
913.669186	2535.077802
913.975000	2533.197452
914.280775	2535.433203
914.586510	2535.987730
914.892205	2535.574356
915.197859	2540.923020
915.503475	2543.194060
915.809050	2547.738660
916.114585	2550.395348
916.420081	2551.151521
916.725536	2547.116077
917.030952	2549.571119
917.336328	2545.563402
917.641665	2543.433515
917.946961	2542.110212
918.252218	2538.210879
918.557435	2538.742721
918.862612	2537.066537
919.167750	2536.002854
919.472848	2535.037473
919.777906	2533.232740
920.082925	2534.714839
920.387904	2536.393543
920.692843	2533.595703
920.997743	2531.649818
921.302603	2532.617719
921.607423	2533.958666
921.912204	2530.160157
922.216946	2532.879859
922.521647	2535.110570
922.826310	2531.491021
923.130932	2533.489839
923.435516	2529.250228
923.740059	2530.177801
924.044564	2530.439941
924.349028	2533.242822
924.653454	2524.599764
924.957840	2531.256608
925.262186	2527.173273
925.566493	2529.189734
925.870761	2526.500279
926.174989	2529.464477
926.479178	2529.895496
926.783328	2531.896834
927.087438	2531.359951
927.391509	2531.506145
927.695541	2528.688140
927.999533	2529.222502
928.303486	2531.697708
928.607400	2528.730989
928.911275	2528.052954
929.215110	2529.038500
929.518906	2530.714683
929.822663	2531.622091
930.126381	2529.109076
930.430060	2531.755682
930.733699	2530.462626
931.037299	2530.760054
931.340861	2529.769467
931.644383	2531.249046
931.947866	2528.350382
932.251309	2529.093952
932.554714	2529.880373
932.858080	2530.278624
933.161407	2527.795855
933.464694	2532.088398
933.767943	2530.392050
934.071153	2531.392719
934.374323	2527.914322
934.677455	2530.744930
934.980548	2530.523120
935.283602	2527.727800
935.586617	2529.288037
935.889593	2528.741072
936.192530	2529.300640
936.495428	2529.640918
936.798287	2529.126720
937.101108	2529.290558
937.403890	2528.259642
937.706632	2529.900537
938.009336	2529.030938
938.312002	2532.287523
938.614628	2528.471370
938.917216	2533.265507
939.219765	2529.618233
939.522275	2529.174611
939.824747	2533.560415
940.127179	2526.898530
940.429573	2528.030269
940.731929	2526.210412
941.034246	2525.532377
941.336524	2528.184024
941.638763	2532.002698
941.940964	2529.741741
942.243126	2527.448016
942.545250	2529.068747
942.847335	2529.797193
943.149381	2529.252749
943.451389	2530.334076
943.753359	2531.047400
944.055290	2527.715197
944.357182	2527.838705
944.659036	2528.020187
944.960851	2529.787111
945.262628	2529.971113
945.564367	2529.777029
945.866067	2528.998171
946.167729	2533.157122
946.469352	2528.554549
946.770937	2529.381298
947.072484	2525.910464
947.373992	2532.857174
947.675462	2530.558408
947.976893	2528.957841
948.278286	2528.456247
948.579641	2531.904396
948.880958	2531.828778
949.182236	2531.904396
949.483476	2529.298119
949.784678	2532.090918
950.085841	2528.456247
950.386967	2530.634025
950.688054	2530.810465
950.989103	2531.889272
951.290114	2527.102697
951.591087	2529.277955
951.892021	2531.475898
952.192917	2531.695188
952.493776	2530.681916
952.794596	2531.813655
953.095378	2528.907430
953.396122	2529.489683
953.696828	2531.392719
953.997496	2532.426155
954.298126	2529.436751
954.598718	2533.560415
954.899272	2528.083201
955.199788	2529.535053
955.500266	2527.571524
955.800706	2527.463139
956.101108	2524.619928
956.401472	2524.090607
956.701798	2523.788138
957.002087	2527.069929
957.302337	2530.175280
957.602550	2530.008922
957.902724	2527.959693
958.202861	2529.005732
958.502960	2528.809127
958.803022	2527.584127
959.103045	2526.749816
959.403031	2530.447502
959.702979	2525.350896
960.002889	2527.571524
960.302762	2529.285516
960.602596	2529.414066
960.902393	2527.248890
961.202153	2531.647297
961.501875	2528.146216
961.801559	2527.521113
962.101205	2528.799045
962.400814	2529.751823
962.700385	2529.590506
962.999918	2529.361134
963.299414	2525.668488
963.598873	2529.499765
963.898293	2526.530526
964.197677	2528.224353
964.497022	2526.830474
964.796331	2529.832482
965.095601	2526.676719
965.394835	2527.047244
965.694030	2527.374919
965.993189	2529.459436
966.292309	2526.394415
966.591393	2527.816020
966.890439	2526.961544
967.189447	2526.878365
967.488419	2528.209230
967.787353	2525.630680
968.086249	2524.677902
968.385108	2527.226205
968.683930	2528.446164
968.982714	2526.981709
969.281462	2527.107738
969.580172	2527.344672
969.878844	2527.276617
970.177480	2529.691329
970.476078	2527.868952
970.774639	2529.338448
971.073162	2528.942718
971.371649	2528.128572
971.670098	2525.209743
971.968510	2522.517767
972.266885	2521.058353
972.565223	2527.720238
972.863524	2530.192924
973.161788	2526.780063
973.460014	2527.490866
973.758204	2530.134951
974.056356	2525.189579
974.354471	2528.501617
974.652550	2528.610002
974.950591	2529.640918
975.248595	2526.396935
975.546563	2529.711494
975.844493	2528.020187
976.142386	2526.260824
976.440243	2525.615556
976.738062	2526.154960
977.035845	2527.357275
977.333590	2528.849457
977.631299	2528.362985
977.928971	2527.899199
978.226606	2526.434744
978.524204	2528.912471
978.821765	2526.215454
979.119290	2525.113962
979.416777	2528.050434
979.714228	2528.385670
980.011642	2528.282327
980.309020	2529.376257
980.606360	2524.365350
980.903664	2526.971627
981.200931	2528.615043
981.498162	2528.552028
981.795356	2527.621936
982.092513	2528.519261
982.389633	2525.358457
982.686717	2527.281658
982.983764	2526.679240
983.280775	2529.232584
983.577749	2527.344672
983.874686	2529.759385
984.171587	2528.647810
984.468451	2528.060516
984.765279	2528.274765
985.062070	2530.487832
985.358824	2526.323838
985.655543	2525.981040
985.952224	2527.795855
986.248869	2527.279137
986.545478	2522.358971
986.842050	2525.083715
987.138586	2522.434588
987.435086	2523.263858
987.731549	2523.117665
988.027975	2522.550535
988.324366	2526.646472
988.620719	2526.727131
988.917037	2525.933149
989.213318	2528.020187
989.509563	2526.369209
989.805772	2526.089425
990.101944	2526.356606
990.398080	2527.100176
990.694180	2525.507172
990.990244	2527.458098
991.286271	2526.311236
991.582262	2528.708304
991.878217	2527.818541
992.174136	2527.392563
992.470019	2528.073119
992.765865	2529.663603
993.061676	2523.407531
993.357450	2525.441637
993.653188	2527.826102
993.948890	2525.610515
994.244556	2525.950793
994.540186	2527.548839
994.835780	2527.342152
995.131337	2526.827954
995.426859	2525.532377
995.722345	2524.052799
996.017795	2528.007584
996.313208	2526.868283
996.608586	2526.565814
996.903928	2527.967255
997.199234	2526.769981
997.494504	2527.788294
997.789738	2523.493231
998.084936	2528.350382
998.380099	2527.001874
998.675225	2527.213602
998.970316	2527.226205
999.265371	2526.268386
999.560390	2528.206709
999.855373	2529.288037
1000.150320	2529.381298
1000.445232	2526.006246
1000.740108	2525.451719
1001.034948	2526.480114
1001.329752	2526.220495
1001.624521	2526.031452
1001.919254	2524.065402
1002.213951	2525.091276
1002.508613	2525.270237
1002.803239	2524.408200
1003.097829	2523.851153
1003.392384	2527.725279
1003.686903	2524.904754
1003.981386	2527.460619
1004.275834	2526.890968
1004.570246	2528.307533
1004.864623	2526.636390
1005.158964	2529.046062
1005.453270	2529.807276
1005.747540	2523.951976
1006.041775	2526.071781
1006.335974	2525.229908
1006.630138	2525.731503
1006.924266	2524.330062
1007.218359	2524.836698
1007.512416	2525.066071
1007.806438	2526.885927
1008.100425	2526.994312
1008.394376	2524.912315
1008.688292	2525.204702
1008.982172	2527.513551
1009.276017	2529.963552
1009.569827	2526.318797
1009.863602	2529.091432
1010.157341	2528.534384
1010.451045	2528.602440
1010.744714	2525.761750
1011.038347	2527.206040
1011.331945	2525.610515
1011.625508	2527.591689
1011.919036	2526.220495
1012.212528	2524.491379
1012.505986	2523.097500
1012.799408	2525.053468
1013.092795	2525.809641
1013.386147	2523.221008
1013.679464	2527.982378
1013.972745	2525.194620
1014.265992	2525.184538
1014.559204	2524.932480
1014.852380	2525.378622
1015.145521	2524.425844
1015.438628	2525.688653
1015.731699	2527.165711
1016.024736	2524.569517
1016.317737	2526.505320
1016.610703	2526.477594
1016.903635	2523.057171
1017.196531	2523.558766
1017.489393	2525.121523
1017.782219	2523.427696
1018.075011	2522.633714
1018.367768	2526.608664
1018.660490	2527.014477
1018.953177	2527.014477
1019.245829	2527.014477
