Dividing Wavelength (nm)	Counts (n)	Blue Motor Position (mm): 0.000000	Red Motor Position (mm): 28.400000	
326.493990	2129.421193
326.888308	2129.421193
327.282561	2129.421193
327.676750	2094.337283
328.070874	2094.428024
328.464933	2099.247367
328.858929	2102.299786
329.252859	2112.961826
329.646726	2125.799124
330.040528	2138.570888
330.434265	2155.400780
330.827938	2173.674962
331.221547	2189.458815
331.615091	2208.879860
332.008571	2229.692264
332.401986	2249.398134
332.795338	2272.718512
333.188625	2286.894237
333.581847	2305.276804
333.975006	2323.498055
334.368100	2343.350118
334.761129	2361.004239
335.154095	2375.913452
335.546996	2394.096894
335.939833	2409.311096
336.332606	2426.284661
336.725315	2441.733277
337.117960	2450.424226
337.510540	2456.980247
337.903056	2471.120683
338.295508	2475.690489
338.687896	2486.125678
339.080220	2491.940649
339.472480	2499.555312
339.864676	2504.256188
340.256807	2509.735922
340.648875	2512.919410
341.040879	2513.378155
341.432818	2514.434277
341.824694	2517.587519
342.216506	2518.830163
342.608253	2518.631038
342.999937	2516.039885
343.391557	2517.156500
343.783113	2516.975019
344.174605	2517.584998
344.566033	2512.745491
344.957397	2510.923113
345.348697	2509.408247
345.739934	2508.273987
346.131106	2508.755417
346.522215	2503.157216
346.913260	2503.270642
347.304241	2501.649911
347.695159	2500.659324
348.086012	2497.927019
348.476802	2496.074395
348.867528	2496.419714
349.258191	2493.636997
349.648789	2493.407624
350.039324	2488.852942
350.429796	2491.630618
350.820203	2486.682725
351.210548	2487.418734
351.600828	2485.278764
351.991045	2485.011583
352.381198	2489.909064
352.771288	2486.158445
353.161314	2487.506954
353.551276	2488.119454
353.941175	2486.770945
354.331010	2484.996459
354.720782	2485.314052
355.110490	2488.253045
355.500135	2485.210708
355.889717	2487.524598
356.279235	2488.250524
356.668689	2486.039978
357.058080	2486.781028
357.447408	2486.362612
357.836672	2480.842548
358.225873	2487.209526
358.615010	2484.391521
359.004084	2488.031234
359.393095	2491.267655
359.782043	2490.403097
360.170927	2494.544405
360.559748	2489.742706
360.948505	2491.514671
361.337199	2493.962151
361.725830	2492.512820
362.114398	2493.571462
362.502903	2494.471308
362.891344	2494.226812
363.279722	2497.652276
363.668037	2494.040289
364.056289	2498.393326
364.444478	2498.146309
364.832603	2497.813593
365.220665	2499.053717
365.608665	2499.315857
365.996601	2502.234685
366.384474	2501.244098
366.772284	2504.556136
367.160031	2504.878770
367.547715	2507.893380
367.935336	2507.197701
368.322893	2517.106089
368.710388	2513.610048
369.097820	2524.924918
369.485189	2524.128416
369.872495	2528.826771
370.259738	2537.684079
370.646918	2544.335881
371.034035	2549.104813
371.421090	2562.524364
371.808081	2573.778740
372.195010	2579.757549
372.581875	2593.565269
372.968678	2609.523042
373.355418	2617.929166
373.742096	2636.140334
374.128710	2651.213384
374.515262	2663.821310
374.901751	2682.455935
375.288177	2695.326001
375.674540	2716.564382
376.060841	2734.094994
376.447079	2755.005700
376.833254	2776.090326
377.219367	2786.054167
377.605417	2824.989519
377.991404	2835.391940
378.377329	2856.970599
378.763191	2872.298227
379.148991	2912.256933
379.534727	2937.432455
379.920402	2963.792649
380.306013	2977.313023
380.691563	3025.592154
381.077049	3046.054197
381.462474	3065.654203
381.847835	3105.764144
382.233134	3128.285499
382.618371	3126.705097
383.003545	3196.391487
383.388657	3200.137064
383.773706	3233.690984
384.158693	3251.506422
384.543618	3276.777726
384.928480	3313.668890
385.313280	3356.259078
385.698017	3356.445601
386.082692	3412.369641
386.467305	3415.379210
386.851856	3446.846093
387.236344	3472.288796
387.620770	3501.033455
388.005133	3527.849873
388.389435	3553.688307
388.773674	3565.628280
389.157851	3610.736525
389.541965	3624.060294
389.926018	3589.724995
390.310008	3661.730316
390.693936	3678.484591
391.077802	3718.745766
391.461606	3711.355435
391.845348	3772.854991
392.229027	3768.527161
392.612645	3783.759007
392.996200	3859.179710
393.379694	3901.369126
393.763125	3964.784321
394.146494	3932.248714
394.529801	3996.253724
394.913047	4046.703071
395.296230	4012.594624
395.679351	4063.699321
396.062410	4088.758897
396.445408	4070.189807
396.828343	4103.761371
397.211217	4125.672746
397.594028	4044.926064
397.976778	4115.187146
398.359466	4139.185559
398.742092	4168.194879
399.124656	4090.644288
399.507158	4168.724200
399.889598	4196.649672
400.271977	4254.275101
400.654294	4230.284250
401.036549	4234.420517
401.418742	4208.627453
401.800874	4312.366838
402.182944	4327.772604
402.564952	4392.339702
402.946898	4379.063823
403.328783	4378.100963
403.710606	4291.761121
404.092367	4482.588959
404.474067	4445.438176
404.855705	4459.424857
405.237282	4384.709916
405.618797	4494.110516
406.000250	4526.484806
406.381642	4609.084112
406.762972	4566.183892
407.144240	4575.580603
407.525447	4581.014967
407.906593	4639.976303
408.287677	4680.713867
408.668700	4611.778608
409.049661	4661.310466
409.430560	4704.306467
409.811399	4627.139004
410.192176	4791.331906
410.572891	4733.335951
410.953545	4835.542825
411.334138	4713.924988
411.714669	4779.570894
412.095139	4676.907796
412.475547	4818.193694
412.855894	4796.625117
413.236180	4808.418897
413.616405	4761.127832
413.996568	4847.639073
414.376670	4790.303510
414.756711	4743.803907
415.136691	4778.126603
415.516609	4856.148541
415.896466	4892.777565
416.276262	4924.551958
416.655997	4906.368516
417.035670	5086.264611
417.415283	5177.214588
417.794834	5123.037308
418.174324	5077.273713
418.553753	4982.610927
418.933121	5169.438609
419.312428	5237.559721
419.691674	5177.506975
420.070859	5297.937620
420.449983	5214.554415
420.829045	5330.599256
421.208047	5237.022838
421.586988	5309.123941
421.965867	5318.876053
422.344686	5447.014622
422.723444	5302.832581
423.102141	5122.828100
423.480777	5420.576290
423.859352	5190.273698
424.237866	5450.407318
424.616319	5440.564465
424.994712	5552.357093
425.373044	5429.214307
425.751314	5570.560700
426.129524	5373.386049
426.507673	5569.867541
426.885762	5649.318646
427.263789	5581.376495
427.641756	5466.710410
428.019662	5587.730870
428.397508	5589.530562
428.775292	5539.827305
429.153016	5637.282891
429.530679	5562.668773
429.908282	5650.667155
430.285824	5515.317215
430.663305	5794.803826
431.040726	5525.966653
431.418086	5528.025964
431.795385	5635.241224
432.172624	5645.850332
432.549802	5644.640455
432.926920	5652.600437
433.303977	5659.242157
433.680974	5700.904773
434.057910	5715.196445
434.434786	5723.645418
434.811601	5692.455800
435.188355	5927.141676
435.565050	5803.676256
435.941683	5782.853770
436.318257	5994.310010
436.694770	5982.662424
437.071222	6013.904975
437.447614	5943.986691
437.823946	5857.626685
438.200218	6014.031003
438.576429	5876.528491
438.952580	5976.091280
439.328670	6021.766654
439.704700	5927.943219
440.080670	5916.328401
440.456580	6185.964597
440.832429	6067.202574
441.208218	5917.036683
441.583947	6064.031688
441.959616	6071.122071
442.335224	5996.961657
442.710773	6139.089427
443.086261	6166.248644
443.461689	5955.644360
443.837057	6103.720692
444.212365	6258.320278
444.587612	6152.244318
444.962800	6307.421116
445.337927	6286.258352
445.712995	5896.902314
446.088002	6474.626107
446.462949	6304.966074
446.837837	6236.761783
447.212664	6406.174799
447.587431	6551.849022
447.962139	7089.157884
448.336786	8012.510746
448.711374	7756.029441
449.085901	6828.406722
449.460369	6746.326655
449.834776	6685.132089
450.209124	7066.863381
450.583412	7219.287709
450.957640	7359.535130
451.331808	7129.683720
451.705917	6679.362488
452.079965	6600.327278
452.453954	6812.020452
452.827883	6683.743251
453.201752	6770.892198
453.575562	6569.172947
453.949311	6770.388083
454.323001	6656.712584
454.696632	6722.867646
455.070202	6853.983016
455.443713	6997.204718
455.817164	7095.073678
456.190556	7166.174112
456.563888	7232.666931
456.937160	7269.772344
457.310373	6925.353152
457.683526	6942.145235
458.056619	6828.116856
458.429653	6808.980636
458.802628	6739.599235
459.175542	6835.817218
459.548398	7160.603637
459.921194	7307.240720
460.293930	7300.750235
460.666607	7781.872917
461.039224	8057.629073
461.411782	8163.359713
461.784280	8167.082605
462.156719	8048.885192
462.529099	7918.571365
462.901419	7506.772110
463.273680	7391.049903
463.645882	7389.915643
464.018024	7238.615493
464.390106	7375.381997
464.762130	7715.788431
465.134094	8104.700847
465.505999	8982.635433
465.877845	10027.157469
466.249631	10588.474827
466.621358	10223.759949
466.993026	9636.551225
467.364634	9379.003716
467.736184	9016.327985
468.107674	8682.028909
468.479105	8654.126123
468.850477	8422.590968
469.221790	8183.226901
469.593043	7862.826286
469.964238	7697.625153
470.335373	7667.955443
470.706449	7669.092223
471.077467	7603.043025
471.448425	8614.459803
471.819324	9404.156553
472.190164	9385.940344
472.560945	8347.137497
472.931667	7655.750809
473.302330	7494.633012
473.672934	7165.619585
474.043479	7385.809623
474.413965	7281.082173
474.784393	7128.567104
475.154761	7191.178235
475.525070	7192.524223
475.895321	7013.722058
476.265513	7074.074752
476.635645	7140.335678
477.005719	7058.285858
477.375734	7078.354692
477.745691	7166.126221
478.115588	7184.624735
478.485427	7260.668020
478.855207	7524.761468
479.224928	7932.492511
479.594591	8242.667146
479.964194	8036.899848
480.333739	7920.260151
480.703226	7755.235460
481.072653	7717.061322
481.442022	7744.001248
481.811333	7769.277594
482.180584	7555.134419
482.549777	7294.098432
482.918912	7119.767770
483.287988	7026.468616
483.657005	6956.847760
484.025964	6706.294853
484.394864	6667.553585
484.763706	6567.239665
485.132489	6371.811774
485.501213	6262.181802
485.869879	6217.824689
486.238487	6046.180962
486.607036	6026.583477
486.975527	5839.947358
487.343959	5840.935424
487.712333	5772.179127
488.080648	5664.066542
488.448905	5593.369400
488.817104	5493.352908
489.185244	5510.462584
489.553326	5469.727540
489.921350	5577.328449
490.289315	5824.226520
490.657222	5857.593917
491.025070	5727.348146
491.392861	5603.504640
491.760593	5405.898971
492.128267	5210.589548
492.495883	5033.415675
492.863440	4868.532136
493.230939	4707.341241
493.598380	4618.692551
493.965763	4511.658772
494.333088	4434.554324
494.700354	4343.271631
495.067563	4308.717042
495.434713	4202.094118
495.801805	4175.181918
496.168839	4100.736678
496.535815	4028.799413
496.902733	3980.540447
497.269593	3912.545364
497.636395	3882.275756
498.003139	3820.877023
498.369825	3760.587343
498.736453	3735.575658
499.103023	3675.908562
499.469535	3632.983137
499.835989	3589.823298
500.202385	3538.537119
500.568723	3480.105105
500.935003	3472.800473
501.301226	3406.060637
501.667390	3398.425810
502.033497	3373.126779
502.399546	3322.236331
502.765537	3277.599434
503.131470	3251.771083
503.497345	3231.160325
503.863163	3175.455575
504.228923	3165.080881
504.594625	3144.581028
504.960269	3099.223247
505.325856	3086.572471
505.691385	3049.905639
506.056856	3033.272352
506.422270	3008.608506
506.787625	2988.821978
507.152924	2968.453195
507.518164	2946.193981
507.883347	2924.179262
508.248472	2906.129410
508.613540	2898.224881
508.978550	2873.394678
509.343503	2855.758201
509.708398	2849.308045
510.073236	2837.514265
510.438016	2822.214363
510.802738	2809.334215
511.167403	2799.912299
511.532010	2784.141049
511.896561	2780.191305
512.261053	2770.993720
512.625488	2755.194744
512.989866	2743.768968
513.354186	2736.396281
513.718449	2726.061916
514.082655	2726.001422
514.446803	2714.885677
514.810894	2712.286963
515.174927	2702.209696
515.538904	2698.524613
515.902822	2697.123172
516.266684	2687.287881
516.630488	2683.237314
516.994235	2679.610203
517.357925	2675.844462
517.721558	2672.177022
518.085133	2670.019408
518.448651	2666.866167
518.812112	2660.925167
519.175516	2658.961637
519.538863	2657.572799
519.902152	2654.117088
520.265385	2651.014258
520.628560	2651.218425
520.991678	2648.723054
521.354739	2648.954947
521.717743	2647.130049
522.080690	2641.219296
522.443580	2639.265849
522.806413	2639.016312
523.169189	2639.984214
523.531908	2637.246867
523.894569	2634.375930
524.257174	2636.740231
524.619722	2632.634211
524.982213	2634.023049
525.344647	2631.734365
525.707025	2632.213275
526.069345	2631.898203
526.431608	2628.261010
526.793815	2628.205558
527.155964	2623.726492
527.518057	2625.500979
527.880093	2623.756739
528.242072	2620.444701
528.603995	2624.553242
528.965860	2620.280864
529.327669	2620.137191
529.689421	2620.517798
530.051117	2621.730196
530.412755	2617.780452
530.774337	2620.429578
531.135862	2614.483537
531.497331	2615.055708
531.858743	2610.584204
532.220098	2613.503032
532.581396	2610.344750
532.942638	2612.653598
533.303824	2613.127467
533.664953	2610.276694
534.026025	2612.646036
534.387040	2611.272322
534.747999	2610.899277
535.108902	2613.893722
535.469748	2613.714761
535.830537	2611.642847
536.191270	2609.220572
536.551947	2611.010182
536.912567	2611.405912
537.273131	2610.178392
537.633638	2611.486571
537.994089	2608.547578
538.354483	2605.265787
538.714821	2608.396344
539.075103	2609.545727
539.435328	2609.611262
539.795497	2606.392485
540.155609	2609.429780
540.515665	2609.863319
540.875665	2607.725870
541.235609	2605.633791
541.595496	2610.690069
541.955328	2606.944491
542.315102	2607.531786
542.674821	2604.670931
543.034483	2607.801487
543.394090	2606.369800
543.753640	2606.999944
544.113134	2608.862650
544.472571	2606.717639
544.831953	2606.533637
545.191278	2608.071189
545.550548	2606.536158
545.909761	2606.463061
546.268918	2605.527927
546.628019	2607.098247
546.987064	2608.086313
547.346053	2605.868205
547.704986	2605.144799
548.063863	2604.628081
548.422684	2607.244440
548.781449	2606.465582
549.140158	2604.759151
549.498811	2606.039604
549.857408	2603.302258
550.215949	2601.212699
550.574434	2600.282607
550.932864	2604.910386
551.291237	2601.051383
551.649555	2606.296703
552.007817	2608.834924
552.366022	2606.579008
552.724173	2606.087495
553.082267	2606.200921
553.440305	2608.802157
553.798288	2605.056579
554.156215	2605.018771
554.514086	2607.609924
554.871902	2602.062134
555.229661	2607.372989
555.587365	2606.934409
555.945014	2604.839810
556.302606	2604.940633
556.660143	2605.389295
557.017625	2605.449789
557.375050	2605.792588
557.732421	2606.536158
558.089735	2606.702516
558.446994	2603.836620
558.804197	2606.458020
559.161345	2605.187649
559.518437	2604.355859
559.875474	2603.803852
560.232455	2605.709409
560.589381	2604.892742
560.946251	2607.322578
561.303065	2606.276538
561.659825	2605.709409
562.016528	2602.604058
562.373177	2604.373503
562.729770	2603.302258
563.086307	2605.459872
563.442789	2604.617999
563.799216	2605.570777
564.155587	2603.420725
564.511904	2602.568770
564.868164	2602.692278
565.224370	2603.987855
565.580520	2605.275869
565.936615	2604.741507
566.292654	2602.409973
566.648638	2603.632453
567.004567	2605.401898
567.360441	2605.984152
567.716260	2603.849223
568.072023	2603.450972
568.427732	2598.329159
568.783385	2599.833944
569.138982	2600.486773
569.494525	2600.801845
569.850013	2596.320260
570.205445	2602.866198
570.560823	2602.472988
570.916145	2601.752103
571.271412	2602.941815
571.626625	2601.139603
571.981782	2600.300251
572.336884	2602.357041
572.691931	2603.070365
573.046923	2600.375868
573.401860	2598.407297
573.756743	2602.815786
574.111570	2601.190014
574.466342	2599.980137
574.821059	2599.521392
575.175722	2602.536002
575.530330	2600.509458
575.884882	2598.634149
576.239380	2599.165991
576.593823	2601.479881
576.948211	2597.852770
577.302544	2598.813110
577.656823	2599.163470
578.011047	2601.623553
578.365216	2599.110538
578.719330	2598.445106
579.073389	2596.910075
579.427394	2595.642224
579.781344	2597.147009
580.135239	2601.558018
580.489080	2599.072730
580.842866	2596.698346
581.196597	2599.876794
581.550273	2596.418562
581.903895	2599.629777
582.257463	2599.309664
582.610975	2594.760023
582.964434	2597.020980
583.317837	2595.438058
583.671186	2598.029211
584.024481	2595.707759
584.377721	2596.595002
584.730906	2595.780856
585.084037	2595.906885
585.437113	2598.515682
585.790135	2595.256576
586.143103	2594.878490
586.496016	2594.124837
586.848874	2589.454208
587.201679	2592.277254
587.554428	2591.458067
587.907124	2591.480752
588.259765	2587.021851
588.612352	2594.167687
588.964884	2593.313211
589.317362	2594.417224
589.669786	2592.577203
590.022155	2592.672985
590.374470	2592.645258
590.726731	2594.815475
591.078937	2591.803386
591.431090	2592.834302
591.783188	2592.254569
592.135232	2589.744074
592.487222	2592.136102
592.839157	2594.392018
593.191038	2592.040320
593.542866	2590.306163
593.894639	2595.977461
594.246358	2591.223653
594.598022	2592.443612
594.949633	2591.490834
595.301190	2588.219125
595.652692	2592.378077
596.004141	2589.078642
596.355535	2590.162490
596.706876	2590.117120
597.058162	2588.541759
597.409395	2590.827922
597.760573	2590.906060
598.111698	2588.423292
598.462768	2589.484455
598.813785	2588.090576
599.164748	2587.389856
599.515657	2588.476224
599.866511	2585.096131
600.217312	2588.635021
600.568060	2587.664598
600.918753	2591.034610
601.269392	2589.650813
601.619978	2588.251893
601.970510	2590.805237
602.320988	2588.249372
602.671412	2589.141657
603.021783	2588.360278
603.372100	2589.595360
603.722363	2586.144691
604.072572	2589.441605
604.422728	2589.068560
604.772830	2584.420616
605.122878	2585.083528
605.472872	2584.032447
605.822813	2583.064546
606.172701	2586.931111
606.522534	2587.808271
606.872314	2587.896492
607.222041	2589.348344
607.571714	2587.069742
607.921333	2589.272727
608.270899	2584.826429
608.620411	2590.316245
608.969870	2591.246338
609.319276	2585.469176
609.668627	2593.827409
610.017926	2596.441247
610.367171	2597.215064
610.716362	2594.434868
611.065500	2594.208016
611.414585	2592.042841
611.763616	2593.222471
612.112594	2590.419589
612.461518	2589.479414
612.810389	2588.468662
613.159207	2589.055957
613.507971	2588.763570
613.856682	2590.641400
614.205340	2589.912953
614.553945	2590.691811
614.902496	2588.377922
615.250994	2590.722058
615.599439	2590.764908
615.947830	2590.094435
616.296169	2590.971595
616.644454	2588.861872
616.992686	2588.508992
617.340864	2587.833477
617.688990	2588.508992
618.037063	2589.797007
618.385082	2589.562593
618.733048	2586.298446
619.080961	2588.269537
619.428821	2592.345310
619.776628	2588.680391
620.124382	2590.354054
620.472083	2588.914805
620.819731	2591.316914
621.167326	2587.679722
621.514868	2588.965216
621.862357	2585.491861
622.209793	2585.363312
622.557176	2587.099989
622.904506	2583.387179
623.251783	2583.094793
623.599007	2584.511357
623.946179	2583.674525
624.293297	2582.383990
624.640363	2584.869279
624.987376	2583.104875
625.334336	2583.445153
625.681243	2584.481110
626.028097	2581.998342
626.374899	2583.770307
626.721647	2584.387848
627.068343	2580.944740
627.414987	2583.563620
627.761577	2582.429360
628.108115	2581.950451
628.454600	2580.632189
628.801032	2583.412385
629.147412	2583.238465
629.493739	2581.169072
629.840014	2582.631006
630.186236	2581.428691
630.532405	2582.757035
630.878521	2581.529514
631.224585	2581.894998
631.570597	2577.587332
631.916556	2578.217476
632.262462	2579.381983
632.608316	2580.123032
632.954117	2579.883577
633.299866	2582.739391
633.645562	2580.463310
633.991206	2580.896849
634.336797	2578.784606
634.682336	2578.414081
635.027823	2576.901735
635.373257	2578.446849
635.718639	2577.398289
636.063968	2580.821232
636.409245	2573.781261
636.754470	2573.733370
637.099642	2576.959708
637.444762	2575.646488
637.789829	2574.214800
638.134845	2576.211097
638.479808	2576.863926
638.824719	2576.339646
639.169577	2575.966601
639.514383	2575.122208
639.859137	2573.955181
640.203839	2574.527352
640.548489	2572.321847
640.893086	2571.205231
641.237632	2569.130796
641.582125	2573.342680
641.926566	2565.203737
642.270955	2570.391085
642.615292	2574.227403
642.959576	2574.940726
643.303809	2572.523493
643.647990	2574.484502
643.992118	2571.575756
644.336195	2573.786302
644.680219	2573.982907
645.024192	2572.319326
645.368112	2573.486353
645.711981	2573.980386
646.055797	2573.657752
646.399562	2572.231106
646.743274	2572.432752
647.086935	2578.482137
647.430544	2576.145562
647.774101	2576.223700
648.117606	2576.576581
648.461059	2576.480799
648.804460	2577.625141
649.147810	2576.183371
649.491108	2573.395612
649.834354	2575.424677
650.177548	2574.010633
650.520690	2574.338308
650.863781	2570.832186
651.206820	2574.849985
651.549807	2573.113308
651.892742	2569.745817
652.235626	2572.659604
652.578458	2572.145406
652.921238	2568.787998
653.263967	2573.042732
653.606644	2571.313616
653.949269	2569.960066
654.291843	2572.117680
654.634365	2571.487536
654.976836	2570.900241
655.319255	2571.109449
655.661622	2567.938563
656.003938	2569.851681
656.346203	2570.317988
656.688416	2570.691033
657.030577	2569.087947
657.372687	2567.961249
657.714746	2567.126938
658.056753	2566.673234
658.398708	2564.858418
658.740612	2563.751885
659.082465	2565.090312
659.424266	2566.857236
659.766016	2566.529561
660.107715	2569.466033
660.449362	2568.659448
660.790958	2569.874367
661.132503	2570.086095
661.473996	2569.619788
661.815438	2568.057031
662.156829	2569.836558
662.498168	2569.392936
662.839456	2570.368400
663.180693	2567.873028
663.521879	2571.144737
663.863013	2568.815724
664.204097	2568.024263
664.545129	2572.715057
664.886110	2570.365879
665.227040	2568.891342
665.567918	2568.372103
665.908746	2569.831517
666.249522	2571.913513
666.590248	2571.422001
666.930922	2568.293965
667.271545	2571.018708
667.612118	2572.062227
667.952639	2570.653225
668.293109	2571.172464
668.633528	2568.437638
668.973896	2569.856722
669.314213	2565.148285
669.654480	2569.781105
669.994695	2571.053997
670.334859	2568.546023
670.674973	2568.717422
671.015035	2567.401681
671.355047	2568.326732
671.695008	2569.652556
672.034918	2568.803121
672.374777	2570.058369
672.714585	2568.553584
673.054342	2572.367217
673.394049	2572.722618
673.733705	2570.290262
674.073310	2570.595252
674.412864	2571.316137
674.752368	2571.111970
675.091820	2568.316650
675.431223	2568.039387
675.770574	2569.302196
676.109875	2564.772719
676.449125	2565.594427
676.788324	2566.239695
677.127473	2564.351782
677.466571	2563.605692
677.805619	2568.246074
678.144616	2565.952349
678.483562	2567.487380
678.822458	2566.781619
679.161303	2567.074006
679.500098	2567.192473
679.838842	2564.598799
680.177535	2564.913871
680.516179	2565.730538
680.854771	2564.215671
681.193314	2566.136351
681.531805	2567.189952
681.870247	2570.978379
682.208638	2569.208934
682.546978	2567.963769
682.885268	2568.760272
683.223508	2570.842268
683.561697	2568.230950
683.899836	2568.755230
684.237925	2567.961249
684.575963	2570.859912
684.913951	2567.270611
685.251889	2569.773543
685.589776	2566.665672
685.927614	2566.612740
686.265401	2567.179870
686.603137	2567.079047
686.940824	2570.386044
687.278460	2568.906465
687.616046	2569.529048
687.953582	2570.186918
688.291068	2572.430232
688.628504	2570.169274
688.965889	2568.808162
689.303224	2571.787484
689.640510	2569.110632
689.977745	2567.159705
690.314930	2564.656772
690.652065	2569.345045
690.989150	2569.012329
691.326185	2564.404715
691.663170	2565.899417
692.000105	2566.272462
692.336990	2563.600651
692.673825	2564.064437
693.010610	2564.737431
693.347345	2559.527398
693.684030	2558.337686
694.020665	2561.395146
694.357251	2556.235525
694.693786	2561.760629
695.030272	2561.682492
695.366707	2561.599313
695.703093	2561.889179
696.039429	2559.217367
696.375716	2561.458160
696.711952	2559.572769
697.048139	2560.729713
697.384276	2560.684343
697.720363	2560.727193
698.056400	2560.757440
698.392388	2557.102603
698.728326	2557.130330
699.064214	2557.601677
699.400053	2559.426575
699.735842	2557.863818
700.071581	2557.064795
700.407270	2560.979251
700.742910	2558.718293
701.078501	2556.273333
701.414042	2559.650907
701.749533	2554.035061
702.084974	2556.364074
702.420366	2555.970864
702.755709	2558.551935
703.091002	2557.979764
703.426246	2555.960782
703.761440	2554.519012
704.096584	2555.600339
704.431679	2556.061605
704.766725	2555.549928
705.101721	2553.319217
705.436668	2556.401883
705.771565	2554.652602
706.106413	2557.415155
706.441212	2556.903478
706.775961	2556.066646
707.110661	2556.164949
707.445311	2559.093859
707.779913	2555.849877
708.114465	2558.060422
708.448967	2556.979095
708.783421	2557.919270
709.117825	2557.780638
709.452180	2558.133519
709.786485	2558.183931
710.120742	2562.267265
710.454949	2563.015877
710.789107	2558.551935
711.123216	2558.677964
711.457275	2560.391956
711.791286	2560.623849
712.125247	2559.214847
712.459159	2560.918757
712.793023	2563.046124
713.126837	2561.581668
713.460602	2561.458160
713.794318	2560.122254
714.127985	2557.344579
714.461602	2558.945145
714.795171	2559.260217
715.128691	2558.582182
715.462162	2561.264076
715.795584	2557.349620
716.128957	2558.418344
716.462281	2558.549414
716.795556	2555.668395
717.128782	2554.859290
717.461960	2557.831050
717.795088	2552.363919
718.128167	2556.031358
718.461198	2555.915412
718.794180	2555.721327
719.127113	2551.307797
719.459997	2553.704866
719.792833	2554.955072
720.125619	2553.346944
720.458357	2552.459701
720.791046	2551.635472
721.123686	2551.000287
721.456278	2554.687891
721.788821	2552.883157
722.121315	2555.910370
722.453761	2549.908877
722.786158	2553.278888
723.118506	2554.745864
723.450805	2551.612787
723.783056	2554.027499
724.115259	2554.173693
724.447412	2552.154711
724.779518	2550.433157
725.111574	2554.052705
725.443582	2551.103630
725.775542	2549.946685
726.107453	2553.450287
726.439315	2552.850390
726.771129	2555.065977
727.102895	2554.629917
727.434612	2553.639331
727.766281	2552.069011
728.097901	2554.561862
728.429473	2550.957437
728.760996	2552.638662
729.092471	2550.055070
729.423897	2554.181255
729.755276	2555.401214
730.086606	2555.192006
730.417887	2555.900288
730.749120	2558.698128
731.080305	2557.505896
731.411442	2559.487069
731.742530	2558.297357
732.073570	2555.991029
732.404562	2557.029507
732.735506	2556.265772
733.066401	2555.393652
733.397249	2554.753426
733.728048	2555.529763
734.058798	2554.360216
734.389501	2555.118909
734.720156	2556.250648
735.050762	2553.941800
735.381320	2551.219577
735.711831	2552.482386
736.042293	2551.741336
736.372707	2549.649257
736.703073	2552.918446
737.033391	2551.524567
737.363661	2550.642365
737.693883	2550.687735
738.024056	2554.912222
738.354182	2552.684032
738.684260	2551.456511
739.014290	2552.419371
739.344272	2554.566903
739.674207	2554.007335
740.004093	2555.562531
740.333931	2553.614125
740.663722	2554.183775
740.993464	2550.360060
741.323159	2555.542366
741.652806	2553.205791
741.982405	2555.078580
742.311956	2552.835267
742.641460	2553.987170
742.970915	2551.022972
743.300323	2552.217725
743.629683	2551.622869
743.958996	2550.478527
744.288260	2548.504915
744.617477	2550.723023
744.946647	2546.067518
745.275768	2546.911911
745.604842	2548.968702
745.933869	2546.581715
746.262847	2545.800336
746.591778	2552.379042
746.920662	2547.108516
747.249498	2548.441901
747.578286	2550.476007
747.907027	2550.879299
748.235720	2548.928372
748.564365	2549.203115
748.892963	2549.729916
749.221514	2548.540203
749.550017	2548.898125
749.878473	2549.003990
750.206881	2551.224618
750.535242	2548.462066
750.863555	2550.264278
751.191821	2551.388455
751.520039	2551.632951
751.848210	2548.426777
752.176334	2548.081458
752.504411	2548.756973
752.832440	2549.669422
753.160421	2549.931562
753.488356	2547.705893
753.816243	2548.532642
754.144082	2546.440563
754.471875	2549.573640
754.799620	2547.715975
755.127318	2546.453166
755.454969	2546.551468
755.782572	2548.714123
756.110129	2549.286294
756.437638	2546.619524
756.765100	2549.198074
757.092515	2545.646581
757.419882	2547.206818
757.747203	2546.899308
758.074477	2546.826211
758.401703	2549.172868
758.728882	2549.780327
759.056014	2551.542211
759.383099	2550.299566
759.710138	2551.401058
760.037129	2548.724206
760.364073	2549.891233
760.690970	2549.177909
761.017820	2551.149001
761.344623	2550.019782
761.671379	2548.517518
761.998088	2547.098433
762.324751	2550.155893
762.651366	2555.307953
762.977935	2563.855229
763.304456	2564.203068
763.630931	2566.877401
763.957359	2566.955538
764.283740	2562.907492
764.610074	2557.510937
764.936362	2556.485062
765.262602	2554.140925
765.588796	2550.627241
765.914943	2551.809392
766.241044	2553.674619
766.567097	2547.347971
766.893104	2548.593136
767.219064	2546.932075
767.544978	2547.400903
767.870845	2549.180430
768.196665	2547.269833
768.522438	2545.649102
768.848165	2546.044832
769.173846	2545.220604
769.499479	2546.085162
769.825066	2544.204811
770.150607	2544.567774
770.476101	2548.159596
770.801548	2543.882177
771.126949	2544.169523
771.452303	2545.873433
771.777611	2541.285983
772.102872	2548.494833
772.428087	2543.710778
772.753256	2545.719678
773.078378	2543.002496
773.403453	2544.751776
773.728482	2541.253216
774.053465	2545.162630
774.378401	2539.710623
774.703291	2544.776982
775.028135	2541.056611
775.352932	2542.400078
775.677683	2542.185829
776.002388	2541.780016
776.327046	2544.222455
776.651658	2543.088196
776.976224	2539.602238
777.300743	2542.720191
777.625216	2543.627599
777.949643	2543.604914
778.274024	2541.406971
778.598359	2540.108874
778.922647	2538.709953
779.246889	2541.502753
779.571086	2536.093595
779.895236	2539.458565
780.219339	2542.216076
780.543397	2544.030891
780.867409	2542.727753
781.191374	2540.557536
781.515294	2541.084337
781.839167	2541.749769
782.162995	2541.490150
782.486776	2542.160623
782.810511	2541.391847
783.134201	2543.289842
783.457844	2543.098278
783.781441	2541.114584
784.104993	2543.030222
784.428498	2541.754810
784.751958	2541.659028
785.075372	2540.403781
785.398739	2541.928730
785.722061	2541.991745
786.045337	2542.601724
786.368568	2542.097609
786.691752	2542.352187
787.014891	2542.810932
787.337983	2540.880170
787.661030	2543.738504
787.984031	2542.518545
788.306987	2544.865202
788.629897	2543.914945
788.952760	2543.599873
789.275579	2542.188350
789.598351	2546.259081
789.921078	2543.650284
790.243759	2540.963349
790.566395	2542.722712
790.888984	2541.729605
791.211529	2541.898483
791.534027	2543.889739
791.856480	2540.116435
792.178888	2539.536703
792.501249	2539.534182
792.823566	2543.035263
793.145836	2541.502753
793.468062	2544.287990
793.790241	2539.599717
794.112375	2541.061652
794.434464	2540.123997
794.756507	2541.971580
795.078505	2544.411498
795.400457	2538.778009
795.722364	2536.925385
796.044226	2539.962680
796.366042	2540.842362
796.687812	2539.405633
797.009538	2544.809750
797.331218	2542.228679
797.652852	2540.895294
797.974442	2542.692465
798.295986	2539.761034
798.617484	2542.266488
798.938938	2539.667773
799.260346	2542.039636
799.581709	2542.571477
799.903026	2542.989893
800.224299	2541.401930
800.545526	2540.489481
800.866708	2539.690458
801.187845	2540.144162
801.508936	2539.546785
801.829983	2537.825231
802.150984	2539.584594
802.471940	2538.624254
802.792851	2539.007382
803.113717	2540.940664
803.434538	2539.635005
803.755314	2540.232382
804.076045	2536.559901
804.396731	2540.701209
804.717372	2541.727084
805.037967	2540.338246
805.358518	2540.562577
805.679024	2540.509645
805.999485	2538.825900
806.319901	2539.425797
806.640272	2541.596014
806.960598	2539.486291
807.280879	2536.287679
807.601115	2541.936292
807.921306	2540.794471
808.241453	2546.173382
808.561554	2541.427135
808.881611	2542.299255
809.201623	2541.880839
809.521590	2540.686086
809.841513	2540.794471
810.161390	2539.264480
810.481223	2540.890252
810.801011	2538.871270
811.120755	2540.202135
811.440453	2540.572660
811.760107	2541.757331
812.079716	2535.536547
812.399281	2536.907741
812.718801	2536.922864
813.038276	2535.055117
813.357707	2539.458565
813.677093	2539.629964
813.996434	2537.691640
814.315731	2538.838503
814.634983	2539.841693
814.954191	2539.478729
815.273354	2541.598535
815.592473	2542.092568
815.911547	2540.612989
816.230577	2542.503422
816.549562	2539.330015
816.868502	2540.854964
817.187399	2539.430838
817.506250	2541.762372
817.825058	2539.564429
818.143821	2540.504604
818.462539	2542.657177
818.781213	2541.515356
819.099843	2542.982331
819.418429	2546.765717
819.736970	2549.311500
820.055466	2550.654967
820.373919	2550.818805
820.692327	2554.327448
821.010691	2561.178376
821.329011	2573.241857
821.647286	2601.704212
821.965517	2630.552215
822.283704	2647.752632
822.601847	2653.413847
822.919945	2638.565129
823.237999	2620.444701
823.556010	2607.052876
823.873976	2592.312542
824.191897	2581.451376
824.509775	2573.496436
824.827609	2568.684654
825.145398	2562.131154
825.463144	2562.370609
825.780845	2562.055537
826.098502	2568.087277
826.416116	2574.663463
826.733685	2582.157138
827.051210	2587.316759
827.368692	2584.493713
827.686129	2572.510890
828.003522	2566.337997
828.320872	2554.791234
828.638177	2554.151008
828.955439	2548.351160
829.272656	2547.584905
829.589830	2542.896632
829.906960	2545.069369
830.224046	2546.427960
830.541088	2542.337064
830.858086	2545.727240
831.175041	2543.665408
831.491952	2540.950746
831.808819	2541.608617
832.125642	2543.572146
832.442421	2543.206663
832.759157	2546.725388
833.075849	2554.294681
833.392497	2559.048489
833.709101	2561.740465
834.025662	2560.959086
834.342179	2558.284754
834.658653	2551.920297
834.975083	2552.313507
835.291469	2552.633620
835.607811	2545.449976
835.924110	2544.230017
836.240366	2541.323792
836.556578	2540.885211
836.872746	2541.527958
837.188871	2541.112063
837.504952	2539.793802
837.820990	2537.910931
838.136984	2538.563760
838.452935	2534.908923
838.768842	2538.563760
839.084706	2540.189532
839.400526	2541.107022
839.716303	2545.278577
840.032037	2546.821170
840.347727	2548.073897
840.663373	2547.141283
840.978977	2541.774975
841.294537	2538.147865
841.610054	2537.893287
841.925527	2539.153575
842.240957	2535.458409
842.556344	2537.603420
842.871687	2537.139634
843.186987	2536.373379
843.502244	2536.665766
843.817458	2537.600900
844.132629	2535.287010
844.447756	2537.154757
844.762840	2532.017822
845.077881	2534.498069
845.392879	2531.405322
845.707833	2535.702905
846.022745	2530.192924
846.337613	2532.108563
846.652438	2533.194931
846.967221	2536.176774
847.281960	2533.467153
847.596656	2535.002185
847.911309	2534.238450
848.225919	2534.062010
848.540485	2532.169056
848.855009	2536.759027
849.169490	2537.169881
849.483928	2535.309695
849.798323	2533.010929
850.112675	2532.915147
850.426984	2534.510672
850.741251	2537.462268
851.055474	2531.780888
851.369654	2534.535878
851.683792	2534.256094
851.997887	2533.706608
852.311938	2532.688295
852.625947	2536.244829
852.939914	2534.137627
853.253837	2534.901362
853.567718	2535.027391
853.881555	2532.847092
854.195350	2535.319777
854.509103	2534.109901
854.822812	2535.793646
855.136479	2536.547298
855.450103	2532.514375
855.763685	2533.441948
856.077224	2534.195600
856.390720	2535.836496
856.704173	2536.045704
857.017584	2533.260466
857.330953	2533.741896
857.644278	2534.853471
857.957561	2538.367155
858.270802	2537.086702
858.584000	2533.058820
858.897155	2536.562422
859.210268	2533.323481
859.523339	2536.736342
859.836367	2538.001671
860.149352	2535.806249
860.462295	2536.418749
860.775195	2532.726104
861.088054	2531.460774
861.400869	2530.719725
861.713642	2530.646628
862.026373	2532.663089
862.339062	2529.855167
862.651708	2536.010416
862.964312	2533.328522
863.276873	2534.188038
863.589392	2534.901362
863.901869	2535.405477
864.214303	2533.555374
864.526696	2532.365661
864.839045	2535.987730
865.151353	2534.966897
865.463619	2535.559232
865.775842	2535.655014
866.088023	2533.933460
866.400162	2533.686444
866.712258	2536.161650
867.024313	2535.718029
867.336325	2535.276928
867.648296	2534.114942
867.960224	2534.581248
868.272110	2537.190046
868.583954	2535.899510
868.895755	2533.348686
869.207515	2534.624098
869.519233	2532.857174
869.830909	2535.130734
870.142542	2536.887576
870.454134	2535.725590
870.765684	2533.063861
871.077191	2534.200641
871.388657	2534.193080
871.700081	2535.269366
872.011463	2535.927237
872.322803	2536.554860
872.634101	2535.176105
872.945357	2535.760878
873.256571	2535.143337
873.567744	2537.295910
873.878874	2539.032587
874.189963	2538.006712
874.501010	2536.794315
874.812015	2536.625436
875.122979	2538.021836
875.433900	2533.890610
875.744780	2538.092412
876.055618	2535.312216
876.366415	2538.641898
876.677169	2537.477391
876.987882	2537.585776
877.298554	2530.795342
877.609183	2535.700385
877.919771	2533.840199
878.230317	2536.012936
878.540822	2541.802701
878.851285	2541.016281
879.161707	2542.836138
879.472087	2545.225645
879.782425	2546.216232
880.092722	2550.118085
880.402977	2557.682336
880.713191	2575.026426
881.023363	2588.022520
881.333494	2601.167329
881.643583	2600.330498
881.953631	2598.135075
882.263637	2597.227667
882.573602	2589.797007
882.883526	2584.738209
883.193408	2575.588514
883.503248	2569.834037
883.813048	2566.441341
884.122806	2558.786349
884.432522	2556.255689
884.742197	2550.465924
885.051831	2548.903167
885.361424	2546.440563
885.670975	2543.824204
885.980485	2542.125335
886.289954	2541.003678
886.599382	2543.249512
886.908768	2541.157434
887.218113	2540.025695
887.527417	2538.639377
887.836680	2540.247505
888.145901	2538.311702
888.455082	2538.868750
888.764221	2538.765406
889.073319	2536.539737
889.382376	2536.761547
889.691392	2538.747762
890.000366	2535.692823
890.309300	2537.802546
890.618193	2538.117618
890.927044	2537.636188
891.235855	2535.813811
891.544625	2537.626105
891.853353	2536.988399
892.162041	2539.758513
892.470687	2540.411343
892.779293	2539.771116
893.087858	2540.643236
893.396381	2540.393699
893.704864	2542.652136
894.013306	2543.856972
894.321707	2549.687066
894.630068	2555.484393
894.938387	2559.570248
895.246665	2557.974723
895.554903	2556.036399
895.863100	2551.627910
896.171256	2546.266643
896.479371	2547.968033
896.787446	2545.303783
897.095480	2542.674821
897.403473	2542.374872
897.711425	2540.184491
898.019336	2542.256405
898.327207	2541.313709
898.635038	2540.567619
898.942827	2540.391178
899.250576	2540.774306
899.558284	2537.812628
899.865952	2536.973276
900.173579	2537.880684
900.481165	2535.370189
900.788711	2537.376568
901.096216	2538.092412
901.403681	2536.378420
901.711105	2535.060158
902.018489	2537.570653
902.325832	2538.662062
902.633135	2534.326670
902.940397	2540.219779
903.247619	2538.878832
903.554800	2545.215563
903.861941	2551.874927
904.169041	2562.612584
904.476101	2566.998388
904.783121	2566.103583
905.090100	2564.261042
905.397039	2557.871379
905.703938	2551.867365
906.010796	2546.826211
906.317614	2541.676672
906.624391	2540.691127
906.931129	2541.311189
907.237826	2537.638708
907.544483	2537.852957
907.851099	2536.501928
908.157675	2535.523944
908.464211	2535.813811
908.770707	2530.757533
909.077163	2534.243491
909.383578	2528.786442
909.689954	2529.688809
909.996289	2531.112935
910.302584	2534.374561
910.608839	2533.436907
910.915054	2532.448840
911.221229	2533.386495
911.527363	2534.835827
911.833458	2532.065713
912.139513	2533.010929
912.445527	2534.858512
912.751502	2533.711649
913.057436	2535.602082
913.363331	2538.372196
913.669186	2537.429500
913.975000	2536.915303
914.280775	2539.607279
914.586510	2543.388144
914.892205	2546.329658
915.197859	2549.954247
915.503475	2553.165462
915.809050	2559.494631
916.114585	2561.843808
916.420081	2566.567370
916.725536	2564.813048
917.030952	2558.398180
917.336328	2555.040771
917.641665	2553.813250
917.946961	2552.361398
918.252218	2547.781510
918.557435	2546.564071
918.862612	2543.869574
919.167750	2541.898483
919.472848	2540.618030
919.777906	2540.227341
920.082925	2539.647608
920.387904	2537.890766
920.692843	2536.741383
920.997743	2534.273738
921.302603	2538.024357
921.607423	2535.223996
921.912204	2535.627288
922.216946	2534.558563
922.521647	2534.019160
922.826310	2533.867925
923.130932	2535.536547
923.435516	2534.808100
923.740059	2533.141999
924.044564	2532.184180
924.349028	2532.020342
924.653454	2529.749302
924.957840	2530.548325
925.262186	2528.935156
925.566493	2530.959179
925.870761	2527.493386
926.174989	2535.405477
926.479178	2532.516896
926.783328	2533.313398
927.087438	2529.958510
927.391509	2533.736855
927.695541	2532.675692
927.999533	2531.100332
928.303486	2532.327853
928.607400	2528.584796
928.911275	2530.636546
929.215110	2533.860363
929.518906	2531.884231
929.822663	2530.654190
930.126381	2532.526978
930.430060	2531.128058
930.733699	2531.818696
931.037299	2531.924560
931.340861	2528.612522
931.644383	2532.965559
931.947866	2533.401618
932.251309	2532.534540
932.554714	2531.475898
932.858080	2532.602596
933.161407	2532.942873
933.464694	2533.469674
933.767943	2528.857018
934.071153	2532.030425
934.374323	2526.764939
934.677455	2532.819365
934.980548	2531.322143
935.283602	2530.258459
935.586617	2530.588655
935.889593	2530.366844
936.192530	2531.554036
936.495428	2530.712163
936.798287	2528.509179
937.101108	2533.764582
937.403890	2532.388347
937.706632	2534.629139
938.009336	2532.101001
938.312002	2532.118645
938.614628	2533.774664
938.917216	2534.465302
939.219765	2532.950435
939.522275	2536.045704
939.824747	2534.334232
940.127179	2528.559590
940.429573	2526.772501
940.731929	2530.780218
941.034246	2526.984230
941.336524	2531.037317
941.638763	2531.947246
941.940964	2532.615198
942.243126	2533.409180
942.545250	2531.478418
942.847335	2531.238963
943.149381	2528.448685
943.451389	2531.836340
943.753359	2533.273069
944.055290	2531.574200
944.357182	2530.820548
944.659036	2530.397091
944.960851	2532.209386
945.262628	2529.688809
945.564367	2531.455733
945.866067	2531.097811
946.167729	2533.373892
946.469352	2529.212420
946.770937	2532.171577
947.072484	2529.618232
947.373992	2533.099149
947.675462	2530.807945
947.976893	2532.065713
948.278286	2532.552184
948.579641	2532.141330
948.880958	2529.003212
949.182236	2529.479601
949.483476	2528.289888
949.784678	2530.749972
950.085841	2530.346679
950.386967	2529.557739
950.688054	2533.164684
950.989103	2530.460105
951.290114	2531.105373
951.591087	2531.460774
951.892021	2532.763913
952.192917	2531.662420
952.493776	2529.517409
952.794596	2533.809952
953.095378	2531.153264
953.396122	2529.414066
953.696828	2531.480939
953.997496	2529.620753
954.298126	2531.397760
954.598718	2531.291896
954.899272	2529.532533
955.199788	2531.548994
955.500266	2532.627801
955.800706	2525.030783
956.101108	2527.730320
956.401472	2527.647141
956.701798	2527.105217
957.002087	2528.045393
957.302337	2527.533715
957.602550	2529.623274
957.902724	2531.400280
958.202861	2527.725279
958.502960	2529.560259
958.803022	2527.652182
959.103045	2528.110928
959.403031	2531.796011
959.702979	2526.838036
960.002889	2530.752492
960.302762	2527.558921
960.602596	2528.244518
960.902393	2527.485824
961.202153	2529.068747
961.501875	2528.055475
961.801559	2529.635877
962.101205	2528.713345
962.400814	2530.049251
962.700385	2529.063706
962.999918	2531.193593
963.299414	2529.225022
963.598873	2529.240146
963.898293	2528.221833
964.197677	2525.519774
964.497022	2527.163191
964.796331	2529.111597
965.095601	2528.489014
965.394835	2528.650331
965.694030	2528.413397
965.993189	2528.630166
966.292309	2529.774508
966.591393	2530.049251
966.890439	2526.316277
967.189447	2531.233922
967.488419	2526.631349
967.787353	2529.613191
968.086249	2527.329549
968.385108	2529.356092
968.683930	2525.645803
968.982714	2527.838705
969.281462	2531.221319
969.580172	2529.787111
969.878844	2526.044054
970.177480	2527.236287
970.476078	2528.549508
970.774639	2530.170239
971.073162	2529.288037
971.371649	2524.975330
971.670098	2523.853673
971.968510	2525.572707
972.266885	2523.306708
972.565223	2528.577234
972.863524	2526.273427
973.161788	2529.300640
973.460014	2528.284847
973.758204	2527.289219
974.056356	2528.975485
974.354471	2529.882893
974.652550	2528.226874
974.950591	2528.171421
975.248595	2526.676719
975.546563	2527.049765
975.844493	2527.891637
976.142386	2528.519261
976.440243	2527.332069
976.738062	2527.637059
977.035845	2526.608664
977.333590	2529.396422
977.631299	2525.320649
977.928971	2529.136802
978.226606	2527.120341
978.524204	2530.472708
978.821765	2527.009435
979.119290	2527.115300
979.416777	2527.231246
979.714228	2527.115300
980.011642	2529.857687
980.309020	2529.668644
980.606360	2529.749303
980.903664	2526.903571
981.200931	2526.989271
981.498162	2527.304343
981.795356	2528.778880
982.092513	2528.458767
982.389633	2528.100845
982.686717	2529.774508
982.983764	2528.289888
983.280775	2529.295599
983.577749	2531.420445
983.874686	2530.702081
984.171587	2528.912471
984.468451	2529.119158
984.765279	2528.791483
985.062070	2527.926925
985.358824	2527.367357
985.655543	2528.809127
985.952224	2527.291740
986.248869	2526.696884
986.545478	2523.924249
986.842050	2527.475742
987.138586	2523.135309
987.435086	2526.676719
987.731549	2521.648168
988.027975	2526.928777
988.324366	2526.454908
988.620719	2528.075639
988.917037	2529.499765
989.213318	2528.126051
989.509563	2528.564631
989.805772	2528.728469
990.101944	2525.222346
990.398080	2528.932636
990.694180	2526.207892
990.990244	2527.581606
991.286271	2525.905423
991.582262	2530.349200
991.878217	2528.322656
992.174136	2526.039013
992.470019	2528.960362
992.765865	2527.100176
993.061676	2527.982378
993.357450	2528.892306
993.653188	2528.675537
993.948890	2525.376102
994.244556	2527.261493
994.540186	2528.680578
994.835780	2526.550690
995.131337	2526.439785
995.426859	2528.027748
995.722345	2526.286030
996.017795	2528.431041
996.313208	2527.155629
996.608586	2525.678571
996.903928	2530.271062
997.199234	2526.651513
997.494504	2526.656555
997.789738	2527.929446
998.084936	2526.946421
998.380099	2527.498427
998.675225	2527.626977
998.970316	2527.480783
999.265371	2526.593540
999.560390	2530.681916
999.855373	2527.435413
1000.150320	2527.662265
1000.445232	2528.874662
1000.740108	2528.499096
1001.034948	2528.063037
1001.329752	2528.819210
1001.624521	2528.688140
1001.919254	2524.052799
1002.213951	2524.158663
1002.508613	2525.618077
1002.803239	2524.277130
1003.097829	2522.066584
1003.392384	2529.973634
1003.686903	2526.585978
1003.981386	2529.968593
1004.275834	2524.657737
1004.570246	2527.929446
1004.864623	2525.396266
1005.158964	2526.631349
1005.453270	2527.437933
1005.747540	2526.376771
1006.041775	2526.631349
1006.335974	2527.392563
1006.630138	2528.400794
1006.924266	2525.918026
1007.218359	2524.841739
1007.512416	2527.495907
1007.806438	2526.535567
1008.100425	2524.743437
1008.394376	2526.583458
1008.688292	2525.171935
1008.982172	2528.683098
1009.276017	2528.141174
1009.569827	2526.893489
1009.863602	2527.800897
1010.157341	2529.111597
1010.451045	2528.115969
1010.744714	2526.028931
1011.038347	2526.830474
1011.331945	2527.044723
1011.625508	2526.094466
1011.919036	2526.437264
1012.212528	2528.141174
1012.505986	2523.747809
1012.799408	2525.809641
1013.092795	2527.702594
1013.386147	2526.240659
1013.679464	2526.056657
1013.972745	2528.947759
1014.265992	2528.408356
1014.559204	2526.381812
1014.852380	2528.441123
1015.145521	2526.119672
1015.438628	2527.440454
1015.731699	2526.475073
1016.024736	2526.154960
1016.317737	2527.654703
1016.610703	2527.984899
1016.903635	2524.395597
1017.196531	2524.854342
1017.489393	2525.192099
1017.782219	2521.713703
1018.075011	2524.902233
1018.367768	2527.100176
1018.660490	2527.284178
1018.953177	2527.284178
1019.245829	2527.284178
