Dividing Wavelength (nm)	Counts (n)	Blue Motor Position (mm): 0.000000	Red Motor Position (mm): 36.100000	
326.493990	2126.656120
326.888308	2126.656120
327.282561	2126.656120
327.676750	2095.315267
328.070874	2093.316449
328.464933	2094.803590
328.858929	2102.788778
329.252859	2112.349326
329.646726	2123.971706
330.040528	2136.526700
330.434265	2153.273413
330.827938	2170.761175
331.221547	2187.573423
331.615091	2209.893132
332.008571	2227.156563
332.401986	2249.496437
332.795338	2266.333891
333.188625	2284.855090
333.581847	2302.655404
333.975006	2321.264823
334.368100	2340.665704
334.761129	2361.261338
335.154095	2375.311034
335.546996	2392.329969
335.939833	2413.502815
336.332606	2429.614343
336.725315	2440.929213
337.117960	2453.433795
337.510540	2460.751030
337.903056	2469.295786
338.295508	2478.604276
338.687896	2487.317911
339.080220	2495.431648
339.472480	2500.445075
339.864676	2509.073010
340.256807	2512.997548
340.648875	2513.378155
341.040879	2513.234483
341.432818	2517.925276
341.824694	2518.053826
342.216506	2521.343178
342.608253	2518.562982
342.999937	2519.689680
343.391557	2518.608353
343.783113	2518.409227
344.174605	2519.576254
344.566033	2514.638444
344.957397	2515.223218
345.348697	2510.718947
345.739934	2512.551406
346.131106	2510.003103
346.522215	2507.439676
346.913260	2506.265087
347.304241	2507.999244
347.695159	2500.112359
348.086012	2499.431803
348.476802	2497.818634
348.867528	2495.787049
349.258191	2495.257728
349.648789	2497.773264
350.039324	2493.059785
350.429796	2493.972234
350.820203	2491.083653
351.210548	2491.698673
351.600828	2491.184476
351.991045	2491.965854
352.381198	2488.311018
352.771288	2487.559886
353.161314	2489.667088
353.551276	2490.592140
353.941175	2490.188848
354.331010	2490.113230
354.720782	2487.272540
355.110490	2489.500730
355.500135	2490.440905
355.889717	2491.638179
356.279235	2489.964516
356.668689	2492.651451
357.058080	2487.524598
357.447408	2488.217757
357.836672	2485.843373
358.225873	2489.382263
358.615010	2485.460245
359.004084	2491.141626
359.393095	2491.605412
359.782043	2493.647079
360.170927	2493.899137
360.559748	2492.729589
360.948505	2496.056751
361.337199	2494.423417
361.725830	2492.991729
362.114398	2498.473984
362.502903	2500.077071
362.891344	2499.996413
363.279722	2498.766371
363.668037	2498.272338
364.056289	2501.118069
364.444478	2498.577328
364.832603	2502.242247
365.220665	2501.165960
365.608665	2501.541526
365.996601	2503.469768
366.384474	2503.036228
366.772284	2505.299706
367.160031	2505.932371
367.547715	2508.463030
367.935336	2509.496467
368.322893	2517.325379
368.710388	2518.323527
369.097820	2524.998015
369.485189	2525.335772
369.872495	2531.899355
370.259738	2542.238761
370.646918	2545.991900
371.034035	2550.841490
371.421090	2564.613923
371.808081	2575.752352
372.195010	2582.593198
372.581875	2598.994592
372.968678	2610.584204
373.355418	2617.646861
373.742096	2640.145531
374.128710	2656.562048
374.515262	2668.980931
374.901751	2683.330575
375.288177	2696.067050
375.674540	2721.222408
376.060841	2737.026425
376.447079	2758.985691
376.833254	2778.094185
377.219367	2789.779580
377.605417	2826.973213
377.991404	2837.221878
378.377329	2857.376412
378.763191	2876.840307
379.148991	2916.073086
379.534727	2941.344391
379.920402	2967.069399
380.306013	2979.490802
380.691563	3027.694315
381.077049	3049.585525
381.462474	3066.047413
381.847835	3108.297324
382.233134	3131.040489
382.618371	3127.065539
383.003545	3197.382074
383.388657	3204.532951
383.773706	3236.907241
384.158693	3255.370467
384.543618	3279.913324
384.928480	3317.064107
385.313280	3362.689070
385.698017	3356.987525
386.082692	3412.682193
386.467305	3418.386258
386.851856	3450.992442
387.236344	3472.951708
387.620770	3503.750637
388.005133	3530.740975
388.389435	3557.726271
388.773674	3572.675813
389.157851	3609.955146
389.541965	3626.190182
389.926018	3590.219028
390.310008	3665.387673
390.693936	3681.584901
391.077802	3723.315572
391.461606	3709.646484
391.845348	3775.438583
392.229027	3773.147378
392.612645	3784.822690
392.996200	3866.650700
393.379694	3902.934404
393.763125	3967.930001
394.146494	3935.346503
394.529801	3997.834126
394.913047	4048.724574
395.296230	4012.962628
395.679351	4067.845670
396.062410	4089.663784
396.445408	4072.730548
396.828343	4103.073253
397.211217	4126.953199
397.594028	4046.370355
397.976778	4116.293679
398.359466	4141.907782
398.742092	4171.413655
399.124656	4096.514712
399.507158	4171.842153
399.889598	4199.061864
400.271977	4257.186368
400.654294	4229.553283
401.036549	4241.301692
401.418742	4210.843040
401.800874	4314.625274
402.182944	4330.948531
402.564952	4400.397987
402.946898	4383.469792
403.328783	4378.534502
403.710606	4294.188437
404.092367	4488.436697
404.474067	4450.628043
404.855705	4459.626503
405.237282	4387.845513
405.618797	4495.126308
406.000250	4531.588974
406.381642	4611.675265
406.762972	4572.550870
407.144240	4585.587294
407.525447	4583.061676
407.906593	4644.258763
408.287677	4686.223848
408.668700	4616.058548
409.049661	4659.982122
409.430560	4706.350655
409.811399	4636.893637
410.192176	4794.820384
410.572891	4735.145725
410.953545	4836.984595
411.334138	4714.509762
411.714669	4784.173467
412.095139	4678.778064
412.475547	4820.114373
412.855894	4803.775994
413.236180	4813.250842
413.616405	4766.310138
413.996568	4855.331874
414.376670	4797.277947
414.756711	4751.043004
415.136691	4780.286737
415.516609	4858.076782
415.896466	4894.400817
416.276262	4929.736784
416.655997	4907.447323
417.035670	5093.039922
417.415283	5184.252039
417.794834	5128.736333
418.174324	5081.977110
418.553753	4986.101926
418.933121	5172.178476
419.312428	5241.713631
419.691674	5180.022511
420.070859	5304.864166
420.449983	5214.362851
420.829045	5334.415409
421.208047	5239.974433
421.586988	5310.648890
421.965867	5326.231096
422.344686	5456.862516
422.723444	5309.174352
423.102141	5133.827898
423.480777	5425.060397
423.859352	5190.732442
424.237866	5455.327484
424.616319	5445.847595
424.994712	5553.922371
425.373044	5433.872334
425.751314	5571.228652
426.129524	5380.501638
426.507673	5575.957255
426.885762	5656.232589
427.263789	5587.148616
427.641756	5467.643023
428.019662	5590.732877
428.397508	5597.135142
428.775292	5546.300147
429.153016	5647.566845
429.530679	5570.696811
429.908282	5656.285521
430.285824	5521.825345
430.663305	5802.335309
431.040726	5532.084093
431.418086	5534.534094
431.795385	5642.490403
432.172624	5656.219986
432.549802	5648.436444
432.926920	5662.211397
433.303977	5665.929248
433.680974	5703.521132
434.057910	5726.123146
434.434786	5729.059618
434.811601	5698.691707
435.188355	5937.415547
435.565050	5809.017359
435.941683	5793.762827
436.318257	6003.530280
436.694770	5984.928422
437.071222	6023.881418
437.447614	5950.280572
437.823946	5865.319486
438.200218	6022.613568
438.576429	5889.322940
438.952580	5982.722918
439.328670	6029.328385
439.704700	5934.022851
440.080670	5924.268218
440.456580	6193.675041
440.832429	6078.792186
441.208218	5918.007105
441.583947	6075.739768
441.959616	6082.046251
442.335224	6010.844994
442.710773	6146.502444
443.086261	6169.711917
443.461689	5966.132480
443.837057	6118.377847
444.212365	6277.088493
444.587612	6165.860475
444.962800	6318.829247
445.337927	6296.698582
445.712995	5908.786835
446.088002	6482.608774
446.462949	6315.489483
446.837837	6244.936014
447.212664	6415.649648
447.587431	6562.861423
447.962139	7101.710357
448.336786	8025.579937
448.711374	7770.505115
449.085901	6850.083684
449.460369	6770.052846
449.834776	6702.584563
450.209124	7091.605364
450.583412	7244.783345
450.957640	7393.134420
451.331808	7156.008625
451.705917	6710.090841
452.079965	6633.729963
452.453954	6838.254616
452.827883	6713.715431
453.201752	6808.612632
453.575562	6606.124605
453.949311	6811.990205
454.323001	6703.345778
454.696632	6777.002076
455.070202	6913.836636
455.443713	7070.840852
455.817164	7171.341295
456.190556	7248.569251
456.563888	7323.135478
456.937160	7370.469392
457.310373	7023.862339
457.683526	7052.884262
458.056619	6944.897705
458.429653	6935.432939
458.802628	6864.675303
459.175542	6977.534135
459.548398	7328.630336
459.921194	7490.698391
460.293930	7497.249370
460.666607	8020.470728
461.039224	8331.363727
461.411782	8464.006567
461.784280	8475.742373
462.156719	8363.775826
462.529099	8241.411898
462.901419	7834.283272
463.273680	7733.901297
463.645882	7737.188129
464.018024	7604.741894
464.390106	7773.131556
464.762130	8161.703694
465.134094	8630.215930
465.505999	9646.996496
465.877845	10869.912363
466.249631	11521.620130
466.621358	11138.769701
466.993026	10506.125058
467.364634	10256.020813
467.736184	9891.084124
468.107674	9560.081962
468.479105	9592.032796
468.850477	9353.036733
469.221790	9129.406107
469.593043	8799.576014
469.964238	8656.376998
470.335373	8667.303699
470.706449	8726.607832
471.077467	8708.409267
471.448425	10022.849803
471.819324	11097.185223
472.190164	11115.318253
472.560945	9874.264314
472.931667	9079.990197
473.302330	8948.786606
473.672934	8594.111186
474.043479	8949.399106
474.413965	8888.391062
474.784393	8771.330429
475.154761	8924.266434
475.525070	9008.761213
475.895321	8837.908948
476.265513	9018.392338
476.635645	9178.390999
477.005719	9190.240231
477.375734	9299.965986
477.745691	9538.309219
478.115588	9673.114714
478.485427	9913.061034
478.855207	10449.588518
479.224928	11261.748649
479.594591	11891.960935
479.964194	11707.303470
480.333739	11650.434213
480.703226	11556.378886
481.072653	11649.433544
481.442022	11888.316181
481.811333	12078.017321
482.180584	11877.780170
482.549777	11589.680748
482.918912	11422.526169
483.287988	11444.293871
483.657005	11444.934098
484.025964	11134.336006
484.394864	11267.374577
484.763706	11238.511450
485.132489	10993.289563
485.501213	10951.896648
485.869879	11030.049657
486.238487	10873.741120
486.607036	10983.857564
486.975527	10763.145766
487.343959	10960.532145
487.712333	11002.519915
488.080648	10927.620972
488.448905	10975.925308
488.817104	10906.407797
489.185244	11175.928046
489.553326	11332.992756
489.921350	11871.705579
490.289315	12929.175819
490.657222	13268.873971
491.025070	13187.421527
491.392861	13056.293554
491.760593	12675.976305
492.128267	12327.262049
492.495883	12002.205929
492.863440	11663.563899
493.230939	11325.073103
493.598380	11263.195460
493.965763	11128.377362
494.333088	11025.621003
494.700354	10950.843047
495.067563	11009.476708
495.434713	10838.810965
495.801805	10971.925153
496.168839	10896.028061
496.535815	10820.057872
496.902733	10824.110960
497.269593	10763.176013
497.636395	10859.353667
498.003139	10843.216933
498.369825	10714.317150
498.736453	10868.745336
499.103023	10790.196598
499.469535	10827.228914
499.835989	10812.622171
500.202385	10768.088617
500.568723	10627.062339
500.935003	10847.199445
501.301226	10654.894549
501.667390	10907.143805
502.033497	11004.629638
502.399546	10869.773732
502.765537	10774.082549
503.131470	10849.213386
503.497345	11024.776610
503.863163	10639.138423
504.228923	10940.354927
504.594625	11009.517037
504.960269	10755.868861
505.325856	10975.738786
505.691385	10767.395459
506.056856	10924.840776
506.422270	10954.170209
506.787625	10835.577065
507.152924	10955.226331
507.518164	10943.125041
507.883347	10849.384785
508.248472	10774.500965
508.613540	11008.339928
508.978550	10887.531196
509.343503	10859.209994
509.708398	10976.653755
510.073236	11089.747000
510.438016	11093.795047
510.802738	11040.252952
511.167403	11097.235634
511.532010	10988.840744
511.896561	11208.166225
512.261053	11291.350304
512.625488	11160.061014
512.989866	11143.231122
513.354186	11131.210491
513.718449	11026.142762
514.082655	11216.474046
514.446803	11115.313212
514.810894	11233.908877
515.174927	11096.176992
515.538904	11122.176743
515.902822	11264.932138
516.266684	11148.113480
516.630488	11090.707340
516.994235	11142.956379
517.357925	11195.800274
517.721558	11285.431990
518.085133	11297.634103
518.448651	11306.062912
518.812112	11184.051865
519.175516	11194.161899
519.538863	11309.730351
519.902152	11221.217772
520.265385	11378.731145
520.628560	11282.916454
520.991678	11253.105591
521.354739	11313.627163
521.717743	11243.764333
522.080690	11209.630680
522.443580	11342.754950
522.806413	11285.842844
523.169189	11314.905096
523.531908	11362.491067
523.894569	11178.546925
524.257174	11174.844198
524.619722	11282.528285
524.982213	11221.739532
525.344647	11256.818401
525.707025	11201.257323
526.069345	11288.963318
526.431608	11198.134329
526.793815	11297.858434
527.155964	11077.282748
527.518057	11125.128339
527.880093	11062.834801
528.242072	11116.094591
528.603995	11010.852943
528.965860	10926.416136
529.327669	10963.705551
529.689421	10901.643906
530.051117	10863.454645
530.412755	10945.322984
530.774337	10822.026443
531.135862	10790.650302
531.497331	10808.808538
531.858743	10648.111677
532.220098	10786.529158
532.581396	10648.323405
532.942638	10617.027922
533.303824	10569.918339
533.664953	10557.706144
534.026025	10464.149890
534.387040	10538.340552
534.747999	10518.748107
535.108902	10551.293796
535.469748	10307.561570
535.830537	10396.416947
536.191270	10345.410553
536.551947	10345.871818
536.912567	10325.986987
537.273131	10239.904244
537.633638	10192.711482
537.994089	10159.288632
538.354483	10094.535011
538.714821	10200.313542
539.075103	10180.867291
539.435328	10120.680955
539.795497	9942.128327
540.155609	10059.393127
540.515665	10116.910172
540.875665	9845.368420
541.235609	9878.249346
541.595496	9848.451086
541.955328	9949.876581
542.315102	9825.758332
542.674821	9755.721582
543.034483	9723.561541
543.394090	9698.766625
543.753640	9599.735679
544.113134	9758.910111
544.472571	9601.389177
544.831953	9687.479482
545.191278	9490.667795
545.550548	9489.316765
545.909761	9567.805010
546.268918	9507.482563
546.628019	9542.143017
546.987064	9393.723886
547.346053	9307.777254
547.704986	9332.378084
548.063863	9293.460377
548.422684	9261.890151
548.781449	9148.161720
549.140158	9199.415131
549.498811	9052.261330
549.857408	8903.378413
550.215949	9036.648876
550.574434	8885.550372
550.932864	8912.339064
551.291237	8930.353627
551.649555	8837.573711
552.007817	8814.230648
552.366022	8750.482737
552.724173	8703.680665
553.082267	8655.527563
553.440305	8698.609264
553.798288	8528.142647
554.156215	8582.113240
554.514086	8525.145681
554.871902	8382.894402
555.229661	8358.091925
555.587365	8305.999161
555.945014	8200.263480
556.302606	8228.985454
556.660143	8128.737069
557.017625	8170.598810
557.375050	8067.668531
557.732421	8112.154193
558.089735	8009.589397
558.446994	7967.604148
558.804197	7943.862834
559.161345	7903.568891
559.518437	7767.419928
559.875474	7773.371011
560.232455	7739.202070
560.589381	7668.769589
560.946251	7604.835155
561.303065	7645.817215
561.659825	7539.514404
562.016528	7461.129503
562.373177	7354.224274
562.729770	7361.049996
563.086307	7270.747807
563.442789	7286.249356
563.799216	7148.930845
564.155587	7143.171327
564.511904	7065.328350
564.868164	7021.114910
565.224370	6988.959910
565.580520	6889.082050
565.936615	6870.185285
566.292654	6733.199491
566.648638	6769.410099
567.004567	6698.307144
567.360441	6652.493138
567.716260	6547.616973
568.072023	6561.046607
568.427732	6480.438557
568.783385	6414.137302
569.138982	6385.395163
569.494525	6353.623291
569.850013	6249.596561
570.205445	6235.193984
570.560823	6170.405075
570.916145	6076.669861
571.271412	6067.537810
571.626625	5999.615824
571.981782	5947.311332
572.336884	5888.755810
572.691931	5863.978539
573.046923	5783.214213
573.401860	5728.235389
573.756743	5666.244320
574.111570	5638.891019
574.466342	5597.470379
574.821059	5567.253703
575.175722	5483.638604
575.530330	5446.616371
575.884882	5403.088528
576.239380	5334.196119
576.593823	5292.294048
576.948211	5260.416312
577.302544	5187.548954
577.656823	5147.227285
578.011047	5118.343994
578.365216	5069.628804
578.719330	5012.399105
579.073389	4967.671467
579.427394	4924.259571
579.781344	4885.399836
580.135239	4834.383359
580.489080	4805.116941
580.842866	4737.109255
581.196597	4711.079257
581.550273	4692.835321
581.903895	4643.129544
582.257463	4639.295747
582.610975	4564.101896
582.964434	4554.541348
583.317837	4492.648581
583.671186	4467.954489
584.024481	4427.572326
584.377721	4383.215214
584.730906	4347.876725
585.084037	4324.301769
585.437113	4282.437507
585.790135	4254.368363
586.143103	4202.424313
586.496016	4171.643028
586.848874	4149.053618
587.201679	4128.783138
587.554428	4068.072522
587.907124	4059.303435
588.259765	4027.009803
588.612352	3999.732120
588.964884	3955.075059
589.317362	3931.031275
589.669786	3908.847678
590.022155	3899.536667
590.374470	3870.918036
590.726731	3840.038448
591.078937	3781.666928
591.431090	3773.815331
591.783188	3736.067171
592.135232	3705.812686
592.487222	3692.899771
592.839157	3677.700692
593.191038	3644.532420
593.542866	3612.737863
593.894639	3577.880804
594.246358	3566.011408
594.598022	3549.577246
594.949633	3513.054087
595.301190	3489.153976
595.652692	3480.021926
596.004141	3471.179742
596.355535	3426.696601
596.706876	3400.830440
597.058162	3374.230792
597.409395	3365.935573
597.760573	3357.857124
598.111698	3330.692867
598.462768	3310.613951
598.813785	3295.934111
599.164748	3269.989813
599.515657	3258.518667
599.866511	3226.151939
600.217312	3231.883731
600.568060	3201.964483
600.918753	3201.112528
601.269392	3183.445804
601.619978	3157.123419
601.970510	3152.692245
602.320988	3145.942140
602.671412	3130.770787
603.021783	3115.891822
603.372100	3101.632918
603.722363	3085.032399
604.072572	3077.117787
604.422728	3065.984399
604.772830	3044.980431
605.122878	3031.548277
605.472872	3025.592154
605.822813	3012.157479
606.172701	2998.765653
606.522534	2997.074346
606.872314	2988.741319
607.222041	2975.072230
607.571714	2973.542240
607.921333	2960.341979
608.270899	2953.599436
608.620411	2950.809157
608.969870	2936.101591
609.319276	2926.979623
609.668627	2919.422933
610.017926	2915.432860
610.367171	2910.860533
610.716362	2904.672517
611.065500	2897.844274
611.414585	2887.562841
611.763616	2884.253323
612.112594	2874.574308
612.461518	2866.637011
612.810389	2862.813296
613.159207	2854.939014
613.507971	2842.131962
613.856682	2841.955522
614.205340	2833.748523
614.553945	2830.885148
614.902496	2818.922490
615.250994	2817.823518
615.599439	2813.299083
615.947830	2809.150213
616.296169	2803.126034
616.644454	2799.934984
616.992686	2790.361833
617.340864	2790.616411
617.688990	2781.416305
618.037063	2783.576440
618.385082	2778.784823
618.733048	2777.756428
619.080961	2773.010181
619.428821	2768.851229
619.776628	2764.341917
620.124382	2759.976278
620.472083	2750.438415
620.819731	2749.687283
621.167326	2736.020715
621.514868	2734.011815
621.862357	2727.755743
622.209793	2723.700135
622.557176	2717.595298
622.904506	2707.860830
623.251783	2702.595344
623.599007	2700.926722
623.946179	2696.278779
624.293297	2689.616894
624.640363	2689.274095
624.987376	2686.312417
625.334336	2681.603980
625.681243	2679.443845
626.028097	2674.800943
626.374899	2673.076868
626.721647	2671.191477
627.068343	2667.236691
627.414987	2664.053203
627.761577	2660.748726
628.108115	2658.949034
628.454600	2660.761329
628.801032	2653.900319
629.147412	2653.212201
629.493739	2650.938641
629.840014	2648.813795
630.186236	2649.416213
630.532405	2645.423619
630.878521	2643.039153
631.224585	2646.144504
631.570597	2640.775675
631.916556	2640.049749
632.262462	2639.711991
632.608316	2637.304840
632.954117	2631.520116
633.299866	2635.469860
633.645562	2634.176804
633.991206	2629.801083
634.336797	2626.824282
634.682336	2626.897378
635.027823	2624.127264
635.373257	2620.343878
635.718639	2617.346912
636.063968	2618.168620
636.409245	2617.742643
636.754470	2612.099071
637.099642	2612.635954
637.444762	2614.544031
637.789829	2608.494646
638.134845	2608.635798
638.479808	2607.811570
638.824719	2608.827362
639.169577	2606.402567
639.514383	2602.445262
639.859137	2603.887032
640.203839	2604.323091
640.548489	2604.013060
640.893086	2601.379057
641.237632	2598.339242
641.582125	2599.223964
641.926566	2596.209354
642.270955	2599.965014
642.615292	2598.979468
642.959576	2600.300251
643.303809	2598.707246
643.647990	2599.355034
643.992118	2597.111721
644.336195	2599.324787
644.680219	2597.492328
645.024192	2597.759509
645.368112	2596.693305
645.711981	2598.445106
646.055797	2598.687081
646.399562	2597.313367
646.743274	2598.437544
647.086935	2600.325456
647.430544	2599.743203
647.774101	2595.732965
648.117606	2598.946701
648.461059	2599.564242
648.804460	2597.883017
649.147810	2598.992071
649.491108	2597.673809
649.834354	2596.453850
650.177548	2594.538212
650.520690	2588.861872
650.863781	2591.760536
651.206820	2595.324632
651.549807	2593.121647
651.892742	2591.715166
652.235626	2588.267016
652.578458	2589.416399
652.921238	2588.088055
653.263967	2589.096286
653.606644	2588.032603
653.949269	2589.050916
654.291843	2585.070925
654.634365	2588.032603
654.976836	2584.135791
655.319255	2587.631831
655.661622	2586.351378
656.003938	2585.696028
656.346203	2583.054463
656.688416	2582.436922
657.030577	2585.184351
657.372687	2585.282653
657.714746	2582.061356
658.056753	2581.317786
658.398708	2578.777044
658.740612	2580.072621
659.082465	2579.089596
659.424266	2582.270564
659.766016	2576.488360
660.107715	2581.358115
660.449362	2582.036150
660.790958	2583.452714
661.132503	2580.710327
661.473996	2584.463466
661.815438	2583.493044
662.156829	2582.688980
662.498168	2580.425502
662.839456	2583.490523
663.180693	2581.627817
663.521879	2580.967426
663.863013	2582.956161
664.204097	2580.599421
664.545129	2582.590677
664.886110	2582.880543
665.227040	2581.335430
665.567918	2582.336099
665.908746	2578.028433
666.249522	2583.059504
666.590248	2581.363156
666.930922	2583.006572
667.271545	2581.146387
667.612118	2583.621593
667.952639	2580.831314
668.293109	2582.862899
668.633528	2582.378949
668.973896	2581.577405
669.314213	2580.667477
669.654480	2579.318968
669.994695	2578.736715
670.334859	2580.372569
670.674973	2580.624627
671.015035	2583.004052
671.355047	2579.381983
671.695008	2578.509863
672.034918	2577.471385
672.374777	2580.632189
672.714585	2578.434246
673.054342	2579.520614
673.394049	2580.760738
673.733705	2580.480954
674.073310	2581.348033
674.412864	2582.167220
674.752368	2578.214956
675.091820	2583.384659
675.431223	2577.201684
675.770574	2580.286870
676.109875	2573.158678
676.449125	2575.550706
676.788324	2574.882753
677.127473	2575.979204
677.466571	2572.846127
677.805619	2579.026581
678.144616	2573.786302
678.483562	2575.452403
678.822458	2577.312589
679.161303	2576.390058
679.500098	2575.281004
679.838842	2575.278483
680.177535	2573.040211
680.516179	2575.422156
680.854771	2576.117836
681.193314	2576.402661
681.531805	2577.705799
681.870247	2580.047415
682.208638	2582.343661
682.546978	2581.428691
682.885268	2579.639082
683.223508	2579.019020
683.561697	2578.935841
683.899836	2579.318968
684.237925	2581.060687
684.575963	2580.075141
684.913951	2576.344687
685.251889	2577.773855
685.589776	2577.567167
685.927614	2578.393917
686.265401	2578.156982
686.603137	2577.882239
686.940824	2579.442477
687.278460	2582.409196
687.616046	2580.332240
687.953582	2579.487847
688.291068	2581.153948
688.628504	2583.177972
688.965889	2580.627148
689.303224	2579.868454
689.640510	2581.900039
689.977745	2576.480799
690.314930	2577.552044
690.652065	2578.971129
690.989150	2575.981724
691.326185	2576.405181
691.663170	2573.030129
692.000105	2572.682289
692.336990	2571.311095
692.673825	2569.319840
693.010610	2569.776064
693.347345	2568.223389
693.684030	2566.728687
694.020665	2567.321022
694.357251	2565.065106
694.693786	2566.932853
695.030272	2564.505538
695.366707	2565.932184
695.703093	2567.600806
696.039429	2567.759602
696.375716	2568.926630
696.711952	2565.362534
697.048139	2567.552915
697.384276	2568.304047
697.720363	2567.255487
698.056400	2566.370765
698.392388	2565.846485
698.728326	2565.102914
699.064214	2566.973182
699.400053	2567.109294
699.735842	2564.815569
700.071581	2567.681465
700.407270	2565.985116
700.742910	2564.477811
701.078501	2565.614592
701.414042	2563.477142
701.749533	2563.646021
702.084974	2565.072668
702.420366	2563.056206
702.755709	2562.060578
703.091002	2562.088304
703.426246	2562.773901
703.761440	2560.301215
704.096584	2560.865825
704.431679	2564.883624
704.766725	2563.671227
705.101721	2562.123592
705.436668	2563.126782
705.771565	2561.211144
706.106413	2562.952862
706.441212	2562.799107
706.775961	2562.400856
707.110661	2562.045455
707.445311	2562.274827
707.779913	2563.356155
708.114465	2564.641649
708.448967	2564.656772
708.783421	2564.024107
709.117825	2563.184755
709.452180	2565.415466
709.786485	2566.101063
710.120742	2565.430589
710.454949	2564.339180
710.789107	2564.681978
711.123216	2562.060578
711.457275	2567.260528
711.791286	2564.321536
712.125247	2568.031825
712.459159	2565.914540
712.793023	2570.557443
713.126837	2565.574262
713.460602	2568.556105
713.794318	2565.317163
714.127985	2567.424366
714.461602	2566.229612
714.795171	2568.215827
715.128691	2564.886145
715.462162	2563.845147
715.795584	2562.718449
716.128957	2563.000753
716.462281	2564.334138
716.795556	2561.533777
717.128782	2563.411607
717.461960	2560.485217
717.795088	2559.149312
718.128167	2562.547049
718.461198	2556.689229
718.794180	2561.664847
719.127113	2558.488921
719.459997	2559.285423
719.792833	2558.803993
720.125619	2560.497820
720.458357	2560.364230
720.791046	2557.216029
721.123686	2556.018755
721.456278	2558.123437
721.788821	2557.208467
722.121315	2563.119220
722.453761	2556.033879
722.786158	2558.662840
723.118506	2556.522871
723.450805	2558.592264
723.783056	2558.022614
724.115259	2559.272820
724.447412	2556.487583
724.779518	2559.668551
725.111574	2557.205947
725.443582	2559.981102
725.775542	2556.691749
726.107453	2558.894733
726.439315	2560.588561
726.771129	2561.808520
727.102895	2559.134188
727.434612	2560.984292
727.766281	2560.845660
728.097901	2558.572100
728.429473	2555.943138
728.760996	2558.166287
729.092471	2558.710731
729.423897	2560.439847
729.755276	2561.715259
730.086606	2562.622667
730.417887	2563.146947
730.749120	2565.188614
731.080305	2563.436813
731.411442	2565.173491
731.742530	2563.640980
732.073570	2564.462688
732.404562	2564.651731
732.735506	2565.891855
733.066401	2563.162070
733.397249	2564.041752
733.728048	2564.044272
734.058798	2560.981771
734.389501	2560.777604
734.720156	2559.144271
735.050762	2557.573951
735.381320	2556.971533
735.711831	2557.311811
736.042293	2555.262582
736.372707	2556.921122
736.703073	2556.258210
737.033391	2556.454815
737.363661	2557.775597
737.693883	2555.360885
738.024056	2557.725186
738.354182	2556.417006
738.684260	2557.205947
739.014290	2559.655948
739.344272	2558.125957
739.674207	2560.187789
740.004093	2559.174518
740.333931	2559.212326
740.663722	2558.415824
740.993464	2559.476987
741.323159	2561.145609
741.652806	2559.114024
741.982405	2558.304918
742.311956	2556.666543
742.641460	2555.970864
742.970915	2557.642007
743.300323	2556.966492
743.629683	2556.963972
743.958996	2553.541028
744.288260	2556.926163
744.617477	2552.323589
744.946647	2550.803682
745.275768	2553.288970
745.604842	2549.828218
745.933869	2550.349978
746.262847	2551.358208
746.591778	2553.152859
746.920662	2553.246121
747.249498	2551.854762
747.578286	2553.019269
747.907027	2554.516491
748.235720	2555.779300
748.564365	2553.508261
748.892963	2552.374001
749.221514	2554.975236
749.550017	2551.617828
749.878473	2554.057746
750.206881	2552.167314
750.535242	2556.613611
750.863555	2553.213353
751.191821	2552.182437
751.520039	2555.507078
751.848210	2554.153528
752.176334	2553.903991
752.504411	2553.417520
752.832440	2553.052036
753.160421	2550.813764
753.488356	2553.566234
753.816243	2553.593960
754.144082	2551.214536
754.471875	2554.980277
754.799620	2553.044474
755.127318	2551.968188
755.454969	2551.799309
755.782572	2553.384752
756.110129	2553.556152
756.437638	2554.269475
756.765100	2550.223949
757.092515	2551.217056
757.419882	2551.927859
757.747203	2552.951213
758.074477	2550.271840
758.401703	2551.262427
758.728882	2552.273178
759.056014	2554.939948
759.383099	2553.074721
759.710138	2554.748384
760.037129	2554.375339
760.364073	2556.106975
760.690970	2554.012376
761.017820	2553.170503
761.344623	2553.604042
761.671379	2557.183262
761.998088	2550.803682
762.324751	2556.825340
762.651366	2562.141237
762.977935	2570.880077
763.304456	2574.809656
763.630931	2579.442477
763.957359	2574.658422
764.283740	2570.635581
764.610074	2565.128120
764.936362	2562.726010
765.262602	2557.586554
765.588796	2559.363561
765.914943	2556.875751
766.241044	2554.433312
766.567097	2554.173693
766.893104	2555.683518
767.219064	2553.137736
767.544978	2551.713610
767.870845	2552.164793
768.196665	2550.506253
768.522438	2546.168341
768.848165	2546.624565
769.173846	2547.993238
769.499479	2550.062632
769.825066	2547.055584
770.150607	2549.636654
770.476101	2546.748073
770.801548	2550.360060
771.126949	2550.367622
771.452303	2550.143290
771.777611	2547.640357
772.102872	2547.718495
772.428087	2548.593136
772.753256	2549.626572
773.078378	2547.665563
773.403453	2546.556509
773.728482	2544.897970
774.053465	2546.808567
774.378401	2546.024668
774.703291	2544.129194
775.028135	2544.779503
775.352932	2546.448125
775.677683	2546.735470
776.002388	2541.603576
776.327046	2544.605583
776.651658	2542.861344
776.976224	2545.195398
777.300743	2545.127342
777.625216	2542.463093
777.949643	2544.358566
778.274024	2545.515511
778.598359	2542.523586
778.922647	2542.034594
779.246889	2540.199614
779.571086	2539.710623
779.895236	2544.562733
780.219339	2542.447969
780.543397	2544.562733
780.867409	2544.713968
781.191374	2543.877136
781.515294	2542.488298
781.839167	2545.694472
782.162995	2546.732950
782.486776	2543.317568
782.810511	2545.696993
783.134201	2544.159441
783.457844	2542.145500
783.781441	2542.478216
784.104993	2543.375541
784.428498	2540.300437
784.751958	2544.471992
785.075372	2543.791437
785.398739	2539.259439
785.722061	2544.683721
786.045337	2540.958308
786.368568	2544.403937
786.691752	2544.330840
787.014891	2546.082641
787.337983	2544.199770
787.661030	2547.045501
787.984031	2547.526932
788.306987	2546.617003
788.629897	2548.028526
788.952760	2549.666901
789.275579	2546.329658
789.598351	2546.213711
789.921078	2544.414019
790.243759	2546.470810
790.566395	2544.484595
790.888984	2543.103319
791.211529	2544.030891
791.534027	2543.937630
791.856480	2542.029553
792.178888	2544.908052
792.501249	2543.763710
792.823566	2544.371169
793.145836	2543.700696
793.468062	2542.543751
793.790241	2540.872608
794.112375	2544.393854
794.434464	2543.304965
794.756507	2545.205480
795.078505	2543.950233
795.400457	2540.607948
795.722364	2541.533000
796.044226	2543.844369
796.366042	2542.178267
796.687812	2543.322609
797.009538	2545.046684
797.331218	2545.838145
797.652852	2544.759338
797.974442	2545.449976
798.295986	2542.289173
798.617484	2544.832435
798.938938	2543.604914
799.260346	2544.209852
799.581709	2545.215563
799.903026	2543.466282
800.224299	2542.347146
800.545526	2542.828576
800.866708	2544.028371
801.187845	2542.936961
801.508936	2541.774975
801.829983	2542.271529
802.150984	2541.341436
802.471940	2542.364790
802.792851	2542.251364
803.113717	2542.329502
803.434538	2538.097453
803.755314	2541.119625
804.076045	2541.202804
804.396731	2541.129707
804.717372	2539.309851
805.037967	2541.285983
805.358518	2542.067362
805.679024	2544.459389
805.999485	2541.895963
806.319901	2541.633823
806.640272	2544.633309
806.960598	2542.261446
807.280879	2540.189532
807.601115	2543.703216
807.921306	2541.338915
808.241453	2542.440407
808.561554	2540.045859
808.881611	2546.828732
809.201623	2543.486447
809.521590	2539.662732
809.841513	2542.077444
810.161390	2541.759852
810.481223	2544.650953
810.801011	2542.896632
811.120755	2542.785726
811.440453	2544.146838
811.760107	2544.048535
812.079716	2538.596527
812.399281	2538.775488
812.718801	2539.740869
813.038276	2537.857998
813.357707	2542.561395
813.677093	2539.917310
813.996434	2543.940151
814.315731	2539.438400
814.634983	2543.481406
814.954191	2539.405633
815.273354	2542.921838
815.592473	2541.994265
815.911547	2542.536189
816.230577	2541.656508
816.549562	2544.603062
816.868502	2544.464431
817.187399	2542.684903
817.506250	2543.299924
817.825058	2544.091385
818.143821	2546.349822
818.462539	2544.638350
818.781213	2545.381921
819.099843	2547.405944
819.418429	2548.068856
819.736970	2553.493137
820.055466	2554.193857
820.373919	2555.476831
820.692327	2560.512944
821.010691	2570.381002
821.329011	2585.998497
821.647286	2624.021400
821.965517	2659.821154
822.283704	2682.503826
822.601847	2690.337779
822.919945	2672.416477
823.237999	2649.761532
823.556010	2629.327214
823.873976	2612.101592
824.191897	2597.832606
824.509775	2586.457242
824.827609	2576.654718
825.145398	2573.579615
825.463144	2572.730180
825.780845	2573.377968
826.098502	2579.308886
826.416116	2590.343972
826.733685	2599.465940
827.051210	2607.015067
827.368692	2600.718666
827.686129	2588.040164
828.003522	2576.548854
828.320872	2564.694581
828.638177	2559.187120
828.955439	2553.883827
829.272656	2549.898794
829.589830	2546.543907
829.906960	2546.551468
830.224046	2547.925183
830.541088	2544.913093
830.858086	2546.102806
831.175041	2548.081458
831.491952	2544.683721
831.808819	2544.882846
832.125642	2548.303269
832.442421	2547.340409
832.759157	2552.784855
833.075849	2560.379353
833.392497	2568.936712
833.709101	2573.826631
834.025662	2569.839078
834.342179	2568.351938
834.658653	2563.726679
834.975083	2558.705690
835.291469	2561.369940
835.607811	2550.927190
835.924110	2549.291335
836.240366	2545.772610
836.556578	2544.169523
836.872746	2545.447456
837.188871	2542.079965
837.504952	2542.316899
837.820990	2540.867567
838.136984	2534.893800
838.452935	2537.280786
838.768842	2540.454193
839.084706	2539.148534
839.400526	2542.697506
839.716303	2548.502395
840.032037	2553.977088
840.347727	2553.636810
840.663373	2549.477858
840.978977	2546.390151
841.294537	2542.183308
841.610054	2541.989224
841.925527	2541.737166
842.240957	2538.155427
842.556344	2538.266332
842.871687	2539.186342
843.186987	2540.595345
843.502244	2536.569984
843.817458	2536.721218
844.132629	2537.794984
844.447756	2538.374717
844.762840	2531.614529
845.077881	2533.157123
845.392879	2531.037317
845.707833	2534.515713
846.022745	2533.104190
846.337613	2537.507638
846.652438	2537.638708
846.967221	2537.089223
847.281960	2537.958822
847.596656	2536.408667
847.911309	2535.468492
848.225919	2537.066537
848.540485	2535.773481
848.855009	2538.654501
849.169490	2535.276928
849.483928	2537.396733
849.798323	2536.164171
850.112675	2536.335570
850.426984	2534.135106
850.741251	2535.639891
851.055474	2533.812473
851.369654	2535.841537
851.683792	2533.346166
851.997887	2536.380940
852.311938	2537.094264
852.625947	2536.080992
852.939914	2534.039324
853.253837	2534.366999
853.567718	2532.128727
853.881555	2536.317926
854.195350	2535.627288
854.509103	2535.463450
854.822812	2532.920188
855.136479	2535.211393
855.450103	2533.724252
855.763685	2535.770961
856.077224	2534.177956
856.390720	2535.150899
856.704173	2534.566125
857.017584	2533.774664
857.330953	2535.206352
857.644278	2538.588966
857.957561	2537.210210
858.270802	2537.270704
858.584000	2534.863553
858.897155	2533.686444
859.210268	2537.956301
859.523339	2536.968235
859.836367	2537.477391
860.149352	2534.440096
860.462295	2537.011085
860.775195	2533.910775
861.088054	2532.136289
861.400869	2531.387678
861.713642	2530.074457
862.026373	2533.575538
862.339062	2535.372710
862.651708	2536.943029
862.964312	2534.455220
863.276873	2535.781043
863.589392	2533.416742
863.901869	2534.944212
864.214303	2535.060158
864.526696	2537.898328
864.839045	2535.022349
865.151353	2537.709284
865.463619	2538.236085
865.775842	2536.295241
866.088023	2539.249357
866.400162	2534.301464
866.712258	2539.183822
867.024313	2538.203317
867.336325	2534.916485
867.648296	2538.914120
867.960224	2536.638039
868.272110	2537.225334
868.583954	2536.431352
868.895755	2537.114428
869.207515	2537.583256
869.519233	2537.260622
869.830909	2535.627288
870.142542	2540.323123
870.454134	2536.706095
870.765684	2539.571991
871.077191	2536.320447
871.388657	2537.968904
871.700081	2536.817000
872.011463	2539.932433
872.322803	2538.709953
872.634101	2536.479243
872.945357	2539.251877
873.256571	2538.616692
873.567744	2538.760365
873.878874	2539.831610
874.189963	2538.321785
874.501010	2536.822041
874.812015	2539.256919
875.122979	2537.489994
875.433900	2538.480581
875.744780	2540.063503
876.055618	2538.352032
876.366415	2538.934285
876.677169	2540.973432
876.987882	2538.500746
877.298554	2534.344314
877.609183	2535.047555
877.919771	2538.609130
878.230317	2537.421939
878.540822	2542.599204
878.851285	2544.333361
879.161707	2543.352856
879.472087	2547.315203
879.782425	2553.031872
880.092722	2560.520506
880.402977	2573.123390
880.713191	2588.229208
881.023363	2609.268463
881.333494	2624.558283
881.643583	2626.420989
881.953631	2623.638272
882.263637	2619.338168
882.573602	2615.128805
882.883526	2602.924171
883.193408	2591.193406
883.503248	2582.933476
883.813048	2577.015161
884.122806	2571.278328
884.432522	2564.200548
884.742197	2562.047975
885.051831	2555.948179
885.361424	2552.552962
885.670975	2551.602704
885.980485	2550.791079
886.289954	2548.472148
886.599382	2545.013916
886.908768	2546.974925
887.218113	2543.864533
887.527417	2545.485264
887.836680	2539.652649
888.145901	2540.706250
888.455082	2541.371683
888.764221	2540.028215
889.073319	2539.312371
889.382376	2540.544933
889.691392	2539.521579
890.000366	2541.810263
890.309300	2537.371527
890.618193	2542.271529
890.927044	2539.917310
891.235855	2541.467465
891.544625	2541.321271
891.853353	2542.626930
892.162041	2539.065355
892.470687	2542.919317
892.779293	2543.241951
893.087858	2542.387475
893.396381	2543.756148
893.704864	2546.680018
894.013306	2549.130018
894.321707	2562.204251
894.630068	2563.202399
894.938387	2566.847154
895.246665	2567.217678
895.554903	2566.600137
895.863100	2559.643345
896.171256	2554.695452
896.479371	2553.341903
896.787446	2549.364432
897.095480	2549.868548
897.403473	2543.466282
897.711425	2543.940151
898.019336	2544.419060
898.327207	2542.916796
898.635038	2546.632127
898.942827	2542.730274
899.250576	2540.902855
899.558284	2539.803884
899.865952	2539.945036
900.173579	2537.721887
900.481165	2539.763555
900.788711	2536.529654
901.096216	2537.396733
901.403681	2539.675334
901.711105	2539.927392
902.018489	2538.954449
902.325832	2540.796991
902.633135	2539.566950
902.940397	2544.396375
903.247619	2541.376724
903.554800	2547.733619
903.861941	2562.007646
904.169041	2572.183215
904.476101	2580.667477
904.783121	2581.060687
905.090100	2574.043401
905.397039	2565.584345
905.703938	2558.940104
906.010796	2556.129661
906.317614	2547.000131
906.624391	2546.289328
906.931129	2543.534338
907.237826	2540.842362
907.544483	2541.157434
907.851099	2539.040149
908.157675	2538.304141
908.464211	2537.006043
908.770707	2532.373223
909.077163	2533.051258
909.383578	2531.478418
909.689954	2530.571011
909.996289	2532.186700
910.302584	2534.934129
910.608839	2536.519572
910.915054	2534.823224
911.221229	2534.964376
911.527363	2537.507638
911.833458	2535.387833
912.139513	2536.572504
912.445527	2534.314067
912.751502	2536.524613
913.057436	2535.390354
913.363331	2540.396219
913.669186	2536.000333
913.975000	2541.404450
914.280775	2543.337733
914.586510	2546.143135
914.892205	2550.357539
915.197859	2553.982129
915.503475	2560.868345
915.809050	2567.988975
916.114585	2572.019377
916.420081	2578.683783
916.725536	2576.889132
917.030952	2570.411249
917.336328	2568.724983
917.641665	2561.788356
917.946961	2558.088149
918.252218	2556.359033
918.557435	2551.489278
918.862612	2547.617672
919.167750	2546.259081
919.472848	2543.582229
919.777906	2542.170706
920.082925	2542.866385
920.387904	2542.067362
920.692843	2538.911600
920.997743	2538.314223
921.302603	2537.132072
921.607423	2537.464788
921.912204	2537.401774
922.216946	2536.617875
922.521647	2539.297248
922.826310	2535.014788
923.130932	2538.674665
923.435516	2535.657535
923.740059	2536.537216
924.044564	2533.636032
924.349028	2535.183666
924.653454	2530.535723
924.957840	2533.260466
925.262186	2531.732997
925.566493	2530.639066
925.870761	2528.216792
926.174989	2534.099818
926.479178	2531.503624
926.783328	2533.199972
927.087438	2532.647966
927.391509	2534.135106
927.695541	2531.203675
927.999533	2532.206865
928.303486	2533.613347
928.607400	2533.804911
928.911275	2531.657379
929.215110	2533.126876
929.518906	2531.261649
929.822663	2531.778367
930.126381	2530.961700
930.430060	2530.956659
930.733699	2529.557739
931.037299	2528.481452
931.340861	2533.474715
931.644383	2530.374406
931.947866	2528.841895
932.251309	2529.875331
932.554714	2530.112266
932.858080	2532.295085
933.161407	2529.824920
933.464694	2529.245187
933.767943	2531.601927
934.071153	2532.474046
934.374323	2531.980013
934.677455	2531.806093
934.980548	2529.381298
935.283602	2532.862215
935.586617	2534.213244
935.889593	2531.256607
936.192530	2531.594365
936.495428	2536.431352
936.798287	2534.180477
937.101108	2530.218130
937.403890	2531.186031
937.706632	2533.467153
938.009336	2532.254756
938.312002	2531.647297
938.614628	2531.342307
938.917216	2534.036804
939.219765	2534.903882
939.522275	2534.671989
939.824747	2533.683923
940.127179	2530.775177
940.429573	2528.388191
940.731929	2532.658048
941.034246	2527.959693
941.336524	2531.493542
941.638763	2532.784077
941.940964	2532.635363
942.243126	2532.617719
942.545250	2532.146371
942.847335	2531.019673
943.149381	2533.169725
943.451389	2531.934643
943.753359	2530.719725
944.055290	2530.944056
944.357182	2530.903727
944.659036	2531.612009
944.960851	2531.438089
945.262628	2531.735517
945.564367	2532.718542
945.866067	2533.194931
946.167729	2532.148892
946.469352	2531.712832
946.770937	2531.586803
947.072484	2530.772657
947.373992	2533.893131
947.675462	2532.113604
947.976893	2531.738038
948.278286	2530.951618
948.579641	2532.012781
948.880958	2532.932791
949.182236	2530.883562
949.483476	2530.646628
949.784678	2532.244674
950.085841	2531.259128
950.386967	2532.829447
950.688054	2528.080681
950.989103	2531.080167
951.290114	2531.254087
951.591087	2530.059333
951.892021	2531.274252
952.192917	2531.105373
952.493776	2529.915661
952.794596	2533.003367
953.095378	2531.569159
953.396122	2533.260466
953.696828	2532.216947
953.997496	2528.685619
954.298126	2531.367513
954.598718	2529.593027
954.899272	2529.033459
955.199788	2531.349869
955.500266	2530.981865
955.800706	2528.625125
956.101108	2525.638242
956.401472	2527.516071
956.701798	2525.081194
957.002087	2527.296781
957.302337	2527.216123
957.602550	2531.609488
957.902724	2528.720907
958.202861	2531.044879
958.502960	2528.110927
958.803022	2531.075126
959.103045	2527.919364
959.403031	2525.804600
959.702979	2528.370547
960.002889	2527.833664
960.302762	2529.595547
960.602596	2529.076308
960.902393	2529.209899
961.202153	2529.673685
961.501875	2527.876514
961.801559	2528.564631
962.101205	2528.821730
962.400814	2527.170752
962.700385	2528.476411
962.999918	2528.292409
963.299414	2528.405835
963.598873	2528.975485
963.898293	2528.776360
964.197677	2527.614374
964.497022	2526.356606
964.796331	2528.332738
965.095601	2526.616225
965.394835	2528.657893
965.694030	2527.926925
965.993189	2528.085722
966.292309	2529.320804
966.591393	2527.594209
966.890439	2532.151412
967.189447	2526.500279
967.488419	2528.794004
967.787353	2525.519774
968.086249	2528.652852
968.385108	2531.758202
968.683930	2530.049251
968.982714	2526.177645
969.281462	2529.552698
969.580172	2526.233098
969.878844	2527.407687
970.177480	2527.841226
970.476078	2527.296781
970.774639	2529.600588
971.073162	2528.317615
971.371649	2525.849970
971.670098	2525.734023
971.968510	2526.154960
972.266885	2525.353416
972.565223	2530.656710
972.863524	2525.897861
973.161788	2528.829292
973.460014	2531.236443
973.758204	2529.451874
974.056356	2528.289888
974.354471	2529.920702
974.652550	2529.545136
974.950591	2528.466329
975.248595	2529.093952
975.546563	2528.748633
975.844493	2528.388191
976.142386	2527.145547
976.440243	2526.147398
976.738062	2528.978006
977.035845	2525.512213
977.333590	2526.948942
977.631299	2526.059178
977.928971	2529.061185
978.226606	2525.567665
978.524204	2527.846267
978.821765	2528.655372
979.119290	2527.395084
979.416777	2528.627646
979.714228	2528.489014
980.011642	2526.591020
980.309020	2527.821061
980.606360	2526.263345
980.903664	2527.896678
981.200931	2527.042203
981.498162	2526.832995
981.795356	2525.693694
982.092513	2528.773839
982.389633	2528.655372
982.686717	2529.678726
982.983764	2529.938346
983.280775	2532.332894
983.577749	2527.886596
983.874686	2531.244005
984.171587	2530.381967
984.468451	2529.857687
984.765279	2531.612009
985.062070	2527.632018
985.358824	2524.924918
985.655543	2525.968437
985.952224	2527.004394
986.248869	2526.792666
986.545478	2524.400638
986.842050	2527.377440
987.138586	2523.760412
987.435086	2525.981040
987.731549	2520.831501
988.027975	2529.015815
988.324366	2524.710669
988.620719	2525.948273
988.917037	2524.834177
989.213318	2528.806607
989.509563	2523.470545
989.805772	2528.110928
990.101944	2529.114117
990.398080	2527.125382
990.694180	2525.900382
990.990244	2524.478776
991.286271	2525.809641
991.582262	2528.529343
991.878217	2526.437264
992.174136	2525.877696
992.470019	2526.361647
992.765865	2526.618746
993.061676	2527.589168
993.357450	2527.629497
993.653188	2526.704446
993.948890	2525.176976
994.244556	2528.438602
994.540186	2526.724610
994.835780	2525.970958
995.131337	2527.417769
995.426859	2528.584796
995.722345	2526.291071
996.017795	2526.326359
996.313208	2526.974147
996.608586	2525.996163
996.903928	2525.986081
997.199234	2526.724610
997.494504	2526.255783
997.789738	2526.868283
998.084936	2527.264014
998.380099	2524.582120
998.675225	2528.468849
998.970316	2527.069929
999.265371	2528.052954
999.560390	2528.448685
999.855373	2523.760412
1000.150320	2527.150588
1000.445232	2526.618746
1000.740108	2525.484486
1001.034948	2528.022707
1001.329752	2526.361647
1001.624521	2527.783252
1001.919254	2520.622293
1002.213951	2523.004239
1002.508613	2523.992305
1002.803239	2524.965247
1003.097829	2523.140350
1003.392384	2525.706297
1003.686903	2525.701256
1003.981386	2526.129754
1004.275834	2525.174455
1004.570246	2529.151926
1004.864623	2525.981040
1005.158964	2525.444157
1005.453270	2525.192099
1005.747540	2526.643952
1006.041775	2521.827129
1006.335974	2525.827285
1006.630138	2527.337110
1006.924266	2528.204189
1007.218359	2525.834847
1007.512416	2527.120341
1007.806438	2526.585978
1008.100425	2525.552542
1008.394376	2524.085566
1008.688292	2526.898530
1008.982172	2524.438447
1009.276017	2524.587161
1009.569827	2525.623118
1009.863602	2527.503468
1010.157341	2526.389373
1010.451045	2528.224353
1010.744714	2525.620598
1011.038347	2522.772346
1011.331945	2524.687984
1011.625508	2525.837367
1011.919036	2524.325021
1012.212528	2525.928108
1012.505986	2526.573376
1012.799408	2526.742254
1013.092795	2524.088087
1013.386147	2526.565814
1013.679464	2525.544980
1013.972745	2528.229395
1014.265992	2523.717562
1014.559204	2526.727131
1014.852380	2525.522295
1015.145521	2524.866945
1015.438628	2523.299146
1015.731699	2525.711338
1016.024736	2527.684950
1016.317737	2525.713859
1016.610703	2525.550021
1016.903635	2521.509537
1017.196531	2521.391069
1017.489393	2522.868127
1017.782219	2521.350740
1018.075011	2523.218488
1018.367768	2522.825278
1018.660490	2524.831657
1018.953177	2524.831657
1019.245829	2524.831657
