Dividing Wavelength (nm)	Counts (n)	Blue Motor Position (mm): 0.000000	Red Motor Position (mm): 20.700000	
326.493990	2128.571759
326.888308	2128.571759
327.282561	2128.571759
327.676750	2094.511203
328.070874	2095.582448
328.464933	2097.873653
328.858929	2104.303644
329.252859	2113.017279
329.646726	2126.114196
330.040528	2139.684983
330.434265	2154.458084
330.827938	2172.076917
331.221547	2190.497293
331.615091	2207.987576
332.008571	2231.159240
332.401986	2249.065418
332.795338	2266.006216
333.188625	2287.617642
333.581847	2306.683286
333.975006	2322.837663
334.368100	2342.031857
334.761129	2359.103724
335.154095	2374.320447
335.546996	2392.725700
335.939833	2408.615417
336.332606	2423.925401
336.725315	2437.816300
337.117960	2446.063628
337.510540	2452.604525
337.903056	2466.951649
338.295508	2475.377938
338.687896	2480.955974
339.080220	2493.730258
339.472480	2497.712770
339.864676	2505.118225
340.256807	2503.878101
340.648875	2508.024450
341.040879	2510.776920
341.432818	2514.396468
341.824694	2513.441170
342.216506	2514.116684
342.608253	2514.252796
342.999937	2513.892353
343.391557	2512.589215
343.783113	2514.116684
344.174605	2511.089472
344.566033	2509.952691
344.957397	2509.531755
345.348697	2510.426560
345.739934	2503.968842
346.131106	2504.586383
346.522215	2502.355673
346.913260	2499.378871
347.304241	2500.432472
347.695159	2495.144302
348.086012	2494.294868
348.476802	2495.013232
348.867528	2493.979795
349.258191	2491.754126
349.648789	2488.679022
350.039324	2489.248672
350.429796	2485.457725
350.820203	2489.132726
351.210548	2485.508136
351.600828	2485.266161
351.991045	2482.052425
352.381198	2483.080821
352.771288	2483.176603
353.161314	2484.275574
353.551276	2484.918321
353.941175	2482.730461
354.331010	2482.027220
354.720782	2480.106540
355.110490	2484.552838
355.500135	2482.957312
355.889717	2482.087713
356.279235	2483.557210
356.668689	2482.927066
357.058080	2486.307159
357.447408	2483.660553
357.836672	2482.218783
358.225873	2482.795996
358.615010	2482.236428
359.004084	2485.586274
359.393095	2485.712303
359.782043	2486.942345
360.170927	2487.743888
360.559748	2491.345793
360.948505	2492.837974
361.337199	2489.974599
361.725830	2492.371667
362.114398	2492.298571
362.502903	2492.238077
362.891344	2491.731441
363.279722	2492.661534
363.668037	2495.933243
364.056289	2494.551966
364.444478	2492.956441
364.832603	2496.023983
365.220665	2495.381236
365.608665	2493.233705
365.996601	2498.065651
366.384474	2500.530775
366.772284	2499.199910
367.160031	2502.219561
367.547715	2501.662514
367.935336	2502.254849
368.322893	2510.875223
368.710388	2509.627537
369.097820	2518.406706
369.485189	2521.920391
369.872495	2527.692512
370.259738	2533.333563
370.646918	2540.761703
371.034035	2545.812939
371.421090	2559.187120
371.808081	2567.862946
372.195010	2574.935685
372.581875	2592.899837
372.968678	2604.877618
373.355418	2616.363887
373.742096	2633.612195
374.128710	2648.813795
374.515262	2664.330466
374.901751	2678.740604
375.288177	2691.187213
375.674540	2714.232848
376.060841	2732.116341
376.447079	2753.700042
376.833254	2771.626385
377.219367	2783.775565
377.605417	2824.573623
377.991404	2831.379181
378.377329	2851.919362
378.763191	2868.003164
379.148991	2906.787281
379.534727	2932.300561
379.920402	2961.221660
380.306013	2970.958649
380.691563	3021.919673
381.077049	3039.979607
381.462474	3060.587844
381.847835	3100.354986
382.233134	3125.318780
382.618371	3125.114613
383.003545	3192.315714
383.388657	3197.739996
383.773706	3231.044379
384.158693	3243.725401
384.543618	3273.397633
384.928480	3304.085657
385.313280	3351.999303
385.698017	3348.765403
386.082692	3406.978127
386.467305	3414.701175
386.851856	3445.444652
387.236344	3463.398721
387.620770	3498.497755
388.005133	3521.341743
388.389435	3548.652194
388.773674	3563.064853
389.157851	3602.254783
389.541965	3615.984366
389.926018	3580.340888
390.310008	3658.309893
390.693936	3673.017460
391.077802	3712.739232
391.461606	3703.347562
391.845348	3766.427520
392.229027	3763.034823
392.612645	3776.293058
392.996200	3854.476313
393.379694	3895.813775
393.763125	3957.895584
394.146494	3926.164041
394.529801	3989.566633
394.913047	4038.806103
395.296230	4005.917616
395.679351	4055.961150
396.062410	4078.285900
396.445408	4061.423240
396.828343	4095.874486
397.211217	4119.711582
397.594028	4040.961197
397.976778	4107.333028
398.359466	4132.495948
398.742092	4158.939320
399.124656	4081.481991
399.507158	4160.577695
399.889598	4187.404195
400.271977	4247.668669
400.654294	4216.148855
401.036549	4231.932707
401.418742	4196.397614
401.800874	4296.459477
402.182944	4318.297755
402.564952	4384.541037
402.946898	4373.884038
403.328783	4368.396742
403.710606	4281.514976
404.092367	4471.475735
404.474067	4437.442906
404.855705	4444.908854
405.237282	4374.962845
405.618797	4482.465451
406.000250	4518.038353
406.381642	4593.816977
406.762972	4560.207605
407.144240	4568.510385
407.525447	4567.234973
407.906593	4625.896360
408.287677	4667.823636
408.668700	4597.189509
409.049661	4647.033918
409.430560	4687.612686
409.811399	4615.531748
410.192176	4777.456130
410.572891	4714.789546
410.953545	4814.823682
411.334138	4697.521074
411.714669	4761.979787
412.095139	4652.848889
412.475547	4793.124036
412.855894	4772.593937
413.236180	4778.696253
413.616405	4730.588522
413.996568	4813.122293
414.376670	4751.219444
414.756711	4701.564079
415.136691	4728.125919
415.516609	4797.101506
415.896466	4826.219211
416.276262	4854.926061
416.655997	4829.155683
417.035670	4994.790354
417.415283	5070.906736
417.794834	5005.661603
418.174324	4950.249239
418.553753	4845.851984
418.933121	5006.591695
419.312428	5056.151279
419.691674	4987.205938
420.070859	5085.944498
420.449983	4985.244929
420.829045	5071.725924
421.208047	4971.835460
421.586988	5013.966903
421.965867	4999.523998
422.344686	5087.051031
422.723444	4935.892033
423.102141	4758.398047
423.480777	4988.274663
423.859352	4763.035909
424.237866	4947.174136
424.616319	4915.583745
424.994712	4973.025173
425.373044	4841.176314
425.751314	4917.083488
426.129524	4726.434612
426.507673	4836.566179
426.885762	4869.701683
427.263789	4771.268113
427.641756	4652.690092
428.019662	4692.290877
428.397508	4658.303417
428.775292	4575.026076
429.153016	4596.156073
429.530679	4504.802803
429.908282	4511.638608
430.285824	4387.414495
430.663305	4504.301208
431.040726	4296.789672
431.418086	4257.534207
431.795385	4265.622738
432.172624	4227.385587
432.549802	4168.086494
432.926920	4128.495792
433.303977	4087.644802
433.680974	4055.323444
434.057910	4009.917771
434.434786	3965.177531
434.811601	3901.966503
435.188355	3956.549596
435.565050	3856.560830
435.941683	3799.215185
436.318257	3824.010100
436.694770	3767.115638
437.071222	3731.411665
437.447614	3656.787465
437.823946	3588.240376
438.200218	3587.350612
438.576429	3502.898682
438.952580	3479.986638
439.328670	3450.725260
439.704700	3387.559603
440.080670	3344.417408
440.456580	3357.577340
440.832429	3290.363636
441.208218	3220.583984
441.583947	3214.249775
441.959616	3182.089734
442.335224	3132.089049
442.710773	3116.131277
443.086261	3087.994077
443.461689	3029.483924
443.837057	3013.742922
444.212365	3005.745131
444.587612	2965.698205
444.962800	2948.586008
445.337927	2925.129519
445.712995	2859.728110
446.088002	2887.714075
446.462949	2851.039681
446.837837	2822.957934
447.212664	2816.104485
447.587431	2804.424132
447.962139	2817.417706
448.336786	2856.789117
448.711374	2820.281081
449.085901	2748.868096
449.460369	2725.845146
449.834776	2706.240099
450.209124	2707.518031
450.583412	2701.571990
450.957640	2696.858511
451.331808	2674.445541
451.705917	2652.254382
452.079965	2637.902217
452.453954	2635.346352
452.827883	2627.308232
453.201752	2617.735081
453.575562	2608.905500
453.949311	2607.304934
454.323001	2601.845364
454.696632	2597.782194
455.070202	2595.977461
455.443713	2590.941348
455.817164	2591.410176
456.190556	2585.481779
456.563888	2584.410534
456.937160	2580.070100
457.310373	2575.817887
457.683526	2571.598441
458.056619	2573.725808
458.429653	2573.022567
458.802628	2566.990827
459.175542	2568.185580
459.548398	2571.716908
459.921194	2570.559963
460.293930	2567.641135
460.666607	2572.717577
461.039224	2573.375448
461.411782	2576.284194
461.784280	2573.851837
462.156719	2570.907803
462.529099	2569.087947
462.901419	2567.164746
463.273680	2563.235167
463.645882	2565.826320
464.018024	2562.085784
464.390106	2563.366237
464.762130	2566.166598
465.134094	2567.825137
465.505999	2575.802763
465.877845	2579.999524
466.249631	2584.672674
466.621358	2582.757035
466.993026	2582.537745
467.364634	2580.339802
467.736184	2576.851323
468.107674	2572.299162
468.479105	2574.794533
468.850477	2572.246229
469.221790	2568.500652
469.593043	2566.186762
469.964238	2568.724983
470.335373	2564.704663
470.706449	2566.287586
471.077467	2565.717935
471.448425	2578.484657
471.819324	2581.136304
472.190164	2581.360636
472.560945	2575.197825
472.931667	2572.644481
473.302330	2569.156002
473.672934	2568.745148
474.043479	2569.299675
474.413965	2570.111301
474.784393	2563.318346
475.154761	2566.262380
475.525070	2566.645508
475.895321	2565.395301
476.265513	2565.659962
476.635645	2566.743810
477.005719	2566.857236
477.375734	2573.637588
477.745691	2578.144379
478.115588	2575.240675
478.485427	2577.481468
478.855207	2579.104719
479.224928	2585.257447
479.594591	2587.415061
479.964194	2585.801892
480.333739	2583.072107
480.703226	2584.685277
481.072653	2587.354568
481.442022	2586.263158
481.811333	2587.538570
482.180584	2585.882551
482.549777	2583.417426
482.918912	2587.152921
483.287988	2585.922880
483.657005	2585.081007
484.025964	2582.744432
484.394864	2582.580595
484.763706	2584.077817
485.132489	2582.699062
485.501213	2582.308373
485.869879	2581.597570
486.238487	2580.163362
486.607036	2580.044894
486.975527	2582.212591
487.343959	2581.710996
487.712333	2580.932137
488.080648	2582.242837
488.448905	2582.595718
488.817104	2581.158989
489.185244	2584.962540
489.553326	2583.162848
489.921350	2586.923549
490.289315	2592.862028
490.657222	2593.393870
491.025070	2591.518561
491.392861	2591.142995
491.760593	2592.367995
492.128267	2588.635021
492.495883	2584.962540
492.863440	2585.607808
493.230939	2583.551017
493.598380	2581.529514
493.965763	2573.660273
494.333088	2577.143710
494.700354	2575.192784
495.067563	2576.780747
495.434713	2575.031467
495.801805	2580.138156
496.168839	2579.129925
496.535815	2578.809812
496.902733	2575.727146
497.269593	2577.398289
497.636395	2577.403330
498.003139	2576.879050
498.369825	2576.332085
498.736453	2578.139338
499.103023	2575.472568
499.469535	2573.448545
499.835989	2576.435428
500.202385	2577.128587
500.568723	2577.829307
500.935003	2574.698751
501.301226	2576.677404
501.667390	2577.869637
502.033497	2578.071283
502.399546	2577.002558
502.765537	2574.597928
503.131470	2575.535582
503.497345	2576.695048
503.863163	2576.155644
504.228923	2574.920562
504.594625	2576.909297
504.960269	2573.362845
505.325856	2579.097157
505.691385	2571.956363
506.056856	2575.144893
506.422270	2577.665470
506.787625	2575.706982
507.152924	2573.720767
507.518164	2579.432394
507.883347	2577.985583
508.248472	2574.555078
508.613540	2582.058835
508.978550	2577.645305
509.343503	2576.203535
509.708398	2578.328382
510.073236	2578.474575
510.438016	2578.149421
510.802738	2578.358628
511.167403	2579.734863
511.532010	2576.115315
511.896561	2579.533217
512.261053	2580.067580
512.625488	2578.209914
512.989866	2576.563978
513.354186	2576.445511
513.718449	2576.576581
514.082655	2576.233782
514.446803	2578.842579
514.810894	2579.588670
515.174927	2581.663105
515.538904	2580.170923
515.902822	2579.250913
516.266684	2581.869792
516.630488	2580.294432
516.994235	2581.088413
517.357925	2580.808629
517.721558	2583.510688
518.085133	2582.096644
518.448651	2581.302662
518.812112	2581.751325
519.175516	2579.926427
519.538863	2579.283680
519.902152	2581.867272
520.265385	2579.850810
520.628560	2582.898187
520.991678	2581.509350
521.354739	2581.894998
521.717743	2579.044225
522.080690	2580.453228
522.443580	2581.421129
522.806413	2581.920204
523.169189	2580.193608
523.531908	2582.242837
523.894569	2580.112950
524.257174	2584.634865
524.619722	2583.503126
524.982213	2582.943558
525.344647	2581.174113
525.707025	2582.482292
526.069345	2582.532704
526.431608	2584.312231
526.793815	2584.332396
527.155964	2583.593867
527.518057	2583.664443
527.880093	2583.026737
528.242072	2584.478589
528.603995	2585.048240
528.965860	2586.842890
529.327669	2584.249217
529.689421	2582.338619
530.051117	2584.566809
530.412755	2580.370049
530.774337	2582.454566
531.135862	2583.341809
531.497331	2580.460790
531.858743	2576.798391
532.220098	2582.033630
532.581396	2576.997517
532.942638	2578.754359
533.303824	2579.208063
533.664953	2582.464648
534.026025	2579.273598
534.387040	2582.484813
534.747999	2581.983218
535.108902	2580.574216
535.469748	2579.318968
535.830537	2581.655543
536.191270	2582.822570
536.551947	2581.461459
536.912567	2579.694534
537.273131	2582.499936
537.633638	2581.239648
537.994089	2579.510532
538.354483	2578.950964
538.714821	2582.109247
539.075103	2581.408527
539.435328	2581.600090
539.795497	2582.739391
540.155609	2583.246027
540.515665	2584.105544
540.875665	2584.715523
541.235609	2582.948599
541.595496	2582.751994
541.955328	2580.662436
542.315102	2582.694021
542.674821	2582.373907
543.034483	2581.312745
543.394090	2583.682087
543.753640	2582.326017
544.113134	2579.336612
544.472571	2582.799885
544.831953	2581.736202
545.191278	2582.386510
545.550548	2581.791654
545.909761	2585.121336
546.268918	2580.758218
546.628019	2581.300142
546.987064	2582.631006
547.346053	2581.421129
547.704986	2580.889288
548.063863	2582.903229
548.422684	2583.651840
548.781449	2580.102868
549.140158	2582.895667
549.498811	2583.225862
549.857408	2581.393403
550.215949	2580.407857
550.574434	2576.518607
550.932864	2579.447518
551.291237	2579.941551
551.649555	2582.313414
552.007817	2584.438260
552.366022	2583.525811
552.724173	2581.111098
553.082267	2583.011613
553.440305	2579.855851
553.798288	2580.024730
554.156215	2581.574885
554.514086	2586.003538
554.871902	2580.264185
555.229661	2581.184195
555.587365	2581.466500
555.945014	2581.428691
556.302606	2584.632344
556.660143	2581.942889
557.017625	2580.619586
557.375050	2583.346850
557.732421	2581.474062
558.089735	2580.649833
558.446994	2582.777200
558.804197	2582.174782
559.161345	2581.864751
559.518437	2582.540266
559.875474	2582.457087
560.232455	2579.865933
560.589381	2580.312076
560.946251	2582.562951
561.303065	2581.877354
561.659825	2581.854669
562.016528	2583.263671
562.373177	2583.740060
562.729770	2581.557241
563.086307	2580.685121
563.442789	2580.274267
563.799216	2580.843917
564.155587	2579.654205
564.511904	2582.504978
564.868164	2577.625141
565.224370	2581.922724
565.580520	2579.462641
565.936615	2583.525811
566.292654	2579.543300
566.648638	2582.225193
567.004567	2580.107909
567.360441	2580.571695
567.716260	2579.538258
568.072023	2580.317117
568.427732	2575.192784
568.783385	2577.315110
569.138982	2577.945254
569.494525	2577.093299
569.850013	2577.844431
570.205445	2580.927096
570.560823	2580.899370
570.916145	2579.989442
571.271412	2579.686972
571.626625	2581.673187
571.981782	2575.780078
572.336884	2576.662280
572.691931	2580.397775
573.046923	2577.511715
573.401860	2578.678742
573.756743	2576.808474
574.111570	2579.518094
574.466342	2578.892991
574.821059	2576.130438
575.175722	2577.536920
575.530330	2576.357290
575.884882	2577.236972
576.239380	2574.043401
576.593823	2578.872826
576.948211	2578.285532
577.302544	2574.008113
577.656823	2576.926941
578.011047	2580.019689
578.365216	2578.832497
578.719330	2576.778227
579.073389	2577.809143
579.427394	2574.424008
579.781344	2574.849985
580.135239	2575.681776
580.489080	2577.431056
580.842866	2573.929975
581.196597	2579.104719
581.550273	2575.011302
581.903895	2575.782599
582.257463	2577.080696
582.610975	2575.941395
582.964434	2575.742270
583.317837	2573.130952
583.671186	2575.039029
584.024481	2573.766137
584.377721	2573.937537
584.730906	2570.852350
585.084037	2574.562640
585.437113	2575.097002
585.790135	2572.490725
586.143103	2573.630026
586.496016	2572.599110
586.848874	2568.329253
587.201679	2571.958884
587.554428	2568.823286
587.907124	2570.927968
588.259765	2567.936043
588.612352	2570.622978
588.964884	2570.222206
589.317362	2576.074986
589.669786	2574.146744
590.022155	2573.556929
590.374470	2571.479974
590.726731	2577.521797
591.078937	2569.085426
591.431090	2575.318813
591.783188	2572.581466
592.135232	2571.028791
592.487222	2571.651373
592.839157	2572.178174
593.191038	2571.890828
593.542866	2570.701116
593.894639	2572.687330
594.246358	2573.471230
594.598022	2569.801270
594.949633	2570.133986
595.301190	2570.776733
595.652692	2571.419480
596.004141	2569.279510
596.355535	2570.993503
596.706876	2568.135168
597.058162	2569.826476
597.409395	2567.444530
597.760573	2570.532237
598.111698	2566.232133
598.462768	2569.912175
598.813785	2569.098029
599.164748	2571.353945
599.515657	2570.166753
599.866511	2567.941084
600.217312	2571.071641
600.568060	2569.723132
600.918753	2569.788667
601.269392	2566.579973
601.619978	2567.076526
601.970510	2568.752710
602.320988	2566.171639
602.671412	2570.073492
603.021783	2568.979562
603.372100	2567.308419
603.722363	2568.273800
604.072572	2565.947308
604.422728	2568.384706
604.772830	2563.988819
605.122878	2563.386402
605.472872	2567.633574
605.822813	2562.211813
606.172701	2563.419169
606.522534	2568.127607
606.872314	2568.861095
607.222041	2572.342011
607.571714	2567.663821
607.921333	2571.411918
608.270899	2567.429407
608.620411	2566.494273
608.969870	2569.087947
609.319276	2569.818914
609.668627	2573.304872
610.017926	2571.991651
610.367171	2577.151272
610.716362	2574.013154
611.065500	2574.045921
611.414585	2569.350087
611.763616	2570.113821
612.112594	2571.328739
612.461518	2572.747824
612.810389	2569.017370
613.159207	2569.405539
613.507971	2569.524006
613.856682	2569.947463
614.205340	2568.568708
614.553945	2570.186918
614.902496	2566.925292
615.250994	2569.531568
615.599439	2570.106260
615.947830	2567.794891
616.296169	2567.560477
616.644454	2569.410580
616.992686	2569.627350
617.340864	2570.076013
617.688990	2566.839592
618.037063	2568.656928
618.385082	2570.829665
618.733048	2571.606003
619.080961	2568.460323
619.428821	2566.821948
619.776628	2568.281362
620.124382	2568.936712
620.472083	2565.027297
620.819731	2570.290262
621.167326	2568.324212
621.514868	2566.842112
621.862357	2566.673234
622.209793	2568.969479
622.557176	2565.728017
622.904506	2563.623336
623.251783	2563.492266
623.599007	2561.639642
623.946179	2560.336503
624.293297	2562.952862
624.640363	2564.099725
624.987376	2562.388253
625.334336	2565.866649
625.681243	2567.089129
626.028097	2564.649211
626.374899	2565.032338
626.721647	2564.288768
627.068343	2564.218192
627.414987	2563.474622
627.761577	2562.647873
628.108115	2563.890517
628.454600	2564.084601
628.801032	2563.373799
629.147412	2564.621484
629.493739	2563.772050
629.840014	2564.339180
630.186236	2562.448747
630.532405	2565.589386
630.878521	2562.854560
631.224585	2563.371278
631.570597	2561.803479
631.916556	2561.253993
632.262462	2562.443706
632.608316	2563.966134
632.954117	2558.899775
633.299866	2561.006977
633.645562	2560.031514
633.991206	2563.283058
634.336797	2558.554456
634.682336	2562.431103
635.027823	2556.969013
635.373257	2558.226781
635.718639	2557.402552
636.063968	2559.091338
636.409245	2557.896585
636.754470	2560.734755
637.099642	2559.363561
637.444762	2560.223078
637.789829	2559.232491
638.134845	2559.340876
638.479808	2558.902295
638.824719	2558.844322
639.169577	2560.018911
639.514383	2557.596636
639.859137	2558.612429
640.203839	2561.017059
640.548489	2555.844835
640.893086	2553.808209
641.237632	2552.928528
641.582125	2555.111347
641.926566	2553.004145
642.270955	2558.062943
642.615292	2556.195196
642.959576	2556.822819
643.303809	2556.744681
643.647990	2556.439692
643.992118	2553.891388
644.336195	2558.214178
644.680219	2552.416851
645.024192	2555.721327
645.368112	2558.980433
645.711981	2557.258879
646.055797	2556.454815
646.399562	2558.385577
646.743274	2559.255176
647.086935	2560.381874
647.430544	2558.783828
647.774101	2560.407080
648.117606	2561.019580
648.461059	2559.504713
648.804460	2560.722152
649.147810	2559.421534
649.491108	2558.690567
649.834354	2555.156718
650.177548	2559.227450
650.520690	2556.396842
650.863781	2556.472459
651.206820	2557.389949
651.549807	2556.855587
651.892742	2559.144271
652.235626	2555.315514
652.578458	2555.572613
652.921238	2554.075390
653.263967	2558.599826
653.606644	2554.400545
653.949269	2555.224773
654.291843	2554.357695
654.634365	2557.442881
654.976836	2553.798127
655.319255	2553.120092
655.661622	2554.637479
656.003938	2555.406255
656.346203	2554.647561
656.688416	2555.421378
657.030577	2553.805689
657.372687	2556.777449
657.714746	2553.961964
658.056753	2554.277037
658.398708	2547.617672
658.740612	2552.434495
659.082465	2550.531459
659.424266	2550.077755
659.766016	2549.344267
660.107715	2553.382232
660.449362	2553.745195
660.790958	2555.549928
661.132503	2556.689229
661.473996	2555.718807
661.815438	2553.644372
662.156829	2552.348795
662.498168	2554.786193
662.839456	2554.219063
663.180693	2553.311656
663.521879	2555.199568
663.863013	2554.584547
664.204097	2554.506409
664.545129	2553.921635
664.886110	2554.072870
665.227040	2555.282747
665.567918	2554.234187
665.908746	2553.742674
666.249522	2552.074052
666.590248	2555.996070
666.930922	2552.169834
667.271545	2553.379711
667.612118	2556.865669
667.952639	2553.548590
668.293109	2555.088662
668.633528	2554.418189
668.973896	2553.099927
669.314213	2554.977757
669.654480	2554.024979
669.994695	2553.909032
670.334859	2554.413148
670.674973	2552.598332
671.015035	2553.964485
671.355047	2553.230997
671.695008	2554.624876
672.034918	2555.338199
672.374777	2554.350133
672.714585	2554.997922
673.054342	2555.416337
673.394049	2555.131512
673.733705	2556.381718
674.073310	2554.879454
674.412864	2554.851728
674.752368	2551.837118
675.091820	2552.036244
675.431223	2552.142108
675.770574	2552.648744
676.109875	2549.520708
676.449125	2549.770245
676.788324	2552.563044
677.127473	2553.697304
677.466571	2545.936448
677.805619	2552.003476
678.144616	2552.084135
678.483562	2551.186809
678.822458	2553.972047
679.161303	2554.105637
679.500098	2553.170503
679.838842	2551.282591
680.177535	2550.208825
680.516179	2550.907025
680.854771	2551.186809
681.193314	2553.200750
681.531805	2549.621531
681.870247	2552.862993
682.208638	2553.039433
682.546978	2555.144115
682.885268	2555.343241
683.223508	2552.159752
683.561697	2552.663867
683.899836	2555.645710
684.237925	2550.244113
684.575963	2554.309804
684.913951	2551.658157
685.251889	2554.226625
685.589776	2555.013045
685.927614	2549.006510
686.265401	2553.987170
686.603137	2552.724361
686.940824	2552.469783
687.278460	2553.205791
687.616046	2555.436502
687.953582	2553.717468
688.291068	2553.288970
688.628504	2553.351985
688.965889	2556.212840
689.303224	2552.913404
689.640510	2552.033723
689.977745	2552.237890
690.314930	2555.360885
690.652065	2553.004145
690.989150	2554.120761
691.326185	2552.905843
691.663170	2551.353167
692.000105	2552.242931
692.336990	2552.527756
692.673825	2551.484237
693.010610	2551.088507
693.347345	2547.552137
693.684030	2546.354863
694.020665	2544.507280
694.357251	2545.954092
694.693786	2547.446273
695.030272	2551.312838
695.366707	2550.085317
695.703093	2550.065152
696.039429	2549.510626
696.375716	2548.651109
696.711952	2547.731098
697.048139	2550.135729
697.384276	2549.692107
697.720363	2547.070707
698.056400	2550.418033
698.392388	2548.487271
698.728326	2547.849565
699.064214	2548.971222
699.400053	2548.462066
699.735842	2546.755635
700.071581	2547.269833
700.407270	2548.056253
700.742910	2547.955430
701.078501	2544.403937
701.414042	2546.400234
701.749533	2546.952240
702.084974	2546.546427
702.420366	2548.479710
702.755709	2546.183464
703.091002	2547.181612
703.426246	2547.085831
703.761440	2547.055584
704.096584	2548.046170
704.431679	2545.676828
704.766725	2548.235214
705.101721	2544.335881
705.436668	2548.262940
705.771565	2545.066848
706.106413	2546.596839
706.441212	2547.945347
706.775961	2548.106664
707.110661	2544.245140
707.445311	2547.332847
707.779913	2545.971736
708.114465	2549.185471
708.448967	2547.121119
708.783421	2545.518032
709.117825	2547.179092
709.452180	2547.017775
709.786485	2547.463917
710.120742	2547.751263
710.454949	2548.545245
710.789107	2547.317724
711.123216	2542.410160
711.457275	2545.250851
711.791286	2546.233876
712.125247	2546.054915
712.459159	2547.910059
712.793023	2550.264278
713.126837	2546.979966
713.460602	2547.121119
713.794318	2547.380738
714.127985	2549.276212
714.461602	2544.454348
714.795171	2546.622044
715.128691	2548.724206
715.462162	2548.469627
715.795584	2545.691952
716.128957	2545.586087
716.462281	2545.792775
716.795556	2545.659184
717.128782	2545.540717
717.461960	2544.686241
717.795088	2545.223124
718.128167	2546.841335
718.461198	2545.472661
718.794180	2548.068856
719.127113	2548.041129
719.459997	2543.166333
719.792833	2544.308155
720.125619	2543.809081
720.458357	2543.758669
720.791046	2543.925027
721.123686	2544.512322
721.456278	2545.291180
721.788821	2544.250182
722.121315	2543.990562
722.453761	2542.957126
722.786158	2544.116591
723.118506	2542.483257
723.450805	2544.792106
723.783056	2542.455531
724.115259	2543.284801
724.447412	2543.735984
724.779518	2546.838814
725.111574	2543.728422
725.443582	2543.262115
725.775542	2543.685572
726.107453	2544.529966
726.439315	2544.845038
726.771129	2548.966181
727.102895	2544.598021
727.434612	2545.094575
727.766281	2547.085831
728.097901	2544.003165
728.429473	2542.553833
728.760996	2543.231868
729.092471	2540.305479
729.423897	2542.387475
729.755276	2544.562733
730.086606	2547.428629
730.417887	2547.375697
730.749120	2546.770758
731.080305	2546.309493
731.411442	2546.745553
731.742530	2546.138094
732.073570	2548.310831
732.404562	2548.056253
732.735506	2545.747404
733.066401	2547.206818
733.397249	2550.349978
733.728048	2548.343598
734.058798	2547.731098
734.389501	2541.419574
734.720156	2543.330171
735.050762	2542.480737
735.381320	2544.048535
735.711831	2543.614996
736.042293	2544.983669
736.372707	2543.461241
736.703073	2544.335881
737.033391	2543.347815
737.363661	2542.122815
737.693883	2542.004347
738.024056	2543.993083
738.354182	2542.173226
738.684260	2543.231868
739.014290	2546.052394
739.344272	2544.224976
739.674207	2545.908721
740.004093	2544.308155
740.333931	2542.687424
740.663722	2545.989380
740.993464	2544.693803
741.323159	2545.656663
741.652806	2542.614327
741.982405	2543.683052
742.311956	2541.596014
742.641460	2545.311344
742.970915	2543.360418
743.300323	2542.407640
743.629683	2541.222969
743.958996	2540.504604
744.288260	2543.209183
744.617477	2542.488298
744.946647	2537.104346
745.275768	2538.674665
745.604842	2536.804397
745.933869	2540.779347
746.262847	2536.912782
746.591778	2543.594832
746.920662	2540.595345
747.249498	2544.139276
747.578286	2543.549461
747.907027	2542.924358
748.235720	2542.069882
748.564365	2542.818494
748.892963	2542.367311
749.221514	2541.596014
749.550017	2545.003834
749.878473	2543.272198
750.206881	2542.153062
750.535242	2540.549975
750.863555	2541.724563
751.191821	2541.293545
751.520039	2540.761703
751.848210	2543.902342
752.176334	2542.362269
752.504411	2545.593649
752.832440	2539.473688
753.160421	2543.897301
753.488356	2542.573998
753.816243	2543.297403
754.144082	2541.797660
754.471875	2542.916796
754.799620	2541.336395
755.127318	2539.602238
755.454969	2541.308668
755.782572	2542.465613
756.110129	2540.784388
756.437638	2542.727753
756.765100	2541.646426
757.092515	2542.730274
757.419882	2542.609286
757.747203	2541.273380
758.074477	2543.725902
758.401703	2541.651467
758.728882	2540.323123
759.056014	2540.786909
759.383099	2543.962836
759.710138	2543.718340
760.037129	2544.207332
760.364073	2540.497043
760.690970	2542.188350
761.017820	2543.062990
761.344623	2541.641384
761.671379	2541.981662
761.998088	2538.341949
762.324751	2540.270191
762.651366	2539.612320
762.977935	2551.141439
763.304456	2551.033054
763.630931	2550.982642
763.957359	2550.735626
764.283740	2547.985677
764.610074	2547.877292
764.936362	2546.357384
765.262602	2542.140459
765.588796	2541.054090
765.914943	2543.501570
766.241044	2543.962836
766.567097	2539.831610
766.893104	2541.928730
767.219064	2540.083668
767.544978	2540.431507
767.870845	2541.742207
768.196665	2539.602238
768.522438	2538.306661
768.848165	2540.670962
769.173846	2541.596014
769.499479	2539.874460
769.825066	2538.644418
770.150607	2537.958822
770.476101	2540.030736
770.801548	2541.580891
771.126949	2538.611651
771.452303	2541.066693
771.777611	2536.688451
772.102872	2540.930582
772.428087	2538.309182
772.753256	2539.720705
773.078378	2538.309182
773.403453	2540.144162
773.728482	2536.025539
774.053465	2539.153575
774.378401	2537.563091
774.703291	2536.295241
775.028135	2541.049049
775.352932	2536.701054
775.677683	2537.043852
776.002388	2537.704243
776.327046	2539.680376
776.651658	2540.328164
776.976224	2537.686599
777.300743	2541.348997
777.625216	2537.807587
777.949643	2537.421939
778.274024	2538.646939
778.598359	2536.610313
778.922647	2531.478418
779.246889	2535.932278
779.571086	2534.369520
779.895236	2537.477391
780.219339	2536.617875
780.543397	2536.144006
780.867409	2538.392361
781.191374	2538.364634
781.515294	2534.056968
781.839167	2537.447144
782.162995	2537.157278
782.486776	2536.305323
782.810511	2538.571322
783.134201	2538.324305
783.457844	2535.493697
783.781441	2535.284489
784.104993	2536.413708
784.428498	2534.818183
784.751958	2536.330529
785.075372	2542.009389
785.398739	2535.811290
785.722061	2536.817000
786.045337	2537.994110
786.368568	2536.993441
786.691752	2537.079140
787.014891	2538.563760
787.337983	2539.072917
787.661030	2536.874973
787.984031	2538.107536
788.306987	2539.272042
788.629897	2537.676517
788.952760	2537.003523
789.275579	2536.968235
789.598351	2539.894625
789.921078	2536.537216
790.243759	2538.157947
790.566395	2539.123328
790.888984	2537.802546
791.211529	2538.558719
791.534027	2539.143493
791.856480	2536.711136
792.178888	2538.478060
792.501249	2538.720036
792.823566	2535.218954
793.145836	2535.718029
793.468062	2536.282638
793.790241	2535.871784
794.112375	2536.743903
794.434464	2538.747762
794.756507	2536.595189
795.078505	2536.176774
795.400457	2533.399098
795.722364	2534.505631
796.044226	2535.191228
796.366042	2535.276928
796.687812	2535.967566
797.009538	2537.921013
797.331218	2537.530323
797.652852	2537.187525
797.974442	2534.545960
798.295986	2535.390354
798.617484	2538.220962
798.938938	2536.398584
799.260346	2537.036290
799.581709	2538.382278
799.903026	2537.842875
800.224299	2536.746424
800.545526	2536.257432
800.866708	2538.324305
801.187845	2539.221631
801.508936	2536.980838
801.829983	2536.252391
802.150984	2537.522762
802.471940	2537.016126
802.792851	2538.969573
803.113717	2537.608461
803.434538	2532.879859
803.755314	2536.204500
804.076045	2537.290869
804.396731	2534.772812
804.717372	2535.826413
805.037967	2536.852288
805.358518	2537.593338
805.679024	2534.828265
805.999485	2537.159799
806.319901	2538.954449
806.640272	2534.808100
806.960598	2533.837678
807.280879	2536.368338
807.601115	2535.289531
807.921306	2539.453524
808.241453	2537.792463
808.561554	2535.909593
808.881611	2535.438245
809.201623	2536.930426
809.521590	2537.031249
809.841513	2535.523944
810.161390	2540.141641
810.481223	2536.701054
810.801011	2538.173071
811.120755	2537.565612
811.440453	2538.404964
811.760107	2535.337422
812.079716	2532.867256
812.399281	2531.422966
812.718801	2532.973120
813.038276	2531.717873
813.357707	2535.932278
813.677093	2535.574356
813.996434	2536.940508
814.315731	2535.584438
814.634983	2539.902186
814.954191	2536.219623
815.273354	2535.813811
815.592473	2539.561908
815.911547	2536.741383
816.230577	2540.388658
816.549562	2535.954963
816.868502	2538.659542
817.187399	2536.522093
817.506250	2535.123172
817.825058	2536.771630
818.143821	2537.515200
818.462539	2536.063348
818.781213	2538.662062
819.099843	2538.513348
819.418429	2537.994110
819.736970	2540.726415
820.055466	2540.151723
820.373919	2548.149514
820.692327	2543.700696
821.010691	2552.532797
821.329011	2554.710576
821.647286	2575.190263
821.965517	2588.914805
822.283704	2599.750765
822.601847	2602.346959
822.919945	2595.949735
823.237999	2584.723085
823.556010	2574.812177
823.873976	2566.514437
824.191897	2563.154508
824.509775	2554.529094
824.827609	2553.871224
825.145398	2552.497509
825.463144	2549.999618
825.780845	2550.778476
826.098502	2553.147818
826.416116	2556.661502
826.733685	2562.214333
827.051210	2563.905640
827.368692	2563.479663
827.686129	2555.784342
828.003522	2552.280740
828.320872	2544.338402
828.638177	2542.458051
828.955439	2536.688451
829.272656	2538.959491
829.589830	2534.999664
829.906960	2537.951260
830.224046	2537.616023
830.541088	2538.039480
830.858086	2537.182484
831.175041	2538.188194
831.491952	2537.129552
831.808819	2538.830941
832.125642	2537.852957
832.442421	2538.984696
832.759157	2538.677186
833.075849	2546.584236
833.392497	2547.095913
833.709101	2551.431305
834.025662	2548.898125
834.342179	2547.665563
834.658653	2545.880995
834.975083	2542.657177
835.291469	2547.819318
835.607811	2540.088709
835.924110	2538.861188
836.240366	2535.513862
836.556578	2536.690971
836.872746	2536.075951
837.188871	2538.490663
837.504952	2535.488656
837.820990	2535.632329
838.136984	2533.903213
838.452935	2534.563604
838.768842	2531.289375
839.084706	2532.436238
839.400526	2538.709953
839.716303	2536.963194
840.032037	2539.108205
840.347727	2538.886394
840.663373	2541.275901
840.978977	2538.765406
841.294537	2536.799356
841.610054	2537.847916
841.925527	2536.254912
842.240957	2534.382123
842.556344	2535.977648
842.871687	2534.470343
843.186987	2533.603265
843.502244	2533.169725
843.817458	2533.046217
844.132629	2534.659386
844.447756	2536.852288
844.762840	2528.491535
845.077881	2530.825589
845.392879	2530.969262
845.707833	2528.892306
846.022745	2527.785773
846.337613	2533.560415
846.652438	2531.463295
846.967221	2533.288193
847.281960	2532.937832
847.596656	2534.724921
847.911309	2534.046886
848.225919	2531.435568
848.540485	2534.193080
848.855009	2532.806762
849.169490	2531.251566
849.483928	2531.884231
849.798323	2532.998326
850.112675	2535.450848
850.426984	2532.589993
850.741251	2533.026053
851.055474	2531.836340
851.369654	2532.547143
851.683792	2532.476567
851.997887	2534.185518
852.311938	2530.618902
852.625947	2535.082843
852.939914	2532.776515
853.253837	2535.866743
853.567718	2534.505631
853.881555	2533.510003
854.195350	2531.085208
854.509103	2533.870446
854.822812	2530.082019
855.136479	2533.739376
855.450103	2531.165867
855.763685	2533.623429
856.077224	2530.465146
856.390720	2533.935981
856.704173	2531.521268
857.017584	2532.559746
857.330953	2532.453882
857.644278	2532.658048
857.957561	2532.584952
858.270802	2531.775846
858.584000	2534.611495
858.897155	2534.440096
859.210268	2533.192411
859.523339	2531.460774
859.836367	2533.777184
860.149352	2532.423635
860.462295	2533.842719
860.775195	2529.315763
861.088054	2529.391381
861.400869	2530.538243
861.713642	2528.476411
862.026373	2531.548994
862.339062	2533.096629
862.651708	2530.898686
862.964312	2531.619571
863.276873	2532.612678
863.589392	2533.729293
863.901869	2532.476567
864.214303	2530.644107
864.526696	2534.094777
864.839045	2531.339787
865.151353	2531.221319
865.463619	2530.964221
865.775842	2531.213758
866.088023	2532.524458
866.400162	2531.541433
866.712258	2533.822555
867.024313	2534.341794
867.336325	2532.980682
867.648296	2533.583100
867.960224	2534.729963
868.272110	2534.190559
868.583954	2536.217103
868.895755	2533.804911
869.207515	2532.542102
869.519233	2532.345497
869.830909	2531.667462
870.142542	2532.685775
870.454134	2533.923378
870.765684	2532.413552
871.077191	2533.131917
871.388657	2534.921526
871.700081	2533.333563
872.011463	2533.308357
872.322803	2532.211906
872.634101	2534.596372
872.945357	2532.153933
873.256571	2532.773995
873.567744	2531.891793
873.878874	2538.344470
874.189963	2532.980682
874.501010	2535.183666
874.812015	2533.567977
875.122979	2535.886907
875.433900	2534.402287
875.744780	2534.059489
876.055618	2533.537730
876.366415	2534.707277
876.677169	2533.129396
876.987882	2531.604447
877.298554	2532.589993
877.609183	2533.114273
877.919771	2530.167718
878.230317	2531.773326
878.540822	2536.625436
878.851285	2534.026722
879.161707	2535.183666
879.472087	2537.754655
879.782425	2541.316230
880.092722	2541.142310
880.402977	2547.786551
880.713191	2554.982798
881.023363	2565.609550
881.333494	2574.234965
881.643583	2576.566498
881.953631	2570.139027
882.263637	2570.378482
882.573602	2569.549212
882.883526	2564.313974
883.193408	2560.717111
883.503248	2554.697973
883.813048	2553.185627
884.122806	2548.409133
884.432522	2544.502239
884.742197	2544.174564
885.051831	2541.240613
885.361424	2538.248688
885.670975	2537.709284
885.980485	2538.858667
886.289954	2540.812115
886.599382	2538.427649
886.908768	2536.340611
887.218113	2535.554191
887.527417	2536.164171
887.836680	2532.748789
888.145901	2535.531506
888.455082	2534.014119
888.764221	2535.496218
889.073319	2534.087215
889.382376	2535.579397
889.691392	2533.141999
890.000366	2533.751979
890.309300	2531.727955
890.618193	2534.276259
890.927044	2532.925229
891.235855	2534.926567
891.544625	2535.390354
891.853353	2534.792977
892.162041	2532.834489
892.470687	2535.481094
892.779293	2531.468336
893.087858	2532.552184
893.396381	2536.383461
893.704864	2535.632329
894.013306	2535.478574
894.321707	2542.828576
894.630068	2547.615152
894.938387	2546.057435
895.246665	2544.076262
895.554903	2544.426622
895.863100	2542.533669
896.171256	2537.633667
896.479371	2539.813966
896.787446	2540.411343
897.095480	2537.913451
897.403473	2537.772299
897.711425	2536.572504
898.019336	2535.939839
898.327207	2531.238963
898.635038	2533.802390
898.942827	2533.920857
899.250576	2533.220137
899.558284	2534.180477
899.865952	2535.055117
900.173579	2533.255425
900.481165	2536.073430
900.788711	2534.109901
901.096216	2530.424817
901.403681	2530.850795
901.711105	2532.400949
902.018489	2533.726773
902.325832	2535.370189
902.633135	2536.234747
902.940397	2536.340611
903.247619	2534.228368
903.554800	2534.666948
903.861941	2542.110212
904.169041	2550.455842
904.476101	2549.808054
904.783121	2551.587581
905.090100	2550.284443
905.397039	2546.722868
905.703938	2542.241282
906.010796	2542.223638
906.317614	2536.759027
906.624391	2539.027546
906.931129	2536.774150
907.237826	2534.815662
907.544483	2536.212062
907.851099	2535.304654
908.157675	2531.954807
908.464211	2535.786084
908.770707	2526.979188
909.077163	2532.930271
909.383578	2529.209899
909.689954	2527.949611
909.996289	2528.458767
910.302584	2529.892975
910.608839	2530.061854
910.915054	2530.402132
911.221229	2530.807945
911.527363	2529.671165
911.833458	2532.731145
912.139513	2532.121165
912.445527	2531.511186
912.751502	2533.517565
913.057436	2534.654345
913.363331	2533.535209
913.669186	2533.058820
913.975000	2533.378933
914.280775	2530.137471
914.586510	2535.803728
914.892205	2537.986548
915.197859	2538.833462
915.503475	2544.393854
915.809050	2547.917621
916.114585	2550.317210
916.420081	2552.091696
916.725536	2546.458207
917.030952	2550.231511
917.336328	2543.735984
917.641665	2544.686241
917.946961	2542.140459
918.252218	2540.365973
918.557435	2541.265818
918.862612	2538.369676
919.167750	2535.720549
919.472848	2538.236085
919.777906	2537.079140
920.082925	2534.694674
920.387904	2534.475384
920.692843	2533.386495
920.997743	2530.921371
921.302603	2534.452699
921.607423	2531.314581
921.912204	2533.411701
922.216946	2535.024870
922.521647	2535.045035
922.826310	2532.479087
923.130932	2533.205013
923.435516	2530.061854
923.740059	2531.889272
924.044564	2532.970600
924.349028	2533.121834
924.653454	2525.108920
924.957840	2526.487676
925.262186	2522.626152
925.566493	2530.286185
925.870761	2525.993643
926.174989	2530.013963
926.479178	2528.148736
926.783328	2532.204344
927.087438	2532.539581
927.391509	2531.433048
927.695541	2528.705784
927.999533	2529.880373
928.303486	2530.286185
928.607400	2529.020856
928.911275	2529.940866
929.215110	2530.583613
929.518906	2530.271062
929.822663	2528.935156
930.126381	2529.411545
930.430060	2529.635877
930.733699	2533.515044
931.037299	2530.850795
931.340861	2529.933305
931.644383	2528.017666
931.947866	2530.956659
932.251309	2529.585465
932.554714	2531.758202
932.858080	2530.908768
933.161407	2529.857687
933.464694	2530.543284
933.767943	2528.345341
934.071153	2531.508665
934.374323	2529.993798
934.677455	2530.969262
934.980548	2530.666792
935.283602	2529.986237
935.586617	2530.437420
935.889593	2531.833820
936.192530	2529.424148
936.495428	2530.601257
936.798287	2529.461957
937.101108	2528.426000
937.403890	2532.380785
937.706632	2529.472039
938.009336	2530.654190
938.312002	2530.576052
938.614628	2530.558408
938.917216	2532.504293
939.219765	2530.094622
939.522275	2532.279962
939.824747	2533.477236
940.127179	2528.335259
940.429573	2525.197141
940.731929	2527.894158
941.034246	2525.955834
941.336524	2531.332225
941.638763	2530.603778
941.940964	2529.497245
942.243126	2531.332225
942.545250	2530.147554
942.847335	2531.690147
943.149381	2527.924405
943.451389	2530.258459
943.753359	2531.284334
944.055290	2531.339787
944.357182	2529.474560
944.659036	2529.807276
944.960851	2528.718387
945.262628	2528.347862
945.564367	2531.561597
945.866067	2529.966072
946.167729	2528.080681
946.469352	2531.929602
946.770937	2528.320135
947.072484	2529.061185
947.373992	2530.334076
947.675462	2528.476411
947.976893	2529.454395
948.278286	2529.764426
948.579641	2530.036648
948.880958	2529.751823
949.182236	2527.979857
949.483476	2527.599250
949.784678	2529.696370
950.085841	2529.600588
950.386967	2531.236443
950.688054	2528.917512
950.989103	2528.131092
951.290114	2528.395753
951.591087	2529.792152
951.892021	2529.749302
952.192917	2530.286185
952.493776	2527.687471
952.794596	2529.550177
953.095378	2528.370547
953.396122	2529.935825
953.696828	2530.787780
953.997496	2531.443130
954.298126	2528.103366
954.598718	2528.955321
954.899272	2528.748633
955.199788	2527.899199
955.500266	2528.647810
955.800706	2525.991122
956.101108	2523.871317
956.401472	2525.809641
956.701798	2525.161852
957.002087	2525.101359
957.302337	2527.763088
957.602550	2530.243336
957.902724	2529.472039
958.202861	2529.885414
958.502960	2527.241328
958.803022	2528.244518
959.103045	2526.689322
959.403031	2530.092101
959.702979	2529.918181
960.002889	2529.207378
960.302762	2530.026566
960.602596	2528.599919
960.902393	2527.737882
961.202153	2530.853315
961.501875	2528.483973
961.801559	2527.495907
962.101205	2532.116124
962.400814	2530.064375
962.700385	2527.508510
962.999918	2527.644621
963.299414	2527.132944
963.598873	2527.866432
963.898293	2527.672347
964.197677	2528.889786
964.497022	2527.695032
964.796331	2530.598737
965.095601	2527.692512
965.394835	2528.342821
965.694030	2529.832482
965.993189	2525.560104
966.292309	2526.147398
966.591393	2528.468849
966.890439	2529.908099
967.189447	2526.301153
967.488419	2525.862573
967.787353	2529.383819
968.086249	2526.933818
968.385108	2530.114786
968.683930	2528.403314
968.982714	2527.425331
969.281462	2528.005063
969.580172	2527.029600
969.878844	2526.497758
970.177480	2526.490197
970.476078	2530.278624
970.774639	2526.719569
971.073162	2528.098325
971.371649	2524.143539
971.670098	2523.710000
971.968510	2526.386853
972.266885	2521.307890
972.565223	2527.548839
972.863524	2528.126051
973.161788	2528.357944
973.460014	2527.344672
973.758204	2525.071112
974.056356	2526.621267
974.354471	2530.029087
974.652550	2525.958355
974.950591	2529.139323
975.248595	2526.054137
975.546563	2526.744775
975.844493	2525.797038
976.142386	2528.312574
976.440243	2525.723941
976.738062	2529.093952
977.035845	2527.561442
977.333590	2527.563962
977.631299	2524.574558
977.928971	2524.766122
978.226606	2527.271575
978.524204	2526.013807
978.821765	2527.319466
979.119290	2526.528005
979.416777	2526.908612
979.714228	2526.618746
980.011642	2529.129241
980.309020	2532.171577
980.606360	2527.758047
980.903664	2530.656710
981.200931	2530.119827
981.498162	2525.907943
981.795356	2525.106400
982.092513	2527.659744
982.389633	2527.891637
982.686717	2529.136802
982.983764	2527.218643
983.280775	2529.671165
983.577749	2529.177132
983.874686	2527.775691
984.171587	2526.528005
984.468451	2530.505476
984.765279	2527.644621
985.062070	2527.410207
985.358824	2524.970289
985.655543	2527.828623
985.952224	2525.257634
986.248869	2528.622605
986.545478	2522.311080
986.842050	2526.656555
987.138586	2523.107582
987.435086	2521.827129
987.731549	2520.440812
988.027975	2528.572193
988.324366	2524.720752
988.620719	2525.103879
988.917037	2527.006915
989.213318	2527.566483
989.509563	2526.699404
989.805772	2526.752337
990.101944	2527.029600
990.398080	2528.781401
990.694180	2525.605474
990.990244	2526.185207
991.286271	2528.456247
991.582262	2527.337110
991.878217	2527.412728
992.174136	2527.536236
992.470019	2524.720752
992.765865	2530.021525
993.061676	2528.045392
993.357450	2529.219981
993.653188	2526.379291
993.948890	2528.118489
994.244556	2526.192768
994.540186	2528.728469
994.835780	2526.233098
995.131337	2526.752337
995.426859	2527.868952
995.722345	2528.317615
996.017795	2526.245701
996.313208	2526.628828
996.608586	2527.601771
996.903928	2525.239990
997.199234	2525.156811
997.494504	2527.359796
997.789738	2526.538088
998.084936	2526.371729
998.380099	2526.255783
998.675225	2526.699404
998.970316	2527.034641
999.265371	2530.308871
999.560390	2526.601102
999.855373	2528.196627
1000.150320	2526.341483
1000.445232	2528.010104
1000.740108	2526.114631
1001.034948	2525.522295
1001.329752	2526.459950
1001.624521	2527.740403
1001.919254	2525.479445
1002.213951	2526.129754
1002.508613	2522.046419
1002.803239	2527.372398
1003.097829	2522.956348
1003.392384	2524.002387
1003.686903	2525.693694
1003.981386	2527.654703
1004.275834	2526.628828
1004.570246	2527.563962
1004.864623	2525.386184
1005.158964	2526.338962
1005.453270	2524.420803
1005.747540	2526.545649
1006.041775	2526.502799
1006.335974	2527.425331
1006.630138	2528.184024
1006.924266	2526.346524
1007.218359	2526.893489
1007.512416	2526.089425
1007.806438	2525.121523
1008.100425	2526.442306
1008.394376	2526.094466
1008.688292	2528.252080
1008.982172	2526.820392
1009.276017	2524.864424
1009.569827	2525.655886
1009.863602	2528.279806
1010.157341	2526.782583
1010.451045	2527.316946
1010.744714	2526.843077
1011.038347	2527.064888
1011.331945	2526.742254
1011.625508	2525.151770
1011.919036	2525.741585
1012.212528	2525.930628
1012.505986	2525.650844
1012.799408	2526.323838
1013.092795	2525.552542
1013.386147	2528.239477
1013.679464	2525.615556
1013.972745	2528.771319
1014.265992	2524.912315
1014.559204	2527.339631
1014.852380	2527.463139
1015.145521	2524.630011
1015.438628	2526.757378
1015.731699	2524.977850
1016.024736	2525.204702
1016.317737	2525.766791
1016.610703	2526.679240
1016.903635	2522.827798
1017.196531	2522.588343
1017.489393	2521.756553
1017.782219	2519.987108
1018.075011	2525.590351
1018.367768	2525.781914
1018.660490	2525.522295
1018.953177	2525.522295
1019.245829	2525.522295
