Dividing Wavelength (nm)	Counts (n)	Blue Motor Position (mm): 0.000000	Red Motor Position (mm): 32.300000	
326.493990	2128.407921
326.888308	2128.407921
327.282561	2128.407921
327.676750	2094.992633
328.070874	2093.439958
328.464933	2094.107911
328.858929	2103.391195
329.252859	2112.709768
329.646726	2125.179062
330.040528	2134.822790
330.434265	2151.388021
330.827938	2170.297389
331.221547	2188.732889
331.615091	2208.416074
332.008571	2227.534650
332.401986	2246.159193
332.795338	2266.447317
333.188625	2286.596808
333.581847	2304.313944
333.975006	2321.612663
334.368100	2338.374500
334.761129	2356.399145
335.154095	2373.649974
335.546996	2392.705535
335.939833	2410.833524
336.332606	2428.699374
336.725315	2439.003492
337.117960	2449.894905
337.510540	2460.667851
337.903056	2467.193624
338.295508	2474.619244
338.687896	2482.657364
339.080220	2492.626246
339.472480	2499.489777
339.864676	2504.541013
340.256807	2509.009996
340.648875	2510.202228
341.040879	2514.802281
341.432818	2515.215656
341.824694	2515.495440
342.216506	2518.046264
342.608253	2517.950482
342.999937	2518.343692
343.391557	2515.772703
343.783113	2516.904443
344.174605	2512.962260
344.566033	2515.056860
344.957397	2513.267250
345.348697	2510.761797
345.739934	2508.354646
346.131106	2503.883142
346.522215	2505.065293
346.913260	2504.851044
347.304241	2501.234016
347.695159	2502.322905
348.086012	2500.258553
348.476802	2496.031545
348.867528	2496.641525
349.258191	2493.455515
349.648789	2493.972234
350.039324	2490.577017
350.429796	2491.318066
350.820203	2490.876965
351.210548	2488.477376
351.600828	2486.423106
351.991045	2482.647282
352.381198	2485.009062
352.771288	2486.768425
353.161314	2483.867241
353.551276	2486.072746
353.941175	2486.072746
354.331010	2485.331696
354.720782	2487.171717
355.110490	2484.961171
355.500135	2484.598208
355.889717	2489.510813
356.279235	2485.016624
356.668689	2487.486789
357.058080	2486.312200
357.447408	2486.050060
357.836672	2485.306490
358.225873	2484.262971
358.615010	2483.988228
359.004084	2488.802530
359.393095	2488.106851
359.782043	2491.542397
360.170927	2487.300267
360.559748	2491.905361
360.948505	2492.598519
361.337199	2491.250011
361.725830	2492.890906
362.114398	2493.470639
362.502903	2492.870742
362.891344	2494.546925
363.279722	2498.012718
363.668037	2498.201762
364.056289	2494.652789
364.444478	2498.617657
364.832603	2496.026504
365.220665	2498.310147
365.608665	2499.688902
365.996601	2501.460868
366.384474	2502.688389
366.772284	2504.180570
367.160031	2504.183091
367.547715	2505.637464
367.935336	2508.168123
368.322893	2511.303721
368.710388	2517.602642
369.097820	2521.476769
369.485189	2523.493231
369.872495	2530.555887
370.259738	2537.164840
370.646918	2544.330840
371.034035	2552.101779
371.421090	2560.243242
371.808081	2572.394943
372.195010	2579.727302
372.581875	2594.944025
372.968678	2606.004316
373.355418	2618.075359
373.742096	2636.001702
374.128710	2649.940492
374.515262	2666.926660
374.901751	2683.892664
375.288177	2696.140147
375.674540	2718.921121
376.060841	2736.640777
376.447079	2755.615680
376.833254	2776.286931
377.219367	2786.974177
377.605417	2825.561690
377.991404	2829.740806
378.377329	2855.790969
378.763191	2871.658000
379.148991	2910.265677
379.534727	2934.843823
379.920402	2963.240642
380.306013	2976.942498
380.691563	3026.678522
381.077049	3049.855227
381.462474	3066.266703
381.847835	3106.651387
382.233134	3128.376239
382.618371	3124.227370
383.003545	3194.803524
383.388657	3203.738969
383.773706	3236.826582
384.158693	3248.968201
384.543618	3277.685134
384.928480	3311.261739
385.313280	3360.944831
385.698017	3358.444419
386.082692	3411.081627
386.467305	3415.303593
386.851856	3450.654684
387.236344	3470.229485
387.620770	3500.917509
388.005133	3526.143442
388.389435	3554.179820
388.773674	3568.045513
389.157851	3607.348869
389.541965	3624.647589
389.926018	3587.925303
390.310008	3660.079338
390.693936	3677.849406
391.077802	3722.879513
391.461606	3708.038356
391.845348	3773.931278
392.229027	3774.271555
392.612645	3784.946199
392.996200	3861.667519
393.379694	3899.904671
393.763125	3964.300370
394.146494	3935.931277
394.529801	3996.047037
394.913047	4043.449006
395.296230	4011.425076
395.679351	4065.473807
396.062410	4089.399123
396.445408	4071.934046
396.828343	4103.191720
397.211217	4125.927324
397.594028	4045.583935
397.976778	4111.986013
398.359466	4139.873676
398.742092	4170.813758
399.124656	4090.495574
399.507158	4171.522040
399.889598	4198.270403
400.271977	4256.576388
400.654294	4228.396338
401.036549	4237.346907
401.418742	4207.508317
401.800874	4310.748627
402.182944	4326.509795
402.564952	4395.888674
402.946898	4382.630440
403.328783	4378.249677
403.710606	4292.892860
404.092367	4486.097602
404.474067	4448.268783
404.855705	4458.270433
405.237282	4387.270822
405.618797	4488.713961
406.000250	4530.575702
406.381642	4607.546560
406.762972	4571.613215
407.144240	4582.935647
407.525447	4583.608641
407.906593	4640.639214
408.287677	4681.752344
408.668700	4614.430255
409.049661	4664.630065
409.430560	4702.950396
409.811399	4631.552534
410.192176	4794.797699
410.572891	4736.219491
410.953545	4837.095500
411.334138	4717.214341
411.714669	4787.067089
412.095139	4679.304864
412.475547	4822.733253
412.855894	4801.837670
413.236180	4810.498372
413.616405	4759.459210
413.996568	4848.944732
414.376670	4790.290907
414.756711	4745.573352
415.136691	4779.591058
415.516609	4857.764231
415.896466	4893.072472
416.276262	4930.981949
416.655997	4910.945883
417.035670	5093.506229
417.415283	5180.017470
417.794834	5125.073934
418.174324	5080.038786
418.553753	4988.796422
418.933121	5171.818033
419.312428	5237.975616
419.691674	5182.764899
420.070859	5302.787210
420.449983	5216.890990
420.829045	5332.519936
421.208047	5237.279937
421.586988	5309.355834
421.965867	5316.398326
422.344686	5453.653821
422.723444	5311.609229
423.102141	5129.921004
423.480777	5430.041057
423.859352	5194.518349
424.237866	5453.535354
424.616319	5444.894817
424.994712	5553.851795
425.373044	5432.012148
425.751314	5572.241924
426.129524	5377.217326
426.507673	5572.070525
426.885762	5660.010933
427.263789	5588.943267
427.641756	5470.022448
428.019662	5590.926961
428.397508	5595.655563
428.775292	5542.363006
429.153016	5639.863962
429.530679	5571.082459
429.908282	5655.761241
430.285824	5527.751221
430.663305	5799.350946
431.040726	5531.607704
431.418086	5528.628382
431.795385	5638.046626
432.172624	5656.729142
432.549802	5645.676412
432.926920	5661.525800
433.303977	5665.984701
433.680974	5710.702256
434.057910	5725.119956
434.434786	5728.386624
434.811601	5699.977201
435.188355	5928.722078
435.565050	5807.043747
435.941683	5784.845026
436.318257	6003.162276
436.694770	5985.490511
437.071222	6020.982755
437.447614	5949.713442
437.823946	5861.846131
438.200218	6020.813876
438.576429	5881.178956
438.952580	5981.520602
439.328670	6024.325040
439.704700	5932.848262
440.080670	5922.682775
440.456580	6189.004412
440.832429	6074.749181
441.208218	5920.394091
441.583947	6077.418472
441.959616	6079.238328
442.335224	6006.887688
442.710773	6145.199306
443.086261	6170.515981
443.461689	5965.822449
443.837057	6112.056240
444.212365	6271.200426
444.587612	6163.589435
444.962800	6318.047868
445.337927	6296.416277
445.712995	5906.641824
446.088002	6481.537529
446.462949	6313.392363
446.837837	6243.116158
447.212664	6415.889103
447.587431	6563.050466
447.962139	7101.102898
448.336786	8032.284672
448.711374	7766.275587
449.085901	6845.173600
449.460369	6763.504387
449.834776	6699.895108
450.209124	7090.521516
450.583412	7238.943168
450.957640	7384.748461
451.331808	7150.087790
451.705917	6704.522887
452.079965	6624.991123
452.453954	6841.584298
452.827883	6717.970165
453.201752	6807.609442
453.575562	6606.931190
453.949311	6815.685370
454.323001	6701.493153
454.696632	6775.867817
455.070202	6913.980309
455.443713	7069.444452
455.817164	7174.131573
456.190556	7248.234014
456.563888	7321.635735
456.937160	7365.914710
457.310373	7024.121958
457.683526	7046.865124
458.056619	6940.045595
458.429653	6932.272135
458.802628	6861.209510
459.175542	6970.854606
459.548398	7327.508679
459.921194	7486.408369
460.293930	7489.813668
460.666607	8024.806120
461.039224	8327.182090
461.411782	8457.379970
461.784280	8474.444276
462.156719	8363.054941
462.529099	8245.714523
462.901419	7834.565577
463.273680	7721.941159
463.645882	7738.783654
464.018024	7603.000175
464.390106	7771.901514
464.762130	8153.287488
465.134094	8630.825909
465.505999	9646.270570
465.877845	10877.063240
466.249631	11528.551716
466.621358	11135.137550
466.993026	10507.493731
467.364634	10246.908927
467.736184	9879.698678
468.107674	9555.744050
468.479105	9585.166744
468.850477	9352.787196
469.221790	9115.802553
469.593043	8793.806413
469.964238	8650.425916
470.335373	8667.623812
470.706449	8723.250424
471.077467	8708.033701
471.448425	10017.004585
471.819324	11084.910013
472.190164	11109.573858
472.560945	9862.742757
472.931667	9071.596675
473.302330	8934.215151
473.672934	8577.596366
474.043479	8942.195297
474.413965	8871.079740
474.784393	8757.938604
475.154761	8911.340915
475.525070	9003.042024
475.895321	8830.937032
476.265513	9010.049228
476.635645	9172.737345
477.005719	9167.928084
477.375734	9280.991083
477.745691	9518.943627
478.115588	9649.416250
478.485427	9889.846521
478.855207	10419.515514
479.224928	11234.833929
479.594591	11857.197138
479.964194	11664.826708
480.333739	11603.758170
480.703226	11514.391115
481.072653	11598.326327
481.442022	11837.481186
481.811333	12018.292251
482.180584	11812.668627
482.549777	11526.063907
482.918912	11338.885865
483.287988	11357.379338
483.657005	11360.260357
484.025964	11033.666684
484.394864	11163.184009
484.763706	11125.070365
485.132489	10877.721111
485.501213	10835.032620
485.869879	10900.426468
486.238487	10733.914636
486.607036	10834.135295
486.975527	10603.099214
487.343959	10781.727459
487.712333	10815.024280
488.080648	10740.374874
488.448905	10769.742116
488.817104	10692.935096
489.185244	10947.841040
489.553326	11069.128681
489.921350	11578.247411
490.289315	12562.194942
490.657222	12888.229047
491.025070	12759.840940
491.392861	12627.266156
491.760593	12252.963003
492.128267	11906.003069
492.495883	11572.150135
492.863440	11235.532128
493.230939	10887.432894
493.598380	10802.272682
493.965763	10651.680813
494.333088	10538.015397
494.700354	10440.774060
495.067563	10468.354213
495.434713	10286.184557
495.801805	10371.564059
496.168839	10278.675758
496.535815	10181.338639
496.902733	10160.301904
497.269593	10061.328931
497.636395	10133.548501
498.003139	10077.780736
498.369825	9932.257748
498.736453	10032.178458
499.103023	9944.132186
499.469535	9931.804044
499.835989	9887.628413
500.202385	9812.517741
500.568723	9638.295464
500.935003	9799.362850
501.301226	9572.490763
501.667390	9772.879149
502.033497	9802.921905
502.399546	9651.309203
502.765537	9525.676087
503.131470	9539.728304
503.497345	9645.113625
503.863163	9268.403322
504.228923	9479.657915
504.594625	9491.988577
504.960269	9238.254701
505.325856	9359.086117
505.691385	9138.850709
506.056856	9206.545843
506.422270	9170.552005
506.787625	9038.332622
507.152924	9067.621726
507.518164	9004.836675
507.883347	8882.341678
508.248472	8771.128783
508.613540	8886.830825
508.978550	8734.746775
509.343503	8664.531064
509.708398	8687.657357
510.073236	8709.324237
510.438016	8653.659816
510.802738	8543.041777
511.167403	8526.416052
511.532010	8379.935244
511.896561	8488.080597
512.261053	8473.035273
512.625488	8315.584915
512.989866	8233.376299
513.354186	8160.899630
513.718449	8031.072275
514.082655	8088.899350
514.446803	7955.147457
514.810894	7966.573232
515.174927	7803.423849
515.538904	7764.700226
515.902822	7783.861652
516.266684	7638.706668
516.630488	7527.665172
516.994235	7506.020978
517.357925	7467.050338
517.721558	7444.965043
518.085133	7380.365177
518.448651	7326.538257
518.812112	7192.078081
519.175516	7116.380115
519.538863	7118.653675
519.902152	7012.791965
520.265385	7016.182141
520.628560	6908.493013
520.991678	6808.486603
521.354739	6786.111441
521.717743	6685.497572
522.080690	6613.603157
522.443580	6589.939981
522.806413	6509.936869
523.169189	6452.596265
523.531908	6408.821405
523.894569	6265.856803
524.257174	6194.133786
524.619722	6170.387431
524.982213	6098.190546
525.344647	6041.374222
525.707025	5965.908149
526.069345	5929.904228
526.431608	5830.361604
526.793815	5807.477286
527.155964	5670.874620
527.518057	5629.872395
527.880093	5547.888110
528.242072	5511.851422
528.603995	5413.700157
528.965860	5329.661601
529.327669	5284.210558
529.689421	5212.537953
530.051117	5145.165453
530.412755	5113.328046
530.774337	5030.862331
531.135862	4959.489674
531.497331	4921.673459
531.858743	4814.450637
532.220098	4815.559691
532.581396	4731.140529
532.942638	4681.470040
533.303824	4623.128766
533.664953	4571.978699
534.026025	4505.962269
534.387040	4479.569308
534.747999	4437.347124
535.108902	4398.341196
535.469748	4301.881238
535.830537	4279.783340
536.191270	4227.420875
536.551947	4189.730688
536.912567	4148.930109
537.273131	4093.227880
537.633638	4052.507960
537.994089	4003.271010
538.354483	3956.088331
538.714821	3942.366310
539.075103	3910.266763
539.435328	3863.343703
539.795497	3809.867143
540.155609	3789.677322
540.515665	3767.569341
540.875665	3694.863300
541.235609	3670.201975
541.595496	3641.505207
541.955328	3621.454018
542.315102	3581.979263
542.674821	3542.754044
543.034483	3515.935106
543.394090	3485.385714
543.753640	3450.989921
544.113134	3442.946760
544.472571	3402.909916
544.831953	3385.810322
545.191278	3343.769620
545.550548	3319.314983
545.909761	3310.858447
546.268918	3284.266360
546.628019	3265.142743
546.987064	3230.189903
547.346053	3208.858261
547.704986	3192.282947
548.063863	3169.338135
548.422684	3151.414312
548.781449	3125.444808
549.140158	3114.324023
549.498811	3087.041298
549.857408	3060.151784
550.215949	3049.744322
550.574434	3026.396218
550.932864	3016.165196
551.291237	3002.864112
551.649555	2987.231493
552.007817	2976.244299
552.366022	2959.255610
552.724173	2945.347067
553.082267	2930.062288
553.440305	2919.410330
553.798288	2903.795356
554.156215	2895.182545
554.514086	2884.467572
554.871902	2864.136599
555.229661	2855.599405
555.587365	2847.082375
555.945014	2835.200376
556.302606	2828.596464
556.660143	2818.597336
557.017625	2810.186170
557.375050	2800.706281
557.732421	2796.590178
558.089735	2788.219342
558.446994	2781.139042
558.804197	2773.695778
559.161345	2767.086826
559.518437	2757.727923
559.875474	2750.695514
560.232455	2748.449680
560.589381	2742.551530
560.946251	2736.857547
561.303065	2733.661455
561.659825	2726.374467
562.016528	2720.065463
562.373177	2713.096068
562.729770	2711.077086
563.086307	2705.562063
563.442789	2704.079964
563.799216	2697.476053
564.155587	2694.761391
564.511904	2690.466328
564.868164	2685.402489
565.224370	2683.973322
565.580520	2679.209432
565.936615	2678.090296
566.292654	2672.968483
566.648638	2674.279183
567.004567	2668.005467
567.360441	2667.556805
567.716260	2662.931546
568.072023	2664.466577
568.427732	2656.131029
568.783385	2654.404434
569.138982	2652.960144
569.494525	2653.870072
569.850013	2649.045688
570.205445	2652.955103
570.560823	2647.530821
570.916145	2647.119967
571.271412	2645.322796
571.626625	2645.773979
571.981782	2643.296252
572.336884	2642.908083
572.691931	2642.421612
573.046923	2641.090747
573.401860	2636.215951
573.756743	2638.093781
574.111570	2633.554222
574.466342	2634.622947
574.821059	2631.641104
575.175722	2628.702111
575.530330	2631.714201
575.884882	2630.166567
576.239380	2628.419807
576.593823	2628.697070
576.948211	2628.606329
577.302544	2627.361164
577.656823	2623.925618
578.011047	2623.159363
578.365216	2624.759929
578.719330	2621.349588
579.073389	2617.997221
579.427394	2617.788013
579.781344	2620.177520
580.135239	2619.353292
580.489080	2616.530245
580.842866	2615.544700
581.196597	2620.500154
581.550273	2618.478651
581.903895	2615.713578
582.257463	2616.288270
582.610975	2613.137549
582.964434	2614.657457
583.317837	2612.729215
583.671186	2615.035543
584.024481	2614.246603
584.377721	2612.252826
584.730906	2609.933896
585.084037	2611.468927
585.437113	2611.179061
585.790135	2607.131014
586.143103	2610.894235
586.496016	2609.467589
586.848874	2604.224789
587.201679	2609.402054
587.554428	2601.827720
587.907124	2606.170674
588.259765	2601.570621
588.612352	2608.459358
588.964884	2603.844182
589.317362	2606.707557
589.669786	2604.650766
590.022155	2607.902311
590.374470	2605.870726
590.726731	2606.934409
591.078937	2606.498349
591.431090	2603.909717
591.783188	2602.392329
592.135232	2603.884511
592.487222	2603.307299
592.839157	2602.904007
593.191038	2602.525920
593.542866	2605.061620
593.894639	2600.892586
594.246358	2601.691609
594.598022	2602.170519
594.949633	2601.220261
595.301190	2601.615992
595.652692	2600.247318
596.004141	2600.486773
596.355535	2601.091712
596.706876	2599.957452
597.058162	2597.252873
597.409395	2599.977617
597.760573	2597.983840
598.111698	2598.976948
598.462768	2598.271186
598.813785	2598.636670
599.164748	2597.661207
599.515657	2595.312029
599.866511	2595.611978
600.217312	2596.957966
600.568060	2593.580392
600.918753	2596.544591
601.269392	2594.202975
601.619978	2597.162132
601.970510	2595.848912
602.320988	2597.961155
602.671412	2598.245980
603.021783	2596.884869
603.372100	2594.528129
603.722363	2596.499221
604.072572	2595.821185
604.422728	2597.275558
604.772830	2594.513006
605.122878	2589.060998
605.472872	2591.362285
605.822813	2589.171903
606.172701	2593.776997
606.522534	2593.076277
606.872314	2596.088367
607.222041	2593.537543
607.571714	2591.964703
607.921333	2594.245825
608.270899	2595.072574
608.620411	2596.451330
608.969870	2594.225660
609.319276	2597.053747
609.668627	2600.277565
610.017926	2600.229674
610.367171	2603.544233
610.716362	2603.047679
611.065500	2601.699171
611.414585	2598.273707
611.763616	2598.397215
612.112594	2599.314705
612.461518	2597.903182
612.810389	2596.627770
613.159207	2597.116762
613.507971	2595.632142
613.856682	2593.998808
614.205340	2595.231370
614.553945	2596.597523
614.902496	2596.650455
615.250994	2596.710949
615.599439	2599.130703
615.947830	2596.136257
616.296169	2594.807913
616.644454	2594.076946
616.992686	2595.276741
617.340864	2595.548963
617.688990	2594.903695
618.037063	2595.082656
618.385082	2594.754981
618.733048	2598.298912
619.080961	2598.036772
619.428821	2594.830599
619.776628	2594.399580
620.124382	2596.201792
620.472083	2592.327666
620.819731	2597.091556
621.167326	2592.788931
621.514868	2594.795311
621.862357	2593.658530
622.209793	2595.173397
622.557176	2594.021493
622.904506	2590.863211
623.251783	2586.346337
623.599007	2589.681060
623.946179	2589.335741
624.293297	2587.793148
624.640363	2590.974116
624.987376	2591.440423
625.334336	2589.151739
625.681243	2588.841708
626.028097	2587.868765
626.374899	2590.444795
626.721647	2587.563775
627.068343	2588.909763
627.414987	2586.694176
627.761577	2588.476224
628.108115	2586.941193
628.454600	2586.202664
628.801032	2587.261306
629.147412	2589.471852
629.493739	2586.495051
629.840014	2585.380956
630.186236	2586.250555
630.532405	2585.287694
630.878521	2587.508323
631.224585	2585.693507
631.570597	2587.074783
631.916556	2584.897005
632.262462	2586.779876
632.608316	2581.582446
632.954117	2582.953640
633.299866	2584.781058
633.645562	2584.581933
633.991206	2584.375246
634.336797	2581.632858
634.682336	2580.957343
635.027823	2580.677559
635.373257	2580.995152
635.718639	2580.785944
636.063968	2578.255285
636.409245	2577.133628
636.754470	2580.087744
637.099642	2577.552044
637.444762	2578.035995
637.789829	2578.862744
638.134845	2580.569174
638.479808	2578.025912
638.824719	2577.156313
639.169577	2578.527507
639.514383	2576.871488
639.859137	2576.521128
640.203839	2575.936354
640.548489	2577.252095
640.893086	2572.442834
641.237632	2573.398133
641.582125	2574.144224
641.926566	2574.575242
642.270955	2577.234451
642.615292	2576.349729
642.959576	2577.700758
643.303809	2577.405850
643.647990	2576.430387
643.992118	2575.817887
644.336195	2574.464337
644.680219	2578.613207
645.024192	2575.883422
645.368112	2577.027764
645.711981	2575.391909
646.055797	2576.332085
646.399562	2577.110943
646.743274	2577.673032
647.086935	2579.603793
647.430544	2579.266036
647.774101	2579.860892
648.117606	2576.339646
648.461059	2579.891139
648.804460	2580.574216
649.147810	2579.883577
649.491108	2576.135480
649.834354	2580.793506
650.177548	2576.647157
650.520690	2577.093299
650.863781	2572.284038
651.206820	2577.441138
651.549807	2573.365366
651.892742	2575.573391
652.235626	2573.937537
652.578458	2576.019533
652.921238	2572.538616
653.263967	2575.575912
653.606644	2572.757907
653.949269	2574.267732
654.291843	2573.299831
654.634365	2573.070458
654.976836	2573.657752
655.319255	2574.764286
655.661622	2572.210941
656.003938	2571.830334
656.346203	2572.755386
656.688416	2573.498956
657.030577	2571.487536
657.372687	2570.965776
657.714746	2570.494428
658.056753	2574.139183
658.398708	2566.471588
658.740612	2570.663307
659.082465	2567.961249
659.424266	2568.157854
659.766016	2569.440827
660.107715	2572.321847
660.449362	2573.438462
660.790958	2570.610375
661.132503	2573.025088
661.473996	2573.085582
661.815438	2573.229254
662.156829	2571.104408
662.498168	2574.658422
662.839456	2571.762279
663.180693	2570.895200
663.521879	2573.572053
663.863013	2571.747155
664.204097	2572.946950
664.545129	2572.319326
664.886110	2571.553071
665.227040	2570.514593
665.567918	2572.762948
665.908746	2572.488205
666.249522	2573.718246
666.590248	2574.424008
666.930922	2572.946950
667.271545	2573.491394
667.612118	2575.666652
667.952639	2571.394274
668.293109	2572.415108
668.633528	2571.888307
668.973896	2569.072823
669.314213	2572.468040
669.654480	2573.902248
669.994695	2569.345045
670.334859	2572.667166
670.674973	2574.151786
671.015035	2571.248081
671.355047	2570.091136
671.695008	2572.561302
672.034918	2571.061558
672.374777	2575.270922
672.714585	2571.122052
673.054342	2574.330747
673.394049	2571.394274
673.733705	2571.323698
674.073310	2571.646332
674.412864	2571.840417
674.752368	2572.062227
675.091820	2573.345201
675.431223	2571.104408
675.770574	2570.930488
676.109875	2566.252297
676.449125	2567.305899
676.788324	2564.034190
677.127473	2568.626681
677.466571	2565.881773
677.805619	2569.634912
678.144616	2568.717422
678.483562	2566.484191
678.822458	2569.193811
679.161303	2570.718760
679.500098	2569.849161
679.838842	2569.317319
680.177535	2569.650035
680.516179	2568.621640
680.854771	2566.945456
681.193314	2570.398647
681.531805	2570.703636
681.870247	2573.924934
682.208638	2574.015674
682.546978	2571.477453
682.885268	2571.744635
683.223508	2575.008782
683.561697	2573.640108
683.899836	2570.950653
684.237925	2572.284038
684.575963	2572.647001
684.913951	2572.599110
685.251889	2570.292782
685.589776	2570.045766
685.927614	2572.760427
686.265401	2568.379664
686.603137	2572.641960
686.940824	2572.291600
687.278460	2570.572566
687.616046	2571.991651
687.953582	2574.111456
688.291068	2571.716908
688.628504	2574.988617
688.965889	2572.909141
689.303224	2574.141703
689.640510	2571.898390
689.977745	2570.133986
690.314930	2572.599110
690.652065	2572.515931
690.989150	2567.706670
691.326185	2569.468554
691.663170	2567.139541
692.000105	2569.188770
692.336990	2567.010991
692.673825	2568.745148
693.010610	2564.646690
693.347345	2562.610064
693.684030	2560.565876
694.020665	2559.847512
694.357251	2557.039589
694.693786	2562.015208
695.030272	2560.578479
695.366707	2562.846998
695.703093	2562.347924
696.039429	2563.797256
696.375716	2562.970506
696.711952	2560.462532
697.048139	2563.144426
697.384276	2560.112172
697.720363	2564.626525
698.056400	2561.377502
698.392388	2559.789538
698.728326	2561.748027
699.064214	2558.655279
699.400053	2560.548232
699.735842	2557.440361
700.071581	2559.149312
700.407270	2559.408931
700.742910	2559.771894
701.078501	2557.858776
701.414042	2562.060578
701.749533	2558.496482
702.084974	2562.385732
702.420366	2559.988664
702.755709	2558.309960
703.091002	2558.844322
703.426246	2557.284085
703.761440	2557.752912
704.096584	2560.981771
704.431679	2558.549414
704.766725	2558.688046
705.101721	2556.772408
705.436668	2554.718137
705.771565	2557.654610
706.106413	2559.025803
706.441212	2556.727037
706.775961	2557.672254
707.110661	2557.455484
707.445311	2556.338868
707.779913	2557.876420
708.114465	2558.635114
708.448967	2560.028993
708.783421	2560.674261
709.117825	2560.134857
709.452180	2561.652245
709.786485	2558.451112
710.120742	2561.601833
710.454949	2560.278530
710.789107	2561.231308
711.123216	2557.878941
711.457275	2561.143088
711.791286	2560.205433
712.125247	2561.422872
712.459159	2563.169632
712.793023	2568.472926
713.126837	2564.203068
713.460602	2561.596792
713.794318	2560.954045
714.127985	2563.257852
714.461602	2561.024621
714.795171	2562.509241
715.128691	2559.789538
715.462162	2560.452450
715.795584	2559.318190
716.128957	2559.121585
716.462281	2558.292316
716.795556	2557.246276
717.128782	2556.348951
717.461960	2558.073025
717.795088	2556.497665
718.128167	2556.694270
718.461198	2556.391801
718.794180	2557.072356
719.127113	2556.870710
719.459997	2556.182593
719.792833	2554.907181
720.125619	2555.683518
720.458357	2554.269475
720.791046	2554.549259
721.123686	2554.677808
721.456278	2556.447253
721.788821	2552.424413
722.121315	2556.885834
722.453761	2552.850390
722.786158	2551.446429
723.118506	2550.612118
723.450805	2554.269475
723.783056	2555.302911
724.115259	2553.430123
724.447412	2552.300904
724.779518	2554.642520
725.111574	2557.571431
725.443582	2553.115051
725.775542	2551.789227
726.107453	2553.747715
726.439315	2553.430123
726.771129	2554.818961
727.102895	2554.894578
727.434612	2556.472459
727.766281	2557.868859
728.097901	2553.329300
728.429473	2554.461039
728.760996	2553.959444
729.092471	2553.946841
729.423897	2556.515309
729.755276	2553.876265
730.086606	2556.898437
730.417887	2555.444064
730.749120	2559.335834
731.080305	2557.039589
731.411442	2555.900288
731.742530	2557.032027
732.073570	2557.921791
732.404562	2559.834909
732.735506	2558.957748
733.066401	2559.469425
733.397249	2562.385732
733.728048	2558.433468
734.058798	2553.581357
734.389501	2557.324414
734.720156	2558.075546
735.050762	2554.498847
735.381320	2554.173693
735.711831	2554.392983
736.042293	2552.177396
736.372707	2550.907025
736.703073	2553.210832
737.033391	2552.605894
737.363661	2551.436346
737.693883	2551.532128
738.024056	2556.898437
738.354182	2553.697304
738.684260	2555.796944
739.014290	2550.959957
739.344272	2553.046995
739.674207	2556.250648
740.004093	2555.229815
740.333931	2554.876934
740.663722	2552.376522
740.993464	2555.169321
741.323159	2554.665205
741.652806	2555.103786
741.982405	2555.068498
742.311956	2552.447098
742.641460	2552.421892
742.970915	2553.140256
743.300323	2553.553631
743.629683	2550.788558
743.958996	2553.805689
744.288260	2553.803168
744.617477	2550.113043
744.946647	2546.105326
745.275768	2548.971222
745.604842	2547.962991
745.933869	2550.687735
746.262847	2545.273536
746.591778	2550.339895
746.920662	2550.123126
747.249498	2546.039791
747.578286	2549.800492
747.907027	2550.901984
748.235720	2553.349464
748.564365	2552.457180
748.892963	2553.147818
749.221514	2549.603887
749.550017	2551.590102
749.878473	2547.723537
750.206881	2549.762683
750.535242	2552.671429
750.863555	2547.073228
751.191821	2552.794937
751.520039	2548.078938
751.848210	2552.431974
752.176334	2550.392828
752.504411	2551.290153
752.832440	2548.129349
753.160421	2549.689587
753.488356	2550.619679
753.816243	2549.364432
754.144082	2549.074566
754.471875	2549.674463
754.799620	2547.194215
755.127318	2547.378218
755.454969	2548.167158
755.782572	2550.188661
756.110129	2547.882333
756.437638	2547.078269
756.765100	2549.210677
757.092515	2549.180430
757.419882	2546.521221
757.747203	2550.780996
758.074477	2546.296890
758.401703	2548.063814
758.728882	2550.571788
759.056014	2549.049360
759.383099	2550.760832
759.710138	2552.779814
760.037129	2552.076573
760.364073	2550.145811
760.690970	2550.677653
761.017820	2549.366953
761.344623	2551.489278
761.671379	2550.186140
761.998088	2546.702703
762.324751	2551.728733
762.651366	2553.712427
762.977935	2565.634756
763.304456	2571.205231
763.630931	2572.939388
763.957359	2567.716753
764.283740	2564.780281
764.610074	2558.746019
764.936362	2558.171328
765.262602	2554.095555
765.588796	2551.227138
765.914943	2550.871737
766.241044	2551.655637
766.567097	2547.940306
766.893104	2549.003990
767.219064	2548.235214
767.544978	2548.373845
767.870845	2547.279915
768.196665	2547.347971
768.522438	2543.899821
768.848165	2545.820501
769.173846	2543.940151
769.499479	2545.749925
769.825066	2544.030891
770.150607	2542.931920
770.476101	2545.084492
770.801548	2545.026519
771.126949	2545.323947
771.452303	2546.279246
771.777611	2543.360418
772.102872	2543.385624
772.428087	2543.420912
772.753256	2542.276570
773.078378	2542.521066
773.403453	2545.550799
773.728482	2540.464275
774.053465	2541.439738
774.378401	2541.283462
774.703291	2542.863864
775.028135	2541.538041
775.352932	2541.033925
775.677683	2541.046528
776.002388	2544.030891
776.327046	2541.749769
776.651658	2542.284132
776.976224	2541.512835
777.300743	2543.725902
777.625216	2540.398740
777.949643	2538.278935
778.274024	2544.504760
778.598359	2535.947401
778.922647	2539.524100
779.246889	2539.398071
779.571086	2536.189377
779.895236	2540.827238
780.219339	2541.495191
780.543397	2542.447969
780.867409	2540.900335
781.191374	2541.706919
781.515294	2540.229861
781.839167	2539.209028
782.162995	2541.611137
782.486776	2540.078627
782.810511	2541.555685
783.134201	2539.670293
783.457844	2541.956457
783.781441	2537.522762
784.104993	2537.865560
784.428498	2538.841023
784.751958	2538.432690
785.075372	2541.570808
785.398739	2539.771116
785.722061	2540.933102
786.045337	2540.993596
786.368568	2539.335057
786.691752	2543.151210
787.014891	2542.876467
787.337983	2541.023843
787.661030	2542.342105
787.984031	2544.550130
788.306987	2543.725902
788.629897	2545.762528
788.952760	2549.445091
789.275579	2545.883515
789.598351	2543.423432
789.921078	2545.487785
790.243759	2543.226827
790.566395	2541.359080
790.888984	2545.293700
791.211529	2540.045859
791.534027	2541.008720
791.856480	2540.607948
792.178888	2540.580222
792.501249	2541.485109
792.823566	2539.294727
793.145836	2537.880684
793.468062	2541.091899
793.790241	2538.352032
794.112375	2542.372352
794.434464	2542.783206
794.756507	2540.522248
795.078505	2539.677855
795.400457	2541.013761
795.722364	2535.965045
796.044226	2540.076106
796.366042	2541.371683
796.687812	2541.210366
797.009538	2544.804708
797.331218	2542.445448
797.652852	2542.694986
797.974442	2544.237579
798.295986	2541.094419
798.617484	2540.774306
798.938938	2540.915458
799.260346	2542.722712
799.581709	2540.159285
799.903026	2540.683565
800.224299	2538.984696
800.545526	2539.859337
800.866708	2539.435880
801.187845	2538.185673
801.508936	2541.061652
801.829983	2538.621733
802.150984	2539.710622
802.471940	2540.040818
802.792851	2541.094419
803.113717	2539.607279
803.434538	2539.214069
803.755314	2539.912269
804.076045	2535.201310
804.396731	2539.733308
804.717372	2538.087371
805.037967	2539.589635
805.358518	2536.053265
805.679024	2541.028884
805.999485	2539.758513
806.319901	2541.623740
806.640272	2537.737011
806.960598	2541.311189
807.280879	2537.870601
807.601115	2540.779347
807.921306	2540.834800
808.241453	2539.624923
808.561554	2538.702392
808.881611	2542.513504
809.201623	2539.544264
809.521590	2539.967721
809.841513	2538.455375
810.161390	2539.574511
810.481223	2538.150385
810.801011	2541.348998
811.120755	2538.775488
811.440453	2539.481250
811.760107	2536.275076
812.079716	2539.090561
812.399281	2533.245343
812.718801	2535.435724
813.038276	2535.173584
813.357707	2539.506456
813.677093	2537.419418
813.996434	2538.039480
814.315731	2541.001158
814.634983	2539.559388
814.954191	2540.446631
815.273354	2538.125180
815.592473	2536.965714
815.911547	2540.434028
816.230577	2541.830428
816.549562	2540.721374
816.868502	2541.013761
817.187399	2541.911086
817.506250	2539.256919
817.825058	2541.386806
818.143821	2540.975952
818.462539	2543.796478
818.781213	2544.817311
819.099843	2544.071221
819.418429	2544.638350
819.736970	2549.288815
820.055466	2552.240410
820.373919	2553.949362
820.692327	2559.542522
821.010691	2564.099725
821.329011	2578.819894
821.647286	2613.306427
821.965517	2647.359422
822.283704	2669.580828
822.601847	2675.292455
822.919945	2659.185969
823.237999	2638.791981
823.556010	2616.988990
823.873976	2605.207814
824.191897	2588.854311
824.509775	2578.653536
824.827609	2573.549368
825.145398	2570.446537
825.463144	2564.997050
825.780845	2568.450241
826.098502	2572.223544
826.416116	2579.911304
826.733685	2592.035279
827.051210	2596.826896
827.368692	2593.976123
827.686129	2583.092272
828.003522	2572.185736
828.320872	2560.389436
828.638177	2556.328786
828.955439	2552.684032
829.272656	2547.678166
829.589830	2544.376210
829.906960	2546.402754
830.224046	2543.788916
830.541088	2544.177085
830.858086	2543.093237
831.175041	2543.735984
831.491952	2541.953936
831.808819	2541.275901
832.125642	2541.802701
832.442421	2543.862013
832.759157	2549.208156
833.075849	2556.795093
833.392497	2561.463201
833.709101	2570.189439
834.025662	2569.024932
834.342179	2563.275496
834.658653	2557.760474
834.975083	2549.492982
835.291469	2551.390976
835.607811	2546.982487
835.924110	2547.221942
836.240366	2543.481406
836.556578	2542.188350
836.872746	2540.796991
837.188871	2537.759696
837.504952	2537.094264
837.820990	2539.221631
838.136984	2535.208872
838.452935	2537.686599
838.768842	2541.384286
839.084706	2537.578214
839.400526	2539.408153
839.716303	2548.643547
840.032037	2550.919628
840.347727	2549.762683
840.663373	2548.504915
840.978977	2543.221786
841.294537	2542.221117
841.610054	2541.207845
841.925527	2540.134079
842.240957	2539.246836
842.556344	2534.445137
842.871687	2535.617206
843.186987	2535.604603
843.502244	2537.731970
843.817458	2535.960004
844.132629	2532.917668
844.447756	2536.242309
844.762840	2528.065557
845.077881	2531.047400
845.392879	2534.598892
845.707833	2534.823224
846.022745	2532.443799
846.337613	2533.671320
846.652438	2533.497400
846.967221	2536.217103
847.281960	2532.126207
847.596656	2534.271217
847.911309	2531.980013
848.225919	2532.615198
848.540485	2533.983872
848.855009	2534.901362
849.169490	2530.744930
849.483928	2532.799201
849.798323	2530.785260
850.112675	2531.513706
850.426984	2537.338760
850.741251	2534.651825
851.055474	2533.134437
851.369654	2533.817514
851.683792	2535.130734
851.997887	2533.694005
852.311938	2535.211393
852.625947	2531.125537
852.939914	2532.690816
853.253837	2535.160981
853.567718	2530.931453
853.881555	2534.775333
854.195350	2533.429345
854.509103	2535.697864
854.822812	2532.819365
855.136479	2532.983203
855.450103	2534.787936
855.763685	2533.172246
856.077224	2532.751310
856.390720	2535.382792
856.704173	2532.804242
857.017584	2533.157123
857.330953	2535.254242
857.644278	2531.521268
857.957561	2535.299613
858.270802	2533.237781
858.584000	2532.529499
858.897155	2535.055117
859.210268	2534.659386
859.523339	2532.653007
859.836367	2533.683923
860.149352	2532.766433
860.462295	2533.106711
860.775195	2529.850126
861.088054	2529.915661
861.400869	2532.547143
861.713642	2529.030938
862.026373	2533.262987
862.339062	2532.365661
862.651708	2533.205013
862.964312	2535.241640
863.276873	2532.705939
863.589392	2534.354397
863.901869	2532.274921
864.214303	2535.344983
864.526696	2533.283151
864.839045	2534.152750
865.151353	2533.734335
865.463619	2533.613347
865.775842	2535.546629
866.088023	2535.145858
866.400162	2532.799201
866.712258	2534.152750
867.024313	2531.720394
867.336325	2533.225178
867.648296	2533.978831
867.960224	2533.908254
868.272110	2534.112421
868.583954	2533.888090
868.895755	2535.685261
869.207515	2532.736186
869.519233	2534.470343
869.830909	2535.702905
870.142542	2536.055786
870.454134	2534.036804
870.765684	2536.847247
871.077191	2533.590662
871.388657	2536.958153
871.700081	2536.484284
872.011463	2536.151568
872.322803	2538.883873
872.634101	2535.274407
872.945357	2534.611495
873.256571	2533.625950
873.567744	2535.975127
873.878874	2534.830786
874.189963	2537.048893
874.501010	2534.114942
874.812015	2534.782895
875.122979	2535.609644
875.433900	2534.944212
875.744780	2537.305992
876.055618	2535.352545
876.366415	2537.240457
876.677169	2534.412370
876.987882	2535.435724
877.298554	2532.423635
877.609183	2536.189377
877.919771	2535.478574
878.230317	2535.632329
878.540822	2542.516025
878.851285	2541.391847
879.161707	2541.573329
879.472087	2545.797816
879.782425	2547.751263
880.092722	2555.991029
880.402977	2565.140723
880.713191	2581.562282
881.023363	2600.181783
881.333494	2610.652260
881.643583	2617.183075
881.953631	2615.287601
882.263637	2612.409102
882.573602	2604.277721
882.883526	2592.862028
883.193408	2584.496233
883.503248	2574.976014
883.813048	2571.399316
884.122806	2562.133675
884.432522	2559.749209
884.742197	2555.176883
885.051831	2555.086142
885.361424	2547.451314
885.670975	2549.069525
885.980485	2545.598690
886.289954	2543.771272
886.599382	2541.590973
886.908768	2541.901004
887.218113	2539.531662
887.527417	2541.986703
887.836680	2540.287835
888.145901	2542.087527
888.455082	2536.320447
888.764221	2539.483771
889.073319	2538.762886
889.382376	2538.901517
889.691392	2536.665766
890.000366	2535.886907
890.309300	2537.300951
890.618193	2536.514531
890.927044	2536.028060
891.235855	2537.966383
891.544625	2535.609644
891.853353	2537.111908
892.162041	2538.147865
892.470687	2539.786240
892.779293	2538.891435
893.087858	2538.644418
893.396381	2539.942516
893.704864	2546.143135
894.013306	2545.676828
894.321707	2555.045812
894.630068	2559.298026
894.938387	2566.794222
895.246665	2564.535785
895.554903	2559.134188
895.863100	2555.151677
896.171256	2552.759649
896.479371	2551.327962
896.787446	2548.709082
897.095480	2545.770089
897.403473	2540.665921
897.711425	2542.258926
898.019336	2540.938143
898.327207	2539.735828
898.635038	2541.104502
898.942827	2539.032587
899.250576	2540.789429
899.558284	2538.785571
899.865952	2540.038297
900.173579	2537.127031
900.481165	2537.810107
900.788711	2535.362627
901.096216	2536.199459
901.403681	2535.859181
901.711105	2534.747607
902.018489	2538.808256
902.325832	2536.791794
902.633135	2537.684079
902.940397	2537.237937
903.247619	2541.298586
903.554800	2545.732281
903.861941	2554.667726
904.169041	2568.356979
904.476101	2574.827300
904.783121	2572.145406
905.090100	2569.150961
905.397039	2562.221895
905.703938	2554.443395
906.010796	2550.344937
906.317614	2546.054915
906.624391	2540.149203
906.931129	2543.178936
907.237826	2537.845396
907.544483	2537.371527
907.851099	2538.987217
908.157675	2534.883718
908.464211	2534.117462
908.770707	2530.389529
909.077163	2534.349355
909.383578	2532.431196
909.689954	2530.631504
909.996289	2528.738551
910.302584	2531.201155
910.608839	2532.123686
910.915054	2531.972451
911.221229	2532.617719
911.527363	2532.539581
911.833458	2529.905578
912.139513	2535.153419
912.445527	2534.921526
912.751502	2532.310209
913.057436	2534.475384
913.363331	2536.333049
913.669186	2535.783564
913.975000	2536.262473
914.280775	2540.580222
914.586510	2539.161137
914.892205	2548.174720
915.197859	2548.971222
915.503475	2554.138405
915.809050	2563.734241
916.114585	2569.907134
916.420081	2571.427042
916.725536	2572.026939
917.030952	2567.252967
917.336328	2563.351113
917.641665	2555.796944
917.946961	2554.977757
918.252218	2551.340564
918.557435	2548.081458
918.862612	2547.118598
919.167750	2542.352187
919.472848	2541.154913
919.777906	2541.011240
920.082925	2537.363965
920.387904	2536.905220
920.692843	2538.505787
920.997743	2537.900848
921.302603	2534.520755
921.607423	2535.201310
921.912204	2534.009077
922.216946	2536.547298
922.521647	2535.581917
922.826310	2530.699560
923.130932	2534.084695
923.435516	2531.894313
923.740059	2532.310209
924.044564	2533.638553
924.349028	2531.362472
924.653454	2527.337110
924.957840	2528.811648
925.262186	2530.510517
925.566493	2530.477749
925.870761	2527.059847
926.174989	2531.596885
926.479178	2529.587986
926.783328	2531.614529
927.087438	2529.968593
927.391509	2531.944725
927.695541	2530.283665
927.999533	2528.783922
928.303486	2530.001360
928.607400	2530.744930
928.911275	2528.783922
929.215110	2528.867101
929.518906	2530.354241
929.822663	2528.725948
930.126381	2526.154960
930.430060	2530.082019
930.733699	2528.725948
931.037299	2530.334076
931.340861	2528.983047
931.644383	2531.806093
931.947866	2529.187214
932.251309	2529.898017
932.554714	2528.342821
932.858080	2529.910619
933.161407	2530.419776
933.464694	2532.542102
933.767943	2529.983716
934.071153	2529.351051
934.374323	2528.909950
934.677455	2530.205527
934.980548	2530.742410
935.283602	2528.796524
935.586617	2530.255938
935.889593	2532.151412
936.192530	2530.651669
936.495428	2528.685619
936.798287	2528.330218
937.101108	2528.400794
937.403890	2530.432379
937.706632	2529.308202
938.009336	2531.969931
938.312002	2529.978675
938.614628	2531.790970
938.917216	2532.254756
939.219765	2531.183511
939.522275	2533.383974
939.824747	2532.143851
940.127179	2528.078160
940.429573	2524.556914
940.731929	2529.600588
941.034246	2528.751154
941.336524	2532.620240
941.638763	2531.052441
941.940964	2530.994467
942.243126	2530.276103
942.545250	2530.853315
942.847335	2529.484642
943.149381	2530.192924
943.451389	2528.894827
943.753359	2527.894158
944.055290	2528.544467
944.357182	2530.891124
944.659036	2529.025897
944.960851	2529.600588
945.262628	2528.509179
945.564367	2528.635208
945.866067	2529.918181
946.167729	2529.459436
946.469352	2530.472708
946.770937	2529.494724
947.072484	2529.721576
947.373992	2529.240146
947.675462	2530.656710
947.976893	2529.608150
948.278286	2527.150588
948.579641	2529.469518
948.880958	2529.449354
949.182236	2530.545805
949.483476	2526.926256
949.784678	2529.240146
950.085841	2526.991791
950.386967	2532.269879
950.688054	2530.039169
950.989103	2529.913140
951.290114	2528.846936
951.591087	2529.265352
951.892021	2531.831299
952.192917	2533.515044
952.493776	2530.825589
952.794596	2528.655372
953.095378	2529.940866
953.396122	2530.064375
953.696828	2532.448840
953.997496	2530.092101
954.298126	2529.835002
954.598718	2530.092101
954.899272	2531.206196
955.199788	2528.741072
955.500266	2528.121010
955.800706	2528.191586
956.101108	2523.573889
956.401472	2525.494569
956.701798	2526.485155
957.002087	2522.830319
957.302337	2529.013294
957.602550	2527.707635
957.902724	2525.693694
958.202861	2525.923067
958.502960	2527.460619
958.803022	2527.644621
959.103045	2525.565145
959.403031	2528.234436
959.702979	2526.772501
960.002889	2526.908612
960.302762	2528.000022
960.602596	2527.216123
960.902393	2527.601771
961.202153	2526.528005
961.501875	2526.102028
961.801559	2528.496576
962.101205	2527.226205
962.400814	2527.503468
962.700385	2526.328880
962.999918	2527.064888
963.299414	2527.137985
963.598873	2525.514733
963.898293	2526.318797
964.197677	2526.356606
964.497022	2527.206040
964.796331	2528.728469
965.095601	2526.233098
965.394835	2527.407687
965.694030	2526.555732
965.993189	2527.344672
966.292309	2526.636390
966.591393	2525.202182
966.890439	2524.723272
967.189447	2527.337110
967.488419	2526.190248
967.787353	2523.329393
968.086249	2528.254600
968.385108	2527.001874
968.683930	2523.548683
968.982714	2527.296781
969.281462	2527.785773
969.580172	2524.408200
969.878844	2525.252593
970.177480	2528.730989
970.476078	2525.658406
970.774639	2527.080012
971.073162	2522.701769
971.371649	2526.207892
971.670098	2521.804444
971.968510	2526.248221
972.266885	2521.564989
972.565223	2526.613705
972.863524	2527.715197
973.161788	2529.093953
973.460014	2525.239990
973.758204	2525.174455
974.056356	2526.560773
974.354471	2528.625125
974.652550	2526.565814
974.950591	2526.344003
975.248595	2525.948273
975.546563	2530.770136
975.844493	2526.427182
976.142386	2526.775022
976.440243	2527.354754
976.738062	2526.608664
977.035845	2526.948942
977.333590	2525.912984
977.631299	2528.395753
977.928971	2527.321987
978.226606	2524.607326
978.524204	2525.308046
978.821765	2528.305012
979.119290	2526.318797
979.416777	2523.974661
979.714228	2526.225536
980.011642	2523.437778
980.309020	2527.589168
980.606360	2525.902902
980.903664	2525.353416
981.200931	2525.371060
981.498162	2526.802748
981.795356	2524.897192
982.092513	2527.054806
982.389633	2524.163704
982.686717	2526.873324
982.983764	2527.979858
983.280775	2528.849457
983.577749	2529.477080
983.874686	2529.424148
984.171587	2528.151257
984.468451	2526.480114
984.765279	2528.128572
985.062070	2528.715866
985.358824	2524.998015
985.655543	2526.538088
985.952224	2523.296626
986.248869	2526.790145
986.545478	2522.323683
986.842050	2522.976512
987.138586	2519.644310
987.435086	2521.575072
987.731549	2521.892664
988.027975	2524.617408
988.324366	2528.373067
988.620719	2527.085053
988.917037	2527.949611
989.213318	2525.668488
989.509563	2524.536749
989.805772	2525.943231
990.101944	2524.440968
990.398080	2524.561955
990.694180	2526.346524
990.990244	2523.684794
991.286271	2527.069929
991.582262	2526.253262
991.878217	2526.374250
992.174136	2523.417613
992.470019	2524.468694
992.765865	2522.177489
993.061676	2524.645134
993.357450	2526.084384
993.653188	2521.053312
993.948890	2524.935001
994.244556	2522.427027
994.540186	2526.896009
994.835780	2526.719569
995.131337	2526.172604
995.426859	2526.112110
995.722345	2524.435926
996.017795	2524.264527
996.313208	2526.223015
996.608586	2526.235618
996.903928	2525.900382
997.199234	2525.643283
997.494504	2523.218488
997.789738	2521.275123
998.084936	2525.575227
998.380099	2528.680578
998.675225	2525.242511
998.970316	2525.295443
999.265371	2523.488189
999.560390	2525.192099
999.855373	2521.769156
1000.150320	2523.909126
1000.445232	2527.173273
1000.740108	2522.984074
1001.034948	2524.256965
1001.329752	2523.425175
1001.624521	2525.340813
1001.919254	2521.703621
1002.213951	2521.504495
1002.508613	2520.801254
1002.803239	2524.645134
1003.097829	2519.684639
1003.392384	2526.921215
1003.686903	2525.300484
1003.981386	2525.005577
1004.275834	2523.654547
1004.570246	2526.543129
1004.864623	2523.977181
1005.158964	2525.945752
1005.453270	2525.040865
1005.747540	2522.114475
1006.041775	2523.515916
1006.335974	2525.928108
1006.630138	2523.503313
1006.924266	2523.924249
1007.218359	2524.529188
1007.512416	2523.964578
1007.806438	2525.136647
1008.100425	2525.555063
1008.394376	2525.847449
1008.688292	2525.255114
1008.982172	2523.659589
1009.276017	2525.524816
1009.569827	2524.882068
1009.863602	2527.639580
1010.157341	2524.055319
1010.451045	2524.471214
1010.744714	2525.618077
1011.038347	2524.032634
1011.331945	2524.267048
1011.625508	2523.160514
1011.919036	2525.613036
1012.212528	2525.378622
1012.505986	2522.376615
1012.799408	2525.668488
1013.092795	2524.561955
1013.386147	2522.366533
1013.679464	2526.407018
1013.972745	2525.681091
1014.265992	2524.289733
1014.559204	2525.519774
1014.852380	2525.106400
1015.145521	2525.156811
1015.438628	2523.888961
1015.731699	2524.307377
1016.024736	2523.662109
1016.317737	2528.650331
1016.610703	2524.158663
1016.903635	2521.300329
1017.196531	2518.711696
1017.489393	2521.229753
1017.782219	2520.075328
1018.075011	2523.427696
1018.367768	2520.816378
1018.660490	2525.918026
1018.953177	2525.918026
1019.245829	2525.918026
