Dividing Wavelength (nm)	Counts (n)	Blue Motor Position (mm): 0.000000	Red Motor Position (mm): 1.500000	
326.493990	2127.374485
326.888308	2127.374485
327.282561	2127.374485
327.676750	2095.229567
328.070874	2092.772005
328.464933	2097.934146
328.858929	2105.586618
329.252859	2115.046343
329.646726	2124.309463
330.040528	2138.149951
330.434265	2156.759371
330.827938	2174.995745
331.221547	2187.613753
331.615091	2207.642257
332.008571	2228.051368
332.401986	2246.834708
332.795338	2266.734662
333.188625	2285.051695
333.581847	2304.762606
333.975006	2324.193734
334.368100	2340.557319
334.761129	2361.357120
335.154095	2375.996631
335.546996	2393.678478
335.939833	2407.415622
336.332606	2423.073446
336.725315	2436.369489
337.117960	2443.752259
337.510540	2452.160904
337.903056	2464.773871
338.295508	2471.758389
338.687896	2477.170068
339.080220	2489.324290
339.472480	2494.456184
339.864676	2498.174035
340.256807	2501.891886
340.648875	2508.989831
341.040879	2508.878926
341.432818	2511.467558
341.824694	2511.775068
342.216506	2512.490912
342.608253	2512.833711
342.999937	2512.392610
343.391557	2513.602487
343.783113	2510.282887
344.174605	2512.160717
344.566033	2506.852382
344.957397	2506.136538
345.348697	2506.121414
345.739934	2503.386588
346.131106	2502.640498
346.522215	2500.661845
346.913260	2499.421721
347.304241	2496.071874
347.695159	2494.952738
348.086012	2493.347131
348.476802	2489.949393
348.867528	2489.790597
349.258191	2487.693477
349.648789	2486.213898
350.039324	2485.770276
350.429796	2485.119968
350.820203	2482.065028
351.210548	2481.079483
351.600828	2479.630151
351.991045	2479.216776
352.381198	2480.832466
352.771288	2479.249544
353.161314	2479.410861
353.551276	2481.555872
353.941175	2476.784420
354.331010	2479.514204
354.720782	2479.181488
355.110490	2479.748618
355.500135	2479.277270
355.889717	2480.197281
356.279235	2478.637044
356.668689	2483.282467
357.058080	2478.727784
357.447408	2478.064873
357.836672	2475.083030
358.225873	2478.800881
358.615010	2474.341981
359.004084	2481.288691
359.393095	2480.172075
359.782043	2483.007724
360.170927	2481.260964
360.559748	2483.398413
360.948505	2484.673825
361.337199	2485.674494
361.725830	2483.748774
362.114398	2488.311018
362.502903	2483.615183
362.891344	2486.173569
363.279722	2485.293887
363.668037	2487.012921
364.056289	2488.016110
364.444478	2491.406286
364.832603	2489.495689
365.220665	2490.261944
365.608665	2487.761532
365.996601	2488.648775
366.384474	2491.310504
366.772284	2492.958962
367.160031	2493.573982
367.547715	2494.020125
367.935336	2490.173724
368.322893	2493.032058
368.710388	2491.814620
369.097820	2493.223622
369.485189	2493.205978
369.872495	2492.197747
370.259738	2491.728920
370.646918	2491.607933
371.034035	2492.328818
371.421090	2495.325783
371.808081	2491.229846
372.195010	2494.665392
372.581875	2495.187152
372.968678	2495.711432
373.355418	2492.913591
373.742096	2496.245794
374.128710	2494.725886
374.515262	2495.038438
374.901751	2494.307470
375.288177	2499.353665
375.674540	2498.254694
376.060841	2498.171515
376.447079	2496.215547
376.833254	2497.294354
377.219367	2491.592809
377.605417	2497.574138
377.991404	2492.076760
378.377329	2495.240084
378.763191	2493.629435
379.148991	2498.229488
379.534727	2497.659838
379.920402	2499.608244
380.306013	2500.583707
380.691563	2502.022956
381.077049	2498.852071
381.462474	2499.817452
381.847835	2499.492297
382.233134	2503.074037
382.618371	2501.533964
383.003545	2502.678306
383.388657	2499.663696
383.773706	2503.139572
384.158693	2500.205620
384.543618	2499.492297
384.928480	2502.693430
385.313280	2500.969355
385.698017	2504.566218
386.082692	2500.797956
386.467305	2502.020436
386.851856	2501.685199
387.236344	2502.330467
387.620770	2502.113697
388.005133	2502.494304
388.389435	2504.233502
388.773674	2502.953049
389.157851	2502.637977
389.541965	2504.757782
389.926018	2503.794922
390.310008	2505.065293
390.693936	2504.861126
391.077802	2506.257526
391.461606	2505.392968
391.845348	2506.292814
392.229027	2504.150323
392.612645	2506.771723
392.996200	2506.718791
393.379694	2506.433966
393.763125	2507.875736
394.146494	2506.590242
394.529801	2506.532268
394.913047	2507.437156
395.296230	2507.250633
395.679351	2506.018071
396.062410	2507.255674
396.445408	2507.870695
396.828343	2508.188287
397.211217	2504.523369
397.594028	2503.263080
397.976778	2505.256857
398.359466	2507.348935
398.742092	2502.733759
399.124656	2507.825324
399.507158	2508.294152
399.889598	2509.511590
400.271977	2508.634430
400.654294	2509.209121
401.036549	2510.517301
401.418742	2507.351456
401.800874	2507.061590
402.182944	2508.896570
402.564952	2511.530573
402.946898	2511.379338
403.328783	2509.052845
403.710606	2512.334637
404.092367	2511.326406
404.474067	2513.095851
404.855705	2509.572084
405.237282	2512.478309
405.618797	2511.215500
406.000250	2512.329595
406.381642	2511.308762
406.762972	2511.938906
407.144240	2512.490912
407.525447	2512.644667
407.906593	2509.665346
408.287677	2513.985614
408.668700	2513.108454
409.049661	2513.093330
409.430560	2512.347239
409.811399	2512.836231
410.192176	2512.127949
410.572891	2514.151972
410.953545	2513.317662
411.334138	2513.799092
411.714669	2512.717764
412.095139	2514.615759
412.475547	2512.528721
412.855894	2513.761283
413.236180	2514.320851
413.616405	2516.622138
413.996568	2510.439163
414.376670	2516.856552
414.756711	2517.219515
415.136691	2516.642302
415.516609	2515.913856
415.896466	2516.473424
416.276262	2515.697086
416.655997	2510.361025
417.035670	2510.298010
417.415283	2514.003258
417.794834	2511.759945
418.174324	2516.276819
418.553753	2515.099709
418.933121	2515.944103
419.312428	2516.072652
419.691674	2516.193640
420.070859	2514.404030
420.449983	2512.790861
420.829045	2516.549041
421.208047	2516.095337
421.586988	2516.465862
421.965867	2519.422499
422.344686	2517.799247
422.723444	2517.446367
423.102141	2519.147756
423.480777	2517.186747
423.859352	2520.884433
424.237866	2518.676408
424.616319	2518.557941
424.994712	2519.697242
425.373044	2519.175482
425.751314	2518.515091
426.129524	2518.492406
426.507673	2519.402334
426.885762	2519.833353
427.263789	2519.588857
427.641756	2521.406193
428.019662	2521.161697
428.397508	2518.603311
428.775292	2521.081038
429.153016	2519.167921
429.530679	2520.523991
429.908282	2519.104906
430.285824	2520.934845
430.663305	2520.692870
431.040726	2521.441481
431.418086	2523.901564
431.795385	2523.669671
432.172624	2522.487520
432.549802	2521.562469
432.926920	2520.455935
433.303977	2525.066071
433.680974	2522.139681
434.057910	2523.306708
434.434786	2522.215298
434.811601	2523.213447
435.188355	2520.599608
435.565050	2519.364526
435.941683	2522.464835
436.318257	2521.471728
436.694770	2520.468538
437.071222	2521.819568
437.447614	2520.322345
437.823946	2518.434433
438.200218	2523.021883
438.576429	2522.162366
438.952580	2521.471728
439.328670	2522.570699
439.704700	2524.461132
440.080670	2522.933662
440.456580	2524.113293
440.832429	2520.728158
441.208218	2524.098169
441.583947	2524.108251
441.959616	2522.621111
442.335224	2524.239321
442.710773	2524.355268
443.086261	2522.699249
443.461689	2525.476925
443.837057	2523.689836
444.212365	2524.551873
444.587612	2522.669002
444.962800	2524.992974
445.337927	2526.591020
445.712995	2525.492048
446.088002	2525.358458
446.462949	2524.627490
446.837837	2524.967768
447.212664	2524.864424
447.587431	2527.168232
447.962139	2526.328880
448.336786	2528.239477
448.711374	2523.147912
449.085901	2527.379960
449.460369	2523.994825
449.834776	2526.117151
450.209124	2523.755371
450.583412	2527.639580
450.957640	2526.046575
451.331808	2525.368540
451.705917	2526.124713
452.079965	2527.291740
452.453954	2524.566996
452.827883	2527.488345
453.201752	2523.674712
453.575562	2528.040351
453.949311	2525.512213
454.323001	2524.642614
454.696632	2522.641276
455.070202	2527.069929
455.443713	2526.016328
455.817164	2524.186389
456.190556	2520.874351
456.563888	2521.864938
456.937160	2521.638086
457.310373	2529.194776
457.683526	2527.044723
458.056619	2526.540608
458.429653	2526.631349
458.802628	2527.453057
459.175542	2525.587830
459.548398	2529.066226
459.921194	2528.342821
460.293930	2529.005732
460.666607	2526.333921
461.039224	2524.143539
461.411782	2525.923067
461.784280	2528.748633
462.156719	2526.752337
462.529099	2527.432892
462.901419	2528.108407
463.273680	2527.110258
463.645882	2525.297964
464.018024	2530.323994
464.390106	2525.154291
464.762130	2527.480783
465.134094	2527.223684
465.505999	2529.144364
465.877845	2529.497245
466.249631	2530.268541
466.621358	2527.284178
466.993026	2531.264169
467.364634	2533.603265
467.736184	2529.545136
468.107674	2529.441792
468.479105	2525.950793
468.850477	2529.530012
469.221790	2529.494724
469.593043	2526.795186
469.964238	2530.528161
470.335373	2527.768129
470.706449	2529.144364
471.077467	2529.857687
471.448425	2529.661082
471.819324	2529.890455
472.190164	2527.082532
472.560945	2529.807276
472.931667	2527.533715
473.302330	2529.570342
473.672934	2530.071936
474.043479	2529.172090
474.413965	2531.571680
474.784393	2527.876514
475.154761	2527.974816
475.525070	2527.495907
475.895321	2527.425331
476.265513	2525.091276
476.635645	2530.749972
477.005719	2529.091432
477.375734	2529.522451
477.745691	2531.165867
478.115588	2529.988757
478.485427	2531.438089
478.855207	2530.684437
479.224928	2530.371885
479.594591	2531.049920
479.964194	2532.090918
480.333739	2531.811134
480.703226	2530.543284
481.072653	2530.908768
481.442022	2529.638397
481.811333	2531.866587
482.180584	2531.702750
482.549777	2532.499252
482.918912	2529.905578
483.287988	2531.347348
483.657005	2530.515558
484.025964	2529.885414
484.394864	2531.173428
484.763706	2530.691998
485.132489	2531.659900
485.501213	2534.838347
485.869879	2528.362985
486.238487	2531.299457
486.607036	2531.395239
486.975527	2532.158974
487.343959	2534.677030
487.712333	2531.864067
488.080648	2530.578572
488.448905	2531.584283
488.817104	2531.095291
489.185244	2533.762061
489.553326	2532.741227
489.921350	2534.135106
490.289315	2530.939015
490.657222	2531.710311
491.025070	2530.079498
491.392861	2531.750641
491.760593	2533.353727
492.128267	2532.660569
492.495883	2533.878007
492.863440	2531.284334
493.230939	2534.314067
493.598380	2530.392050
493.965763	2528.607481
494.333088	2528.257121
494.700354	2527.725279
495.067563	2532.070754
495.434713	2526.868283
495.801805	2531.526309
496.168839	2531.599406
496.535815	2535.435724
496.902733	2532.743748
497.269593	2532.839530
497.636395	2532.148892
498.003139	2532.852133
498.369825	2532.524458
498.736453	2535.042514
499.103023	2533.535209
499.469535	2532.388347
499.835989	2534.142668
500.202385	2532.206865
500.568723	2531.788449
500.935003	2535.803728
501.301226	2535.039993
501.667390	2532.955476
502.033497	2534.692154
502.399546	2532.511855
502.765537	2531.501103
503.131470	2532.816845
503.497345	2532.642925
503.863163	2531.944725
504.228923	2532.093439
504.594625	2532.108562
504.960269	2535.002185
505.325856	2534.051927
505.691385	2533.663758
506.056856	2531.705270
506.422270	2532.733666
506.787625	2533.089067
507.152924	2530.737369
507.518164	2532.418593
507.883347	2532.683254
508.248472	2533.036135
508.613540	2536.053265
508.978550	2536.227185
509.343503	2535.181146
509.708398	2535.274407
510.073236	2531.307019
510.438016	2533.933460
510.802738	2533.177287
511.167403	2535.735673
511.532010	2534.621578
511.896561	2534.651825
512.261053	2535.082843
512.625488	2530.250897
512.989866	2529.608150
513.354186	2530.823068
513.718449	2526.795186
514.082655	2533.366330
514.446803	2530.268541
514.810894	2535.670138
515.174927	2536.703574
515.538904	2533.152081
515.902822	2535.158461
516.266684	2536.663245
516.630488	2535.140817
516.994235	2535.937319
517.357925	2534.926567
517.721558	2535.894469
518.085133	2534.046886
518.448651	2534.548481
518.812112	2534.535878
519.175516	2534.487987
519.538863	2533.222658
519.902152	2536.307844
520.265385	2534.482946
520.628560	2533.280631
520.991678	2536.443955
521.354739	2535.186187
521.717743	2534.271218
522.080690	2534.755168
522.443580	2535.907072
522.806413	2534.281300
523.169189	2533.421783
523.531908	2536.844727
523.894569	2534.619057
524.257174	2536.128883
524.619722	2534.659386
524.982213	2537.442103
525.344647	2536.539737
525.707025	2535.254243
526.069345	2533.452030
526.431608	2534.913965
526.793815	2533.116793
527.155964	2537.205169
527.518057	2536.043183
527.880093	2535.773481
528.242072	2535.004705
528.603995	2536.297761
528.965860	2537.081661
529.327669	2535.062679
529.689421	2537.527803
530.051117	2535.816331
530.412755	2534.566125
530.774337	2535.559232
531.135862	2534.261135
531.497331	2532.615198
531.858743	2528.647810
532.220098	2533.189890
532.581396	2531.357431
532.942638	2532.171577
533.303824	2535.581917
533.664953	2535.886907
534.026025	2536.161650
534.387040	2535.934798
534.747999	2535.554191
535.108902	2535.440765
535.469748	2536.653163
535.830537	2538.014274
536.191270	2534.467822
536.551947	2535.980169
536.912567	2535.581917
537.273131	2537.482433
537.633638	2533.729293
537.994089	2538.407484
538.354483	2534.881197
538.714821	2534.447658
539.075103	2533.066382
539.435328	2535.937319
539.795497	2536.970755
540.155609	2534.271217
540.515665	2537.008564
540.875665	2537.318595
541.235609	2537.255581
541.595496	2537.401774
541.955328	2535.365148
542.315102	2540.635674
542.674821	2536.017977
543.034483	2535.342463
543.394090	2533.893131
543.753640	2536.915303
544.113134	2534.102339
544.472571	2536.514531
544.831953	2533.515044
545.191278	2536.093595
545.550548	2537.447144
545.909761	2534.417411
546.268918	2534.828265
546.628019	2537.900848
546.987064	2536.605272
547.346053	2535.178625
547.704986	2533.449509
548.063863	2535.150899
548.422684	2536.353214
548.781449	2537.258101
549.140158	2536.113759
549.498811	2537.162319
549.857408	2536.227185
550.215949	2535.133255
550.574434	2533.237781
550.932864	2537.028729
551.291237	2534.130065
551.649555	2534.702236
552.007817	2534.984541
552.366022	2537.353883
552.724173	2537.734490
553.082267	2537.187525
553.440305	2535.740714
553.798288	2535.140817
554.156215	2538.185673
554.514086	2537.439583
554.871902	2537.127031
555.229661	2538.697351
555.587365	2538.785571
555.945014	2535.546629
556.302606	2535.730632
556.660143	2537.588297
557.017625	2536.391023
557.375050	2535.254242
557.732421	2536.690971
558.089735	2537.658873
558.446994	2533.731814
558.804197	2537.777340
559.161345	2537.248019
559.518437	2540.194573
559.875474	2534.165353
560.232455	2536.554860
560.589381	2537.875643
560.946251	2541.381765
561.303065	2536.824562
561.659825	2538.329346
562.016528	2534.097298
562.373177	2537.353883
562.729770	2537.303472
563.086307	2537.230375
563.442789	2537.989068
563.799216	2536.569984
564.155587	2535.702905
564.511904	2536.413708
564.868164	2535.460930
565.224370	2537.169881
565.580520	2536.128883
565.936615	2536.746424
566.292654	2537.389171
566.648638	2537.260622
567.004567	2537.658873
567.360441	2535.443286
567.716260	2534.518234
568.072023	2539.403112
568.427732	2532.075795
568.783385	2531.967410
569.138982	2530.419776
569.494525	2535.554191
569.850013	2533.850281
570.205445	2533.835158
570.560823	2537.961342
570.916145	2537.210210
571.271412	2537.938657
571.626625	2535.980169
571.981782	2532.640404
572.336884	2535.163502
572.691931	2537.409336
573.046923	2535.337422
573.401860	2535.995292
573.756743	2539.294727
574.111570	2534.246012
574.466342	2537.502597
574.821059	2539.577032
575.175722	2538.987217
575.530330	2535.821372
575.884882	2537.898328
576.239380	2536.280117
576.593823	2538.120138
576.948211	2536.562422
577.302544	2538.740200
577.656823	2535.526465
578.011047	2536.993441
578.365216	2536.675848
578.719330	2535.597041
579.073389	2535.095446
579.427394	2535.801208
579.781344	2535.768440
580.135239	2539.811446
580.489080	2537.512679
580.842866	2539.128369
581.196597	2541.906045
581.550273	2536.980838
581.903895	2535.133255
582.257463	2536.673327
582.610975	2539.108205
582.964434	2534.624098
583.317837	2537.411856
583.671186	2538.266332
584.024481	2533.648635
584.377721	2537.096784
584.730906	2536.058307
585.084037	2537.046373
585.437113	2540.476878
585.790135	2537.381609
586.143103	2538.233564
586.496016	2538.306661
586.848874	2534.467822
587.201679	2534.326670
587.554428	2535.024870
587.907124	2536.685930
588.259765	2531.281813
588.612352	2537.416898
588.964884	2537.023687
589.317362	2538.042001
589.669786	2536.045704
590.022155	2536.814480
590.374470	2537.787422
590.726731	2535.297092
591.078937	2536.353214
591.431090	2533.467153
591.783188	2535.052596
592.135232	2537.507638
592.487222	2537.737011
592.839157	2534.293903
593.191038	2536.111239
593.542866	2537.114428
593.894639	2538.243647
594.246358	2538.425128
594.598022	2537.651311
594.949633	2535.781043
595.301190	2537.177443
595.652692	2537.898328
596.004141	2536.627957
596.355535	2538.319264
596.706876	2536.229706
597.058162	2539.052752
597.409395	2538.422608
597.760573	2537.941178
598.111698	2537.583256
598.462768	2540.557536
598.813785	2540.446631
599.164748	2536.567463
599.515657	2535.153419
599.866511	2537.258101
600.217312	2537.121990
600.568060	2536.862371
600.918753	2539.052752
601.269392	2537.830272
601.619978	2537.754655
601.970510	2537.283307
602.320988	2536.025539
602.671412	2535.022349
603.021783	2537.305992
603.372100	2537.157278
603.722363	2537.162319
604.072572	2538.243647
604.422728	2537.358924
604.772830	2533.981351
605.122878	2534.321629
605.472872	2535.849099
605.822813	2534.503111
606.172701	2535.561753
606.522534	2537.086702
606.872314	2537.149716
607.222041	2535.649973
607.571714	2538.692309
607.921333	2538.851106
608.270899	2537.036290
608.620411	2538.473019
608.969870	2536.922864
609.319276	2539.849254
609.668627	2542.722712
610.017926	2545.283618
610.367171	2543.746066
610.716362	2544.867723
611.065500	2543.748587
611.414585	2537.825231
611.763616	2543.831766
612.112594	2539.385468
612.461518	2538.810777
612.810389	2538.024357
613.159207	2541.016281
613.507971	2537.376568
613.856682	2540.484440
614.205340	2539.483771
614.553945	2542.747918
614.902496	2536.479243
615.250994	2539.786240
615.599439	2536.322967
615.947830	2537.984027
616.296169	2536.459078
616.644454	2538.379758
616.992686	2538.599048
617.340864	2537.439583
617.688990	2536.575025
618.037063	2538.175591
618.385082	2536.423790
618.733048	2538.742721
619.080961	2539.856816
619.428821	2540.365973
619.776628	2538.319264
620.124382	2541.066693
620.472083	2539.012423
620.819731	2538.203317
621.167326	2536.312885
621.514868	2538.830941
621.862357	2535.655014
622.209793	2537.759696
622.557176	2535.728111
622.904506	2538.659542
623.251783	2534.649304
623.599007	2534.094777
623.946179	2532.161495
624.293297	2536.078471
624.640363	2536.658204
624.987376	2537.820190
625.334336	2536.446475
625.681243	2538.483102
626.028097	2533.086546
626.374899	2536.154088
626.721647	2537.043852
627.068343	2539.340098
627.414987	2537.530323
627.761577	2539.793802
628.108115	2535.420601
628.454600	2533.991433
628.801032	2535.720549
629.147412	2537.873122
629.493739	2536.368338
629.840014	2537.389171
630.186236	2537.220293
630.532405	2537.797505
630.878521	2538.034439
631.224585	2536.764068
631.570597	2536.824562
631.916556	2539.977804
632.262462	2538.485622
632.608316	2539.624923
632.954117	2536.577545
633.299866	2536.965714
633.645562	2535.413039
633.991206	2540.519728
634.336797	2536.499408
634.682336	2538.057124
635.027823	2537.152237
635.373257	2537.023687
635.718639	2534.760209
636.063968	2537.772299
636.409245	2536.073430
636.754470	2540.865047
637.099642	2537.391692
637.444762	2538.362114
637.789829	2534.543440
638.134845	2537.300951
638.479808	2535.463450
638.824719	2537.437062
639.169577	2535.241640
639.514383	2537.865560
639.859137	2534.593851
640.203839	2536.534696
640.548489	2535.511341
640.893086	2536.312885
641.237632	2532.728624
641.582125	2537.807587
641.926566	2533.106711
642.270955	2539.816487
642.615292	2536.567463
642.959576	2536.869932
643.303809	2536.542257
643.647990	2535.907072
643.992118	2538.490663
644.336195	2536.481763
644.680219	2534.518234
645.024192	2539.662732
645.368112	2536.048224
645.711981	2534.288862
646.055797	2537.621064
646.399562	2537.051414
646.743274	2537.164840
647.086935	2534.901362
647.430544	2536.627957
647.774101	2536.867412
648.117606	2534.576207
648.461059	2537.656352
648.804460	2538.210879
649.147810	2534.886238
649.491108	2536.905220
649.834354	2535.413039
650.177548	2537.242978
650.520690	2536.731301
650.863781	2537.532844
651.206820	2539.168698
651.549807	2536.247350
651.892742	2536.154088
652.235626	2537.527803
652.578458	2535.183666
652.921238	2535.166022
653.263967	2535.844058
653.606644	2536.854809
653.949269	2534.394726
654.291843	2536.509490
654.634365	2536.585107
654.976836	2537.973945
655.319255	2535.362627
655.661622	2536.837165
656.003938	2535.448327
656.346203	2535.672658
656.688416	2537.613503
657.030577	2537.454706
657.372687	2537.469830
657.714746	2535.385313
658.056753	2538.107536
658.398708	2530.374406
658.740612	2533.089067
659.082465	2532.837009
659.424266	2533.192411
659.766016	2531.533871
660.107715	2535.407998
660.449362	2535.150899
660.790958	2537.116949
661.132503	2536.756506
661.473996	2539.612320
661.815438	2536.270035
662.156829	2536.580066
662.498168	2535.226516
662.839456	2536.091074
663.180693	2535.261804
663.521879	2535.160981
663.863013	2533.807431
664.204097	2537.237937
664.545129	2537.676517
664.886110	2536.106197
665.227040	2534.223327
665.567918	2539.680376
665.908746	2536.887576
666.249522	2537.986548
666.590248	2534.472864
666.930922	2536.098636
667.271545	2537.038811
667.612118	2535.332380
667.952639	2536.625436
668.293109	2534.024201
668.633528	2535.944881
668.973896	2534.515713
669.314213	2536.592669
669.654480	2535.856660
669.994695	2535.796167
670.334859	2534.855991
670.674973	2535.586959
671.015035	2536.723739
671.355047	2540.439069
671.695008	2538.946888
672.034918	2536.174253
672.374777	2536.204500
672.714585	2534.349355
673.054342	2537.578214
673.394049	2536.169212
673.733705	2537.613503
674.073310	2536.854809
674.412864	2536.161650
674.752368	2538.281455
675.091820	2537.558050
675.431223	2533.555374
675.770574	2535.191228
676.109875	2531.029756
676.449125	2533.641073
676.788324	2529.567821
677.127473	2534.503111
677.466571	2532.010260
677.805619	2537.396733
678.144616	2536.595189
678.483562	2535.776002
678.822458	2533.953625
679.161303	2535.400436
679.500098	2536.824562
679.838842	2534.727442
680.177535	2536.138965
680.516179	2535.435724
680.854771	2534.556043
681.193314	2537.396733
681.531805	2536.590148
681.870247	2535.839016
682.208638	2537.406815
682.546978	2536.862371
682.885268	2536.784233
683.223508	2534.898841
683.561697	2536.733821
683.899836	2535.770961
684.237925	2535.556712
684.575963	2537.227854
684.913951	2535.012267
685.251889	2536.960673
685.589776	2536.028060
685.927614	2533.436907
686.265401	2533.431865
686.603137	2536.088553
686.940824	2534.762730
687.278460	2535.486136
687.616046	2537.311033
687.953582	2534.331711
688.291068	2534.939170
688.628504	2534.820703
688.965889	2537.363965
689.303224	2535.002185
689.640510	2534.611495
689.977745	2536.053265
690.314930	2535.022349
690.652065	2536.080992
690.989150	2536.086033
691.326185	2535.695343
691.663170	2535.067720
692.000105	2536.017977
692.336990	2536.317926
692.673825	2536.448996
693.010610	2538.029398
693.347345	2532.602596
693.684030	2534.374561
694.020665	2532.126207
694.357251	2529.635877
694.693786	2535.939839
695.030272	2535.072761
695.366707	2536.988399
695.703093	2535.072761
696.039429	2534.540919
696.375716	2534.760209
696.711952	2535.455889
697.048139	2536.050745
697.384276	2535.604603
697.720363	2532.095960
698.056400	2535.960004
698.392388	2535.380271
698.728326	2535.707946
699.064214	2536.033101
699.400053	2533.595703
699.735842	2535.173584
700.071581	2532.912627
700.407270	2534.208203
700.742910	2533.870446
701.078501	2535.491177
701.414042	2537.928575
701.749533	2536.131403
702.084974	2536.786753
702.420366	2530.833151
702.755709	2534.931609
703.091002	2533.552853
703.426246	2534.820703
703.761440	2536.547298
704.096584	2534.893800
704.431679	2536.635519
704.766725	2537.230375
705.101721	2536.484284
705.436668	2536.471681
705.771565	2535.229037
706.106413	2536.937988
706.441212	2534.795497
706.775961	2535.009747
707.110661	2535.045035
707.445311	2537.857998
707.779913	2535.662576
708.114465	2537.754655
708.448967	2532.602596
708.783421	2536.355735
709.117825	2533.333563
709.452180	2535.801208
709.786485	2534.225847
710.120742	2536.496887
710.454949	2537.119469
710.789107	2532.882380
711.123216	2530.636546
711.457275	2533.033614
711.791286	2531.264169
712.125247	2533.353727
712.459159	2533.358769
712.793023	2536.302802
713.126837	2536.769109
713.460602	2536.557381
713.794318	2534.992103
714.127985	2533.540250
714.461602	2536.307844
714.795171	2534.447658
715.128691	2534.523275
715.462162	2535.390354
715.795584	2533.610826
716.128957	2535.264325
716.462281	2532.388347
716.795556	2535.924716
717.128782	2533.963707
717.461960	2536.005374
717.795088	2534.966897
718.128167	2534.437576
718.461198	2534.004036
718.794180	2535.133255
719.127113	2531.813655
719.459997	2536.512010
719.792833	2535.592000
720.125619	2534.493028
720.458357	2533.106711
720.791046	2534.336753
721.123686	2532.378264
721.456278	2533.792308
721.788821	2533.701567
722.121315	2536.385982
722.453761	2533.779705
722.786158	2535.644932
723.118506	2534.530837
723.450805	2532.095960
723.783056	2533.338604
724.115259	2536.078471
724.447412	2535.372710
724.779518	2537.371527
725.111574	2538.316743
725.443582	2534.142668
725.775542	2534.697195
726.107453	2536.007895
726.439315	2533.872966
726.771129	2537.376568
727.102895	2532.963038
727.434612	2535.203831
727.766281	2534.916485
728.097901	2530.260980
728.429473	2528.181504
728.760996	2533.038655
729.092471	2530.593696
729.423897	2535.513862
729.755276	2536.479243
730.086606	2533.565456
730.417887	2535.397915
730.749120	2534.545960
731.080305	2536.272556
731.411442	2534.414890
731.742530	2535.513862
732.073570	2536.209541
732.404562	2532.796680
732.735506	2532.695857
733.066401	2534.719880
733.397249	2536.224665
733.728048	2535.234078
734.058798	2532.380785
734.389501	2534.707277
734.720156	2533.678882
735.050762	2536.224665
735.381320	2534.556043
735.711831	2533.809952
736.042293	2536.968235
736.372707	2535.135775
736.703073	2536.867412
737.033391	2534.427493
737.363661	2533.358769
737.693883	2534.949253
738.024056	2536.544778
738.354182	2531.506145
738.684260	2536.880015
739.014290	2531.501103
739.344272	2531.266690
739.674207	2534.213244
740.004093	2534.883718
740.333931	2533.822555
740.663722	2532.337935
740.993464	2534.099818
741.323159	2533.895652
741.652806	2536.053265
741.982405	2534.407329
742.311956	2536.116280
742.641460	2533.058820
742.970915	2534.818183
743.300323	2532.889941
743.629683	2535.166022
743.958996	2532.804242
744.288260	2532.342976
744.617477	2531.821217
744.946647	2529.441792
745.275768	2531.758202
745.604842	2530.031607
745.933869	2533.048738
746.262847	2529.063706
746.591778	2535.410518
746.920662	2536.607792
747.249498	2532.423635
747.578286	2531.430527
747.907027	2535.201310
748.235720	2536.075951
748.564365	2537.331198
748.892963	2533.260466
749.221514	2531.944725
749.550017	2533.414221
749.878473	2535.140817
750.206881	2533.429345
750.535242	2534.828265
750.863555	2533.104190
751.191821	2537.341280
751.520039	2535.541588
751.848210	2532.627801
752.176334	2532.902544
752.504411	2532.262318
752.832440	2534.561084
753.160421	2533.187369
753.488356	2533.192411
753.816243	2533.890610
754.144082	2532.484128
754.471875	2535.833975
754.799620	2536.665766
755.127318	2531.939684
755.454969	2529.663603
755.782572	2535.097967
756.110129	2535.382792
756.437638	2534.125024
756.765100	2532.685775
757.092515	2534.777853
757.419882	2534.916485
757.747203	2533.066382
758.074477	2533.159643
758.401703	2533.351207
758.728882	2533.998995
759.056014	2535.501259
759.383099	2536.045704
759.710138	2534.593851
760.037129	2532.884900
760.364073	2533.187369
760.690970	2532.632843
761.017820	2534.702236
761.344623	2534.074613
761.671379	2531.874149
761.998088	2529.895496
762.324751	2532.413552
762.651366	2528.536905
762.977935	2532.907585
763.304456	2528.143695
763.630931	2536.012936
763.957359	2533.212575
764.283740	2535.241640
764.610074	2536.380940
764.936362	2534.785415
765.262602	2535.564273
765.588796	2534.477905
765.914943	2531.833820
766.241044	2533.262987
766.567097	2534.644263
766.893104	2532.252235
767.219064	2532.025383
767.544978	2534.072092
767.870845	2530.387008
768.196665	2532.274921
768.522438	2534.919006
768.848165	2536.569984
769.173846	2532.511855
769.499479	2535.541588
769.825066	2532.907585
770.150607	2534.235929
770.476101	2533.174767
770.801548	2534.979500
771.126949	2532.521937
771.452303	2533.179808
771.777611	2534.485467
772.102872	2534.369520
772.428087	2531.889272
772.753256	2532.078316
773.078378	2531.261649
773.403453	2531.977492
773.728482	2533.502442
774.053465	2531.475898
774.378401	2532.350538
774.703291	2534.346835
775.028135	2533.391536
775.352932	2535.108049
775.677683	2533.018491
776.002388	2532.703419
776.327046	2532.302647
776.651658	2531.286854
776.976224	2531.458254
777.300743	2531.173428
777.625216	2532.123686
777.949643	2532.746268
778.274024	2532.670651
778.598359	2527.760567
778.922647	2528.420958
779.246889	2529.572862
779.571086	2531.102852
779.895236	2534.266176
780.219339	2531.649817
780.543397	2533.751979
780.867409	2531.831299
781.191374	2535.692823
781.515294	2534.944212
781.839167	2534.548481
782.162995	2533.376413
782.486776	2532.549663
782.810511	2533.711649
783.134201	2530.389529
783.457844	2534.533357
783.781441	2533.978831
784.104993	2531.788449
784.428498	2532.660569
784.751958	2532.756351
785.075372	2532.748789
785.398739	2533.527647
785.722061	2534.235929
786.045337	2532.474046
786.368568	2535.062679
786.691752	2532.171577
787.014891	2533.656197
787.337983	2533.915816
787.661030	2533.540250
787.984031	2532.030425
788.306987	2532.952956
788.629897	2534.523275
788.952760	2534.833306
789.275579	2531.554036
789.598351	2534.046886
789.921078	2531.198634
790.243759	2532.164015
790.566395	2532.521937
790.888984	2533.250384
791.211529	2531.710311
791.534027	2535.259284
791.856480	2534.286341
792.178888	2531.317101
792.501249	2536.254912
792.823566	2530.722245
793.145836	2531.685106
793.468062	2534.427493
793.790241	2532.597554
794.112375	2535.481094
794.434464	2534.750127
794.756507	2532.345497
795.078505	2532.849612
795.400457	2530.361803
795.722364	2526.817872
796.044226	2529.691329
796.366042	2528.811648
796.687812	2530.843233
797.009538	2532.413552
797.331218	2531.864067
797.652852	2532.864736
797.974442	2532.554705
798.295986	2534.818183
798.617484	2534.117462
798.938938	2532.708460
799.260346	2532.816845
799.581709	2532.713501
799.903026	2532.998326
800.224299	2531.899355
800.545526	2533.459592
800.866708	2534.616537
801.187845	2531.450692
801.508936	2530.336597
801.829983	2531.470857
802.150984	2532.448840
802.471940	2533.464633
802.792851	2533.434386
803.113717	2533.504962
803.434538	2534.482946
803.755314	2531.831299
804.076045	2531.117976
804.396731	2530.802904
804.717372	2532.917668
805.037967	2534.389685
805.358518	2532.741227
805.679024	2534.256094
805.999485	2532.204344
806.319901	2532.721063
806.640272	2532.698377
806.960598	2530.823068
807.280879	2531.632173
807.601115	2533.159643
807.921306	2532.892462
808.241453	2531.531350
808.561554	2530.308871
808.881611	2532.766433
809.201623	2531.939684
809.521590	2533.303316
809.841513	2530.450023
810.161390	2532.647966
810.481223	2533.134437
810.801011	2531.843902
811.120755	2530.974303
811.440453	2532.035466
811.760107	2535.203831
812.079716	2530.266021
812.399281	2529.003212
812.718801	2530.147554
813.038276	2528.952800
813.357707	2531.712832
813.677093	2531.516227
813.996434	2530.966741
814.315731	2531.087729
814.634983	2533.212575
814.954191	2531.145702
815.273354	2531.354910
815.592473	2531.448171
815.911547	2531.435568
816.230577	2531.223840
816.549562	2532.448840
816.868502	2528.211751
817.187399	2532.335414
817.506250	2529.003212
817.825058	2529.366175
818.143821	2531.949766
818.462539	2533.774664
818.781213	2533.852802
819.099843	2532.869777
819.418429	2530.102183
819.736970	2533.210055
820.055466	2533.394057
820.373919	2530.742410
820.692327	2530.853315
821.010691	2529.406504
821.329011	2533.361289
821.647286	2535.203831
821.965517	2533.933460
822.283704	2532.973120
822.601847	2530.583613
822.919945	2530.177801
823.237999	2532.675692
823.556010	2531.135620
823.873976	2531.634694
824.191897	2532.370702
824.509775	2530.409694
824.827609	2531.788449
825.145398	2529.572862
825.463144	2532.103521
825.780845	2530.583613
826.098502	2532.108562
826.416116	2534.200641
826.733685	2531.060003
827.051210	2532.811803
827.368692	2534.505631
827.686129	2532.567308
828.003522	2532.539581
828.320872	2526.432223
828.638177	2531.385157
828.955439	2527.947090
829.272656	2530.553367
829.589830	2527.470701
829.906960	2532.342976
830.224046	2531.022194
830.541088	2532.022863
830.858086	2530.492873
831.175041	2533.878008
831.491952	2532.610157
831.808819	2531.760723
832.125642	2532.524458
832.442421	2529.671165
832.759157	2531.712832
833.075849	2530.810465
833.392497	2531.168387
833.709101	2529.900537
834.025662	2530.026566
834.342179	2531.145702
834.658653	2531.349869
834.975083	2532.106042
835.291469	2533.857843
835.607811	2533.051258
835.924110	2530.654190
836.240366	2530.843233
836.556578	2529.320804
836.872746	2532.690816
837.188871	2533.411701
837.504952	2532.801721
837.820990	2529.913140
838.136984	2531.715352
838.452935	2531.150743
838.768842	2529.981196
839.084706	2533.071423
839.400526	2530.775177
839.716303	2531.554036
840.032037	2529.499765
840.347727	2530.906247
840.663373	2530.500434
840.978977	2530.107224
841.294537	2531.438089
841.610054	2531.105373
841.925527	2532.229550
842.240957	2529.247708
842.556344	2533.888090
842.871687	2529.645959
843.186987	2533.315919
843.502244	2532.534540
843.817458	2531.506145
844.132629	2531.191072
844.447756	2531.669982
844.762840	2526.782583
845.077881	2528.423479
845.392879	2524.733354
845.707833	2528.927594
846.022745	2528.894827
846.337613	2530.162677
846.652438	2531.158305
846.967221	2533.847761
847.281960	2529.761905
847.596656	2532.640404
847.911309	2534.992103
848.225919	2531.377595
848.540485	2529.958510
848.855009	2529.812317
849.169490	2531.463295
849.483928	2528.299971
849.798323	2528.831813
850.112675	2531.707791
850.426984	2533.948584
850.741251	2532.221988
851.055474	2530.833151
851.369654	2532.804242
851.683792	2531.415404
851.997887	2530.719725
852.311938	2532.499252
852.625947	2531.095291
852.939914	2531.291896
853.253837	2532.756351
853.567718	2527.571524
853.881555	2530.883562
854.195350	2531.498583
854.509103	2533.482277
854.822812	2530.865918
855.136479	2529.633356
855.450103	2529.706453
855.763685	2527.546318
856.077224	2530.255938
856.390720	2532.907585
856.704173	2529.955990
857.017584	2531.367513
857.330953	2528.877183
857.644278	2532.395908
857.957561	2535.712988
858.270802	2531.455733
858.584000	2530.780218
858.897155	2529.225022
859.210268	2529.542615
859.523339	2530.964221
859.836367	2530.268541
860.149352	2533.396577
860.462295	2531.228881
860.775195	2528.733510
861.088054	2525.857532
861.400869	2529.477080
861.713642	2526.568334
862.026373	2529.691329
862.339062	2531.198634
862.651708	2530.036648
862.964312	2532.905065
863.276873	2530.578572
863.589392	2531.092770
863.901869	2529.048582
864.214303	2530.747451
864.526696	2529.303160
864.839045	2529.277955
865.151353	2531.317101
865.463619	2532.900024
865.775842	2529.661082
866.088023	2533.056299
866.400162	2530.283665
866.712258	2529.822399
867.024313	2533.439427
867.336325	2528.327697
867.648296	2530.752492
867.960224	2529.532533
868.272110	2527.939528
868.583954	2529.769467
868.895755	2532.436237
869.207515	2531.644776
869.519233	2533.764582
869.830909	2531.816176
870.142542	2531.813655
870.454134	2529.351051
870.765684	2529.948428
871.077191	2530.187883
871.388657	2532.978162
871.700081	2528.705784
872.011463	2530.815507
872.322803	2529.265352
872.634101	2532.998326
872.945357	2530.094622
873.256571	2531.178470
873.567744	2528.577234
873.878874	2530.346679
874.189963	2528.113448
874.501010	2532.653007
874.812015	2533.159643
875.122979	2527.569003
875.433900	2528.703263
875.744780	2531.284334
876.055618	2529.530012
876.366415	2530.787780
876.677169	2529.005732
876.987882	2530.192924
877.298554	2527.747964
877.609183	2527.329549
877.919771	2523.291584
878.230317	2529.134282
878.540822	2531.080167
878.851285	2531.614529
879.161707	2531.443130
879.472087	2530.868439
879.782425	2529.081350
880.092722	2528.892306
880.402977	2531.052441
880.713191	2529.968593
881.023363	2529.837523
881.333494	2530.893644
881.643583	2528.335259
881.953631	2530.059333
882.263637	2531.085208
882.573602	2532.811803
882.883526	2528.763757
883.193408	2529.265352
883.503248	2528.713345
883.813048	2528.267203
884.122806	2528.002543
884.432522	2533.605785
884.742197	2527.044723
885.051831	2530.109745
885.361424	2530.886083
885.670975	2530.074457
885.980485	2527.392563
886.289954	2530.044210
886.599382	2528.574714
886.908768	2530.931453
887.218113	2527.621936
887.527417	2533.275590
887.836680	2531.911957
888.145901	2532.597554
888.455082	2529.318284
888.764221	2528.965403
889.073319	2529.217461
889.382376	2531.324663
889.691392	2528.587317
890.000366	2530.381967
890.309300	2532.791639
890.618193	2529.093953
890.927044	2529.729138
891.235855	2528.574714
891.544625	2527.677388
891.853353	2527.669827
892.162041	2529.835002
892.470687	2529.721576
892.779293	2525.371060
893.087858	2524.534229
893.396381	2526.195289
893.704864	2525.970958
894.013306	2524.556914
894.321707	2533.283151
894.630068	2531.554036
894.938387	2530.941535
895.246665	2531.309540
895.554903	2528.136133
895.863100	2528.962883
896.171256	2528.103366
896.479371	2529.182173
896.787446	2529.262831
897.095480	2527.901720
897.403473	2527.758047
897.711425	2526.941380
898.019336	2528.710825
898.327207	2526.202851
898.635038	2528.751154
898.942827	2528.607481
899.250576	2526.875845
899.558284	2528.199148
899.865952	2528.468849
900.173579	2529.250228
900.481165	2528.415917
900.788711	2528.579755
901.096216	2527.891637
901.403681	2529.905578
901.711105	2530.112266
902.018489	2529.240146
902.325832	2530.664272
902.633135	2524.985412
902.940397	2529.454395
903.247619	2527.349713
903.554800	2528.912471
903.861941	2528.713345
904.169041	2530.903727
904.476101	2527.299302
904.783121	2529.043541
905.090100	2529.663603
905.397039	2528.970444
905.703938	2527.753006
906.010796	2529.265352
906.317614	2527.732841
906.624391	2530.838192
906.931129	2534.611495
907.237826	2530.185362
907.544483	2526.762419
907.851099	2526.880886
908.157675	2528.368026
908.464211	2529.656041
908.770707	2525.620598
909.077163	2527.717717
909.383578	2523.546163
909.689954	2527.027079
909.996289	2524.899712
910.302584	2529.484642
910.608839	2528.778880
910.915054	2528.869621
911.221229	2527.800897
911.527363	2531.337266
911.833458	2529.968593
912.139513	2530.868439
912.445527	2527.463139
912.751502	2529.802235
913.057436	2527.521113
913.363331	2530.462626
913.669186	2527.899199
913.975000	2529.729138
914.280775	2528.801566
914.586510	2527.001874
914.892205	2527.284178
915.197859	2528.098325
915.503475	2529.403983
915.809050	2526.782583
916.114585	2527.195958
916.420081	2527.256452
916.725536	2529.293078
917.030952	2529.232584
917.336328	2527.652182
917.641665	2530.213089
917.946961	2529.746782
918.252218	2529.976154
918.557435	2527.674868
918.862612	2526.810310
919.167750	2527.742923
919.472848	2529.025897
919.777906	2529.207378
920.082925	2528.763757
920.387904	2528.337779
920.692843	2527.931967
920.997743	2531.342307
921.302603	2528.073119
921.607423	2530.649148
921.912204	2529.104035
922.216946	2528.307532
922.521647	2529.905578
922.826310	2527.412728
923.130932	2528.461288
923.435516	2527.810979
923.740059	2528.073119
924.044564	2526.200330
924.349028	2528.277286
924.653454	2524.130937
924.957840	2523.959537
925.262186	2526.477594
925.566493	2527.556401
925.870761	2525.335772
926.174989	2527.765608
926.479178	2526.517923
926.783328	2527.173273
927.087438	2529.310722
927.391509	2528.945238
927.695541	2529.865249
927.999533	2530.107224
928.303486	2527.745444
928.607400	2528.743592
928.911275	2527.843746
929.215110	2529.819879
929.518906	2527.873993
929.822663	2530.666792
930.126381	2525.343334
930.430060	2530.669313
930.733699	2529.416586
931.037299	2527.480783
931.340861	2529.318284
931.644383	2530.742410
931.947866	2527.846267
932.251309	2526.356606
932.554714	2529.257790
932.858080	2530.797863
933.161407	2526.192768
933.464694	2525.867614
933.767943	2527.808458
934.071153	2527.969775
934.374323	2528.007584
934.677455	2529.837523
934.980548	2529.000691
935.283602	2528.625125
935.586617	2526.797707
935.889593	2527.475742
936.192530	2526.568334
936.495428	2530.881042
936.798287	2527.795855
937.101108	2526.885927
937.403890	2528.123530
937.706632	2528.118489
938.009336	2530.129910
938.312002	2527.155629
938.614628	2529.668644
938.917216	2527.838705
939.219765	2526.946421
939.522275	2529.411545
939.824747	2529.023376
940.127179	2524.017511
940.429573	2525.749147
940.731929	2525.923067
941.034246	2525.277799
941.336524	2524.249404
941.638763	2528.836854
941.940964	2530.676875
942.243126	2525.623118
942.545250	2526.064219
942.847335	2527.090094
943.149381	2529.388860
943.451389	2530.596216
943.753359	2530.578572
944.055290	2528.088242
944.357182	2527.760567
944.659036	2525.650844
944.960851	2527.558921
945.262628	2527.369878
945.564367	2529.214940
945.866067	2529.895496
946.167729	2528.037831
946.469352	2525.008097
946.770937	2528.390712
947.072484	2528.685619
947.373992	2527.785773
947.675462	2526.984230
947.976893	2526.835516
948.278286	2525.920546
948.579641	2529.328366
948.880958	2529.749302
949.182236	2524.982892
949.483476	2527.435413
949.784678	2528.153777
950.085841	2529.817358
950.386967	2530.341638
950.688054	2528.436082
950.989103	2527.959693
951.290114	2528.075639
951.591087	2529.318284
951.892021	2528.599919
952.192917	2529.504807
952.493776	2528.983047
952.794596	2527.561442
953.095378	2527.773170
953.396122	2526.548170
953.696828	2528.080681
953.997496	2527.493386
954.298126	2526.943900
954.598718	2529.419107
954.899272	2526.767460
955.199788	2528.410876
955.500266	2526.621267
955.800706	2526.112110
956.101108	2522.459794
956.401472	2527.505989
956.701798	2523.163035
957.002087	2521.174300
957.302337	2526.308715
957.602550	2526.926256
957.902724	2527.117820
958.202861	2529.227543
958.502960	2526.591020
958.803022	2530.323994
959.103045	2528.055475
959.403031	2530.291227
959.702979	2526.497758
960.002889	2526.021369
960.302762	2525.224867
960.602596	2527.616894
960.902393	2526.850639
961.202153	2529.461957
961.501875	2527.745444
961.801559	2527.836185
962.101205	2524.569517
962.400814	2529.590506
962.700385	2528.292409
962.999918	2529.719056
963.299414	2529.101514
963.598873	2528.698222
963.898293	2526.230577
964.197677	2528.610002
964.497022	2526.560773
964.796331	2526.066740
965.095601	2524.874507
965.394835	2528.909950
965.694030	2526.018849
965.993189	2526.893489
966.292309	2526.026410
966.591393	2525.665968
966.890439	2528.052954
967.189447	2525.718900
967.488419	2525.010618
967.787353	2527.722759
968.086249	2527.042203
968.385108	2529.461957
968.683930	2526.623787
968.982714	2526.701925
969.281462	2526.195289
969.580172	2525.615556
969.878844	2527.397604
970.177480	2529.109076
970.476078	2527.160670
970.774639	2528.841895
971.073162	2527.810979
971.371649	2525.983561
971.670098	2521.927952
971.968510	2525.582789
972.266885	2525.484486
972.565223	2527.420289
972.863524	2527.432892
973.161788	2528.441123
973.460014	2527.367357
973.758204	2528.632687
974.056356	2524.836698
974.354471	2526.724610
974.652550	2525.620598
974.950591	2529.131761
975.248595	2528.814168
975.546563	2525.827285
975.844493	2526.333921
976.142386	2525.713859
976.440243	2525.900382
976.738062	2528.254600
977.035845	2526.028931
977.333590	2529.008253
977.631299	2525.887779
977.928971	2525.766791
978.226606	2525.595392
978.524204	2527.463139
978.821765	2528.199148
979.119290	2529.048582
979.416777	2523.672192
979.714228	2531.332225
980.011642	2527.561442
980.309020	2531.667462
980.606360	2528.178983
980.903664	2526.472553
981.200931	2527.047244
981.498162	2525.880217
981.795356	2526.250742
982.092513	2525.915505
982.389633	2528.395753
982.686717	2527.085053
982.983764	2527.753006
983.280775	2526.807789
983.577749	2528.781401
983.874686	2529.794673
984.171587	2528.065557
984.468451	2524.438447
984.765279	2527.785773
985.062070	2528.171421
985.358824	2526.633869
985.655543	2527.402645
985.952224	2528.728469
986.248869	2528.327697
986.545478	2524.710669
986.842050	2525.602953
987.138586	2523.957017
987.435086	2524.519105
987.731549	2521.063394
988.027975	2526.051616
988.324366	2524.115813
988.620719	2528.751154
988.917037	2531.420445
989.213318	2526.901051
989.509563	2524.879548
989.805772	2527.478263
990.101944	2524.430885
990.398080	2525.794517
990.694180	2526.235618
990.990244	2527.516071
991.286271	2528.181504
991.582262	2527.034641
991.878217	2529.295599
992.174136	2528.521782
992.470019	2526.306194
992.765865	2526.545649
993.061676	2526.515402
993.357450	2527.528674
993.653188	2527.200999
993.948890	2526.666637
994.244556	2525.998684
994.540186	2525.232429
994.835780	2526.757378
995.131337	2529.252749
995.426859	2525.799558
995.722345	2524.536749
996.017795	2527.155629
996.313208	2526.732172
996.608586	2528.935156
996.903928	2527.793335
997.199234	2526.946421
997.494504	2524.519105
997.789738	2524.738396
998.084936	2527.727800
998.380099	2525.224867
998.675225	2525.842408
998.970316	2526.724610
999.265371	2525.686132
999.560390	2528.002543
999.855373	2526.911133
1000.150320	2527.876514
1000.445232	2527.916843
1000.740108	2525.802079
1001.034948	2527.763088
1001.329752	2526.081863
1001.624521	2525.983561
1001.919254	2521.517098
1002.213951	2523.755371
1002.508613	2523.011800
1002.803239	2525.678571
1003.097829	2523.155473
1003.392384	2526.563293
1003.686903	2527.667306
1003.981386	2528.557070
1004.275834	2523.692356
1004.570246	2528.768798
1004.864623	2525.537418
1005.158964	2525.945752
1005.453270	2527.074970
1005.747540	2526.744775
1006.041775	2527.838705
1006.335974	2527.473222
1006.630138	2525.247552
1006.924266	2527.206040
1007.218359	2525.295443
1007.512416	2526.956503
1007.806438	2524.463653
1008.100425	2524.947603
1008.394376	2526.540608
1008.688292	2525.066071
1008.982172	2526.472553
1009.276017	2525.398787
1009.569827	2525.613036
1009.863602	2527.596730
1010.157341	2523.583971
1010.451045	2526.401976
1010.744714	2523.614218
1011.038347	2527.430372
1011.331945	2528.607481
1011.625508	2525.386184
1011.919036	2527.029600
1012.212528	2526.200330
1012.505986	2528.252080
1012.799408	2525.008097
1013.092795	2525.774353
1013.386147	2525.696215
1013.679464	2526.389373
1013.972745	2526.913653
1014.265992	2526.142357
1014.559204	2528.788963
1014.852380	2526.240659
1015.145521	2528.005063
1015.438628	2525.575227
1015.731699	2524.990453
1016.024736	2523.528519
1016.317737	2526.132275
1016.610703	2526.152439
1016.903635	2523.039527
1017.196531	2522.608508
1017.489393	2524.503982
1017.782219	2522.651358
1018.075011	2524.193951
1018.367768	2525.756709
1018.660490	2524.456091
1018.953177	2524.456091
1019.245829	2524.456091
