Dividing Wavelength (nm)	Counts (n)	Blue Motor Position (mm): 0.000000	Red Motor Position (mm): 27.000000	
326.493990	2128.612088
326.888308	2128.612088
327.282561	2128.612088
327.676750	2094.947263
328.070874	2093.790318
328.464933	2098.382809
328.858929	2105.263984
329.252859	2113.281939
329.646726	2124.070008
330.040528	2139.427884
330.434265	2154.004380
330.827938	2172.926351
331.221547	2189.552076
331.615091	2207.992617
332.008571	2228.225288
332.401986	2248.105078
332.795338	2267.347163
333.188625	2285.192847
333.581847	2306.055662
333.975006	2322.416727
334.368100	2341.343739
334.761129	2359.721266
335.154095	2374.759028
335.546996	2393.149157
335.939833	2409.280849
336.332606	2425.263827
336.725315	2437.045004
337.117960	2445.950202
337.510540	2454.484876
337.903056	2467.843933
338.295508	2471.897021
338.687896	2483.579895
339.080220	2489.916625
339.472480	2498.751248
339.864676	2502.096053
340.256807	2507.422032
340.648875	2508.178205
341.040879	2510.252640
341.432818	2512.329595
341.824694	2515.200533
342.216506	2516.012158
342.608253	2515.999555
342.999937	2514.353619
343.391557	2516.284381
343.783113	2515.757580
344.174605	2511.828001
344.566033	2510.590397
344.957397	2509.211642
345.348697	2509.297341
345.739934	2507.268277
346.131106	2506.484378
346.522215	2504.669562
346.913260	2499.903151
347.304241	2500.016577
347.695159	2496.926350
348.086012	2497.070023
348.476802	2496.651607
348.867528	2492.096924
349.258191	2489.956955
349.648789	2492.664054
350.039324	2491.547439
350.429796	2489.115082
350.820203	2486.970071
351.210548	2487.103662
351.600828	2487.184320
351.991045	2486.907057
352.381198	2487.537201
352.771288	2485.419916
353.161314	2486.133239
353.551276	2482.327168
353.941175	2483.589977
354.331010	2482.319607
354.720782	2486.448312
355.110490	2482.889257
355.500135	2481.845738
355.889717	2481.921355
356.279235	2487.547283
356.668689	2486.534011
357.058080	2484.716675
357.447408	2483.484113
357.836672	2483.625265
358.225873	2484.860348
358.615010	2481.024030
359.004084	2487.466625
359.393095	2487.111223
359.782043	2486.959989
360.170927	2489.800679
360.559748	2490.090545
360.948505	2487.965699
361.337199	2491.146667
361.725830	2492.348982
362.114398	2492.933756
362.502903	2491.988540
362.891344	2491.950731
363.279722	2494.315032
363.668037	2495.547594
364.056289	2492.411997
364.444478	2497.342245
364.832603	2496.928870
365.220665	2496.253356
365.608665	2499.643532
365.996601	2497.357368
366.384474	2499.595641
366.772284	2501.624705
367.160031	2501.894407
367.547715	2506.239882
367.935336	2507.064110
368.322893	2508.878926
368.710388	2514.804802
369.097820	2523.319311
369.485189	2521.582633
369.872495	2528.809127
370.259738	2534.354397
370.646918	2542.629451
371.034035	2548.157076
371.421090	2559.217367
371.808081	2573.655232
372.195010	2579.719740
372.581875	2592.521750
372.968678	2608.229986
373.355418	2615.960595
373.742096	2632.772843
374.128710	2647.954278
374.515262	2662.898778
374.901751	2678.435615
375.288177	2692.702080
375.674540	2716.733260
376.060841	2732.038203
376.447079	2753.639548
376.833254	2773.438679
377.219367	2784.234310
377.605417	2822.826864
377.991404	2829.145950
378.377329	2852.017665
378.763191	2874.022302
379.148991	2908.776016
379.534727	2933.462547
379.920402	2961.718214
380.306013	2975.931747
380.691563	3022.575023
381.077049	3044.698127
381.462474	3061.328893
381.847835	3104.518979
382.233134	3124.418934
382.618371	3123.075466
383.003545	3192.391332
383.388657	3197.417362
383.773706	3231.538412
384.158693	3243.775813
384.543618	3273.523662
384.928480	3310.878612
385.313280	3354.613142
385.698017	3354.444263
386.082692	3408.412336
386.467305	3415.112029
386.851856	3443.899538
387.236344	3464.318732
387.620770	3500.123527
388.005133	3522.360057
388.389435	3553.242165
388.773674	3567.904361
389.157851	3607.510186
389.541965	3621.149028
389.926018	3586.876743
390.310008	3658.355264
390.693936	3676.135413
391.077802	3719.466651
391.461606	3703.846636
391.845348	3766.177983
392.229027	3766.309053
392.612645	3779.196763
392.996200	3859.285574
393.379694	3895.513826
393.763125	3963.322386
394.146494	3930.128909
394.529801	3991.537724
394.913047	4036.124210
395.296230	4005.337883
395.679351	4057.886871
396.062410	4085.187239
396.445408	4066.179569
396.828343	4100.371195
397.211217	4125.793734
397.594028	4041.004047
397.976778	4109.677165
398.359466	4135.029128
398.742092	4163.433509
399.124656	4087.092796
399.507158	4166.410310
399.889598	4190.323023
400.271977	4253.052621
400.654294	4219.188670
401.036549	4230.344744
401.418742	4200.664951
401.800874	4300.936021
402.182944	4321.859330
402.564952	4389.020102
402.946898	4376.049213
403.328783	4370.506465
403.710606	4288.877581
404.092367	4479.516376
404.474067	4445.493628
404.855705	4452.079896
405.237282	4378.365624
405.618797	4488.865195
406.000250	4520.816028
406.381642	4604.751240
406.762972	4567.194644
407.144240	4575.865428
407.525447	4575.704112
407.906593	4637.377588
408.287677	4678.901572
408.668700	4605.482207
409.049661	4662.444725
409.430560	4700.623904
409.811399	4624.799909
410.192176	4788.430722
410.572891	4724.440835
410.953545	4828.601156
411.334138	4708.392322
411.714669	4775.369092
412.095139	4675.019883
412.475547	4815.433662
412.855894	4793.093789
413.236180	4807.027538
413.616405	4757.992235
413.996568	4843.825441
414.376670	4787.528355
414.756711	4741.217795
415.136691	4770.322897
415.516609	4851.863560
415.896466	4886.597110
416.276262	4922.364097
416.655997	4901.806272
417.035670	5090.804170
417.415283	5177.297767
417.794834	5125.678873
418.174324	5078.483590
418.553753	4980.460874
418.933121	5168.349719
419.312428	5229.493874
419.691674	5173.131254
420.070859	5298.376201
420.449983	5211.224733
420.829045	5324.136497
421.208047	5231.538062
421.586988	5301.247138
421.965867	5317.477132
422.344686	5450.296413
422.723444	5301.529442
423.102141	5119.405157
423.480777	5415.426752
423.859352	5185.991237
424.237866	5445.920691
424.616319	5441.870124
424.994712	5545.077667
425.373044	5425.289769
425.751314	5567.609104
426.129524	5371.309094
426.507673	5564.692797
426.885762	5648.622967
427.263789	5577.136885
427.641756	5466.589422
428.019662	5583.171146
428.397508	5592.772023
428.775292	5538.256986
429.153016	5635.447911
429.530679	5561.408485
429.908282	5642.772708
430.285824	5515.521382
430.663305	5789.434997
431.040726	5522.705026
431.418086	5528.714082
431.795385	5631.236027
432.172624	5642.255990
432.549802	5634.532942
432.926920	5647.118182
433.303977	5656.517414
433.680974	5694.459658
434.057910	5715.511517
434.434786	5718.876487
434.811601	5688.523700
435.188355	5922.874339
435.565050	5800.999404
435.941683	5779.559376
436.318257	5992.613661
436.694770	5974.163038
437.071222	6006.023131
437.447614	5937.027378
437.823946	5850.448082
438.200218	6001.375187
438.576429	5875.179983
438.952580	5969.991483
439.328670	6010.408934
439.704700	5922.529020
440.080670	5908.996043
440.456580	6179.804307
440.832429	6057.263939
441.208218	5907.060239
441.583947	6057.843672
441.959616	6059.091357
442.335224	5990.614844
442.710773	6122.113342
443.086261	6142.870293
443.461689	5939.311021
443.837057	6091.183342
444.212365	6234.004272
444.587612	6128.157685
444.962800	6274.971209
445.337927	6251.736531
445.712995	5863.786975
446.088002	6429.033912
446.462949	6254.236943
446.837837	6183.491911
447.212664	6348.856880
447.587431	6483.780842
447.962139	7005.144535
448.336786	7903.967142
448.711374	7642.638768
449.085901	6733.116312
449.460369	6642.158773
449.834776	6567.640437
450.209124	6936.337826
450.583412	7065.840027
450.957640	7199.806170
451.331808	6959.771630
451.705917	6515.676223
452.079965	6430.145486
452.453954	6617.714218
452.827883	6484.859649
453.201752	6554.551081
453.575562	6357.593200
453.949311	6525.413211
454.323001	6407.997177
454.696632	6461.146062
455.070202	6567.579943
455.443713	6688.897831
455.817164	6754.521051
456.190556	6800.365304
456.563888	6844.591347
456.937160	6858.724221
457.310373	6527.868253
457.683526	6525.388006
458.056619	6403.734881
458.429653	6359.806266
458.802628	6280.665192
459.175542	6339.815571
459.548398	6604.156034
459.921194	6704.026333
460.293930	6669.832187
460.666607	7042.476800
461.039224	7244.289312
461.411782	7306.729043
461.784280	7278.289374
462.156719	7149.830691
462.529099	7003.869123
462.901419	6641.878989
463.273680	6514.806624
463.645882	6484.826882
464.018024	6324.258570
464.390106	6403.656743
464.762130	6633.041846
465.134094	6892.893162
465.505999	7531.375461
465.877845	8296.042883
466.249631	8675.901387
466.621358	8343.467537
466.993026	7841.963470
467.364634	7596.834844
467.736184	7279.395907
468.107674	6986.383881
468.479105	6910.118785
468.850477	6706.496499
469.221790	6492.060937
469.593043	6223.130503
469.964238	6061.324588
470.335373	5996.006358
470.706449	5960.078054
471.077467	5880.974789
471.448425	6497.482698
471.819324	6971.436860
472.190164	6907.507467
472.560945	6195.772161
472.931667	5716.809614
473.302330	5581.074026
473.672934	5340.999156
474.043479	5430.512405
474.413965	5338.221481
474.784393	5207.907654
475.154761	5209.278847
475.525070	5169.302498
475.895321	5039.147467
476.265513	5034.756622
476.635645	5043.533271
477.005719	4958.289880
477.375734	4933.931024
477.745691	4945.936532
478.115588	4918.608437
478.485427	4921.431483
478.855207	5029.554151
479.224928	5207.549732
479.594591	5334.294422
479.964194	5178.502603
480.333739	5072.638373
480.703226	4940.454278
481.072653	4891.920569
481.442022	4880.638467
481.811333	4857.197101
482.180584	4725.678438
482.549777	4572.432403
482.918912	4468.115806
483.287988	4397.385897
483.657005	4335.755271
484.025964	4198.991288
484.394864	4150.616375
484.763706	4082.434769
485.132489	3982.554388
485.501213	3916.525355
485.869879	3872.306874
486.238487	3784.956281
486.607036	3754.790016
486.975527	3667.676357
487.343959	3645.331443
487.712333	3601.312087
488.080648	3549.635219
488.448905	3502.220647
488.817104	3455.257258
489.185244	3441.956173
489.553326	3415.792585
489.921350	3432.640121
490.289315	3490.736898
490.657222	3484.405209
491.025070	3426.578133
491.392861	3372.912530
491.760593	3299.112558
492.128267	3231.361971
492.495883	3166.232784
492.863440	3110.696913
493.230939	3060.151784
493.598380	3032.153215
493.965763	2994.271465
494.333088	2968.861529
494.700354	2941.840944
495.067563	2925.462235
495.434713	2892.765312
495.801805	2882.446070
496.168839	2863.478728
496.535815	2844.176150
496.902733	2830.489417
497.269593	2810.730615
497.636395	2800.600416
498.003139	2784.922428
498.369825	2770.958432
498.736453	2762.464087
499.103023	2747.300297
499.469535	2743.761407
499.835989	2732.053327
500.202385	2722.734754
500.568723	2710.212528
500.935003	2708.140614
501.301226	2698.663244
501.667390	2695.217616
502.033497	2692.823068
502.399546	2686.314938
502.765537	2676.948474
503.131470	2673.437311
503.497345	2672.159378
503.863163	2662.853408
504.228923	2661.877945
504.594625	2659.241421
504.960269	2653.086172
505.325856	2651.518374
505.691385	2645.597538
506.056856	2644.715337
506.422270	2644.455717
506.787625	2639.094450
507.152924	2636.553708
507.518164	2635.737042
507.883347	2635.537916
508.248472	2630.978192
508.613540	2631.406690
508.978550	2629.624642
509.343503	2625.856380
509.708398	2627.487193
510.073236	2629.528861
510.438016	2625.596761
510.802738	2620.502675
511.167403	2622.103241
511.532010	2620.724485
511.896561	2621.571399
512.261053	2622.519136
512.625488	2615.675770
512.989866	2612.041098
513.354186	2615.461521
513.718449	2609.812908
514.082655	2615.983280
514.446803	2614.291973
514.810894	2613.288783
515.174927	2614.170985
515.538904	2613.064452
515.902822	2612.832559
516.266684	2610.909359
516.630488	2607.940119
516.994235	2609.724688
517.357925	2609.220572
517.721558	2611.128649
518.085133	2606.573967
518.448651	2610.024636
518.812112	2606.768051
519.175516	2607.677979
519.538863	2606.147989
519.902152	2608.303082
520.265385	2609.102105
520.628560	2610.392641
520.991678	2606.586569
521.354739	2607.042794
521.717743	2604.587752
522.080690	2603.050200
522.443580	2607.264605
522.806413	2605.331322
523.169189	2605.023812
523.531908	2603.627412
523.894569	2605.628750
524.257174	2604.002978
524.619722	2603.208996
524.982213	2609.691920
525.344647	2602.445262
525.707025	2606.228648
526.069345	2606.609255
526.431608	2603.793770
526.793815	2602.712443
527.155964	2603.503904
527.518057	2603.720673
527.880093	2605.492639
528.242072	2603.687906
528.603995	2604.875098
528.965860	2602.926692
529.327669	2601.797473
529.689421	2600.305292
530.051117	2600.421238
530.412755	2600.620364
530.774337	2602.578852
531.135862	2602.704881
531.497331	2598.112390
531.858743	2596.940322
532.220098	2599.665065
532.581396	2594.293716
532.942638	2598.770260
533.303824	2599.602051
533.664953	2601.169850
534.026025	2602.795622
534.387040	2602.281424
534.747999	2598.828234
535.108902	2603.266970
535.469748	2599.735641
535.830537	2599.312184
536.191270	2599.473501
536.551947	2600.222113
536.912567	2599.082812
537.273131	2598.634149
537.633638	2598.303954
537.994089	2599.128182
538.354483	2598.157760
538.714821	2597.585589
539.075103	2600.317895
539.435328	2601.459716
539.795497	2598.636670
540.155609	2599.763368
540.515665	2601.016094
540.875665	2599.410487
541.235609	2599.231526
541.595496	2598.820672
541.955328	2599.402925
542.315102	2599.155909
542.674821	2598.697164
543.034483	2599.972576
543.394090	2600.091043
543.753640	2599.279417
544.113134	2598.505600
544.472571	2598.137596
544.831953	2599.443254
545.191278	2599.423090
545.550548	2598.782863
545.909761	2601.719335
546.268918	2598.137596
546.628019	2599.357555
546.987064	2598.256063
547.346053	2599.894438
547.704986	2597.588110
548.063863	2600.282607
548.422684	2598.876125
548.781449	2599.196238
549.140158	2599.342431
549.498811	2599.307143
549.857408	2598.016608
550.215949	2596.602564
550.574434	2596.055599
550.932864	2596.284972
551.291237	2593.550146
551.649555	2596.529468
552.007817	2599.838985
552.366022	2599.533995
552.724173	2598.364447
553.082267	2599.566763
553.440305	2599.289499
553.798288	2600.718666
554.156215	2598.649273
554.514086	2598.740013
554.871902	2597.041145
555.229661	2599.695312
555.587365	2598.089705
555.945014	2600.781681
556.302606	2598.336721
556.660143	2599.697833
557.017625	2599.120621
557.375050	2598.636670
557.732421	2601.240426
558.089735	2598.198089
558.446994	2600.428800
558.804197	2598.823192
559.161345	2601.444592
559.518437	2598.598861
559.875474	2597.454519
560.232455	2598.276227
560.589381	2598.266145
560.946251	2600.035590
561.303065	2598.918974
561.659825	2600.060796
562.016528	2599.723038
562.373177	2601.280755
562.729770	2597.265476
563.086307	2599.100456
563.442789	2597.141968
563.799216	2599.758327
564.155587	2598.989551
564.511904	2598.019128
564.868164	2602.074737
565.224370	2600.022987
565.580520	2595.473346
565.936615	2601.633636
566.292654	2596.705908
566.648638	2600.169181
567.004567	2596.148860
567.360441	2598.200610
567.716260	2595.254056
568.072023	2598.399736
568.427732	2591.566452
568.783385	2596.244642
569.138982	2593.938314
569.494525	2596.264807
569.850013	2591.193406
570.205445	2600.506938
570.560823	2596.171546
570.916145	2598.167843
571.271412	2595.347317
571.626625	2596.942842
571.981782	2596.179107
572.336884	2598.644232
572.691931	2597.089036
573.046923	2596.678182
573.401860	2593.592995
573.756743	2595.526278
574.111570	2593.734148
574.466342	2596.605085
574.821059	2594.444950
575.175722	2593.414034
575.530330	2595.120465
575.884882	2592.592326
576.239380	2592.645258
576.593823	2595.768253
576.948211	2594.112234
577.302544	2594.354210
577.656823	2594.137440
578.011047	2593.552666
578.365216	2592.738520
578.719330	2593.343458
579.073389	2594.306319
579.427394	2592.942687
579.781344	2592.269692
580.135239	2594.626432
580.489080	2593.840012
580.842866	2592.524271
581.196597	2595.942173
581.550273	2592.635176
581.903895	2592.443612
582.257463	2593.121647
582.610975	2591.437902
582.964434	2591.427820
583.317837	2592.567121
583.671186	2592.960331
584.024481	2592.622573
584.377721	2592.985536
584.730906	2589.744074
585.084037	2590.558221
585.437113	2590.525453
585.790135	2589.378591
586.143103	2592.617532
586.496016	2589.607963
586.848874	2584.400451
587.201679	2589.033272
587.554428	2585.476738
587.907124	2589.391194
588.259765	2584.332396
588.612352	2587.500761
588.964884	2589.378591
589.317362	2589.232397
589.669786	2587.715010
590.022155	2592.466297
590.374470	2587.283991
590.726731	2589.219794
591.078937	2589.060998
591.431090	2588.259455
591.783188	2589.232397
592.135232	2586.071594
592.487222	2588.375401
592.839157	2587.208374
593.191038	2585.900195
593.542866	2590.187696
593.894639	2587.732654
594.246358	2587.573858
594.598022	2586.915987
594.949633	2586.333734
595.301190	2584.304669
595.652692	2587.462952
596.004141	2588.811461
596.355535	2587.909094
596.706876	2584.435739
597.058162	2586.767273
597.409395	2585.494382
597.760573	2585.615369
598.111698	2585.096131
598.462768	2587.752819
598.813785	2586.926069
599.164748	2586.910946
599.515657	2585.948086
599.866511	2582.875502
600.217312	2583.364494
600.568060	2581.925245
600.918753	2588.047726
601.269392	2588.105699
601.619978	2582.870461
601.970510	2583.258630
602.320988	2585.133939
602.671412	2583.407344
603.021783	2584.168558
603.372100	2585.494382
603.722363	2584.092941
604.072572	2585.335585
604.422728	2585.958168
604.772830	2583.049422
605.122878	2580.334761
605.472872	2581.509350
605.822813	2576.556416
606.172701	2581.514391
606.522534	2582.774679
606.872314	2582.941037
607.222041	2583.954309
607.571714	2584.360122
607.921333	2586.114444
608.270899	2582.830132
608.620411	2585.164186
608.969870	2585.877509
609.319276	2585.398600
609.668627	2589.575196
610.017926	2590.031420
610.367171	2593.373705
610.716362	2589.814651
611.065500	2591.150556
611.414585	2590.074270
611.763616	2589.260124
612.112594	2588.420772
612.461518	2587.341965
612.810389	2585.426326
613.159207	2583.457756
613.507971	2585.265009
613.856682	2583.278795
614.205340	2585.910277
614.553945	2583.750142
614.902496	2585.612849
615.250994	2584.924731
615.599439	2584.556727
615.947830	2587.064701
616.296169	2587.667119
616.644454	2585.663260
616.992686	2584.889443
617.340864	2585.633013
617.688990	2584.382807
618.037063	2587.609146
618.385082	2583.966912
618.733048	2583.445153
619.080961	2585.070925
619.428821	2587.185689
619.776628	2585.464135
620.124382	2586.021182
620.472083	2585.091089
620.819731	2586.658888
621.167326	2584.760894
621.514868	2585.310380
621.862357	2583.044381
622.209793	2584.168558
622.557176	2582.951120
622.904506	2580.559092
623.251783	2579.281160
623.599007	2576.034657
623.946179	2576.937023
624.293297	2577.121025
624.640363	2580.428022
624.987376	2580.463310
625.334336	2580.793506
625.681243	2582.303331
626.028097	2580.463310
626.374899	2580.833835
626.721647	2579.228227
627.068343	2579.248392
627.414987	2578.492219
627.761577	2579.979359
628.108115	2577.368042
628.454600	2576.891653
628.801032	2580.223855
629.147412	2579.414750
629.493739	2578.792168
629.840014	2576.727815
630.186236	2575.449883
630.532405	2576.508525
630.878521	2577.882239
631.224585	2578.792168
631.570597	2577.978021
631.916556	2576.652198
632.262462	2575.386868
632.608316	2576.994996
632.954117	2575.608679
633.299866	2576.599266
633.645562	2573.650191
633.991206	2574.396282
634.336797	2575.162537
634.682336	2575.112125
635.027823	2573.148596
635.373257	2574.320664
635.718639	2572.762948
636.063968	2575.679255
636.409245	2570.799418
636.754470	2573.483833
637.099642	2571.739593
637.444762	2573.057855
637.789829	2568.944274
638.134845	2571.936198
638.479808	2571.134655
638.824719	2571.104408
639.169577	2571.308575
639.514383	2569.405539
639.859137	2571.248081
640.203839	2571.638770
640.548489	2569.702967
640.893086	2570.678431
641.237632	2566.302709
641.582125	2563.348593
641.926566	2564.792883
642.270955	2567.010991
642.615292	2569.256825
642.959576	2571.225396
643.303809	2568.654407
643.647990	2572.173133
643.992118	2568.611558
644.336195	2568.603996
644.680219	2568.561146
645.024192	2569.985272
645.368112	2570.310426
645.711981	2569.123235
646.055797	2568.752710
646.399562	2568.984603
646.743274	2570.401167
647.086935	2571.669017
647.430544	2574.494584
647.774101	2571.560633
648.117606	2571.447207
648.461059	2568.447720
648.804460	2576.032136
649.147810	2568.929150
649.491108	2570.038204
649.834354	2570.184397
650.177548	2572.016857
650.520690	2567.651218
650.863781	2570.509552
651.206820	2571.394274
651.549807	2566.867318
651.892742	2568.765313
652.235626	2567.023594
652.578458	2565.949828
652.921238	2568.349417
653.263967	2568.717422
653.606644	2566.428738
653.949269	2568.462843
654.291843	2565.506207
654.634365	2567.270611
654.976836	2566.199365
655.319255	2568.089798
655.661622	2568.266238
656.003938	2565.400342
656.346203	2567.762123
656.688416	2564.417317
657.030577	2564.871021
657.372687	2569.047617
657.714746	2564.175342
658.056753	2565.788511
658.398708	2561.745506
658.740612	2563.651062
659.082465	2564.266083
659.424266	2566.461505
659.766016	2562.690722
660.107715	2565.654921
660.449362	2564.008984
660.790958	2567.827658
661.132503	2566.088460
661.473996	2564.820610
661.815438	2565.972513
662.156829	2568.694737
662.498168	2568.064592
662.839456	2567.663821
663.180693	2567.507545
663.521879	2566.348079
663.863013	2563.255332
664.204097	2566.252297
664.545129	2562.867163
664.886110	2565.816238
665.227040	2566.920250
665.567918	2568.019222
665.908746	2565.435631
666.249522	2567.172308
666.590248	2565.775908
666.930922	2565.012174
667.271545	2566.464026
667.612118	2567.079047
667.952639	2567.033676
668.293109	2568.447720
668.633528	2569.702967
668.973896	2566.925292
669.314213	2566.890003
669.654480	2566.421176
669.994695	2567.099211
670.334859	2565.481001
670.674973	2564.437482
671.015035	2567.870508
671.355047	2566.423697
671.695008	2567.177349
672.034918	2564.593758
672.374777	2566.012843
672.714585	2565.087791
673.054342	2568.407391
673.394049	2565.622153
673.733705	2566.305230
674.073310	2563.492266
674.412864	2565.352452
674.752368	2567.663821
675.091820	2567.260528
675.431223	2564.808007
675.770574	2565.440672
676.109875	2558.786349
676.449125	2561.901782
676.788324	2561.173335
677.127473	2562.937739
677.466571	2558.635114
677.805619	2562.652914
678.144616	2562.930177
678.483562	2565.170970
678.822458	2564.223233
679.161303	2562.310115
679.500098	2562.892368
679.838842	2563.908161
680.177535	2561.831206
680.516179	2565.294478
680.854771	2562.083263
681.193314	2562.138716
681.531805	2563.784653
681.870247	2565.581824
682.208638	2567.008471
682.546978	2566.756413
682.885268	2566.905127
683.223508	2565.186093
683.561697	2562.312636
683.899836	2562.940259
684.237925	2562.542008
684.575963	2564.719787
684.913951	2564.893707
685.251889	2569.276990
685.589776	2564.114848
685.927614	2564.462688
686.265401	2564.462688
686.603137	2563.320867
686.940824	2563.527554
687.278460	2565.269273
687.616046	2565.130641
687.953582	2566.751372
688.291068	2565.559139
688.628504	2570.897721
688.965889	2566.489232
689.303224	2564.692060
689.640510	2562.161401
689.977745	2564.613922
690.314930	2561.816082
690.652065	2563.061247
690.989150	2563.298181
691.326185	2562.975547
691.663170	2564.341700
692.000105	2561.921946
692.336990	2559.073694
692.673825	2560.770043
693.010610	2558.899775
693.347345	2556.462377
693.684030	2552.976419
694.020665	2555.817109
694.357251	2551.028013
694.693786	2557.775597
695.030272	2554.947510
695.366707	2558.398180
695.703093	2553.563713
696.039429	2557.563869
696.375716	2552.784855
696.711952	2556.026317
697.048139	2555.481872
697.384276	2557.669733
697.720363	2555.020607
698.056400	2559.345917
698.392388	2553.813250
698.728326	2553.722510
699.064214	2555.234856
699.400053	2557.135371
699.735842	2556.863148
700.071581	2552.540359
700.407270	2551.955585
700.742910	2555.446584
701.078501	2553.969526
701.414042	2553.205791
701.749533	2554.004814
702.084974	2553.914073
702.420366	2556.961451
702.755709	2553.349464
703.091002	2555.575134
703.426246	2553.546069
703.761440	2556.608570
704.096584	2554.697973
704.431679	2553.868703
704.766725	2553.077242
705.101721	2552.157231
705.436668	2556.003632
705.771565	2550.687735
706.106413	2555.257541
706.441212	2550.276881
706.775961	2553.409958
707.110661	2554.488765
707.445311	2552.036244
707.779913	2552.580688
708.114465	2553.702345
708.448967	2554.037582
708.783421	2554.327448
709.117825	2553.339382
709.452180	2555.683518
709.786485	2553.551110
710.120742	2557.543704
710.454949	2556.553117
710.789107	2554.768549
711.123216	2553.281409
711.457275	2555.376008
711.791286	2555.391132
712.125247	2555.983467
712.459159	2559.429096
712.793023	2561.125444
713.126837	2559.383725
713.460602	2558.183931
713.794318	2556.555638
714.127985	2557.725186
714.461602	2555.081101
714.795171	2556.706873
715.128691	2556.729558
715.462162	2553.505740
715.795584	2556.989177
716.128957	2552.989022
716.462281	2553.223435
716.795556	2555.055895
717.128782	2554.745864
717.461960	2551.655637
717.795088	2550.816284
718.128167	2552.041285
718.461198	2553.422561
718.794180	2553.452808
719.127113	2548.618341
719.459997	2551.716130
719.792833	2550.879299
720.125619	2547.993238
720.458357	2549.969371
720.791046	2551.333003
721.123686	2548.063814
721.456278	2551.942982
721.788821	2546.783361
722.121315	2549.926521
722.453761	2549.218239
722.786158	2550.292004
723.118506	2548.555327
723.450805	2551.257385
723.783056	2549.568599
724.115259	2548.699000
724.447412	2550.080276
724.779518	2550.995245
725.111574	2551.378373
725.443582	2550.367622
725.775542	2546.798485
726.107453	2549.876109
726.439315	2550.450801
726.771129	2554.849207
727.102895	2550.670091
727.434612	2554.176213
727.766281	2552.731923
728.097901	2549.377035
728.429473	2549.321582
728.760996	2548.784699
729.092471	2550.186140
729.423897	2550.201264
729.755276	2548.578012
730.086606	2552.810061
730.417887	2553.551110
730.749120	2553.200750
731.080305	2553.871224
731.411442	2553.457849
731.742530	2552.061449
732.073570	2554.342572
732.404562	2552.293343
732.735506	2554.861810
733.066401	2554.335010
733.397249	2554.549259
733.728048	2553.493137
734.058798	2550.425595
734.389501	2548.678835
734.720156	2550.128167
735.050762	2549.684545
735.381320	2548.265461
735.711831	2546.881664
736.042293	2548.676315
736.372707	2550.246634
736.703073	2549.223280
737.033391	2550.944834
737.363661	2551.597663
737.693883	2547.025337
738.024056	2549.674463
738.354182	2549.540873
738.684260	2551.769063
739.014290	2549.790410
739.344272	2548.487271
739.674207	2550.753270
740.004093	2550.922149
740.333931	2549.651778
740.663722	2549.762683
740.993464	2548.789741
741.323159	2549.218239
741.652806	2547.549617
741.982405	2549.964329
742.311956	2549.951727
742.641460	2549.578681
742.970915	2547.975594
743.300323	2549.674463
743.629683	2548.847714
743.958996	2546.289328
744.288260	2548.283105
744.617477	2548.686397
744.946647	2543.604914
745.275768	2545.661705
745.604842	2541.986703
745.933869	2543.509132
746.262847	2541.800181
746.591778	2547.007693
746.920662	2546.133053
747.249498	2547.736139
747.578286	2547.799154
747.907027	2546.914431
748.235720	2546.433001
748.564365	2548.000800
748.892963	2548.787220
749.221514	2547.612631
749.550017	2544.222455
749.878473	2549.601366
750.206881	2544.766900
750.535242	2545.757487
750.863555	2547.234545
751.191821	2548.119267
751.520039	2545.409647
751.848210	2546.332178
752.176334	2546.788402
752.504411	2545.525593
752.832440	2542.521066
753.160421	2546.054915
753.488356	2543.418391
753.816243	2544.356046
754.144082	2548.512477
754.471875	2544.121632
754.799620	2544.250182
755.127318	2546.246478
755.454969	2546.516180
755.782572	2546.553989
756.110129	2547.221942
756.437638	2544.608103
756.765100	2545.603731
757.092515	2545.623896
757.419882	2542.942002
757.747203	2547.670604
758.074477	2545.195398
758.401703	2545.969215
758.728882	2543.494008
759.056014	2545.868392
759.383099	2545.429812
759.710138	2547.118598
760.037129	2542.384955
760.364073	2546.410316
760.690970	2544.598021
761.017820	2545.495347
761.344623	2546.702703
761.671379	2547.176571
761.998088	2542.405119
762.324751	2547.907539
762.651366	2548.041129
762.977935	2555.880123
763.304456	2558.589744
763.630931	2564.447564
763.957359	2560.949004
764.283740	2558.506565
764.610074	2556.543035
764.936362	2551.378373
765.262602	2551.222097
765.588796	2551.149001
765.914943	2548.043650
766.241044	2547.075748
766.567097	2543.141128
766.893104	2544.562733
767.219064	2547.955430
767.544978	2542.422763
767.870845	2543.952753
768.196665	2545.298742
768.522438	2542.591642
768.848165	2541.837989
769.173846	2541.260777
769.499479	2541.099460
769.825066	2546.062476
770.150607	2541.880839
770.476101	2543.191539
770.801548	2541.661549
771.126949	2540.401261
771.452303	2542.962167
771.777611	2540.897814
772.102872	2540.371014
772.428087	2542.546272
772.753256	2542.450490
773.078378	2539.927392
773.403453	2540.970911
773.728482	2541.590973
774.053465	2540.209697
774.378401	2535.914634
774.703291	2540.597866
775.028135	2538.271373
775.352932	2540.655839
775.677683	2541.454862
776.002388	2540.360931
776.327046	2539.738349
776.651658	2538.583925
776.976224	2537.313554
777.300743	2541.089378
777.625216	2537.681558
777.949643	2539.869419
778.274024	2538.778009
778.598359	2535.097967
778.922647	2535.380271
779.246889	2536.673327
779.571086	2533.691485
779.895236	2536.083512
780.219339	2537.515200
780.543397	2536.509490
780.867409	2538.450334
781.191374	2537.575694
781.515294	2540.197094
781.839167	2536.280117
782.162995	2539.161137
782.486776	2542.856302
782.810511	2537.318595
783.134201	2538.062165
783.457844	2540.630633
783.781441	2538.626774
784.104993	2539.866898
784.428498	2538.936805
784.751958	2538.462937
785.075372	2538.357073
785.398739	2540.849923
785.722061	2538.435211
786.045337	2540.360931
786.368568	2540.320602
786.691752	2540.076106
787.014891	2538.929244
787.337983	2538.533513
787.661030	2539.955118
787.984031	2540.920499
788.306987	2541.749769
788.629897	2542.241282
788.952760	2541.555685
789.275579	2542.125335
789.598351	2541.787578
789.921078	2539.763555
790.243759	2541.028884
790.566395	2536.953111
790.888984	2540.683565
791.211529	2537.429500
791.534027	2538.735159
791.856480	2539.690458
792.178888	2538.233564
792.501249	2538.788091
792.823566	2540.471837
793.145836	2537.991589
793.468062	2538.084850
793.790241	2537.779861
794.112375	2536.012936
794.434464	2539.907227
794.756507	2541.285983
795.078505	2537.963863
795.400457	2538.331867
795.722364	2533.817514
796.044226	2537.202648
796.366042	2539.130890
796.687812	2536.643080
797.009538	2542.508463
797.331218	2538.389840
797.652852	2539.198945
797.974442	2539.700540
798.295986	2537.384130
798.617484	2540.597866
798.938938	2541.301107
799.260346	2538.556198
799.581709	2537.779861
799.903026	2539.692978
800.224299	2536.355735
800.545526	2538.067206
800.866708	2538.735159
801.187845	2538.576363
801.508936	2536.242309
801.829983	2538.959491
802.150984	2541.195242
802.471940	2538.097453
802.792851	2535.022349
803.113717	2537.530323
803.434538	2540.345808
803.755314	2537.048893
804.076045	2536.121321
804.396731	2535.841537
804.717372	2539.118287
805.037967	2536.789274
805.358518	2538.228523
805.679024	2538.354552
805.999485	2538.430169
806.319901	2535.208872
806.640272	2535.528985
806.960598	2538.795653
807.280879	2535.723070
807.601115	2537.530323
807.921306	2535.372710
808.241453	2538.586445
808.561554	2537.706764
808.881611	2539.488812
809.201623	2538.969573
809.521590	2540.706250
809.841513	2537.394212
810.161390	2540.343287
810.481223	2536.769109
810.801011	2537.984027
811.120755	2537.512679
811.440453	2536.383461
811.760107	2537.290869
812.079716	2533.762061
812.399281	2535.032432
812.718801	2535.667617
813.038276	2534.170394
813.357707	2539.990407
813.677093	2538.006712
813.996434	2536.529654
814.315731	2535.952442
814.634983	2538.483102
814.954191	2540.035777
815.273354	2536.562422
815.592473	2537.590817
815.911547	2538.964532
816.230577	2536.118800
816.549562	2538.019315
816.868502	2538.127700
817.187399	2537.532844
817.506250	2540.272711
817.825058	2540.428987
818.143821	2541.449821
818.462539	2540.431508
818.781213	2541.233051
819.099843	2541.205325
819.418429	2541.981662
819.736970	2544.910573
820.055466	2544.623227
820.373919	2547.962991
820.692327	2551.403579
821.010691	2553.117571
821.329011	2567.353790
821.647286	2594.311360
821.965517	2618.115688
822.283704	2633.382823
822.601847	2643.576036
822.919945	2627.310753
823.237999	2611.075717
823.556010	2599.687750
823.873976	2583.107395
824.191897	2576.511046
824.509775	2565.690209
824.827609	2563.272976
825.145398	2558.400700
825.463144	2558.846842
825.780845	2559.003118
826.098502	2562.960424
826.416116	2569.105591
826.733685	2578.840059
827.051210	2580.314596
827.368692	2578.391396
827.686129	2565.307081
828.003522	2557.210988
828.320872	2551.587581
828.638177	2547.882333
828.955439	2542.805891
829.272656	2541.477547
829.589830	2537.643749
829.906960	2543.110881
830.224046	2540.786909
830.541088	2541.714481
830.858086	2540.310520
831.175041	2536.479243
831.491952	2537.837834
831.808819	2541.011240
832.125642	2539.014943
832.442421	2540.053421
832.759157	2543.564585
833.075849	2547.393341
833.392497	2553.359547
833.709101	2558.259548
834.025662	2557.057233
834.342179	2556.560679
834.658653	2548.562889
834.975083	2546.866540
835.291469	2552.013558
835.607811	2540.618030
835.924110	2538.919161
836.240366	2541.636343
836.556578	2540.796991
836.872746	2538.238606
837.188871	2539.551826
837.504952	2538.823379
837.820990	2536.973276
838.136984	2536.252391
838.452935	2535.710467
838.768842	2536.743903
839.084706	2534.999664
839.400526	2537.663914
839.716303	2543.602393
840.032037	2546.523742
840.347727	2542.947043
840.663373	2544.335881
840.978977	2538.679707
841.294537	2538.457896
841.610054	2537.820190
841.925527	2535.813811
842.240957	2535.211393
842.556344	2535.549150
842.871687	2533.726773
843.186987	2535.254243
843.502244	2533.772143
843.817458	2534.984541
844.132629	2534.135106
844.447756	2533.636032
844.762840	2529.857687
845.077881	2531.982534
845.392879	2532.098480
845.707833	2532.612678
846.022745	2528.297450
846.337613	2536.131403
846.652438	2534.946732
846.967221	2532.201824
847.281960	2531.319622
847.596656	2535.072761
847.911309	2531.072605
848.225919	2533.262987
848.540485	2532.708460
848.855009	2532.693336
849.169490	2531.385157
849.483928	2532.980682
849.798323	2533.245343
850.112675	2534.780374
850.426984	2531.695188
850.741251	2533.177287
851.055474	2531.526309
851.369654	2533.366330
851.683792	2530.790301
851.997887	2532.388347
852.311938	2533.386495
852.625947	2532.466484
852.939914	2532.927750
853.253837	2536.663245
853.567718	2528.718387
853.881555	2531.543953
854.195350	2534.019160
854.509103	2534.031763
854.822812	2530.336597
855.136479	2533.232740
855.450103	2531.304498
855.763685	2533.036135
856.077224	2533.086546
856.390720	2532.277441
856.704173	2532.693336
857.017584	2535.652494
857.330953	2533.431865
857.644278	2533.565456
857.957561	2537.079140
858.270802	2533.807431
858.584000	2530.792821
858.897155	2533.845240
859.210268	2530.961700
859.523339	2532.229550
859.836367	2532.584952
860.149352	2530.598737
860.462295	2532.708460
860.775195	2529.310722
861.088054	2530.197965
861.400869	2530.749972
861.713642	2527.329549
862.026373	2530.749972
862.339062	2533.623429
862.651708	2534.407329
862.964312	2534.495549
863.276873	2534.389685
863.589392	2529.570342
863.901869	2532.872297
864.214303	2532.453882
864.526696	2533.305837
864.839045	2532.408511
865.151353	2537.578214
865.463619	2531.637215
865.775842	2533.852802
866.088023	2534.528316
866.400162	2533.199972
866.712258	2534.319108
867.024313	2534.117462
867.336325	2534.399767
867.648296	2534.029242
867.960224	2532.239632
868.272110	2533.923378
868.583954	2534.979500
868.895755	2533.141999
869.207515	2532.892462
869.519233	2533.411701
869.830909	2532.968079
870.142542	2537.076620
870.454134	2531.937163
870.765684	2533.804911
871.077191	2530.881042
871.388657	2535.221475
871.700081	2533.527647
872.011463	2532.773995
872.322803	2535.287010
872.634101	2532.940353
872.945357	2533.769623
873.256571	2534.808100
873.567744	2533.449509
873.878874	2534.649304
874.189963	2535.937319
874.501010	2538.077289
874.812015	2535.168543
875.122979	2535.017308
875.433900	2533.867925
875.744780	2537.152237
876.055618	2535.511341
876.366415	2536.033101
876.677169	2537.230375
876.987882	2532.327853
877.298554	2530.838192
877.609183	2533.522606
877.919771	2530.462626
878.230317	2531.080167
878.540822	2537.142155
878.851285	2537.316074
879.161707	2540.207176
879.472087	2542.906714
879.782425	2543.007537
880.092722	2547.975594
880.402977	2555.960782
880.713191	2569.181208
881.023363	2581.136304
881.333494	2594.132399
881.643583	2594.026535
881.953631	2591.422779
882.263637	2590.033941
882.573602	2583.740060
882.883526	2577.128587
883.193408	2570.698595
883.503248	2562.592420
883.813048	2563.071329
884.122806	2556.628735
884.432522	2551.209494
884.742197	2549.876109
885.051831	2545.802857
885.361424	2543.609955
885.670975	2543.869574
885.980485	2542.710109
886.289954	2538.924202
886.599382	2539.415715
886.908768	2540.292876
887.218113	2538.404964
887.527417	2539.829090
887.836680	2536.199459
888.145901	2536.653163
888.455082	2534.634181
888.764221	2535.899510
889.073319	2536.169212
889.382376	2535.410518
889.691392	2533.777184
890.000366	2536.232226
890.309300	2536.239788
890.618193	2534.251053
890.927044	2535.927237
891.235855	2534.182997
891.544625	2535.551671
891.853353	2537.815149
892.162041	2536.191897
892.470687	2535.304654
892.779293	2537.169881
893.087858	2535.445806
893.396381	2534.694674
893.704864	2540.431507
894.013306	2539.113246
894.321707	2548.267981
894.630068	2555.103786
894.938387	2554.481203
895.246665	2554.919784
895.554903	2551.950544
895.863100	2547.552137
896.171256	2546.962322
896.479371	2545.823022
896.787446	2541.318751
897.095480	2541.989224
897.403473	2539.350180
897.711425	2536.489325
898.019336	2536.305323
898.327207	2535.473533
898.635038	2538.873791
898.942827	2536.479243
899.250576	2541.159954
899.558284	2536.673327
899.865952	2535.644932
900.173579	2537.590817
900.481165	2535.392874
900.788711	2538.042001
901.096216	2533.278110
901.403681	2534.719880
901.711105	2535.632329
902.018489	2534.921526
902.325832	2538.203317
902.633135	2534.699716
902.940397	2538.047042
903.247619	2538.077289
903.554800	2541.177598
903.861941	2547.983156
904.169041	2557.054712
904.476101	2560.316339
904.783121	2562.799107
905.090100	2557.437840
905.397039	2553.122612
905.703938	2547.665563
906.010796	2543.559543
906.317614	2542.473175
906.624391	2540.809594
906.931129	2538.689789
907.237826	2537.837834
907.544483	2532.768954
907.851099	2537.663914
908.157675	2532.355579
908.464211	2532.216947
908.770707	2527.357275
909.077163	2531.238963
909.383578	2530.336597
909.689954	2526.903571
909.996289	2528.042872
910.302584	2531.531350
910.608839	2532.867256
910.915054	2531.433048
911.221229	2528.962883
911.527363	2533.441948
911.833458	2528.909950
912.139513	2533.951104
912.445527	2531.344828
912.751502	2532.988244
913.057436	2534.104859
913.363331	2534.767771
913.669186	2532.191742
913.975000	2535.919675
914.280775	2536.985879
914.586510	2536.721218
914.892205	2541.348998
915.197859	2546.496016
915.503475	2548.658671
915.809050	2554.163611
916.114585	2559.106462
916.420081	2561.748027
916.725536	2560.301215
917.030952	2556.822819
917.336328	2552.265616
917.641665	2549.314021
917.946961	2548.295707
918.252218	2544.068700
918.557435	2540.602907
918.862612	2540.426466
919.167750	2539.133410
919.472848	2539.788760
919.777906	2536.822041
920.082925	2536.794315
920.387904	2537.439583
920.692843	2536.572504
920.997743	2533.078985
921.302603	2535.597041
921.607423	2533.194931
921.912204	2533.585621
922.216946	2533.699047
922.521647	2534.046886
922.826310	2532.481608
923.130932	2530.939015
923.435516	2532.451361
923.740059	2530.659231
924.044564	2530.825589
924.349028	2532.390867
924.653454	2528.725948
924.957840	2530.845753
925.262186	2528.310053
925.566493	2529.353572
925.870761	2523.964578
926.174989	2530.031607
926.479178	2529.590506
926.783328	2529.877852
927.087438	2530.079498
927.391509	2528.468849
927.695541	2530.760054
927.999533	2530.767616
928.303486	2530.931453
928.607400	2531.906916
928.911275	2528.458767
929.215110	2531.808614
929.518906	2530.034128
929.822663	2528.105886
930.126381	2531.664941
930.430060	2530.233253
930.733699	2531.075126
931.037299	2528.758716
931.340861	2531.770805
931.644383	2528.688140
931.947866	2527.097656
932.251309	2528.972965
932.554714	2529.630835
932.858080	2532.355579
933.161407	2531.717873
933.464694	2527.639580
933.767943	2528.957841
934.071153	2526.896009
934.374323	2529.116638
934.677455	2528.826771
934.980548	2527.596730
935.283602	2527.264014
935.586617	2527.851308
935.889593	2530.119827
936.192530	2530.535723
936.495428	2530.366844
936.798287	2528.927594
937.101108	2529.608150
937.403890	2529.081350
937.706632	2529.950949
938.009336	2526.253262
938.312002	2532.592513
938.614628	2530.122348
938.917216	2530.003881
939.219765	2532.524458
939.522275	2531.546474
939.824747	2532.118645
940.127179	2526.177645
940.429573	2528.647810
940.731929	2529.663603
941.034246	2528.854498
941.336524	2528.496576
941.638763	2530.573531
941.940964	2531.322142
942.243126	2530.853315
942.545250	2529.199817
942.847335	2529.555218
943.149381	2529.136802
943.451389	2527.747964
943.753359	2530.200486
944.055290	2528.995650
944.357182	2527.382481
944.659036	2528.186545
944.960851	2530.031607
945.262628	2528.728469
945.564367	2529.323325
945.866067	2530.354241
946.167729	2530.429858
946.469352	2529.129241
946.770937	2531.057482
947.072484	2526.344003
947.373992	2530.296268
947.675462	2528.546987
947.976893	2530.966741
948.278286	2529.935825
948.579641	2530.530681
948.880958	2529.653521
949.182236	2529.421628
949.483476	2527.974816
949.784678	2527.047244
950.085841	2530.603778
950.386967	2531.727955
950.688054	2528.350382
950.989103	2527.591689
951.290114	2528.196627
951.591087	2528.867101
951.892021	2526.691843
952.192917	2531.710311
952.493776	2531.067564
952.794596	2530.838192
953.095378	2530.001360
953.396122	2530.576052
953.696828	2531.362472
953.997496	2532.789118
954.298126	2531.158305
954.598718	2531.072605
954.899272	2527.722759
955.199788	2528.952800
955.500266	2528.040351
955.800706	2527.029600
956.101108	2522.169928
956.401472	2526.379291
956.701798	2523.780576
957.002087	2525.595392
957.302337	2526.906092
957.602550	2528.236956
957.902724	2527.218643
958.202861	2526.684281
958.502960	2526.850639
958.803022	2528.385670
959.103045	2529.028418
959.403031	2527.551359
959.702979	2526.787625
960.002889	2527.011956
960.302762	2525.557583
960.602596	2529.494724
960.902393	2526.432223
961.202153	2529.013294
961.501875	2527.039682
961.801559	2527.148067
962.101205	2527.324507
962.400814	2527.511030
962.700385	2528.373067
962.999918	2530.782739
963.299414	2528.075639
963.598873	2525.267717
963.898293	2525.797038
964.197677	2526.591020
964.497022	2525.078673
964.796331	2528.184024
965.095601	2526.374250
965.394835	2528.458767
965.694030	2525.350896
965.993189	2529.645959
966.292309	2528.541946
966.591393	2526.026410
966.890439	2527.092614
967.189447	2527.145547
967.488419	2524.171266
967.787353	2527.571524
968.086249	2527.775691
968.385108	2527.644621
968.683930	2527.140505
968.982714	2528.378109
969.281462	2527.654703
969.580172	2526.757378
969.878844	2529.595547
970.177480	2528.214271
970.476078	2528.370547
970.774639	2526.442306
971.073162	2527.833664
971.371649	2525.529857
971.670098	2523.319311
971.968510	2524.052799
972.266885	2521.010462
972.565223	2525.824764
972.863524	2525.751668
973.161788	2527.069929
973.460014	2525.923067
973.758204	2526.671678
974.056356	2529.056144
974.354471	2524.277130
974.652550	2527.906761
974.950591	2525.245032
975.248595	2527.238808
975.546563	2526.013807
975.844493	2523.979702
976.142386	2526.691843
976.440243	2527.329549
976.738062	2527.710156
977.035845	2526.787625
977.333590	2526.336441
977.631299	2525.973478
977.928971	2524.904754
978.226606	2527.374919
978.524204	2526.722090
978.821765	2526.346524
979.119290	2526.096987
979.416777	2526.550690
979.714228	2529.282996
980.011642	2526.129754
980.309020	2528.267203
980.606360	2525.431554
980.903664	2527.117820
981.200931	2527.866432
981.498162	2524.836698
981.795356	2528.267203
982.092513	2527.546318
982.389633	2526.712007
982.686717	2527.919364
982.983764	2527.639580
983.280775	2530.291227
983.577749	2527.528674
983.874686	2527.579086
984.171587	2528.302491
984.468451	2528.695701
984.765279	2524.841739
985.062070	2526.780063
985.358824	2526.490197
985.655543	2530.636546
985.952224	2528.799045
986.248869	2526.961544
986.545478	2523.674712
986.842050	2524.677902
987.138586	2522.265710
987.435086	2524.156142
987.731549	2524.773684
988.027975	2527.367357
988.324366	2524.917357
988.620719	2525.504651
988.917037	2526.686802
989.213318	2526.470032
989.509563	2525.812161
989.805772	2525.073632
990.101944	2526.301153
990.398080	2525.285361
990.694180	2525.081194
990.990244	2526.538088
991.286271	2524.761081
991.582262	2525.320649
991.878217	2526.921215
992.174136	2524.602284
992.470019	2523.830988
992.765865	2526.139836
993.061676	2525.542460
993.357450	2524.471214
993.653188	2524.173786
993.948890	2525.570186
994.244556	2525.113962
994.540186	2527.397604
994.835780	2524.957686
995.131337	2527.069929
995.426859	2525.416431
995.722345	2524.473735
996.017795	2527.644621
996.313208	2527.049765
996.608586	2527.707635
996.903928	2522.878210
997.199234	2524.592202
997.494504	2526.172604
997.789738	2524.095648
998.084936	2524.748478
998.380099	2524.418282
998.675225	2526.003725
998.970316	2527.188396
999.265371	2528.365506
999.560390	2524.420803
999.855373	2527.821061
1000.150320	2524.715710
1000.445232	2525.761750
1000.740108	2527.727800
1001.034948	2525.262676
1001.329752	2526.502799
1001.624521	2525.194620
1001.919254	2522.517767
1002.213951	2522.442150
1002.508613	2520.783610
1002.803239	2525.335772
1003.097829	2520.574402
1003.392384	2524.577079
1003.686903	2523.301667
1003.981386	2528.438603
1004.275834	2525.121523
1004.570246	2525.108920
1004.864623	2524.932480
1005.158964	2526.996833
1005.453270	2526.187727
1005.747540	2524.009949
1006.041775	2526.651513
1006.335974	2526.598581
1006.630138	2526.147398
1006.924266	2524.125895
1007.218359	2525.328211
1007.512416	2526.850639
1007.806438	2525.139167
1008.100425	2526.417100
1008.394376	2526.543129
1008.688292	2525.176976
1008.982172	2527.049765
1009.276017	2525.229908
1009.569827	2524.708149
1009.863602	2524.561955
1010.157341	2525.328211
1010.451045	2525.592871
1010.744714	2525.476925
1011.038347	2526.336441
1011.331945	2524.758560
1011.625508	2526.263345
1011.919036	2525.804600
1012.212528	2526.102028
1012.505986	2526.623787
1012.799408	2524.995494
1013.092795	2524.745957
1013.386147	2526.943900
1013.679464	2525.497089
1013.972745	2525.807120
1014.265992	2525.542460
1014.559204	2526.540608
1014.852380	2525.048427
1015.145521	2522.853004
1015.438628	2524.975330
1015.731699	2525.449198
1016.024736	2523.006759
1016.317737	2525.454239
1016.610703	2523.221008
1016.903635	2520.544156
1017.196531	2522.041378
1017.489393	2521.292767
1017.782219	2521.875020
1018.075011	2526.792666
1018.367768	2526.805269
1018.660490	2526.795186
1018.953177	2526.795186
1019.245829	2526.795186
