Dividing Wavelength (nm)	Counts (n)	Blue Motor Position (mm): 0.000000	Red Motor Position (mm): 36.900000	
326.493990	2128.576800
326.888308	2128.576800
327.282561	2128.576800
327.676750	2096.406677
328.070874	2096.799887
328.464933	2095.637901
328.858929	2101.954467
329.252859	2113.367639
329.646726	2127.855915
330.040528	2140.249592
330.434265	2155.370533
330.827938	2170.158758
331.221547	2190.938394
331.615091	2208.496733
332.008571	2227.668241
332.401986	2246.323030
332.795338	2268.070568
333.188625	2285.495316
333.581847	2303.101546
333.975006	2321.005204
334.368100	2343.156034
334.761129	2359.421317
335.154095	2374.817001
335.546996	2398.202913
335.939833	2414.621952
336.332606	2432.087029
336.725315	2446.744184
337.117960	2451.538321
337.510540	2463.579117
337.903056	2473.414408
338.295508	2481.084524
338.687896	2489.551142
339.080220	2497.251504
339.472480	2501.528923
339.864676	2505.927330
340.256807	2512.886643
340.648875	2519.054495
341.040879	2515.447549
341.432818	2520.085411
341.824694	2522.996677
342.216506	2521.373425
342.608253	2521.769156
342.999937	2520.037520
343.391557	2523.687315
343.783113	2521.254958
344.174605	2520.771008
344.566033	2517.733712
344.957397	2516.425533
345.348697	2514.698938
345.739934	2509.062928
346.131106	2511.840603
346.522215	2510.108967
346.913260	2510.771879
347.304241	2505.055210
347.695159	2504.044459
348.086012	2502.098574
348.476802	2499.668737
348.867528	2499.038593
349.258191	2497.682523
349.648789	2498.519354
350.039324	2495.875269
350.429796	2494.468787
350.820203	2493.125320
351.210548	2492.729589
351.600828	2492.875783
351.991045	2491.786893
352.381198	2491.096255
352.771288	2487.580051
353.161314	2488.535349
353.551276	2490.874445
353.941175	2489.566265
354.331010	2489.881337
354.720782	2488.653816
355.110490	2491.224805
355.500135	2490.541728
355.889717	2487.466625
356.279235	2490.995432
356.668689	2493.720176
357.058080	2489.687253
357.447408	2489.583909
357.836672	2487.885040
358.225873	2488.353868
358.615010	2487.953096
359.004084	2491.547439
359.393095	2491.383601
359.782043	2493.929384
360.170927	2495.497183
360.559748	2497.243942
360.948505	2495.401401
361.337199	2497.576659
361.725830	2496.313850
362.114398	2499.338542
362.502903	2500.377020
362.891344	2497.942142
363.279722	2500.752586
363.668037	2498.360558
364.056289	2501.939777
364.444478	2502.980776
364.832603	2500.586227
365.220665	2502.063286
365.608665	2502.169150
365.996601	2504.762823
366.384474	2505.541682
366.772284	2507.931189
367.160031	2507.956394
367.547715	2510.557630
367.935336	2514.214987
368.322893	2515.588701
368.710388	2517.645492
369.097820	2523.397449
369.485189	2528.572193
369.872495	2532.063192
370.259738	2540.300438
370.646918	2549.956768
371.034035	2552.358877
371.421090	2563.250290
371.808081	2578.003227
372.195010	2585.718713
372.581875	2598.235898
372.968678	2610.727877
373.355418	2620.963940
373.742096	2642.358597
374.128710	2656.309990
374.515262	2670.820952
374.901751	2686.541790
375.288177	2695.938501
375.674540	2721.600494
376.060841	2741.354256
376.447079	2760.266144
376.833254	2779.016716
377.219367	2792.370733
377.605417	2828.538491
377.991404	2840.163392
378.377329	2863.587113
378.763191	2878.307282
379.148991	2916.604928
379.534727	2940.096705
379.920402	2971.435038
380.306013	2980.982983
380.691563	3034.252856
381.077049	3052.615259
381.462474	3073.347004
381.847835	3110.127262
382.233134	3132.005870
382.618371	3134.070223
383.003545	3198.375181
383.388657	3207.648384
383.773706	3240.846902
384.158693	3255.642689
384.543618	3283.479940
384.928480	3319.299859
385.313280	3363.868700
385.698017	3363.961962
386.082692	3417.771238
386.467305	3422.225097
386.851856	3455.126188
387.236344	3477.440855
387.620770	3507.894466
388.005133	3532.638969
388.389435	3564.007549
388.773674	3575.511462
389.157851	3617.443780
389.541965	3629.285450
389.926018	3595.285388
390.310008	3669.350020
390.693936	3686.477341
391.077802	3727.870255
391.461606	3717.394737
391.845348	3782.075262
392.229027	3779.776495
392.612645	3793.241417
392.996200	3871.180176
393.379694	3909.079571
393.763125	3972.441834
394.146494	3942.131896
394.529801	4000.455526
394.913047	4048.691806
395.296230	4015.631919
395.679351	4073.784149
396.062410	4096.572685
396.445408	4075.021753
396.828343	4111.222278
397.211217	4133.685660
397.594028	4053.185995
397.976778	4119.091520
398.359466	4147.601765
398.742092	4176.553112
399.124656	4100.489662
399.507158	4182.012681
399.889598	4203.866083
400.271977	4265.075773
400.654294	4237.979571
401.036549	4242.032659
401.418742	4210.475036
401.800874	4319.167354
402.182944	4340.919933
402.564952	4402.230446
402.946898	4389.509094
403.328783	4384.278897
403.710606	4303.219664
404.092367	4493.684538
404.474067	4461.466524
404.855705	4468.231753
405.237282	4392.385073
405.618797	4500.414479
406.000250	4538.946538
406.381642	4618.569043
406.762972	4582.900359
407.144240	4589.249692
407.525447	4591.669446
407.906593	4651.694465
408.287677	4693.823387
408.668700	4622.927120
409.049661	4678.578938
409.430560	4715.863312
409.811399	4638.678205
410.192176	4803.987722
410.572891	4741.200151
410.953545	4844.674875
411.334138	4724.092996
411.714669	4792.796361
412.095139	4688.129404
412.475547	4828.291125
412.855894	4808.703722
413.236180	4818.506245
413.616405	4773.224081
413.996568	4859.228686
414.376670	4805.991581
414.756711	4757.001648
415.136691	4788.085402
415.516609	4867.347464
415.896466	4903.167383
416.276262	4939.501499
416.655997	4915.931585
417.035670	5103.041571
417.415283	5193.699162
417.794834	5138.765708
418.174324	5089.642184
418.553753	4997.502495
418.933121	5182.366648
419.312428	5246.621195
419.691674	5189.769582
420.070859	5318.119880
420.449983	5228.883895
420.829045	5340.424465
421.208047	5245.484414
421.586988	5318.414787
421.965867	5331.189071
422.344686	5466.876768
422.723444	5315.763140
423.102141	5137.616325
423.480777	5438.439619
423.859352	5202.571592
424.237866	5464.739319
424.616319	5455.531651
424.994712	5566.958795
425.373044	5442.911122
425.751314	5586.039562
426.129524	5389.240478
426.507673	5582.412452
426.885762	5669.553838
427.263789	5599.638075
427.641756	5480.462677
428.019662	5599.247386
428.397508	5607.512357
428.775292	5559.765069
429.153016	5656.759389
429.530679	5580.222071
429.908282	5665.954454
430.285824	5537.011821
430.663305	5811.104397
431.040726	5547.502462
431.418086	5548.372061
431.795385	5654.989944
432.172624	5662.453372
432.549802	5656.222506
432.926920	5672.339075
433.303977	5680.556156
433.680974	5715.498914
434.057910	5729.898970
434.434786	5737.949693
434.811601	5709.699066
435.188355	5948.196055
435.565050	5818.378782
435.941683	5801.362367
436.318257	6015.319018
436.694770	6002.708572
437.071222	6030.006420
437.447614	5967.942254
437.823946	5874.943048
438.200218	6028.597417
438.576429	5893.189505
438.952580	5995.880329
439.328670	6036.438932
439.704700	5949.310150
440.080670	5933.584270
440.456580	6206.968564
440.832429	6087.510862
441.208218	5932.392038
441.583947	6088.786274
441.959616	6094.419763
442.335224	6020.029977
442.710773	6157.971069
443.086261	6184.248084
443.461689	5978.712680
443.837057	6131.149610
444.212365	6285.411438
444.587612	6175.912536
444.962800	6326.325443
445.337927	6310.962527
445.712995	5919.796715
446.088002	6495.715774
446.462949	6324.543395
446.837837	6258.867243
447.212664	6431.604900
447.587431	6574.766107
447.962139	7119.130064
448.336786	8048.401241
448.711374	7783.458359
449.085901	6862.404264
449.460369	6776.533249
449.834776	6713.165945
450.209124	7105.221521
450.583412	7256.103256
450.957640	7395.357569
451.331808	7168.999679
451.705917	6719.041410
452.079965	6646.088352
452.453954	6856.914447
452.827883	6729.612710
453.201752	6822.019580
453.575562	6624.366020
453.949311	6830.017371
454.323001	6715.207613
454.696632	6792.480939
455.070202	6928.135869
455.443713	7086.297029
455.817164	7189.481887
456.190556	7266.359483
456.563888	7340.930751
456.937160	7383.470528
457.310373	7043.429578
457.683526	7061.340797
458.056619	6955.058151
458.429653	6941.809998
458.802628	6876.900102
459.175542	6984.904302
459.548398	7342.211204
459.921194	7504.117943
460.293930	7507.591297
460.666607	8038.485291
461.039224	8345.448711
461.411782	8467.706774
461.784280	8492.413469
462.156719	8387.088642
462.529099	8260.747244
462.901419	7849.179882
463.273680	7741.208449
463.645882	7754.055830
464.018024	7619.008359
464.390106	7786.745192
464.762130	8175.718102
465.134094	8645.220924
465.505999	9668.398715
465.877845	10884.050279
466.249631	11537.038499
466.621358	11160.308031
466.993026	10530.173882
467.364634	10275.976220
467.736184	9913.013143
468.107674	9577.141227
468.479105	9609.452503
468.850477	9374.166729
469.221790	9145.189960
469.593043	8818.528232
469.964238	8676.256788
470.335373	8689.946041
470.706449	8744.385462
471.077467	8731.618739
471.448425	10033.723572
471.819324	11114.282296
472.190164	11144.864456
472.560945	9888.233352
472.931667	9098.229091
473.302330	8964.285633
473.672934	8608.977549
474.043479	8969.581366
474.413965	8909.326974
474.784393	8786.494220
475.154761	8943.468189
475.525070	9034.153505
475.895321	8858.121454
476.265513	9037.026963
476.635645	9205.910658
477.005719	9204.151295
477.375734	9318.093975
477.745691	9554.173730
478.115588	9690.300008
478.485427	9934.916957
478.855207	10472.979471
479.224928	11280.731114
479.594591	11913.479101
479.964194	11726.041439
480.333739	11674.268789
480.703226	11593.315420
481.072653	11669.590598
481.442022	11914.709142
481.811333	12103.626382
482.180584	11900.543500
482.549777	11611.945004
482.918912	11441.233891
483.287988	11460.629730
483.657005	11476.325363
484.025964	11159.443473
484.394864	11286.956939
484.763706	11259.260840
485.132489	11017.688747
485.501213	10981.052162
485.869879	11058.028060
486.238487	10896.953113
486.607036	11006.389001
486.975527	10783.471698
487.343959	10979.207099
487.712333	11022.175374
488.080648	10946.399270
488.448905	10990.355611
488.817104	10929.024933
489.185244	11198.283043
489.553326	11354.178205
489.921350	11893.891697
490.289315	12952.748254
490.657222	13302.921924
491.025070	13207.712172
491.392861	13079.407244
491.760593	12714.195813
492.128267	12353.821368
492.495883	12022.481450
492.863440	11685.775222
493.230939	11344.232008
493.598380	11291.511621
493.965763	11151.062555
494.333088	11046.917357
494.700354	10970.674947
495.067563	11035.932683
495.434713	10862.075890
495.801805	10989.047432
496.168839	10917.962121
496.535815	10844.073929
496.902733	10848.885711
497.269593	10781.351893
497.636395	10877.849660
498.003139	10864.639317
498.369825	10732.114944
498.736453	10894.664429
499.103023	10818.477471
499.469535	10851.577687
499.835989	10834.815850
500.202385	10793.246496
500.568723	10648.325926
500.935003	10870.098886
501.301226	10678.603096
501.667390	10937.567169
502.033497	11031.171313
502.399546	10894.172916
502.765537	10799.489965
503.131470	10875.180369
503.497345	11047.590351
503.863163	10660.283542
504.228923	10973.107303
504.594625	11036.441840
504.960269	10787.275249
505.325856	11001.486479
505.691385	10793.523759
506.056856	10950.979158
506.422270	10977.535957
506.787625	10864.596467
507.152924	10987.557771
507.518164	10961.311003
507.883347	10883.815866
508.248472	10799.895778
508.613540	11037.518126
508.978550	10913.604044
509.343503	10886.354087
509.708398	11003.074442
510.073236	11121.014757
510.438016	11129.607404
510.802738	11068.685060
511.167403	11130.456838
511.532010	11023.486074
511.896561	11257.118349
512.261053	11325.126035
512.625488	11193.516632
512.989866	11174.640031
513.354186	11167.297591
513.718449	11059.883205
514.082655	11262.378793
514.446803	11147.518623
514.810894	11277.194744
515.174927	11144.730865
515.538904	11162.785758
515.902822	11321.950108
516.266684	11201.968126
516.630488	11151.047431
516.994235	11200.284381
517.357925	11258.698751
517.721558	11347.932215
518.085133	11365.898887
518.448651	11374.146215
518.812112	11263.228228
519.175516	11270.800041
519.538863	11390.023329
519.902152	11300.295832
520.265385	11469.446708
520.628560	11370.808971
520.991678	11345.454488
521.354739	11406.417162
521.717743	11344.947852
522.080690	11316.304016
522.443580	11454.981117
522.806413	11404.861966
523.169189	11430.965060
523.531908	11489.744914
523.894569	11311.149436
524.257174	11304.888323
524.619722	11419.879563
524.982213	11367.537262
525.344647	11418.558781
525.707025	11363.847138
526.069345	11455.938936
526.431608	11366.304700
526.793815	11476.653037
527.155964	11255.699264
527.518057	11314.716052
527.880093	11258.429049
528.242072	11320.626805
528.603995	11223.808925
528.965860	11145.376133
529.327669	11189.385406
529.689421	11136.165945
530.051117	11102.569175
530.412755	11204.158507
530.774337	11083.788357
531.135862	11061.561909
531.497331	11079.765516
531.858743	10931.991653
532.220098	11088.857237
532.581396	10955.475868
532.942638	10937.632704
533.303824	10880.042562
533.664953	10898.314224
534.026025	10806.590430
534.387040	10884.670341
534.747999	10880.644980
535.108902	10934.287898
535.469748	10682.681389
535.830537	10779.411049
536.191270	10757.567729
536.551947	10762.576116
536.912567	10754.626216
537.273131	10666.572382
537.633638	10638.223453
537.994089	10617.282500
538.354483	10556.884436
538.714821	10688.088027
539.075103	10685.020484
539.435328	10637.089194
539.795497	10461.712492
540.155609	10602.758936
540.515665	10671.311067
540.875665	10402.920036
541.235609	10453.508015
541.595496	10443.208937
541.955328	10572.007898
542.315102	10453.790319
542.674821	10384.403878
543.034483	10377.588238
543.394090	10368.186486
543.753640	10275.351117
544.113134	10469.843874
544.472571	10316.965842
544.831953	10437.686353
545.191278	10237.764274
545.550548	10241.217464
545.909761	10358.509991
546.268918	10307.458226
546.628019	10371.274192
546.987064	10218.242406
547.346053	10130.349888
547.704986	10195.131236
548.063863	10168.400518
548.422684	10141.402618
548.781449	10035.165342
549.140158	10113.111663
549.498811	9972.566814
549.857408	9824.460235
550.215949	10000.630918
550.574434	9847.475623
550.932864	9909.484336
551.291237	9945.863822
551.649555	9866.458088
552.007817	9851.974852
552.366022	9794.964444
552.724173	9761.760884
553.082267	9726.745029
553.440305	9804.661103
553.798288	9609.760013
554.156215	9701.952635
554.514086	9663.922170
554.871902	9497.712807
555.229661	9505.214044
555.587365	9454.608421
555.945014	9340.350669
556.302606	9403.160926
556.660143	9293.427609
557.017625	9382.421619
557.375050	9269.151933
557.732421	9348.255198
558.089735	9232.432168
558.446994	9207.743117
558.804197	9207.657418
559.161345	9169.879011
559.518437	9029.923977
559.875474	9050.817039
560.232455	9030.755767
560.589381	8971.446592
560.946251	8919.623531
561.303065	8979.643509
561.659825	8877.981080
562.016528	8797.141137
562.373177	8676.355090
562.729770	8711.383548
563.086307	8618.091955
563.442789	8658.247266
563.799216	8513.251078
564.155587	8519.988580
564.511904	8447.854710
564.868164	8404.125221
565.224370	8383.065801
565.580520	8272.014223
565.936615	8260.555680
566.292654	8102.825538
566.648638	8173.671393
567.004567	8093.524609
567.360441	8054.712766
567.716260	7938.683048
568.072023	7981.001014
568.427732	7889.027683
568.783385	7806.965260
569.138982	7800.096688
569.494525	7783.211343
569.850013	7658.231057
570.205445	7667.103488
570.560823	7569.617654
570.916145	7461.928526
571.271412	7469.396995
571.626625	7392.237095
571.981782	7344.656164
572.336884	7278.377594
572.691931	7260.118535
573.046923	7176.087541
573.401860	7109.438446
573.756743	7031.126642
574.111570	7020.333531
574.466342	6977.662685
574.821059	6950.841226
575.175722	6851.956472
575.530330	6813.522715
575.884882	6774.680625
576.239380	6693.308840
576.593823	6651.053889
576.948211	6610.548218
577.302544	6521.657552
577.656823	6478.684236
578.011047	6446.756088
578.365216	6387.504886
578.719330	6319.161963
579.073389	6270.809736
579.427394	6218.885852
579.781344	6171.320045
580.135239	6102.659529
580.489080	6078.240180
580.842866	5987.627960
581.196597	5958.008661
581.550273	5946.865190
581.903895	5883.250870
582.257463	5890.043825
582.610975	5785.318895
582.964434	5775.183655
583.317837	5692.995203
583.671186	5663.411192
584.024481	5614.859839
584.377721	5548.508172
584.730906	5506.243138
585.084037	5480.071988
585.437113	5430.978711
585.790135	5399.620214
586.143103	5321.842772
586.496016	5279.459271
586.848874	5267.839411
587.201679	5238.643569
587.554428	5153.032173
587.907124	5143.133868
588.259765	5101.080563
588.612352	5069.018824
588.964884	4998.596425
589.317362	4971.401921
589.669786	4945.034166
590.022155	4940.280358
590.374470	4907.812806
590.726731	4863.024675
591.078937	4776.089977
591.431090	4776.490749
591.783188	4714.834917
592.135232	4670.107279
592.487222	4654.693951
592.839157	4638.826919
593.191038	4586.587963
593.542866	4542.475346
593.894639	4481.890759
594.246358	4471.183348
594.598022	4448.813228
594.949633	4387.054052
595.301190	4359.236965
595.652692	4342.205427
596.004141	4340.625025
596.355535	4251.726798
596.706876	4219.286973
597.058162	4177.674768
597.409395	4174.869366
597.760573	4167.547090
598.111698	4121.415492
598.462768	4091.113116
598.813785	4064.122778
599.164748	4027.544166
599.515657	4008.201258
599.866511	3957.237714
600.217312	3971.731031
600.568060	3914.841610
600.918753	3920.381838
601.269392	3890.341602
601.619978	3844.404088
601.970510	3840.272862
602.320988	3819.155469
602.671412	3807.011329
603.021783	3774.143006
603.372100	3747.339191
603.722363	3722.473700
604.072572	3705.921071
604.422728	3685.683359
604.772830	3649.185405
605.122878	3630.548259
605.472872	3616.576701
605.822813	3598.829319
606.172701	3572.229671
606.522534	3565.945873
606.872314	3553.242165
607.222041	3527.648227
607.571714	3521.485416
607.921333	3495.462980
608.270899	3483.535610
608.620411	3485.035353
608.969870	3451.330199
609.319276	3436.194134
609.668627	3422.036054
610.017926	3416.747883
610.367171	3406.471491
610.716362	3389.182854
611.065500	3368.710728
611.414585	3361.907691
611.763616	3345.279445
612.112594	3327.078359
612.461518	3315.405568
612.810389	3315.665187
613.159207	3288.821043
613.507971	3271.986110
613.856682	3272.402005
614.205340	3254.687390
614.553945	3253.333840
614.902496	3225.262175
615.250994	3221.657750
615.599439	3206.151161
615.947830	3195.534491
616.296169	3182.820701
616.644454	3175.047242
616.992686	3161.776404
617.340864	3158.509737
617.688990	3138.476191
618.037063	3141.702530
618.385082	3128.161990
618.733048	3126.059829
619.080961	3110.563322
619.428821	3102.578135
619.776628	3091.192689
620.124382	3080.379414
620.472083	3062.377453
620.819731	3055.917215
621.167326	3035.475336
621.514868	3024.289015
621.862357	3007.290245
622.209793	2997.923781
622.557176	2978.626244
622.904506	2965.297433
623.251783	2949.213632
623.599007	2938.135696
623.946179	2930.160591
624.293297	2915.581574
624.640363	2906.797363
624.987376	2897.481311
625.334336	2888.810526
625.681243	2876.729401
626.028097	2870.488453
626.374899	2864.408821
626.721647	2854.618900
627.068343	2848.085565
627.414987	2841.978207
627.761577	2829.622339
628.108115	2827.681495
628.454600	2818.879640
628.801032	2815.159269
629.147412	2809.780357
629.493739	2802.765592
629.840014	2797.724438
630.186236	2791.145732
630.532405	2783.861265
630.878521	2782.981584
631.224585	2776.904473
631.570597	2768.939450
631.916556	2764.359561
632.262462	2765.569438
632.608316	2757.901843
632.954117	2753.631986
633.299866	2750.098137
633.645562	2745.500605
633.991206	2739.899883
634.336797	2731.292113
634.682336	2725.202399
635.027823	2718.565720
635.373257	2712.476006
635.718639	2709.123639
636.063968	2704.931919
636.409245	2696.568645
636.754470	2696.573686
637.099642	2689.861390
637.444762	2688.071780
637.789829	2684.154804
638.134845	2679.111129
638.479808	2681.992149
638.824719	2673.490243
639.169577	2670.828513
639.514383	2667.995385
639.859137	2663.607061
640.203839	2663.410456
640.548489	2661.532626
640.893086	2652.166162
641.237632	2652.876965
641.582125	2651.082314
641.926566	2645.348001
642.270955	2648.266829
642.615292	2647.135090
642.959576	2647.606438
643.303809	2642.076292
643.647990	2643.422281
643.992118	2640.896662
644.336195	2639.197794
644.680219	2637.871970
645.024192	2636.858698
645.368112	2636.410036
645.711981	2636.208389
646.055797	2638.751652
646.399562	2635.663945
646.743274	2639.215438
647.086935	2640.175777
647.430544	2638.446662
647.774101	2635.976496
648.117606	2635.822741
648.461059	2636.213431
648.804460	2633.521454
649.147810	2629.133130
649.491108	2626.287399
649.834354	2626.080711
650.177548	2622.201543
650.520690	2619.862448
650.863781	2615.960595
651.206820	2620.298508
651.549807	2615.824484
651.892742	2614.120574
652.235626	2613.717282
652.578458	2613.490430
652.921238	2609.835593
653.263967	2611.514297
653.606644	2608.819801
653.949269	2608.590428
654.291843	2606.158071
654.634365	2607.090685
654.976836	2605.439707
655.319255	2604.620519
655.661622	2604.751589
656.003938	2603.897114
656.346203	2599.617174
656.688416	2603.196393
657.030577	2602.374685
657.372687	2600.534664
657.714746	2598.155240
658.056753	2599.206320
658.398708	2593.761874
658.740612	2594.754981
659.082465	2593.955958
659.424266	2595.382605
659.766016	2590.827922
660.107715	2598.220775
660.449362	2597.066350
660.790958	2596.940322
661.132503	2593.540063
661.473996	2595.251535
661.815438	2596.100969
662.156829	2595.639704
662.498168	2596.320260
662.839456	2592.393201
663.180693	2591.909250
663.521879	2593.935794
663.863013	2592.647779
664.204097	2592.995619
664.545129	2594.979313
664.886110	2592.211719
665.227040	2594.107193
665.567918	2593.101483
665.908746	2592.113417
666.249522	2592.708273
666.590248	2594.790269
666.930922	2592.768767
667.271545	2590.961513
667.612118	2595.291864
667.952639	2591.566452
668.293109	2593.025866
668.633528	2591.014445
668.973896	2590.880855
669.314213	2590.217943
669.654480	2590.349013
669.994695	2588.289702
670.334859	2589.643251
670.674973	2590.941348
671.015035	2587.664598
671.355047	2589.371029
671.695008	2588.473704
672.034918	2585.748960
672.374777	2587.909094
672.714585	2588.216605
673.054342	2587.006728
673.394049	2587.914136
673.733705	2587.470514
674.073310	2586.132088
674.412864	2585.456573
674.752368	2586.936152
675.091820	2585.630493
675.431223	2587.384814
675.770574	2583.603949
676.109875	2579.203022
676.449125	2582.598239
676.788324	2579.286201
677.127473	2582.769638
677.466571	2577.940213
677.805619	2580.339802
678.144616	2583.109916
678.483562	2580.909452
678.822458	2580.561613
679.161303	2582.131932
679.500098	2581.489185
679.838842	2580.344843
680.177535	2579.845769
680.516179	2583.503126
680.854771	2581.453897
681.193314	2581.247210
681.531805	2582.772159
681.870247	2583.195616
682.208638	2589.902871
682.546978	2587.556214
682.885268	2587.470514
683.223508	2583.591346
683.561697	2581.590008
683.899836	2584.632344
684.237925	2584.208887
684.575963	2582.252920
684.913951	2582.845255
685.251889	2582.547827
685.589776	2583.684607
685.927614	2582.381469
686.265401	2583.424988
686.603137	2583.772828
686.940824	2583.737540
687.278460	2584.735688
687.616046	2581.310224
687.953582	2583.835842
688.291068	2583.132601
688.628504	2585.436408
688.965889	2583.314083
689.303224	2583.286356
689.640510	2583.258630
689.977745	2583.062025
690.314930	2583.026737
690.652065	2579.956674
690.989150	2578.139338
691.326185	2577.733525
691.663170	2575.800243
692.000105	2577.746128
692.336990	2574.187074
692.673825	2576.879050
693.010610	2573.836713
693.347345	2570.408729
693.684030	2570.025601
694.020665	2570.799418
694.357251	2566.073337
694.693786	2571.074161
695.030272	2569.075344
695.366707	2571.046435
695.703093	2572.102557
696.039429	2569.211455
696.375716	2569.902093
696.711952	2567.588203
697.048139	2568.765313
697.384276	2569.753379
697.720363	2567.789849
698.056400	2568.427555
698.392388	2566.539643
698.728326	2569.012329
699.064214	2567.043759
699.400053	2569.879408
699.735842	2567.810014
700.071581	2566.159036
700.407270	2567.084088
700.742910	2568.974521
701.078501	2564.225754
701.414042	2566.161557
701.749533	2565.614592
702.084974	2566.557287
702.420366	2564.918912
702.755709	2564.296330
703.091002	2562.862122
703.426246	2566.854715
703.761440	2565.639797
704.096584	2566.085939
704.431679	2564.220713
704.766725	2566.156516
705.101721	2564.767678
705.436668	2563.880435
705.771565	2564.613923
706.106413	2566.474108
706.441212	2563.605692
706.775961	2565.768347
707.110661	2564.321536
707.445311	2562.733572
707.779913	2560.540670
708.114465	2564.092163
708.448967	2565.259190
708.783421	2568.009140
709.117825	2564.114848
709.452180	2567.053841
709.786485	2566.252298
710.120742	2566.610219
710.454949	2569.481157
710.789107	2566.733728
711.123216	2566.771536
711.457275	2567.487380
711.791286	2568.026784
712.125247	2569.075344
712.459159	2572.538616
712.793023	2572.911662
713.126837	2569.692885
713.460602	2570.547361
713.794318	2569.992834
714.127985	2568.004098
714.461602	2565.009653
714.795171	2571.457289
715.128691	2567.333625
715.462162	2567.799932
715.795584	2564.470250
716.128957	2568.228430
716.462281	2562.431103
716.795556	2562.791545
717.128782	2560.550753
717.461960	2563.477142
717.795088	2564.618964
718.128167	2561.831206
718.461198	2560.286092
718.794180	2564.240877
719.127113	2559.345917
719.459997	2565.357493
719.792833	2560.891030
720.125619	2564.213151
720.458357	2558.887172
720.791046	2559.015721
721.123686	2558.703170
721.456278	2560.160063
721.788821	2561.725341
722.121315	2560.293654
722.453761	2558.733417
722.786158	2557.566389
723.118506	2560.694425
723.450805	2560.409600
723.783056	2558.975392
724.115259	2560.034034
724.447412	2559.035886
724.779518	2560.127296
725.111574	2559.174517
725.443582	2558.834240
725.775542	2559.408931
726.107453	2563.260373
726.439315	2560.901113
726.771129	2565.191135
727.102895	2560.606205
727.434612	2562.738613
727.766281	2561.080074
728.097901	2558.652758
728.429473	2559.993705
728.760996	2562.844477
729.092471	2555.595298
729.423897	2562.531926
729.755276	2559.550083
730.086606	2563.164591
730.417887	2562.496638
730.749120	2561.160732
731.080305	2564.089643
731.411442	2566.385888
731.742530	2562.083263
732.073570	2565.985116
732.404562	2565.481001
732.735506	2566.486711
733.066401	2565.254149
733.397249	2563.464539
733.728048	2560.205433
734.058798	2562.216854
734.389501	2560.701987
734.720156	2561.100238
735.050762	2559.729044
735.381320	2558.922460
735.711831	2559.537481
736.042293	2558.501523
736.372707	2557.687377
736.703073	2556.543035
737.033391	2555.670916
737.363661	2561.362378
737.693883	2558.360371
738.024056	2560.737275
738.354182	2560.686864
738.684260	2561.760629
739.014290	2561.763150
739.344272	2559.993705
739.674207	2559.587892
740.004093	2562.244580
740.333931	2558.330124
740.663722	2560.124775
740.993464	2561.753068
741.323159	2559.885320
741.652806	2562.307595
741.982405	2561.347255
742.311956	2559.935732
742.641460	2558.183931
742.970915	2557.084959
743.300323	2558.216698
743.629683	2557.357182
743.958996	2556.585885
744.288260	2555.010524
744.617477	2556.520350
744.946647	2549.803013
745.275768	2553.959444
745.604842	2551.847200
745.933869	2552.671429
746.262847	2550.942313
746.591778	2554.264434
746.920662	2556.601008
747.249498	2554.012376
747.578286	2556.021276
747.907027	2557.117727
748.235720	2556.401883
748.564365	2558.877089
748.892963	2554.377860
749.221514	2557.425237
749.550017	2553.914073
749.878473	2560.286092
750.206881	2553.951882
750.535242	2554.130843
750.863555	2555.053374
751.191821	2554.156049
751.520039	2555.648230
751.848210	2557.014383
752.176334	2556.391801
752.504411	2556.699311
752.832440	2553.989691
753.160421	2554.624876
753.488356	2553.140256
753.816243	2556.442212
754.144082	2554.123281
754.471875	2554.836605
754.799620	2553.578837
755.127318	2553.099927
755.454969	2554.438353
755.782572	2556.144784
756.110129	2556.996739
756.437638	2553.117571
756.765100	2552.621017
757.092515	2555.103786
757.419882	2553.903991
757.747203	2553.344423
758.074477	2552.184958
758.401703	2555.655792
758.728882	2553.979608
759.056014	2554.181255
759.383099	2557.737789
759.710138	2555.282747
760.037129	2553.641851
760.364073	2556.049002
760.690970	2555.386090
761.017820	2555.252500
761.344623	2555.711245
761.671379	2557.652089
761.998088	2552.986501
762.324751	2558.088149
762.651366	2560.805331
762.977935	2573.720767
763.304456	2574.265212
763.630931	2581.731160
763.957359	2579.089596
764.283740	2570.965776
764.610074	2566.688357
764.936362	2566.282544
765.262602	2560.800290
765.588796	2558.327604
765.914943	2554.513971
766.241044	2554.206460
766.567097	2554.519012
766.893104	2554.778631
767.219064	2552.245452
767.544978	2552.038764
767.870845	2551.925338
768.196665	2553.195709
768.522438	2549.951727
768.848165	2549.319062
769.173846	2551.975750
769.499479	2550.186140
769.825066	2550.226469
770.150607	2549.734957
770.476101	2546.816129
770.801548	2551.443908
771.126949	2548.736808
771.452303	2548.265461
771.777611	2548.787220
772.102872	2545.760007
772.428087	2549.717313
772.753256	2548.588094
773.078378	2549.671943
773.403453	2546.559030
773.728482	2546.158258
774.053465	2547.327806
774.378401	2544.915614
774.703291	2545.671787
775.028135	2547.738660
775.352932	2544.943340
775.677683	2549.966850
776.002388	2546.322096
776.327046	2547.093392
776.651658	2543.612476
776.976224	2545.197918
777.300743	2547.322765
777.625216	2543.904862
777.949643	2545.875954
778.274024	2544.204811
778.598359	2546.309493
778.922647	2540.489481
779.246889	2545.144986
779.571086	2540.746580
779.895236	2545.886036
780.219339	2544.098947
780.543397	2545.659184
780.867409	2543.438556
781.191374	2546.105326
781.515294	2544.098947
781.839167	2546.465769
782.162995	2547.705893
782.486776	2546.319575
782.810511	2547.153886
783.134201	2545.505429
783.457844	2545.966694
783.781441	2543.768751
784.104993	2543.993083
784.428498	2545.417209
784.751958	2545.323947
785.075372	2545.341591
785.398739	2547.983156
785.722061	2542.717671
786.045337	2547.292518
786.368568	2548.124308
786.691752	2545.830583
787.014891	2543.899821
787.337983	2544.903011
787.661030	2548.396531
787.984031	2547.635316
788.306987	2546.407795
788.629897	2548.517518
788.952760	2549.777807
789.275579	2547.842004
789.598351	2549.737477
789.921078	2548.865358
790.243759	2545.281098
790.566395	2545.868392
790.888984	2546.097764
791.211529	2543.367980
791.534027	2547.426108
791.856480	2545.548279
792.178888	2546.369987
792.501249	2547.980635
792.823566	2542.400078
793.145836	2544.678680
793.468062	2544.083823
793.790241	2544.338402
794.112375	2545.384441
794.434464	2544.960984
794.756507	2543.151210
795.078505	2543.216745
795.400457	2544.807229
795.722364	2541.250695
796.044226	2544.073741
796.366042	2542.251364
796.687812	2543.504091
797.009538	2545.520552
797.331218	2547.647919
797.652852	2546.732950
797.974442	2546.155738
798.295986	2546.788402
798.617484	2546.463248
798.938938	2544.547610
799.260346	2545.452497
799.581709	2545.218083
799.903026	2546.581715
800.224299	2545.785213
800.545526	2543.715819
800.866708	2541.903524
801.187845	2546.185985
801.508936	2543.413350
801.829983	2545.684390
802.150984	2542.788247
802.471940	2540.612989
802.792851	2541.739687
803.113717	2546.947199
803.434538	2543.675490
803.755314	2541.502753
804.076045	2544.098947
804.396731	2544.126673
804.717372	2542.337064
805.037967	2546.206149
805.358518	2541.384286
805.679024	2545.770089
805.999485	2543.408309
806.319901	2545.782692
806.640272	2539.819007
806.960598	2543.007537
807.280879	2543.307486
807.601115	2544.895449
807.921306	2542.717671
808.241453	2543.546941
808.561554	2541.144831
808.881611	2544.018288
809.201623	2544.199770
809.521590	2541.797660
809.841513	2543.436035
810.161390	2541.986703
810.481223	2541.893442
810.801011	2542.460572
811.120755	2544.008206
811.440453	2543.582229
811.760107	2542.785726
812.079716	2540.066024
812.399281	2539.093081
812.718801	2539.768596
813.038276	2537.353883
813.357707	2541.913607
813.677093	2543.032743
813.996434	2543.249513
814.315731	2541.316230
814.634983	2542.314378
814.954191	2543.602393
815.273354	2543.854451
815.592473	2544.345963
815.911547	2542.707588
816.230577	2543.274718
816.549562	2544.509801
816.868502	2541.727084
817.187399	2544.028371
817.506250	2546.105326
817.825058	2547.186654
818.143821	2545.021478
818.462539	2545.409647
818.781213	2545.729760
819.099843	2550.647406
819.418429	2551.285112
819.736970	2555.373487
820.055466	2556.122099
820.373919	2558.993036
820.692327	2563.565362
821.010691	2571.636250
821.329011	2588.685432
821.647286	2621.987294
821.965517	2663.327277
822.283704	2685.894002
822.601847	2694.027903
822.919945	2677.939061
823.237999	2652.720689
823.556010	2634.338121
823.873976	2614.284411
824.191897	2600.693461
824.509775	2589.320617
824.827609	2580.188567
825.145398	2573.776220
825.463144	2576.473237
825.780845	2576.291755
826.098502	2577.557085
826.416116	2590.621235
826.733685	2600.206989
827.051210	2608.252671
827.368692	2600.988368
827.686129	2589.464290
828.003522	2579.843248
828.320872	2566.330435
828.638177	2560.926318
828.955439	2554.637479
829.272656	2556.263251
829.589830	2548.870399
829.906960	2550.730585
830.224046	2550.407951
830.541088	2549.828218
830.858086	2547.617672
831.175041	2549.273691
831.491952	2546.357384
831.808819	2549.661860
832.125642	2549.263609
832.442421	2551.300235
832.759157	2553.762839
833.075849	2563.215002
833.392497	2570.108780
833.709101	2577.022723
834.025662	2575.248237
834.342179	2572.679769
834.658653	2564.631567
834.975083	2557.586554
835.291469	2562.055537
835.607811	2551.433826
835.924110	2549.472817
836.240366	2545.394523
836.556578	2545.039122
836.872746	2542.647095
837.188871	2544.429143
837.504952	2544.083823
837.820990	2542.795809
838.136984	2545.802857
838.452935	2541.495191
838.768842	2540.391178
839.084706	2542.621889
839.400526	2544.499719
839.716303	2548.275543
840.032037	2554.571944
840.347727	2554.423230
840.663373	2552.971378
840.978977	2545.318906
841.294537	2544.436704
841.610054	2542.576518
841.925527	2541.505273
842.240957	2541.197763
842.556344	2538.442772
842.871687	2540.718853
843.186987	2540.116435
843.502244	2539.710622
843.817458	2535.493697
844.132629	2541.369162
844.447756	2537.411856
844.762840	2532.325332
845.077881	2535.697864
845.392879	2535.223996
845.707833	2535.362627
846.022745	2530.744930
846.337613	2538.271373
846.652438	2539.335057
846.967221	2537.064017
847.281960	2538.495704
847.596656	2535.753317
847.911309	2537.038811
848.225919	2536.658204
848.540485	2537.121990
848.855009	2539.503935
849.169490	2538.783050
849.483928	2536.990920
849.798323	2536.824562
850.112675	2536.161650
850.426984	2536.610313
850.741251	2537.547967
851.055474	2537.230375
851.369654	2539.551826
851.683792	2536.756506
851.997887	2534.545960
852.311938	2534.480425
852.625947	2540.260108
852.939914	2535.329860
853.253837	2537.023687
853.567718	2536.703574
853.881555	2535.919675
854.195350	2538.904038
854.509103	2534.578728
854.822812	2535.004705
855.136479	2536.680889
855.450103	2536.791794
855.763685	2536.960673
856.077224	2535.279448
856.390720	2534.435055
856.704173	2537.270704
857.017584	2535.483615
857.330953	2536.605272
857.644278	2535.506300
857.957561	2537.610982
858.270802	2535.612164
858.584000	2536.819521
858.897155	2538.601569
859.210268	2537.394212
859.523339	2536.552340
859.836367	2536.484284
860.149352	2535.244160
860.462295	2537.880684
860.775195	2532.317770
861.088054	2532.947915
861.400869	2533.550333
861.713642	2530.233253
862.026373	2536.043183
862.339062	2535.367668
862.651708	2534.777853
862.964312	2537.439583
863.276873	2538.011754
863.589392	2538.253729
863.901869	2539.614841
864.214303	2535.566794
864.526696	2536.743903
864.839045	2539.304810
865.151353	2537.379089
865.463619	2538.883873
865.775842	2537.411856
866.088023	2537.482432
866.400162	2537.237937
866.712258	2536.441434
867.024313	2534.800539
867.336325	2535.702905
867.648296	2537.588297
867.960224	2537.295910
868.272110	2538.553678
868.583954	2539.917310
868.895755	2538.654501
869.207515	2536.368338
869.519233	2539.463606
869.830909	2537.822710
870.142542	2539.604758
870.454134	2539.529141
870.765684	2539.781199
871.077191	2538.745242
871.388657	2539.922351
871.700081	2539.624923
872.011463	2539.085519
872.322803	2538.077289
872.634101	2537.260622
872.945357	2538.031918
873.256571	2541.081816
873.567744	2541.258257
873.878874	2540.565098
874.189963	2541.006199
874.501010	2540.799512
874.812015	2541.487629
875.122979	2539.544264
875.433900	2540.373534
875.744780	2542.478216
876.055618	2539.660211
876.366415	2538.780530
876.677169	2541.316230
876.987882	2537.343801
877.298554	2537.328677
877.609183	2539.977804
877.919771	2538.011754
878.230317	2538.876312
878.540822	2544.164482
878.851285	2544.555171
879.161707	2545.560882
879.472087	2551.010369
879.782425	2553.727551
880.092722	2561.995043
880.402977	2572.203380
880.713191	2590.570824
881.023363	2610.652260
881.333494	2626.284878
881.643583	2630.247225
881.953631	2626.819240
882.263637	2621.266409
882.573602	2614.284411
882.883526	2603.377875
883.193408	2596.864704
883.503248	2583.770307
883.813048	2575.699420
884.122806	2570.887638
884.432522	2565.869170
884.742197	2559.179559
885.051831	2557.725186
885.361424	2554.440874
885.670975	2556.424568
885.980485	2550.657488
886.289954	2550.113043
886.599382	2545.074410
886.908768	2546.508618
887.218113	2546.795964
887.527417	2545.286139
887.836680	2540.761703
888.145901	2543.574667
888.455082	2540.885211
888.764221	2539.360262
889.073319	2542.044677
889.382376	2542.120294
889.691392	2539.703061
890.000366	2543.249512
890.309300	2541.764893
890.618193	2543.809081
890.927044	2542.929399
891.235855	2540.272711
891.544625	2541.689275
891.853353	2542.460572
892.162041	2543.887218
892.470687	2543.486447
892.779293	2543.413350
893.087858	2545.593649
893.396381	2545.034081
893.704864	2549.291335
894.013306	2549.533311
894.321707	2562.846998
894.630068	2568.377144
894.938387	2569.400498
895.246665	2569.410580
895.554903	2562.831875
895.863100	2559.774415
896.171256	2557.669733
896.479371	2555.123950
896.787446	2553.626728
897.095480	2549.808054
897.403473	2546.496016
897.711425	2546.173382
898.019336	2545.555840
898.327207	2542.931920
898.635038	2546.261602
898.942827	2543.231868
899.250576	2544.277908
899.558284	2539.481250
899.865952	2540.749100
900.173579	2538.442772
900.481165	2541.351518
900.788711	2536.872453
901.096216	2539.977804
901.403681	2539.682896
901.711105	2540.358411
902.018489	2539.793802
902.325832	2542.949564
902.633135	2539.685417
902.940397	2540.938143
903.247619	2546.735470
903.554800	2548.013403
903.861941	2561.115362
904.169041	2572.367217
904.476101	2581.406006
904.783121	2581.768969
905.090100	2577.103381
905.397039	2567.159705
905.703938	2561.133006
906.010796	2559.202244
906.317614	2549.825698
906.624391	2549.127498
906.931129	2545.845707
907.237826	2542.329502
907.544483	2540.872608
907.851099	2539.841692
908.157675	2540.010571
908.464211	2536.781712
908.770707	2533.091588
909.077163	2535.781043
909.383578	2533.283151
909.689954	2535.155940
909.996289	2530.916330
910.302584	2537.353883
910.608839	2536.262473
910.915054	2536.675848
911.221229	2535.322298
911.527363	2535.034952
911.833458	2536.897659
912.139513	2537.152237
912.445527	2535.844058
912.751502	2539.340098
913.057436	2537.300951
913.363331	2540.562577
913.669186	2536.716177
913.975000	2540.842362
914.280775	2544.187167
914.586510	2544.557692
914.892205	2549.780327
915.197859	2555.318035
915.503475	2564.142575
915.809050	2571.462330
916.114585	2580.193608
916.420081	2577.579770
916.725536	2579.870975
917.030952	2575.457444
917.336328	2567.497463
917.641665	2563.857749
917.946961	2559.504713
918.252218	2558.932542
918.557435	2552.779814
918.862612	2550.723023
919.167750	2547.579864
919.472848	2547.035419
919.777906	2544.348484
920.082925	2541.971580
920.387904	2541.580891
920.692843	2538.556198
920.997743	2539.844213
921.302603	2538.898997
921.607423	2536.708615
921.912204	2539.536703
922.216946	2540.928061
922.521647	2538.800694
922.826310	2536.842206
923.130932	2538.168029
923.435516	2533.225178
923.740059	2538.117618
924.044564	2536.627957
924.349028	2536.897659
924.653454	2531.251566
924.957840	2534.072092
925.262186	2532.390867
925.566493	2532.862215
925.870761	2530.659231
926.174989	2533.015970
926.479178	2533.646114
926.783328	2536.937988
927.087438	2533.855322
927.391509	2534.823224
927.695541	2533.971269
927.999533	2533.255425
928.303486	2534.886238
928.607400	2533.114273
928.911275	2534.699716
929.215110	2532.448840
929.518906	2532.360620
929.822663	2533.454551
930.126381	2533.850281
930.430060	2531.894313
930.733699	2533.424304
931.037299	2533.600744
931.340861	2534.641742
931.644383	2534.288862
931.947866	2531.344828
932.251309	2530.651669
932.554714	2530.260980
932.858080	2536.804397
933.161407	2532.542102
933.464694	2533.031094
933.767943	2534.855991
934.071153	2531.377595
934.374323	2530.364323
934.677455	2533.865405
934.980548	2532.562266
935.283602	2532.610157
935.586617	2531.589324
935.889593	2534.155271
936.192530	2530.974303
936.495428	2531.889272
936.798287	2534.848430
937.101108	2533.414221
937.403890	2533.426824
937.706632	2531.997657
938.009336	2536.083512
938.312002	2533.832637
938.614628	2535.087884
938.917216	2534.921526
939.219765	2536.154088
939.522275	2537.989068
939.824747	2537.580735
940.127179	2533.046217
940.429573	2532.239633
940.731929	2533.078985
941.034246	2529.172090
941.336524	2532.673172
941.638763	2533.935981
941.940964	2536.600231
942.243126	2535.390354
942.545250	2535.770961
942.847335	2532.335414
943.149381	2535.380271
943.451389	2534.745086
943.753359	2533.315919
944.055290	2533.094108
944.357182	2534.447658
944.659036	2530.087060
944.960851	2531.226361
945.262628	2531.712832
945.564367	2532.058151
945.866067	2532.894983
946.167729	2533.716691
946.469352	2531.438089
946.770937	2534.624098
947.072484	2533.192411
947.373992	2532.554705
947.675462	2531.483459
947.976893	2531.818696
948.278286	2533.935981
948.579641	2533.101670
948.880958	2533.326001
949.182236	2530.639066
949.483476	2535.302133
949.784678	2531.995137
950.085841	2532.496731
950.386967	2534.286341
950.688054	2530.520599
950.989103	2533.144520
951.290114	2532.960518
951.591087	2534.493028
951.892021	2532.763913
952.192917	2531.642256
952.493776	2535.922195
952.794596	2532.138809
953.095378	2531.329704
953.396122	2533.966228
953.696828	2534.263656
953.997496	2533.741896
954.298126	2530.608819
954.598718	2533.817514
954.899272	2533.154602
955.199788	2534.238450
955.500266	2532.589993
955.800706	2529.167049
956.101108	2528.660413
956.401472	2527.826102
956.701798	2525.761750
957.002087	2527.843746
957.302337	2528.635208
957.602550	2528.438602
957.902724	2528.239477
958.202861	2530.351720
958.502960	2529.930784
958.803022	2531.448171
959.103045	2531.014632
959.403031	2532.751310
959.702979	2529.701412
960.002889	2529.509848
960.302762	2530.535723
960.602596	2528.393232
960.902393	2531.480939
961.202153	2529.209899
961.501875	2529.260311
961.801559	2530.523120
962.101205	2528.161339
962.400814	2528.945238
962.700385	2528.685619
962.999918	2530.775177
963.299414	2530.863397
963.598873	2529.872811
963.898293	2530.082019
964.197677	2531.803573
964.497022	2527.939528
964.796331	2527.561442
965.095601	2529.771988
965.394835	2532.920188
965.694030	2527.253931
965.993189	2529.169570
966.292309	2527.309384
966.591393	2529.749303
966.890439	2526.528005
967.189447	2529.098994
967.488419	2528.209230
967.787353	2531.097811
968.086249	2528.254600
968.385108	2530.094622
968.683930	2527.125382
968.982714	2528.685619
969.281462	2530.208048
969.580172	2528.912471
969.878844	2528.236956
970.177480	2528.594878
970.476078	2531.579241
970.774639	2529.124199
971.073162	2529.703932
971.371649	2526.712007
971.670098	2524.695546
971.968510	2528.441123
972.266885	2525.935670
972.565223	2527.511030
972.863524	2529.076308
973.161788	2530.351720
973.460014	2527.090094
973.758204	2531.324663
974.056356	2530.087060
974.354471	2528.347862
974.652550	2529.860208
974.950591	2527.705115
975.248595	2528.552028
975.546563	2529.250228
975.844493	2529.769467
976.142386	2529.961031
976.440243	2527.619415
976.738062	2531.309540
977.035845	2529.267872
977.333590	2528.758716
977.631299	2527.251411
977.928971	2531.816176
978.226606	2526.951462
978.524204	2528.378109
978.821765	2528.985568
979.119290	2530.172759
979.416777	2531.223840
979.714228	2528.844415
980.011642	2525.867614
980.309020	2531.632173
980.606360	2527.334590
980.903664	2528.781401
981.200931	2524.481297
981.498162	2530.061854
981.795356	2529.199817
982.092513	2529.585465
982.389633	2530.409694
982.686717	2530.823068
982.983764	2532.199303
983.280775	2533.136958
983.577749	2532.007739
983.874686	2531.304498
984.171587	2532.917668
984.468451	2531.569159
984.765279	2527.440454
985.062070	2526.391894
985.358824	2528.095804
985.655543	2530.881042
985.952224	2529.598068
986.248869	2526.832995
986.545478	2519.644310
986.842050	2527.437933
987.138586	2525.434075
987.435086	2525.749147
987.731549	2524.773684
988.027975	2529.943387
988.324366	2527.342152
988.620719	2527.697553
988.917037	2528.052954
989.213318	2528.274765
989.509563	2526.845598
989.805772	2527.337110
990.101944	2527.700073
990.398080	2528.499096
990.694180	2529.688809
990.990244	2529.378778
991.286271	2528.559590
991.582262	2526.190248
991.878217	2525.885258
992.174136	2527.783252
992.470019	2524.448529
992.765865	2526.896009
993.061676	2528.047913
993.357450	2528.705784
993.653188	2527.369878
993.948890	2525.754188
994.244556	2527.909281
994.540186	2529.315763
994.835780	2527.407687
995.131337	2530.129910
995.426859	2528.012625
995.722345	2526.525485
996.017795	2527.957172
996.313208	2528.380629
996.608586	2529.353572
996.903928	2531.077647
997.199234	2525.116482
997.494504	2531.148223
997.789738	2525.739065
998.084936	2526.333921
998.380099	2528.032790
998.675225	2524.892151
998.970316	2528.322656
999.265371	2528.418438
999.560390	2526.805269
999.855373	2526.134795
1000.150320	2529.716535
1000.445232	2525.779394
1000.740108	2525.572707
1001.034948	2526.217974
1001.329752	2529.086391
1001.624521	2525.358457
1001.919254	2519.818229
1002.213951	2523.757891
1002.508613	2522.240504
1002.803239	2524.529188
1003.097829	2521.403672
1003.392384	2526.606143
1003.686903	2524.345186
1003.981386	2527.982378
1004.275834	2527.034641
1004.570246	2527.329549
1004.864623	2527.448016
1005.158964	2527.795855
1005.453270	2525.449198
1005.747540	2526.659075
1006.041775	2528.080681
1006.335974	2526.500279
1006.630138	2527.753006
1006.924266	2527.672347
1007.218359	2526.956503
1007.512416	2526.107069
1007.806438	2526.898530
1008.100425	2527.112779
1008.394376	2529.315763
1008.688292	2526.928777
1008.982172	2526.230577
1009.276017	2524.879548
1009.569827	2526.404497
1009.863602	2526.449867
1010.157341	2525.182017
1010.451045	2527.508510
1010.744714	2525.693694
1011.038347	2528.320135
1011.331945	2526.651513
1011.625508	2527.871473
1011.919036	2527.321987
1012.212528	2527.652183
1012.505986	2527.183355
1012.799408	2525.363499
1013.092795	2526.177645
1013.386147	2527.730320
1013.679464	2526.396935
1013.972745	2527.727800
1014.265992	2528.549508
1014.559204	2526.021369
1014.852380	2527.047244
1015.145521	2527.942049
1015.438628	2524.287212
1015.731699	2524.972809
1016.024736	2527.629497
1016.317737	2527.248890
1016.610703	2523.314270
1016.903635	2524.468694
1017.196531	2521.312932
1017.489393	2522.454753
1017.782219	2521.010462
1018.075011	2526.636390
1018.367768	2526.102028
1018.660490	2526.719569
1018.953177	2526.719569
1019.245829	2526.719569
