Dividing Wavelength (nm)	Counts (n)	Blue Motor Position (mm): 0.000000	Red Motor Position (mm): 26.300000	
326.493990	2128.428086
326.888308	2128.428086
327.282561	2128.428086
327.676750	2094.339804
328.070874	2093.432396
328.464933	2096.812490
328.858929	2101.213417
329.252859	2113.120622
329.646726	2123.424741
330.040528	2135.367234
330.434265	2154.185862
330.827938	2170.534323
331.221547	2189.403362
331.615091	2206.573532
332.008571	2225.671944
332.401986	2244.702299
332.795338	2265.376071
333.188625	2285.376849
333.581847	2306.527010
333.975006	2322.474700
334.368100	2341.328616
334.761129	2357.999712
335.154095	2374.287680
335.546996	2393.159239
335.939833	2407.771023
336.332606	2424.820206
336.725315	2435.005857
337.117960	2445.493978
337.510540	2455.130143
337.903056	2465.792184
338.295508	2471.002216
338.687896	2481.235758
339.080220	2490.496358
339.472480	2497.921978
339.864676	2502.005312
340.256807	2505.302227
340.648875	2508.152999
341.040879	2511.465037
341.432818	2513.789009
341.824694	2515.941582
342.216506	2513.852024
342.608253	2515.871006
342.999937	2513.539472
343.391557	2514.817405
343.783113	2515.228259
344.174605	2514.091479
344.566033	2511.800274
344.957397	2509.627537
345.348697	2506.557474
345.739934	2505.579490
346.131106	2503.343739
346.522215	2504.369613
346.913260	2499.973727
347.304241	2498.826865
347.695159	2496.371823
348.086012	2497.286792
348.476802	2495.537512
348.867528	2492.175062
349.258191	2492.666575
349.648789	2490.599702
350.039324	2489.450319
350.429796	2487.713641
350.820203	2486.576861
351.210548	2484.699031
351.600828	2486.748260
351.991045	2486.924701
352.381198	2483.370687
352.771288	2482.826243
353.161314	2481.485296
353.551276	2485.727427
353.941175	2480.582929
354.331010	2482.647282
354.720782	2482.916983
355.110490	2483.221973
355.500135	2484.472179
355.889717	2482.657364
356.279235	2484.489823
356.668689	2485.102323
357.058080	2484.575523
357.447408	2483.315234
357.836672	2480.335913
358.225873	2484.015955
358.615010	2480.068731
359.004084	2488.235401
359.393095	2483.907570
359.782043	2488.749598
360.170927	2490.574496
360.559748	2489.326810
360.948505	2489.440236
361.337199	2492.275885
361.725830	2490.677840
362.114398	2491.769249
362.502903	2494.075577
362.891344	2493.594147
363.279722	2491.673468
363.668037	2493.553818
364.056289	2494.967862
364.444478	2494.854436
364.832603	2494.758654
365.220665	2495.164467
365.608665	2496.316370
365.996601	2500.543378
366.384474	2497.395177
366.772284	2500.477843
367.160031	2503.915910
367.547715	2505.821466
367.935336	2505.647546
368.322893	2511.195336
368.710388	2511.709533
369.097820	2521.973323
369.485189	2519.810668
369.872495	2528.514220
370.259738	2534.107380
370.646918	2543.862013
371.034035	2547.668084
371.421090	2559.648386
371.808081	2571.275807
372.195010	2579.359297
372.581875	2594.351689
372.968678	2604.834768
373.355418	2614.881788
373.742096	2631.815024
374.128710	2646.515028
374.515262	2662.966834
374.901751	2677.077024
375.288177	2689.977336
375.674540	2715.447766
376.060841	2734.031980
376.447079	2753.485792
376.833254	2773.698299
377.219367	2784.153652
377.605417	2824.797955
377.991404	2832.180725
378.377329	2854.218129
378.763191	2873.135058
379.148991	2909.683424
379.534727	2934.145623
379.920402	2962.572689
380.306013	2973.922847
380.691563	3023.721886
381.077049	3047.130483
381.462474	3064.915674
381.847835	3103.578804
382.233134	3127.801548
382.618371	3125.933800
383.003545	3193.422247
383.388657	3200.918443
383.773706	3231.619070
384.158693	3250.210846
384.543618	3274.526851
384.928480	3309.759475
385.313280	3356.924511
385.698017	3357.486599
386.082692	3412.775454
386.467305	3412.296545
386.851856	3447.546813
387.236344	3470.690750
387.620770	3499.468177
388.005133	3528.283412
388.389435	3555.679563
388.773674	3565.683733
389.157851	3603.608333
389.541965	3621.396044
389.926018	3588.121908
390.310008	3660.654030
390.693936	3680.196063
391.077802	3717.089747
391.461606	3705.021225
391.845348	3770.762912
392.229027	3768.386008
392.612645	3784.948719
392.996200	3860.341696
393.379694	3901.603540
393.763125	3963.045123
394.146494	3930.907767
394.529801	3994.751460
394.913047	4044.164850
395.296230	4010.212679
395.679351	4064.720155
396.062410	4086.192950
396.445408	4070.971186
396.828343	4102.017132
397.211217	4126.018065
397.594028	4044.336249
397.976778	4109.099953
398.359466	4133.705825
398.742092	4169.230836
399.124656	4090.195626
399.507158	4168.711597
399.889598	4195.465000
400.271977	4260.352212
400.654294	4224.403744
401.036549	4237.296495
401.418742	4206.532854
401.800874	4306.133451
402.182944	4327.021472
402.564952	4394.605701
402.946898	4383.714288
403.328783	4377.438051
403.710606	4289.066624
404.092367	4483.634998
404.474067	4448.162919
404.855705	4453.594763
405.237282	4381.642374
405.618797	4492.817460
406.000250	4526.520094
406.381642	4609.439513
406.762972	4569.493410
407.144240	4576.556067
407.525447	4584.284155
407.906593	4639.797342
408.287677	4679.647663
408.668700	4611.932364
409.049661	4663.291639
409.430560	4702.211867
409.811399	4629.422647
410.192176	4791.886432
410.572891	4728.660281
410.953545	4829.715251
411.334138	4709.544226
411.714669	4779.694402
412.095139	4672.466539
412.475547	4818.753262
412.855894	4793.222338
413.236180	4810.183300
413.616405	4759.459210
413.996568	4849.484136
414.376670	4790.537924
414.756711	4744.005553
415.136691	4773.997898
415.516609	4853.675855
415.896466	4890.942585
416.276262	4925.222431
416.655997	4905.456067
417.035670	5087.595476
417.415283	5178.190052
417.794834	5119.024550
418.174324	5081.379733
418.553753	4980.957428
418.933121	5165.924924
419.312428	5235.961675
419.691674	5171.049257
420.070859	5300.327127
420.449983	5213.606678
420.829045	5326.016847
421.208047	5233.567127
421.586988	5306.512623
421.965867	5319.551567
422.344686	5451.521413
422.723444	5304.594464
423.102141	5124.194253
423.480777	5419.668883
423.859352	5187.264129
424.237866	5445.628304
424.616319	5438.830308
424.994712	5548.331732
425.373044	5432.173465
425.751314	5571.773097
426.129524	5373.234815
426.507673	5567.324279
426.885762	5650.682278
427.263789	5581.794911
427.641756	5462.206139
428.019662	5581.938584
428.397508	5590.054842
428.775292	5536.031316
429.153016	5635.508405
429.530679	5565.050718
429.908282	5646.114993
430.285824	5515.407956
430.663305	5791.191839
431.040726	5525.974214
431.418086	5527.370614
431.795385	5630.295852
432.172624	5644.693387
432.549802	5637.940762
432.926920	5651.299820
433.303977	5657.616385
433.680974	5698.187592
434.057910	5715.934974
434.434786	5723.199276
434.811601	5688.889183
435.188355	5920.825110
435.565050	5793.815759
435.941683	5777.046361
436.318257	5990.209031
436.694770	5974.198326
437.071222	6008.478173
437.447614	5940.044509
437.823946	5848.756775
438.200218	6001.841493
438.576429	5866.511718
438.952580	5962.091995
439.328670	6000.288818
439.704700	5909.048975
440.080670	5892.945009
440.456580	6158.540720
440.832429	6038.709972
441.208218	5883.089553
441.583947	6035.856679
441.959616	6031.841400
442.335224	5962.870854
442.710773	6086.278300
443.086261	6104.728923
443.461689	5899.669908
443.837057	6038.515888
444.212365	6190.332756
444.587612	6075.923770
444.962800	6217.360903
445.337927	6183.018042
445.712995	5794.997910
446.088002	6348.398135
446.462949	6168.484396
446.837837	6093.391368
447.212664	6246.604636
447.587431	6370.964860
447.962139	6875.342385
448.336786	7725.525419
448.711374	7462.339380
449.085901	6578.168886
449.460369	6496.131669
449.834776	6407.833339
450.209124	6748.922849
450.583412	6861.413677
450.957640	6976.704865
451.331808	6741.461942
451.705917	6306.922042
452.079965	6214.489966
452.453954	6376.212702
452.827883	6244.068936
453.201752	6298.150434
453.575562	6098.112408
453.949311	6245.079687
454.323001	6113.424913
454.696632	6153.126520
455.070202	6231.271967
455.443713	6334.625703
455.817164	6375.534666
456.190556	6399.152472
456.563888	6427.690444
456.937160	6421.275576
457.310373	6109.059274
457.683526	6091.047231
458.056619	5952.153361
458.429653	5909.144757
458.802628	5818.913144
459.175542	5854.964956
459.548398	6069.256844
459.921194	6133.153469
460.293930	6085.254946
460.666607	6383.504731
461.039224	6541.925511
461.411782	6562.682462
461.784280	6522.532192
462.156719	6384.770060
462.529099	6245.200675
462.901419	5921.596407
463.273680	5795.239885
463.645882	5750.807155
464.018024	5597.805616
464.390106	5634.401872
464.762130	5797.785668
465.134094	5996.192881
465.505999	6484.214382
465.877845	7065.046045
466.249631	7339.756163
466.621358	7037.049997
466.993026	6613.411593
467.364634	6396.886473
467.736184	6121.614268
468.107674	5873.181165
468.479105	5792.981448
468.850477	5620.576507
469.221790	5432.937200
469.593043	5208.615936
469.964238	5065.051436
470.335373	5002.546169
470.706449	4956.689313
471.077467	4882.755751
471.448425	5297.796468
471.819324	5605.599239
472.190164	5536.091810
472.560945	5021.160630
472.931667	4670.906302
473.302330	4562.556782
473.672934	4383.777302
474.043479	4426.934620
474.413965	4349.149617
474.784393	4245.536261
475.154761	4230.382553
475.525070	4193.965257
475.895321	4093.686625
476.265513	4075.150302
476.635645	4064.571441
477.005719	3998.993591
477.375734	3974.954849
477.745691	3967.957727
478.115588	3935.260803
478.485427	3927.424330
478.855207	3974.995178
479.224928	4065.975402
479.594591	4123.452118
479.964194	4018.079399
480.333739	3938.393881
480.703226	3839.128520
481.072653	3805.478818
481.442022	3787.486940
481.811333	3763.533898
482.180584	3676.024508
482.549777	3582.354828
482.918912	3513.893439
483.287988	3475.676451
483.657005	3429.887651
484.025964	3354.368646
484.394864	3317.850527
484.763706	3273.596758
485.132489	3216.538458
485.501213	3173.832324
485.869879	3146.602531
486.238487	3100.589399
486.607036	3083.767069
486.975527	3035.369472
487.343959	3020.813140
487.712333	2996.655931
488.080648	2971.172898
488.448905	2947.018209
488.817104	2918.392017
489.185244	2911.750297
489.553326	2896.707494
489.921350	2902.023391
490.289315	2925.621032
490.657222	2916.683066
491.025070	2887.817419
491.392861	2869.502907
491.760593	2838.847651
492.128267	2808.877991
492.495883	2782.013682
492.863440	2761.972575
493.230939	2740.991293
493.598380	2732.418811
493.965763	2715.636809
494.333088	2709.784030
494.700354	2694.234591
495.067563	2693.286854
495.434713	2680.033660
495.801805	2681.919052
496.168839	2675.736077
496.535815	2667.216527
496.902733	2662.611433
497.269593	2659.921977
497.636395	2654.671615
498.003139	2650.936120
498.369825	2646.976294
498.736453	2644.995121
499.103023	2642.250212
499.469535	2642.023360
499.835989	2636.321815
500.202385	2634.799387
500.568723	2630.574900
500.935003	2628.525671
501.301226	2624.941411
501.667390	2629.702780
502.033497	2627.633387
502.399546	2625.127933
502.765537	2621.009311
503.131470	2619.481841
503.497345	2621.982253
503.863163	2616.137035
504.228923	2618.609721
504.594625	2616.527725
504.960269	2614.216356
505.325856	2615.879937
505.691385	2609.812908
506.056856	2613.833228
506.422270	2609.099585
506.787625	2610.327106
507.152924	2610.884153
507.518164	2613.568567
507.883347	2606.183277
508.248472	2607.486415
508.613540	2608.787033
508.978550	2604.126486
509.343503	2602.518358
509.708398	2607.461210
510.073236	2604.320571
510.438016	2607.078082
510.802738	2602.387288
511.167403	2603.498863
511.532010	2603.347628
511.896561	2605.452310
512.261053	2605.651435
512.625488	2600.685899
512.989866	2598.911413
513.354186	2598.137596
513.718449	2594.888572
514.082655	2599.728080
514.446803	2601.018615
514.810894	2603.392998
515.174927	2601.603389
515.538904	2599.241608
515.902822	2601.527772
516.266684	2600.549788
516.630488	2600.486773
516.994235	2599.067688
517.357925	2602.064654
517.721558	2600.363265
518.085133	2602.246136
518.448651	2598.092225
518.812112	2602.341918
519.175516	2598.835795
519.538863	2601.588265
519.902152	2601.416866
520.265385	2601.920982
520.628560	2598.992071
520.991678	2597.089036
521.354739	2602.074737
521.717743	2601.447113
522.080690	2599.092894
522.443580	2600.859819
522.806413	2599.481063
523.169189	2600.383430
523.531908	2599.377719
523.894569	2601.119438
524.257174	2598.518203
524.619722	2601.593307
524.982213	2599.249170
525.344647	2598.450147
525.707025	2600.375868
526.069345	2600.753954
526.431608	2598.175404
526.793815	2600.547267
527.155964	2597.562904
527.518057	2598.107349
527.880093	2598.782863
528.242072	2600.852257
528.603995	2598.871083
528.965860	2598.087184
529.327669	2598.979468
529.689421	2597.777153
530.051117	2598.888727
530.412755	2599.586927
530.774337	2596.431165
531.135862	2598.845878
531.497331	2596.063161
531.858743	2593.739189
532.220098	2595.095259
532.581396	2592.138622
532.942638	2595.039807
533.303824	2596.448809
533.664953	2596.912595
534.026025	2594.291195
534.387040	2595.143150
534.747999	2598.094746
535.108902	2593.003180
535.469748	2595.193562
535.830537	2597.262955
536.191270	2597.240270
536.551947	2597.865373
536.912567	2594.334045
537.273131	2595.460743
537.633638	2595.891762
537.994089	2595.922008
538.354483	2596.776484
538.714821	2594.928901
539.075103	2594.780187
539.435328	2594.490321
539.795497	2596.143819
540.155609	2595.352358
540.515665	2595.425455
540.875665	2598.427462
541.235609	2599.357555
541.595496	2595.770774
541.955328	2598.384612
542.315102	2595.306988
542.674821	2595.107862
543.034483	2597.008377
543.394090	2596.894951
543.753640	2597.711618
544.113134	2596.453850
544.472571	2597.661207
544.831953	2597.237750
545.191278	2596.728593
545.550548	2599.770929
545.909761	2598.528285
546.268918	2597.419231
546.628019	2597.726742
546.987064	2596.963007
547.346053	2597.356217
547.704986	2595.352358
548.063863	2596.050558
548.422684	2597.764550
548.781449	2595.634663
549.140158	2594.820516
549.498811	2595.223809
549.857408	2594.230701
550.215949	2592.410845
550.574434	2594.276072
550.932864	2594.858325
551.291237	2592.327666
551.649555	2597.789756
552.007817	2597.888058
552.366022	2597.252873
552.724173	2600.620364
553.082267	2595.687595
553.440305	2597.935949
553.798288	2596.587441
554.156215	2597.842688
554.514086	2601.414346
554.871902	2595.349837
555.229661	2596.554673
555.587365	2594.152563
555.945014	2597.515013
556.302606	2595.982502
556.660143	2596.804210
557.017625	2597.177256
557.375050	2595.659868
557.732421	2597.073912
558.089735	2596.723552
558.446994	2597.575507
558.804197	2596.226998
559.161345	2599.120621
559.518437	2595.932091
559.875474	2598.810590
560.232455	2597.998964
560.589381	2594.568459
560.946251	2599.584407
561.303065	2595.430496
561.659825	2599.854108
562.016528	2596.852101
562.373177	2594.883531
562.729770	2595.536360
563.086307	2597.396546
563.442789	2597.230188
563.799216	2595.964858
564.155587	2595.279261
564.511904	2595.312029
564.868164	2596.138778
565.224370	2598.966865
565.580520	2595.178438
565.936615	2594.117275
566.292654	2596.466453
566.648638	2596.179107
567.004567	2595.642224
567.360441	2596.925198
567.716260	2592.950248
568.072023	2596.342945
568.427732	2589.038313
568.783385	2594.719693
569.138982	2589.149218
569.494525	2595.102821
569.850013	2591.142995
570.205445	2593.872779
570.560823	2595.576689
570.916145	2594.364292
571.271412	2595.889241
571.626625	2597.293202
571.981782	2593.058633
572.336884	2595.667430
572.691931	2596.327821
573.046923	2592.027717
573.401860	2594.896134
573.756743	2594.006370
574.111570	2595.362440
574.466342	2592.708273
574.821059	2592.667944
575.175722	2591.576534
575.530330	2591.261462
575.884882	2593.587954
576.239380	2593.146853
576.593823	2590.064188
576.948211	2592.473859
577.302544	2591.183324
577.656823	2592.148705
578.011047	2592.221802
578.365216	2592.362954
578.719330	2591.788262
579.073389	2594.208016
579.427394	2589.053436
579.781344	2588.405648
580.135239	2591.616863
580.489080	2590.495206
580.842866	2592.516709
581.196597	2590.835484
581.550273	2589.794486
581.903895	2590.434712
582.257463	2589.348344
582.610975	2590.520412
582.964434	2589.449167
583.317837	2588.965216
583.671186	2589.068560
584.024481	2587.783066
584.377721	2589.219794
584.730906	2587.694845
585.084037	2588.715679
585.437113	2590.873293
585.790135	2589.882706
586.143103	2586.626121
586.496016	2587.334403
586.848874	2584.443301
587.201679	2587.783066
587.554428	2582.840214
587.907124	2585.320462
588.259765	2583.591346
588.612352	2587.389856
588.964884	2583.823239
589.317362	2588.067891
589.669786	2585.668302
590.022155	2585.849783
590.374470	2586.540421
590.726731	2587.026892
591.078937	2585.446491
591.431090	2585.759042
591.783188	2582.857858
592.135232	2586.316090
592.487222	2586.195102
592.839157	2584.745770
593.191038	2588.284660
593.542866	2585.204515
593.894639	2582.268043
594.246358	2586.616038
594.598022	2585.738878
594.949633	2584.309711
595.301190	2584.405492
595.652692	2584.609659
596.004141	2585.943044
596.355535	2585.867427
596.706876	2581.766448
597.058162	2585.890112
597.409395	2584.143352
597.760573	2583.823239
598.111698	2580.511201
598.462768	2584.365163
598.813785	2583.833322
599.164748	2584.423137
599.515657	2583.828280
599.866511	2581.849627
600.217312	2581.910121
600.568060	2581.219483
600.918753	2584.919690
601.269392	2584.496233
601.619978	2583.770307
601.970510	2584.261820
602.320988	2583.792992
602.671412	2582.739391
603.021783	2582.081521
603.372100	2582.346181
603.722363	2581.292580
604.072572	2581.685790
604.422728	2584.251737
604.772830	2579.455079
605.122878	2577.173957
605.472872	2577.743608
605.822813	2576.306879
606.172701	2580.622107
606.522534	2581.746284
606.872314	2583.666963
607.222041	2581.123701
607.571714	2582.464648
607.921333	2585.292736
608.270899	2581.940368
608.620411	2582.452045
608.969870	2583.762745
609.319276	2584.483630
609.668627	2587.117633
610.017926	2587.450349
610.367171	2591.150556
610.716362	2591.921853
611.065500	2588.914805
611.414585	2585.754001
611.763616	2587.173086
612.112594	2589.413879
612.461518	2587.909094
612.810389	2586.575709
613.159207	2585.088569
613.507971	2585.418764
613.856682	2581.252251
614.205340	2584.917170
614.553945	2586.580750
614.902496	2584.188723
615.250994	2586.981522
615.599439	2583.215780
615.947830	2584.523960
616.296169	2584.370204
616.644454	2583.014134
616.992686	2582.343661
617.340864	2583.069587
617.688990	2583.109916
618.037063	2582.852817
618.385082	2582.557910
618.733048	2582.782241
619.080961	2585.348188
619.428821	2585.754001
619.776628	2583.626634
620.124382	2584.808785
620.472083	2585.302818
620.819731	2586.081676
621.167326	2583.596387
621.514868	2582.825091
621.862357	2583.641758
622.209793	2580.599421
622.557176	2580.604463
622.904506	2576.480799
623.251783	2575.598597
623.599007	2577.720922
623.946179	2574.870150
624.293297	2574.981055
624.640363	2577.771334
624.987376	2581.811819
625.334336	2578.076324
625.681243	2577.375603
626.028097	2580.080183
626.374899	2578.373752
626.721647	2577.804102
627.068343	2577.899883
627.414987	2575.769996
627.761577	2575.545665
628.108115	2577.428536
628.454600	2576.745459
628.801032	2577.544482
629.147412	2577.307548
629.493739	2576.901735
629.840014	2576.148083
630.186236	2577.665470
630.532405	2577.932651
630.878521	2577.052970
631.224585	2577.531879
631.570597	2575.830490
631.916556	2575.593556
632.262462	2573.882084
632.608316	2574.774368
632.954117	2573.549368
633.299866	2574.313102
633.645562	2574.418967
633.991206	2575.192784
634.336797	2572.707495
634.682336	2575.326374
635.027823	2569.080385
635.373257	2572.178174
635.718639	2571.006106
636.063968	2570.743966
636.409245	2570.496949
636.754470	2570.423852
637.099642	2570.267577
637.444762	2571.094326
637.789829	2568.679613
638.134845	2568.097360
638.479808	2569.897052
638.824719	2569.498801
639.169577	2569.758420
639.514383	2566.801783
639.859137	2566.642987
640.203839	2569.377813
640.548489	2568.465364
640.893086	2565.405384
641.237632	2563.252811
641.582125	2568.593913
641.926566	2565.027297
642.270955	2567.268090
642.615292	2565.279355
642.959576	2570.454099
643.303809	2570.328070
643.647990	2568.271280
643.992118	2569.796229
644.336195	2566.090981
644.680219	2567.482339
645.024192	2567.870508
645.368112	2566.471588
645.711981	2567.487380
646.055797	2568.944274
646.399562	2570.149109
646.743274	2568.626681
647.086935	2572.127762
647.430544	2571.288410
647.774101	2570.007957
648.117606	2572.147927
648.461059	2570.063410
648.804460	2574.769327
649.147810	2570.779254
649.491108	2570.882597
649.834354	2566.726166
650.177548	2566.045610
650.520690	2567.789849
650.863781	2566.693398
651.206820	2568.707339
651.549807	2567.895714
651.892742	2565.259190
652.235626	2565.425548
652.578458	2569.839078
652.921238	2568.031825
653.263967	2569.813873
653.606644	2567.147102
653.949269	2565.097873
654.291843	2565.881773
654.634365	2567.053841
654.976836	2563.265414
655.319255	2565.513768
655.661622	2564.535785
656.003938	2563.028480
656.346203	2564.634087
656.688416	2562.254662
657.030577	2564.845816
657.372687	2564.805486
657.714746	2566.269942
658.056753	2565.052503
658.398708	2558.115875
658.740612	2559.373643
659.082465	2562.307595
659.424266	2560.238201
659.766016	2557.957079
660.107715	2563.409087
660.449362	2563.698953
660.790958	2566.897565
661.132503	2564.959242
661.473996	2564.313974
661.815438	2563.083932
662.156829	2564.155177
662.498168	2567.124417
662.839456	2564.923953
663.180693	2565.203737
663.521879	2566.148954
663.863013	2563.036041
664.204097	2562.496638
664.545129	2563.046124
664.886110	2564.258521
665.227040	2564.810527
665.567918	2564.757595
665.908746	2565.806155
666.249522	2564.238357
666.590248	2563.086453
666.930922	2564.878583
667.271545	2563.033521
667.612118	2564.472770
667.952639	2564.891186
668.293109	2565.370096
668.633528	2561.387584
668.973896	2562.857080
669.314213	2563.182235
669.654480	2565.370096
669.994695	2564.709704
670.334859	2564.077040
670.674973	2566.622822
671.015035	2565.027297
671.355047	2563.015877
671.695008	2564.727348
672.034918	2564.538305
672.374777	2564.941597
672.714585	2564.424879
673.054342	2564.538305
673.394049	2560.578479
673.733705	2563.570404
674.073310	2566.121228
674.412864	2565.281875
674.752368	2561.057388
675.091820	2561.576627
675.431223	2566.499314
675.770574	2562.879766
676.109875	2555.728889
676.449125	2559.058571
676.788324	2556.258210
677.127473	2563.840105
677.466571	2557.621842
677.805619	2564.296330
678.144616	2558.640155
678.483562	2562.342883
678.822458	2560.742316
679.161303	2562.509241
679.500098	2559.580330
679.838842	2559.998746
680.177535	2560.487738
680.516179	2562.332800
680.854771	2563.782132
681.193314	2562.194169
681.531805	2560.785166
681.870247	2566.900086
682.208638	2564.624005
682.546978	2562.783984
682.885268	2565.233984
683.223508	2563.756926
683.561697	2562.589899
683.899836	2562.589899
684.237925	2562.093346
684.575963	2564.939077
684.913951	2560.800290
685.251889	2565.425548
685.589776	2563.640980
685.927614	2561.352296
686.265401	2561.395146
686.603137	2561.427913
686.940824	2565.150805
687.278460	2565.112997
687.616046	2564.666855
687.953582	2565.095353
688.291068	2564.618964
688.628504	2563.857749
688.965889	2563.053685
689.303224	2563.509910
689.640510	2565.523851
689.977745	2563.933367
690.314930	2560.424724
690.652065	2561.304405
690.989150	2563.731721
691.326185	2561.261555
691.663170	2562.126113
692.000105	2561.692574
692.336990	2558.194013
692.673825	2559.343396
693.010610	2559.749209
693.347345	2555.373488
693.684030	2552.479865
694.020665	2553.208312
694.357251	2553.563713
694.693786	2553.588919
695.030272	2557.047151
695.366707	2557.468087
695.703093	2557.513457
696.039429	2554.128322
696.375716	2556.086811
696.711952	2555.779300
697.048139	2554.536656
697.384276	2555.449105
697.720363	2555.784342
698.056400	2554.171172
698.392388	2553.011707
698.728326	2555.900288
699.064214	2553.062118
699.400053	2556.215360
699.735842	2552.011038
700.071581	2555.053374
700.407270	2554.874413
700.742910	2554.032541
701.078501	2552.268137
701.414042	2548.991387
701.749533	2551.464073
702.084974	2552.996583
702.420366	2550.997766
702.755709	2552.147149
703.091002	2553.765359
703.426246	2553.102448
703.761440	2548.691438
704.096584	2551.554813
704.431679	2551.358208
704.766725	2552.923487
705.101721	2549.699669
705.436668	2549.908877
705.771565	2548.648588
706.106413	2552.119423
706.441212	2548.641027
706.775961	2553.800648
707.110661	2550.322251
707.445311	2552.542880
707.779913	2551.549772
708.114465	2554.216543
708.448967	2552.908363
708.783421	2554.030020
709.117825	2551.431305
709.452180	2552.409289
709.786485	2553.041954
710.120742	2552.610935
710.454949	2554.944989
710.789107	2553.462890
711.123216	2550.801161
711.457275	2553.987170
711.791286	2551.121274
712.125247	2553.609084
712.459159	2556.222922
712.793023	2554.143446
713.126837	2555.517160
713.460602	2554.312325
713.794318	2554.607232
714.127985	2555.471790
714.461602	2556.643858
714.795171	2555.819630
715.128691	2554.980277
715.462162	2555.171841
715.795584	2553.009186
716.128957	2550.783517
716.462281	2551.194371
716.795556	2553.167983
717.128782	2549.674463
717.461960	2552.255534
717.795088	2551.307797
718.128167	2550.044988
718.461198	2552.457180
718.794180	2549.886192
719.127113	2546.722867
719.459997	2548.146993
719.792833	2549.102292
720.125619	2550.428116
720.458357	2547.847045
720.791046	2549.084648
721.123686	2548.146993
721.456278	2553.757798
721.788821	2547.252189
722.121315	2550.508774
722.453761	2548.704041
722.786158	2548.202446
723.118506	2549.041798
723.450805	2548.754452
723.783056	2547.027857
724.115259	2547.690769
724.447412	2546.589277
724.779518	2549.011551
725.111574	2549.321582
725.443582	2549.646737
725.775542	2549.987015
726.107453	2550.148332
726.439315	2548.081458
726.771129	2555.174362
727.102895	2552.389124
727.434612	2549.311500
727.766281	2549.631613
728.097901	2546.768238
728.429473	2547.307641
728.760996	2548.174720
729.092471	2546.702703
729.423897	2550.276881
729.755276	2549.223280
730.086606	2549.873589
730.417887	2553.949362
730.749120	2551.771583
731.080305	2552.699155
731.411442	2551.212015
731.742530	2549.656819
732.073570	2553.704866
732.404562	2554.944989
732.735506	2552.893240
733.066401	2551.970709
733.397249	2550.370142
733.728048	2551.844680
734.058798	2550.667570
734.389501	2548.633465
734.720156	2550.768393
735.050762	2548.598177
735.381320	2548.908208
735.711831	2546.228834
736.042293	2548.273022
736.372707	2546.483413
736.703073	2548.509957
737.033391	2546.690100
737.363661	2546.942158
737.693883	2547.443753
738.024056	2551.910215
738.354182	2548.089020
738.684260	2546.750594
739.014290	2549.324103
739.344272	2549.818136
739.674207	2546.163299
740.004093	2551.282591
740.333931	2550.738147
740.663722	2548.139432
740.993464	2547.552137
741.323159	2548.925852
741.652806	2547.640358
741.982405	2546.102806
742.311956	2546.682538
742.641460	2547.978115
742.970915	2547.453835
743.300323	2548.310831
743.629683	2550.072714
743.958996	2547.378217
744.288260	2547.007693
744.617477	2544.839997
744.946647	2543.047866
745.275768	2545.538196
745.604842	2541.379244
745.933869	2542.236241
746.262847	2542.258926
746.591778	2545.797816
746.920662	2545.533155
747.249498	2545.976777
747.578286	2543.365459
747.907027	2546.291849
748.235720	2544.285470
748.564365	2547.111036
748.892963	2546.513660
749.221514	2544.378731
749.550017	2546.498536
749.878473	2545.258412
750.206881	2545.807898
750.535242	2544.512322
750.863555	2545.835624
751.191821	2542.934440
751.520039	2543.557023
751.848210	2545.495347
752.176334	2544.063659
752.504411	2547.010213
752.832440	2543.385624
753.160421	2544.764379
753.488356	2545.064328
753.816243	2545.084493
754.144082	2541.633823
754.471875	2543.304965
754.799620	2544.015768
755.127318	2543.607434
755.454969	2542.694986
755.782572	2544.139276
756.110129	2546.276725
756.437638	2543.062990
756.765100	2542.694986
757.092515	2543.695655
757.419882	2538.994779
757.747203	2547.481561
758.074477	2541.293545
758.401703	2545.823022
758.728882	2543.945192
759.056014	2542.815973
759.383099	2546.382590
759.710138	2546.054915
760.037129	2544.630789
760.364073	2543.841848
760.690970	2544.688762
761.017820	2547.284956
761.344623	2545.480223
761.671379	2546.175902
761.998088	2543.635161
762.324751	2544.197249
762.651366	2546.503577
762.977935	2556.633776
763.304456	2558.740978
763.630931	2558.466235
763.957359	2559.330793
764.283740	2557.644527
764.610074	2551.343085
764.936362	2549.903836
765.262602	2548.981304
765.588796	2544.756818
765.914943	2544.736653
766.241044	2547.985677
766.567097	2546.256561
766.893104	2543.899821
767.219064	2543.801519
767.544978	2543.927548
767.870845	2543.499050
768.196665	2542.417722
768.522438	2540.151723
768.848165	2539.718184
769.173846	2540.827238
769.499479	2541.313709
769.825066	2541.971580
770.150607	2543.022661
770.476101	2541.028884
770.801548	2541.437218
771.126949	2543.317568
771.452303	2541.157434
771.777611	2539.587114
772.102872	2540.544933
772.428087	2540.260108
772.753256	2543.078113
773.078378	2539.950077
773.403453	2540.885211
773.728482	2538.823379
774.053465	2538.024357
774.378401	2538.341949
774.703291	2541.255736
775.028135	2540.088709
775.352932	2537.658873
775.677683	2537.782381
776.002388	2537.434542
776.327046	2536.151568
776.651658	2540.749100
776.976224	2537.132072
777.300743	2535.965045
777.625216	2536.630478
777.949643	2539.088040
778.274024	2538.142824
778.598359	2533.061341
778.922647	2535.957483
779.246889	2535.009747
779.571086	2533.855322
779.895236	2538.530993
780.219339	2539.657690
780.543397	2537.868081
780.867409	2536.270035
781.191374	2540.509645
781.515294	2539.040149
781.839167	2538.253729
782.162995	2536.852288
782.486776	2537.038811
782.810511	2539.118287
783.134201	2538.631816
783.457844	2538.714995
783.781441	2538.006712
784.104993	2541.860675
784.428498	2538.039480
784.751958	2542.546272
785.075372	2538.583925
785.398739	2538.412525
785.722061	2541.038967
786.045337	2537.807587
786.368568	2540.250026
786.691752	2539.140972
787.014891	2538.505787
787.337983	2537.248019
787.661030	2540.645757
787.984031	2542.090047
788.306987	2542.924358
788.629897	2542.241282
788.952760	2542.029553
789.275579	2540.718853
789.598351	2539.783719
789.921078	2539.690458
790.243759	2537.489994
790.566395	2541.006199
790.888984	2538.152906
791.211529	2535.723070
791.534027	2536.900179
791.856480	2536.902700
792.178888	2540.081147
792.501249	2536.930426
792.823566	2538.513348
793.145836	2539.768596
793.468062	2537.159799
793.790241	2538.626774
794.112375	2538.248688
794.434464	2537.265663
794.756507	2537.638708
795.078505	2537.752134
795.400457	2536.103677
795.722364	2534.472864
796.044226	2537.731970
796.366042	2536.549819
796.687812	2537.174922
797.009538	2537.011085
797.331218	2538.994779
797.652852	2538.657021
797.974442	2537.908410
798.295986	2536.272556
798.617484	2534.306506
798.938938	2538.130221
799.260346	2538.732639
799.581709	2537.152237
799.903026	2538.324305
800.224299	2537.121990
800.545526	2538.001671
800.866708	2537.371527
801.187845	2537.658873
801.508936	2537.132072
801.829983	2538.155427
802.150984	2534.351876
802.471940	2538.586445
802.792851	2537.142155
803.113717	2536.718698
803.434538	2536.227185
803.755314	2537.600900
804.076045	2535.776002
804.396731	2538.110056
804.717372	2538.331867
805.037967	2538.644418
805.358518	2537.752134
805.679024	2537.121990
805.999485	2538.931764
806.319901	2537.192566
806.640272	2535.556712
806.960598	2537.089223
807.280879	2537.401774
807.601115	2537.593338
807.921306	2535.513862
808.241453	2538.102494
808.561554	2537.144675
808.881611	2536.459078
809.201623	2539.017464
809.521590	2538.117618
809.841513	2538.276414
810.161390	2538.208359
810.481223	2533.275590
810.801011	2536.264994
811.120755	2536.895138
811.440453	2539.387989
811.760107	2535.539068
812.079716	2534.440096
812.399281	2533.613347
812.718801	2536.270035
813.038276	2531.909437
813.357707	2537.389171
813.677093	2534.815662
813.996434	2535.435724
814.315731	2537.532844
814.634983	2537.671476
814.954191	2539.060314
815.273354	2538.140303
815.592473	2536.496887
815.911547	2537.104346
816.230577	2535.586959
816.549562	2536.537216
816.868502	2537.482432
817.187399	2537.921013
817.506250	2538.450334
817.825058	2537.258101
818.143821	2540.522248
818.462539	2538.843544
818.781213	2540.343287
819.099843	2540.348328
819.418429	2541.278421
819.736970	2544.819832
820.055466	2545.621375
820.373919	2546.745553
820.692327	2549.223280
821.010691	2554.118240
821.329011	2565.692729
821.647286	2588.821543
821.965517	2612.860285
822.283704	2628.026597
822.601847	2635.187556
822.919945	2624.565845
823.237999	2606.732763
823.556010	2592.483942
823.873976	2580.743094
824.191897	2574.744121
824.509775	2567.472257
824.827609	2558.877089
825.145398	2558.103272
825.463144	2557.251317
825.780845	2553.898950
826.098502	2559.875238
826.416116	2564.319015
826.733685	2572.314285
827.051210	2578.756880
827.368692	2572.881415
827.686129	2567.321022
828.003522	2556.099414
828.320872	2550.281922
828.638177	2550.743188
828.955439	2542.377393
829.272656	2544.275387
829.589830	2537.593338
829.906960	2540.096271
830.224046	2540.691127
830.541088	2538.039480
830.858086	2537.893287
831.175041	2538.702392
831.491952	2538.183153
831.808819	2538.379758
832.125642	2539.279604
832.442421	2538.561239
832.759157	2542.684903
833.075849	2548.613300
833.392497	2552.537838
833.709101	2557.437840
834.025662	2556.432130
834.342179	2554.133364
834.658653	2550.901984
834.975083	2547.090872
835.291469	2551.186809
835.607811	2542.553833
835.924110	2539.561908
836.240366	2537.800025
836.556578	2539.342618
836.872746	2538.329346
837.188871	2535.962525
837.504952	2534.387164
837.820990	2534.893800
838.136984	2537.487474
838.452935	2535.486136
838.768842	2534.472864
839.084706	2535.586959
839.400526	2537.616023
839.716303	2540.529810
840.032037	2543.783875
840.347727	2543.632640
840.663373	2541.318751
840.978977	2542.606765
841.294537	2538.818338
841.610054	2536.872453
841.925527	2534.954294
842.240957	2533.368851
842.556344	2535.402957
842.871687	2534.503111
843.186987	2533.757020
843.502244	2531.002029
843.817458	2535.476053
844.132629	2534.119983
844.447756	2532.463964
844.762840	2528.700742
845.077881	2531.609488
845.392879	2529.545136
845.707833	2532.526978
846.022745	2527.397604
846.337613	2532.743748
846.652438	2533.237781
846.967221	2531.985054
847.281960	2533.217616
847.596656	2536.640560
847.911309	2531.604447
848.225919	2533.462112
848.540485	2531.964890
848.855009	2534.056968
849.169490	2531.269210
849.483928	2532.405991
849.798323	2531.105373
850.112675	2533.326001
850.426984	2534.208203
850.741251	2530.296268
851.055474	2531.990095
851.369654	2533.709129
851.683792	2532.342976
851.997887	2530.689478
852.311938	2530.543284
852.625947	2534.233409
852.939914	2531.700229
853.253837	2534.417411
853.567718	2530.497914
853.881555	2531.990095
854.195350	2527.306863
854.509103	2531.435568
854.822812	2531.352389
855.136479	2533.893131
855.450103	2528.912471
855.763685	2532.118645
856.077224	2530.815507
856.390720	2533.399098
856.704173	2531.619571
857.017584	2531.768285
857.330953	2531.236443
857.644278	2533.116793
857.957561	2535.710467
858.270802	2533.376413
858.584000	2532.615198
858.897155	2535.861702
859.210268	2534.067051
859.523339	2533.930940
859.836367	2530.848274
860.149352	2534.220806
860.462295	2531.007070
860.775195	2531.236443
861.088054	2528.297450
861.400869	2528.748633
861.713642	2526.744775
862.026373	2530.157636
862.339062	2530.661751
862.651708	2535.337422
862.964312	2532.738707
863.276873	2534.919006
863.589392	2534.298944
863.901869	2534.445137
864.214303	2532.327853
864.526696	2532.842050
864.839045	2532.141330
865.151353	2531.901875
865.463619	2529.935825
865.775842	2533.814993
866.088023	2530.457585
866.400162	2532.307688
866.712258	2533.535209
867.024313	2536.297761
867.336325	2530.825589
867.648296	2533.038655
867.960224	2531.687626
868.272110	2534.218285
868.583954	2531.349869
868.895755	2532.529499
869.207515	2534.583769
869.519233	2533.010929
869.830909	2535.065199
870.142542	2533.605785
870.454134	2531.561597
870.765684	2534.508152
871.077191	2530.654190
871.388657	2535.781043
871.700081	2532.332894
872.011463	2532.421114
872.322803	2532.698377
872.634101	2535.896990
872.945357	2533.061341
873.256571	2534.205683
873.567744	2531.654859
873.878874	2536.368337
874.189963	2535.902031
874.501010	2533.923378
874.812015	2535.859181
875.122979	2533.038655
875.433900	2534.747607
875.744780	2536.552340
876.055618	2534.487987
876.366415	2534.119983
876.677169	2534.021680
876.987882	2531.974972
877.298554	2531.856505
877.609183	2533.036135
877.919771	2533.051258
878.230317	2532.539581
878.540822	2536.801877
878.851285	2538.278935
879.161707	2537.895807
879.472087	2538.790612
879.782425	2540.761703
880.092722	2545.863351
880.402977	2549.641696
880.713191	2563.083932
881.023363	2579.066911
881.333494	2590.921184
881.643583	2592.388160
881.953631	2589.509661
882.263637	2585.297777
882.573602	2584.571851
882.883526	2574.393761
883.193408	2566.620302
883.503248	2560.144940
883.813048	2561.170814
884.122806	2554.806358
884.432522	2550.382745
884.742197	2545.734801
885.051831	2544.918134
885.361424	2543.287321
885.670975	2542.964687
885.980485	2540.638195
886.289954	2540.058462
886.599382	2537.432021
886.908768	2540.451672
887.218113	2537.608461
887.527417	2537.242978
887.836680	2535.249201
888.145901	2534.649304
888.455082	2535.559232
888.764221	2533.101670
889.073319	2536.343132
889.382376	2535.052596
889.691392	2531.226361
890.000366	2535.080323
890.309300	2535.370189
890.618193	2533.628470
890.927044	2533.242822
891.235855	2536.756506
891.544625	2533.532688
891.853353	2533.535209
892.162041	2534.941691
892.470687	2538.329346
892.779293	2534.369520
893.087858	2534.533357
893.396381	2535.324819
893.704864	2536.794315
894.013306	2538.009233
894.321707	2546.985007
894.630068	2550.869217
894.938387	2554.594629
895.246665	2553.843497
895.554903	2553.404917
895.863100	2547.335368
896.171256	2547.105995
896.479371	2542.813453
896.787446	2540.965870
897.095480	2538.866229
897.403473	2540.441590
897.711425	2535.692823
898.019336	2537.212731
898.327207	2536.023018
898.635038	2535.453368
898.942827	2536.643080
899.250576	2535.087884
899.558284	2535.657535
899.865952	2533.245343
900.173579	2535.564273
900.481165	2533.588141
900.788711	2534.301464
901.096216	2533.542771
901.403681	2534.571166
901.711105	2534.450178
902.018489	2535.103008
902.325832	2536.814480
902.633135	2533.915816
902.940397	2536.161650
903.247619	2538.039480
903.554800	2539.801363
903.861941	2548.608259
904.169041	2555.645710
904.476101	2559.323232
904.783121	2560.427244
905.090100	2558.186451
905.397039	2551.577499
905.703938	2547.894936
906.010796	2543.451159
906.317614	2538.803215
906.624391	2541.094419
906.931129	2537.507638
907.237826	2534.770292
907.544483	2534.452699
907.851099	2534.808100
908.157675	2532.348017
908.464211	2534.608975
908.770707	2530.596216
909.077163	2532.539581
909.383578	2526.777542
909.689954	2527.221164
909.996289	2525.582789
910.302584	2531.488501
910.608839	2531.304498
910.915054	2534.246012
911.221229	2530.732328
911.527363	2531.664941
911.833458	2532.877338
912.139513	2529.638397
912.445527	2530.553367
912.751502	2531.183511
913.057436	2531.445651
913.363331	2533.714170
913.669186	2536.169212
913.975000	2534.692154
914.280775	2536.151568
914.586510	2538.465457
914.892205	2537.910931
915.197859	2543.342774
915.503475	2546.884184
915.809050	2552.255534
916.114585	2556.623694
916.420081	2561.387584
916.725536	2555.088662
917.030952	2555.978426
917.336328	2550.304607
917.641665	2549.288815
917.946961	2547.945347
918.252218	2543.995603
918.557435	2540.537372
918.862612	2537.343801
919.167750	2537.074099
919.472848	2535.826413
919.777906	2536.660724
920.082925	2533.578059
920.387904	2536.280117
920.692843	2535.191228
920.997743	2535.450847
921.302603	2532.854653
921.607423	2533.696526
921.912204	2531.604447
922.216946	2530.901206
922.521647	2533.454551
922.826310	2532.748789
923.130932	2531.400280
923.435516	2531.516227
923.740059	2532.287523
924.044564	2530.233253
924.349028	2531.075126
924.653454	2524.940042
924.957840	2526.896009
925.262186	2527.316946
925.566493	2529.192255
925.870761	2522.548014
926.174989	2528.867101
926.479178	2528.610002
926.783328	2530.036648
927.087438	2528.698222
927.391509	2527.077491
927.695541	2525.983561
927.999533	2529.446833
928.303486	2531.644776
928.607400	2530.442461
928.911275	2527.379960
929.215110	2529.918181
929.518906	2530.271062
929.822663	2529.923222
930.126381	2527.087573
930.430060	2528.131092
930.733699	2529.461957
931.037299	2529.855167
931.340861	2529.673685
931.644383	2528.960362
931.947866	2529.305681
932.251309	2528.297450
932.554714	2531.170908
932.858080	2529.295599
933.161407	2528.665454
933.464694	2526.669158
933.767943	2529.638397
934.071153	2529.449354
934.374323	2529.192255
934.677455	2529.608150
934.980548	2528.723428
935.283602	2529.708973
935.586617	2528.975485
935.889593	2528.776360
936.192530	2530.286185
936.495428	2526.991791
936.798287	2529.618233
937.101108	2527.818541
937.403890	2529.708973
937.706632	2529.887934
938.009336	2530.019004
938.312002	2531.584283
938.614628	2529.575383
938.917216	2530.709642
939.219765	2529.376257
939.522275	2531.879190
939.824747	2532.211906
940.127179	2528.163860
940.429573	2524.589682
940.731929	2528.010104
941.034246	2523.730165
941.336524	2529.061185
941.638763	2527.810979
941.940964	2529.466998
942.243126	2531.523789
942.545250	2531.170908
942.847335	2532.869777
943.149381	2528.357944
943.451389	2529.293078
943.753359	2526.235618
944.055290	2527.649662
944.357182	2529.290557
944.659036	2529.194776
944.960851	2528.284847
945.262628	2527.831143
945.564367	2529.429189
945.866067	2526.364168
946.167729	2527.594209
946.469352	2526.258303
946.770937	2532.355579
947.072484	2526.585978
947.373992	2528.922553
947.675462	2530.505476
947.976893	2529.378778
948.278286	2529.300640
948.579641	2528.733510
948.880958	2528.816689
949.182236	2527.732841
949.483476	2530.225692
949.784678	2528.420958
950.085841	2528.599919
950.386967	2528.108407
950.688054	2528.327697
950.989103	2528.171421
951.290114	2528.244518
951.591087	2527.755526
951.892021	2528.801566
952.192917	2531.019673
952.493776	2528.426000
952.794596	2526.505320
953.095378	2530.165198
953.396122	2531.715352
953.696828	2531.430527
953.997496	2529.255269
954.298126	2527.891637
954.598718	2527.987419
954.899272	2528.804086
955.199788	2526.840557
955.500266	2529.280475
955.800706	2526.071781
956.101108	2523.833508
956.401472	2526.275948
956.701798	2523.082377
957.002087	2526.812830
957.302337	2527.248890
957.602550	2528.753675
957.902724	2526.147398
958.202861	2529.139323
958.502960	2529.015815
958.803022	2527.808458
959.103045	2526.853160
959.403031	2527.072450
959.702979	2526.492717
960.002889	2529.809796
960.302762	2526.691843
960.602596	2526.800227
960.902393	2530.268541
961.202153	2527.332069
961.501875	2528.357944
961.801559	2529.466998
962.101205	2524.546832
962.400814	2525.542460
962.700385	2525.171935
962.999918	2527.977337
963.299414	2526.212933
963.598873	2526.959024
963.898293	2526.706966
964.197677	2525.648324
964.497022	2528.330218
964.796331	2526.646472
965.095601	2527.165711
965.394835	2526.502799
965.694030	2526.033972
965.993189	2526.669157
966.292309	2527.523633
966.591393	2526.865762
966.890439	2526.240659
967.189447	2526.338962
967.488419	2527.654703
967.787353	2526.964065
968.086249	2523.672192
968.385108	2526.989271
968.683930	2526.376771
968.982714	2524.914836
969.281462	2527.639580
969.580172	2528.005063
969.878844	2524.549352
970.177480	2526.754857
970.476078	2528.002543
970.774639	2528.128572
971.073162	2525.461801
971.371649	2525.325690
971.670098	2524.877027
971.968510	2525.973478
972.266885	2521.673374
972.565223	2526.931297
972.863524	2525.413910
973.161788	2526.570855
973.460014	2529.318284
973.758204	2524.796369
974.056356	2524.849301
974.354471	2526.023890
974.652550	2527.821061
974.950591	2526.953983
975.248595	2527.924405
975.546563	2528.136133
975.844493	2523.692356
976.142386	2526.404497
976.440243	2523.805782
976.738062	2527.188396
977.035845	2526.795186
977.333590	2526.026410
977.631299	2529.104035
977.928971	2528.219312
978.226606	2526.843077
978.524204	2524.556914
978.821765	2527.742923
979.119290	2528.831813
979.416777	2526.802748
979.714228	2525.978519
980.011642	2526.265865
980.309020	2529.270393
980.606360	2526.805269
980.903664	2525.388704
981.200931	2525.451719
981.498162	2527.223684
981.795356	2527.271575
982.092513	2527.082532
982.389633	2523.334434
982.686717	2527.768129
982.983764	2527.679909
983.280775	2530.480270
983.577749	2526.916174
983.874686	2525.474404
984.171587	2525.895340
984.468451	2528.645290
984.765279	2527.044723
985.062070	2527.206040
985.358824	2526.417100
985.655543	2528.226874
985.952224	2527.440454
986.248869	2524.035155
986.545478	2522.109434
986.842050	2526.417100
987.138586	2523.243693
987.435086	2522.386697
987.731549	2520.463497
988.027975	2522.880730
988.324366	2526.568334
988.620719	2527.001874
988.917037	2524.027593
989.213318	2528.730989
989.509563	2524.325021
989.805772	2528.332738
990.101944	2526.333921
990.398080	2523.967099
990.694180	2523.478107
990.990244	2524.120854
991.286271	2527.758047
991.582262	2524.483817
991.878217	2523.606657
992.174136	2524.375433
992.470019	2523.851152
992.765865	2526.517923
993.061676	2525.202182
993.357450	2525.744106
993.653188	2527.962213
993.948890	2524.544311
994.244556	2524.509023
994.540186	2526.530526
994.835780	2525.625639
995.131337	2527.246370
995.426859	2527.001874
995.722345	2526.893489
996.017795	2525.396266
996.313208	2526.817872
996.608586	2524.360309
996.903928	2525.860052
997.199234	2525.698735
997.494504	2525.935670
997.789738	2524.020031
998.084936	2524.935001
998.380099	2526.505320
998.675225	2527.337110
998.970316	2523.503313
999.265371	2524.314939
999.560390	2524.438447
999.855373	2524.491379
1000.150320	2525.716379
1000.445232	2528.262162
1000.740108	2525.209743
1001.034948	2522.669002
1001.329752	2525.570186
1001.624521	2524.282171
1001.919254	2519.843435
1002.213951	2523.841070
1002.508613	2521.716224
1002.803239	2522.716893
1003.097829	2520.801254
1003.392384	2523.793179
1003.686903	2524.887110
1003.981386	2525.136647
1004.275834	2522.401821
1004.570246	2525.771832
1004.864623	2524.352747
1005.158964	2525.723941
1005.453270	2525.592871
1005.747540	2526.991791
1006.041775	2524.277130
1006.335974	2526.918695
1006.630138	2524.262007
1006.924266	2526.270906
1007.218359	2524.360309
1007.512416	2526.144877
1007.806438	2525.865093
1008.100425	2525.895340
1008.394376	2524.935001
1008.688292	2524.488858
1008.982172	2523.001718
1009.276017	2525.900382
1009.569827	2525.376102
1009.863602	2525.613036
1010.157341	2524.632531
1010.451045	2526.883407
1010.744714	2526.843077
1011.038347	2527.531195
1011.331945	2524.183869
1011.625508	2525.119003
1011.919036	2526.936339
1012.212528	2524.864424
1012.505986	2525.345855
1012.799408	2526.112110
1013.092795	2523.820906
1013.386147	2525.897861
1013.679464	2525.050947
1013.972745	2522.726975
1014.265992	2526.921215
1014.559204	2526.608664
1014.852380	2523.818385
1015.145521	2523.636903
1015.438628	2526.807789
1015.731699	2525.035824
1016.024736	2521.902747
1016.317737	2524.897192
1016.610703	2526.235618
1016.903635	2522.094310
1017.196531	2521.544825
1017.489393	2523.949455
1017.782219	2521.224711
1018.075011	2522.553055
1018.367768	2524.957686
1018.660490	2524.130937
1018.953177	2524.130937
1019.245829	2524.130937
