Dividing Wavelength (nm)	Counts (n)	Blue Motor Position (mm): 0.000000	Red Motor Position (mm): 38.800000	
326.493990	2129.017901
326.888308	2129.017901
327.282561	2129.017901
327.676750	2093.513054
328.070874	2096.426841
328.464933	2095.693353
328.858929	2101.679724
329.252859	2113.292022
329.646726	2124.115379
330.040528	2136.748510
330.434265	2152.381128
330.827938	2174.405930
331.221547	2189.453774
331.615091	2208.375745
332.008571	2226.017263
332.401986	2251.023906
332.795338	2268.168871
333.188625	2287.786521
333.581847	2305.080199
333.975006	2324.622232
334.368100	2343.771055
334.761129	2358.786132
335.154095	2374.423791
335.546996	2396.201575
335.939833	2416.104051
336.332606	2432.442430
336.725315	2444.420212
337.117960	2452.312138
337.510540	2460.531740
337.903056	2472.012967
338.295508	2481.331540
338.687896	2488.774804
339.080220	2498.910044
339.472480	2503.794922
339.864676	2507.137207
340.256807	2511.611231
340.648875	2514.376304
341.040879	2519.556089
341.432818	2520.576923
341.824694	2521.867458
342.216506	2520.133302
342.608253	2522.500123
342.999937	2522.147243
343.391557	2520.342509
343.783113	2522.053981
344.174605	2520.095493
344.566033	2518.217663
344.957397	2517.839577
345.348697	2515.273629
345.739934	2512.085099
346.131106	2508.548730
346.522215	2511.873371
346.913260	2511.258350
347.304241	2507.684172
347.695159	2504.462875
348.086012	2504.167967
348.476802	2500.989520
348.867528	2498.756289
349.258191	2499.197390
349.648789	2498.479025
350.039324	2496.371823
350.429796	2495.315701
350.820203	2494.355361
351.210548	2491.507109
351.600828	2490.831595
351.991045	2492.974085
352.381198	2489.384784
352.771288	2492.512820
353.161314	2488.074084
353.551276	2492.633807
353.941175	2490.050216
354.331010	2489.863693
354.720782	2492.028869
355.110490	2488.633652
355.500135	2491.691112
355.889717	2489.415031
356.279235	2491.600371
356.668689	2492.837974
357.058080	2490.138436
357.447408	2491.983498
357.836672	2489.311687
358.225873	2490.224136
358.615010	2489.387304
359.004084	2495.240084
359.393095	2496.722183
359.782043	2497.125475
360.170927	2494.672954
360.559748	2497.362410
360.948505	2497.382574
361.337199	2497.007008
361.725830	2499.192348
362.114398	2496.462564
362.502903	2496.724704
362.891344	2500.881135
363.279722	2498.970538
363.668037	2503.063955
364.056289	2502.416166
364.444478	2503.111846
364.832603	2500.727380
365.220665	2504.135200
365.608665	2503.000940
365.996601	2504.672083
366.384474	2505.939933
366.772284	2506.290293
367.160031	2508.291631
367.547715	2510.434122
367.935336	2513.277332
368.322893	2516.574247
368.710388	2517.630369
369.097820	2524.897192
369.485189	2525.794517
369.872495	2535.050076
370.259738	2540.091230
370.646918	2549.450132
371.034035	2555.436502
371.421090	2566.466547
371.808081	2578.260326
372.195010	2584.970102
372.581875	2600.380909
372.968678	2613.871037
373.355418	2621.674743
373.742096	2641.443628
374.128710	2655.120278
374.515262	2670.634429
374.901751	2686.239321
375.288177	2695.825075
375.674540	2722.323900
376.060841	2741.538258
376.447079	2761.019797
376.833254	2782.772376
377.219367	2791.264199
377.605417	2829.443378
377.991404	2839.616427
378.377329	2859.617204
378.763191	2879.365925
379.148991	2915.684918
379.534727	2940.842796
379.920402	2970.797332
380.306013	2983.057418
380.691563	3031.591127
381.077049	3055.254303
381.462474	3074.256932
381.847835	3110.386882
382.233134	3129.238277
382.618371	3131.264821
383.003545	3203.134030
383.388657	3208.296172
383.773706	3242.709609
384.158693	3257.913729
384.543618	3283.265691
384.928480	3318.069817
385.313280	3366.820296
385.698017	3363.916591
386.082692	3415.411978
386.467305	3422.847680
386.851856	3453.628965
387.236344	3476.334322
387.620770	3508.998478
388.005133	3533.977396
388.389435	3559.352043
388.773674	3574.755289
389.157851	3614.499746
389.541965	3629.683701
389.926018	3594.191458
390.310008	3667.189886
390.693936	3686.726878
391.077802	3730.189186
391.461606	3714.428018
391.845348	3779.552164
392.229027	3780.446969
392.612645	3789.019451
392.996200	3868.271431
393.379694	3906.067482
393.763125	3976.000888
394.146494	3938.736679
394.529801	4003.843181
394.913047	4055.250347
395.296230	4018.696941
395.679351	4075.077205
396.062410	4097.714507
396.445408	4076.178698
396.828343	4111.020632
397.211217	4137.390908
397.594028	4054.262281
397.976778	4118.514308
398.359466	4149.335922
398.742092	4176.127134
399.124656	4096.121502
399.507158	4180.671734
399.889598	4205.640569
400.271977	4267.606433
400.654294	4234.158377
401.036549	4244.603648
401.418742	4213.093915
401.800874	4319.205163
402.182944	4338.548070
402.564952	4403.568872
402.946898	4390.292994
403.328783	4384.041963
403.710606	4299.834529
404.092367	4491.272346
404.474067	4455.938899
404.855705	4467.200837
405.237282	4393.168972
405.618797	4505.599306
406.000250	4536.335221
406.381642	4617.296151
406.762972	4577.526489
407.144240	4595.762863
407.525447	4591.966874
407.906593	4649.637674
408.287677	4694.541752
408.668700	4619.093323
409.049661	4671.052495
409.430560	4713.216706
409.811399	4641.710459
410.192176	4801.661230
410.572891	4738.399790
410.953545	4841.952652
411.334138	4723.503181
411.714669	4791.795692
412.095139	4688.053787
412.475547	4828.059232
412.855894	4807.919822
413.236180	4817.649249
413.616405	4774.212147
413.996568	4859.687431
414.376670	4801.935973
414.756711	4753.684569
415.136691	4788.244199
415.516609	4868.073391
415.896466	4903.472373
416.276262	4940.570224
416.655997	4922.437194
417.035670	5098.849852
417.415283	5195.261919
417.794834	5135.718331
418.174324	5088.346608
418.553753	5000.317979
418.933121	5180.398077
419.312428	5249.396350
419.691674	5187.291855
420.070859	5315.316998
420.449983	5226.227207
420.829045	5342.854301
421.208047	5245.000464
421.586988	5322.351928
421.965867	5329.843083
422.344686	5460.603052
422.723444	5317.207431
423.102141	5133.845542
423.480777	5439.359630
423.859352	5206.445719
424.237866	5465.256037
424.616319	5454.122649
424.994712	5564.707920
425.373044	5446.863387
425.751314	5588.323205
426.129524	5391.367845
426.507673	5582.929171
426.885762	5667.308004
427.263789	5596.104226
427.641756	5478.146267
428.019662	5600.452221
428.397508	5610.801710
428.775292	5554.665942
429.153016	5654.503473
429.530679	5583.639973
429.908282	5662.556716
430.285824	5536.855545
430.663305	5807.966278
431.040726	5544.071957
431.418086	5547.797369
431.795385	5648.189428
432.172624	5660.865409
432.549802	5657.036653
432.926920	5669.601729
433.303977	5676.815620
433.680974	5714.432710
434.057910	5733.515998
434.434786	5739.646041
434.811601	5708.335434
435.188355	5945.834274
435.565050	5816.962217
435.941683	5800.580988
436.318257	6016.092835
436.694770	5997.095247
437.071222	6031.624630
437.447614	5964.859589
437.823946	5875.177462
438.200218	6027.758065
438.576429	5896.791409
438.952580	5996.306307
439.328670	6037.812647
439.704700	5944.596671
440.080670	5934.695845
440.456580	6203.200302
440.832429	6087.528506
441.208218	5934.136277
441.583947	6092.073106
441.959616	6092.312561
442.335224	6022.195152
442.710773	6160.952912
443.086261	6189.541295
443.461689	5977.941383
443.837057	6128.319002
444.212365	6282.273320
444.587612	6174.279202
444.962800	6327.240412
445.337927	6310.639893
445.712995	5916.711528
446.088002	6498.362380
446.462949	6322.968035
446.837837	6258.010247
447.212664	6432.739160
447.587431	6571.348205
447.962139	7116.032275
448.336786	8042.704737
448.711374	7787.188813
449.085901	6857.481577
449.460369	6777.498630
449.834776	6715.346244
450.209124	7104.704803
450.583412	7249.895075
450.957640	7400.033239
451.331808	7168.697210
451.705917	6719.265741
452.079965	6643.774463
452.453954	6850.066040
452.827883	6728.473409
453.201752	6822.921947
453.575562	6624.605475
453.949311	6826.029818
454.323001	6714.564865
454.696632	6788.016998
455.070202	6926.870539
455.443713	7081.502892
455.817164	7187.170518
456.190556	7266.422497
456.563888	7341.782706
456.937160	7389.030921
457.310373	7037.783485
457.683526	7065.587969
458.056619	6956.678882
458.429653	6944.643127
458.802628	6878.230966
459.175542	6990.111814
459.548398	7343.529466
459.921194	7504.259095
460.293930	7505.592480
460.666607	8041.361270
461.039224	8347.593722
461.411782	8473.559553
461.784280	8498.553594
462.156719	8380.857775
462.529099	8256.888241
462.901419	7848.731219
463.273680	7741.662153
463.645882	7754.053309
464.018024	7617.470807
464.390106	7788.592775
464.762130	8179.640120
465.134094	8648.071697
465.505999	9667.216564
465.877845	10889.855168
466.249631	11542.072091
466.621358	11156.668318
466.993026	10527.786896
467.364634	10278.453947
467.736184	9908.428214
468.107674	9576.611906
468.479105	9607.594837
468.850477	9374.660762
469.221790	9144.758941
469.593043	8813.504722
469.964238	8678.124535
470.335373	8693.502575
470.706449	8752.942820
471.077467	8726.527174
471.448425	10035.790445
471.819324	11116.525610
472.190164	11141.028138
472.560945	9891.477334
472.931667	9099.184390
473.302330	8965.629101
473.672934	8608.866643
474.043479	8960.973595
474.413965	8899.784070
474.784393	8786.128736
475.154761	8946.013971
475.525070	9033.906489
475.895321	8861.017597
476.265513	9037.135348
476.635645	9200.178866
477.005719	9200.181387
477.375734	9323.490530
477.745691	9554.103154
478.115588	9688.699441
478.485427	9928.827243
478.855207	10464.480086
479.224928	11288.033225
479.594591	11921.260122
479.964194	11723.513300
480.333739	11664.882160
480.703226	11583.729666
481.072653	11676.645693
481.442022	11909.292422
481.811333	12100.745363
482.180584	11912.102866
482.549777	11619.983124
482.918912	11446.242277
483.287988	11460.163423
483.657005	11479.733182
484.025964	11159.942547
484.394864	11296.608228
484.763706	11259.492733
485.132489	11010.046358
485.501213	10977.019239
485.869879	11049.372399
486.238487	10890.182843
486.607036	11002.585450
486.975527	10780.865422
487.343959	10975.219547
487.712333	11019.490960
488.080648	10951.770620
488.448905	10992.399799
488.817104	10933.829153
489.185244	11196.014523
489.553326	11357.336488
489.921350	11891.844989
490.289315	12950.623408
490.657222	13291.463381
491.025070	13201.894680
491.392861	13077.342892
491.760593	12703.364894
492.128267	12349.861542
492.495883	12026.337932
492.863440	11685.472753
493.230939	11350.321722
493.598380	11284.058275
493.965763	11155.261836
494.333088	11051.313243
494.700354	10971.025307
495.067563	11041.563652
495.434713	10859.348626
495.801805	10988.623975
496.168839	10915.605382
496.535815	10853.871412
496.902733	10846.135761
497.269593	10780.557912
497.636395	10875.490400
498.003139	10868.021931
498.369825	10737.198947
498.736453	10895.115612
499.103023	10814.888169
499.469535	10840.648465
499.835989	10840.630821
500.202385	10796.056939
500.568723	10654.740794
500.935003	10873.378157
501.301226	10679.276090
501.667390	10936.647158
502.033497	11035.310101
502.399546	10892.267360
502.765537	10807.565893
503.131470	10878.910823
503.497345	11050.993130
503.863163	10662.776393
504.228923	10972.157046
504.594625	11039.232118
504.960269	10782.468509
505.325856	11001.809113
505.691385	10797.246651
506.056856	10951.707605
506.422270	10973.437499
506.787625	10859.487257
507.152924	10983.993675
507.518164	10968.860131
507.883347	10887.702595
508.248472	10801.622373
508.613540	11035.100893
508.978550	10924.508060
509.343503	10884.569518
509.708398	11006.053764
510.073236	11124.052052
510.438016	11134.439350
510.802738	11073.748899
511.167403	11129.388114
511.532010	11028.260047
511.896561	11260.654719
512.261053	11327.820532
512.625488	11197.148783
512.989866	11179.388798
513.354186	11169.346820
513.718449	11067.873434
514.082655	11270.127047
514.446803	11160.620582
514.810894	11288.320571
515.174927	11148.962914
515.538904	11170.707931
515.902822	11322.144193
516.266684	11204.662623
516.630488	11152.937864
516.994235	11206.933663
517.357925	11275.931935
517.721558	11355.385561
518.085133	11376.901206
518.448651	11385.098122
518.812112	11266.910791
519.175516	11283.193717
519.538863	11404.504044
519.902152	11316.926598
520.265385	11483.478760
520.628560	11391.268494
520.991678	11364.880574
521.354739	11428.154617
521.717743	11363.738753
522.080690	11341.227481
522.443580	11474.124899
522.806413	11434.524115
523.169189	11460.160903
523.531908	11514.318018
523.894569	11333.645585
524.257174	11345.121772
524.619722	11457.519338
524.982213	11404.471276
525.344647	11448.256218
525.707025	11408.337841
526.069345	11503.287974
526.431608	11418.914182
526.793815	11532.927438
527.155964	11316.611526
527.518057	11375.391380
527.880093	11322.791981
528.242072	11388.516024
528.603995	11292.298041
528.965860	11217.245343
529.327669	11258.890315
529.689421	11216.300127
530.051117	11184.319047
530.412755	11290.213524
530.774337	11179.683706
531.135862	11159.579584
531.497331	11188.901455
531.858743	11030.498319
532.220098	11205.960720
532.581396	11076.428272
532.942638	11056.886239
533.303824	11019.289314
533.664953	11024.811898
534.026025	10938.950965
534.387040	11037.644155
534.747999	11039.524505
535.108902	11094.967115
535.469748	10856.621361
535.830537	10963.546755
536.191270	10941.358116
536.551947	10963.662702
536.912567	10954.089550
537.273131	10882.961390
537.633638	10864.944306
537.994089	10850.254384
538.354483	10795.683894
538.714821	10942.804928
539.075103	10944.685278
539.435328	10913.901472
539.795497	10740.755481
540.155609	10895.922197
540.515665	10985.652215
540.875665	10720.182533
541.235609	10790.370518
541.595496	10782.816348
541.955328	10938.257807
542.315102	10821.466875
542.674821	10763.092834
543.034483	10771.209092
543.394090	10772.804617
543.753640	10704.600326
544.113134	10925.370097
544.472571	10772.958372
544.831953	10913.649414
545.191278	10723.436597
545.550548	10745.892417
545.909761	10883.087419
546.268918	10855.610610
546.628019	10936.697570
546.987064	10803.197733
547.346053	10716.623478
547.704986	10814.540330
548.063863	10798.111209
548.422684	10795.812443
548.781449	10704.058402
549.140158	10801.498865
549.498811	10685.708602
549.857408	10538.290140
550.215949	10758.162586
550.574434	10609.715728
550.932864	10698.366939
551.291237	10757.121587
551.649555	10705.782477
552.007817	10719.789323
552.366022	10675.623774
552.724173	10663.182206
553.082267	10646.054886
553.440305	10773.827971
553.798288	10582.649773
554.156215	10725.800898
554.514086	10702.230984
554.871902	10546.862622
555.229661	10586.334857
555.587365	10554.507532
555.945014	10451.814187
556.302606	10562.374252
556.660143	10453.991965
557.017625	10596.500343
557.375050	10493.852369
557.732421	10625.325661
558.089735	10530.841835
558.446994	10530.912411
558.804197	10559.210928
559.161345	10545.854391
559.518437	10402.322659
559.875474	10482.950874
560.232455	10506.956848
560.589381	10449.991810
560.946251	10440.156519
561.303065	10540.006653
561.659825	10462.425816
562.016528	10387.690710
562.373177	10268.989181
562.729770	10373.051199
563.086307	10277.997723
563.442789	10367.725220
563.799216	10230.948634
564.155587	10278.877404
564.511904	10223.001255
564.868164	10199.171721
565.224370	10215.124452
565.580520	10122.057190
565.936615	10121.505184
566.292654	9984.194236
566.648638	10098.888047
567.004567	10048.204287
567.360441	10023.855513
567.716260	9924.436398
568.072023	10005.016722
568.427732	9941.357031
568.783385	9847.596610
569.138982	9901.728520
569.494525	9915.352239
569.850013	9778.958780
570.205445	9838.683850
570.560823	9732.169311
570.916145	9637.549374
571.271412	9687.277836
571.626625	9622.128484
571.981782	9591.952137
572.336884	9547.312720
572.691931	9551.406137
573.046923	9476.242533
573.401860	9421.654398
573.756743	9342.611627
574.111570	9366.892344
574.466342	9341.797480
574.821059	9349.951547
575.175722	9237.997602
575.530330	9226.604594
575.884882	9207.405360
576.239380	9112.213252
576.593823	9088.235004
576.948211	9075.720339
577.302544	8962.140622
577.656823	8949.048746
578.011047	8941.408877
578.365216	8883.851503
578.719330	8810.227972
579.073389	8791.459756
579.427394	8735.439934
579.781344	8692.406124
580.135239	8626.399776
580.489080	8619.284188
580.842866	8501.048965
581.196597	8486.013724
581.550273	8502.218513
581.903895	8446.975029
582.257463	8490.860793
582.610975	8353.766615
582.964434	8363.236422
583.317837	8270.267463
583.671186	8238.503153
584.024481	8208.972073
584.377721	8123.819423
584.730906	8080.238648
585.084037	8084.037157
585.437113	8011.366404
585.790135	8002.715784
586.143103	7897.764002
586.496016	7852.446550
586.848874	7876.434880
587.201679	7847.347423
587.554428	7724.262610
587.907124	7737.200732
588.259765	7692.541150
588.612352	7667.373189
588.964884	7549.374901
589.317362	7533.112139
589.669786	7501.073086
590.022155	7532.822273
590.374470	7511.339395
590.726731	7448.128367
591.078937	7304.715102
591.431090	7361.891869
591.783188	7245.100937
592.135232	7212.411575
592.487222	7192.670417
592.839157	7206.011830
593.191038	7127.606765
593.542866	7068.731129
593.894639	6969.019626
594.246358	6984.919426
594.598022	6969.727908
594.949633	6872.468927
595.301190	6832.631209
595.652692	6829.001578
596.004141	6878.954372
596.355535	6701.286466
596.706876	6665.799264
597.058162	6587.016111
597.409395	6626.503469
597.760573	6643.996273
598.111698	6559.630043
598.462768	6524.324322
598.813785	6480.957796
599.164748	6425.885711
599.515657	6403.752525
599.866511	6307.839532
600.217312	6376.958792
600.568060	6260.608962
600.918753	6305.553369
601.269392	6261.801194
601.619978	6180.522671
601.970510	6192.404671
602.320988	6174.405231
602.671412	6176.746847
603.021783	6117.314163
603.372100	6080.929636
603.722363	6050.143309
604.072572	6015.510582
604.422728	5994.380586
604.772830	5927.852478
605.122878	5904.605198
605.472872	5884.135592
605.822813	5872.377101
606.172701	5819.865922
606.522534	5833.666081
606.872314	5816.097659
607.222041	5766.412047
607.571714	5778.775477
607.921333	5726.097940
608.270899	5703.657243
608.620411	5733.074897
608.969870	5651.786291
609.319276	5627.629082
609.668627	5612.472853
610.017926	5609.939673
610.367171	5601.019351
610.716362	5571.757974
611.065500	5542.660434
611.414585	5524.096385
611.763616	5503.132746
612.112594	5465.999607
612.461518	5444.443633
612.810389	5455.319923
613.159207	5396.464452
613.507971	5348.208006
613.856682	5381.847626
614.205340	5341.765412
614.553945	5356.220920
614.902496	5280.505310
615.250994	5285.380106
615.599439	5254.787864
615.947830	5231.243155
616.296169	5199.277198
616.644454	5178.636194
616.992686	5151.411443
617.340864	5155.182226
617.688990	5089.241413
618.037063	5115.750320
618.385082	5065.298453
618.733048	5077.606430
619.080961	5026.353018
619.428821	5012.515051
619.776628	4986.835413
620.124382	4951.716215
620.472083	4917.874949
620.819731	4908.442951
621.167326	4839.003577
621.514868	4821.916586
621.862357	4753.583746
622.209793	4741.227877
622.557176	4692.421947
622.904506	4657.275022
623.251783	4610.256180
623.599007	4565.621804
623.946179	4550.941964
624.293297	4508.928988
624.640363	4461.481648
624.987376	4437.021969
625.334336	4404.758585
625.681243	4362.755691
626.028097	4339.248790
626.374899	4312.087053
626.721647	4285.109319
627.068343	4246.287393
627.414987	4217.777147
627.761577	4182.002599
628.108115	4179.981096
628.454600	4129.967809
628.801032	4122.108650
629.147412	4101.366823
629.493739	4077.648194
629.840014	4039.408521
630.186236	4044.444634
630.532405	3988.099657
630.878521	3991.341119
631.224585	3960.814412
631.570597	3922.703289
631.916556	3915.343205
632.262462	3906.269128
632.608316	3873.254611
632.954117	3851.416333
633.299866	3835.335052
633.645562	3812.841423
633.991206	3778.869088
634.336797	3745.363059
634.682336	3722.773648
635.027823	3693.794575
635.373257	3680.097760
635.718639	3642.546205
636.063968	3636.539671
636.409245	3595.678598
636.754470	3577.472471
637.099642	3555.190571
637.444762	3528.202754
637.789829	3515.103316
638.134845	3494.611025
638.479808	3477.927327
638.824719	3467.257724
639.169577	3439.788477
639.514383	3430.981581
639.859137	3405.894279
640.203839	3395.050757
640.548489	3376.327912
640.893086	3363.790562
641.237632	3342.123683
641.582125	3338.166377
641.926566	3317.404385
642.270955	3316.970846
642.615292	3301.255049
642.959576	3297.446457
643.303809	3289.234417
643.647990	3277.090278
643.992118	3266.466046
644.336195	3249.328644
644.680219	3242.323960
645.024192	3233.547312
645.368112	3241.784557
645.711981	3238.724577
646.055797	3244.259763
646.399562	3232.468505
646.743274	3244.658015
647.086935	3249.036257
647.430544	3241.751789
647.774101	3235.798187
648.117606	3229.955489
648.461059	3219.124570
648.804460	3199.055737
649.147810	3177.842562
649.491108	3163.114831
649.834354	3150.012872
650.177548	3125.928759
650.520690	3102.573093
650.863781	3092.258893
651.206820	3086.312852
651.549807	3064.741754
651.892742	3048.224414
652.235626	3040.423228
652.578458	3034.134389
652.921238	3012.565812
653.263967	3011.615555
653.606644	2998.508555
653.949269	2992.827174
654.291843	2982.109681
654.634365	2977.923003
654.976836	2965.607464
655.319255	2962.945735
655.661622	2952.482820
656.003938	2946.309927
656.346203	2935.400870
656.688416	2931.801486
657.030577	2921.593150
657.372687	2913.345822
657.714746	2904.284348
658.056753	2904.301992
658.398708	2888.805485
658.740612	2888.422358
659.082465	2884.434805
659.424266	2881.584032
659.766016	2871.199255
660.107715	2866.841178
660.449362	2867.864532
660.790958	2861.542925
661.132503	2853.963550
661.473996	2855.065042
661.815438	2846.300997
662.156829	2842.588187
662.498168	2837.708350
662.839456	2830.358347
663.180693	2829.052689
663.521879	2826.816937
663.863013	2821.412820
664.204097	2819.877789
664.545129	2820.384425
664.886110	2813.644402
665.227040	2814.841676
665.567918	2811.421253
665.908746	2805.825572
666.249522	2804.794656
666.590248	2800.406332
666.930922	2801.638894
667.271545	2796.486835
667.612118	2796.605302
667.952639	2788.894857
668.293109	2786.147428
668.633528	2776.140738
668.973896	2776.682662
669.314213	2771.402053
669.654480	2765.519027
669.994695	2762.839653
670.334859	2758.284971
670.674973	2755.696338
671.015035	2751.308014
671.355047	2747.748959
671.695008	2745.266191
672.034918	2739.846951
672.374777	2738.339646
672.714585	2737.023905
673.054342	2736.020715
673.394049	2732.038203
673.733705	2731.221537
674.073310	2727.954869
674.412864	2724.499158
674.752368	2720.453632
675.091820	2716.864330
675.431223	2712.438197
675.770574	2705.526775
676.109875	2698.340611
676.449125	2697.332380
676.788324	2694.900023
677.127473	2688.674198
677.466571	2687.726461
677.805619	2686.889630
678.144616	2683.131449
678.483562	2680.862930
678.822458	2678.304545
679.161303	2677.321520
679.500098	2674.097702
679.838842	2671.158709
680.177535	2667.566887
680.516179	2667.622340
680.854771	2664.587565
681.193314	2668.252484
681.531805	2674.276663
681.870247	2681.740091
682.208638	2681.525842
682.546978	2679.302693
682.885268	2675.841941
683.223508	2671.473781
683.561697	2666.173008
683.899836	2665.492452
684.237925	2663.357523
684.575963	2661.570434
684.913951	2658.006339
685.251889	2660.978099
685.589776	2658.959117
685.927614	2659.755619
686.265401	2659.586740
686.603137	2656.025165
686.940824	2658.099600
687.278460	2658.661689
687.616046	2661.986330
687.953582	2664.736279
688.291068	2660.511792
688.628504	2662.072029
688.965889	2663.125630
689.303224	2657.799651
689.640510	2651.258754
689.977745	2647.366983
690.314930	2643.485295
690.652065	2642.779533
690.989150	2634.292751
691.326185	2631.290744
691.663170	2629.062554
692.000105	2624.616256
692.336990	2621.132819
692.673825	2621.813375
693.010610	2618.803806
693.347345	2612.290635
693.684030	2607.430963
694.020665	2611.282404
694.357251	2601.132041
694.693786	2606.228647
695.030272	2604.383585
695.366707	2604.086157
695.703093	2602.349480
696.039429	2601.865529
696.375716	2604.166816
696.711952	2601.573142
697.048139	2599.390322
697.384276	2600.776640
697.720363	2599.004674
698.056400	2598.714808
698.392388	2596.731114
698.728326	2595.150712
699.064214	2594.737337
699.400053	2593.958479
699.735842	2592.095773
700.071581	2593.224991
700.407270	2592.897316
700.742910	2589.000504
701.078501	2584.624783
701.414042	2587.750298
701.749533	2584.259299
702.084974	2585.212077
702.420366	2587.616707
702.755709	2583.051943
703.091002	2581.395924
703.426246	2583.437591
703.761440	2580.909452
704.096584	2583.056984
704.431679	2579.079513
704.766725	2579.298804
705.101721	2577.181519
705.436668	2581.111098
705.771565	2578.487178
706.106413	2578.426684
706.441212	2579.170254
706.775961	2577.788978
707.110661	2578.262847
707.445311	2582.366346
707.779913	2578.204873
708.114465	2579.150090
708.448967	2581.408527
708.783421	2579.986921
709.117825	2579.051787
709.452180	2580.357446
709.786485	2582.746953
710.120742	2584.118147
710.454949	2582.094123
710.789107	2583.525811
711.123216	2580.677559
711.457275	2585.575040
711.791286	2585.161666
712.125247	2587.067222
712.459159	2586.860534
712.793023	2589.575196
713.126837	2586.379104
713.460602	2585.012952
713.794318	2587.019331
714.127985	2584.224011
714.461602	2582.409196
714.795171	2582.290728
715.128691	2579.898701
715.462162	2577.647826
715.795584	2577.622620
716.128957	2577.741087
716.462281	2576.506004
716.795556	2575.664132
717.128782	2573.854357
717.461960	2571.860581
717.795088	2571.056517
718.128167	2572.402505
718.461198	2571.575756
718.794180	2573.864440
719.127113	2568.661969
719.459997	2569.655076
719.792833	2569.934860
720.125619	2569.760941
720.458357	2567.184911
720.791046	2566.746331
721.123686	2567.636094
721.456278	2568.414952
721.788821	2568.717422
722.121315	2564.631567
722.453761	2566.940415
722.786158	2563.499828
723.118506	2564.480332
723.450805	2568.699778
723.783056	2563.691391
724.115259	2567.063923
724.447412	2565.725497
724.779518	2567.305899
725.111574	2565.997719
725.443582	2566.582493
725.775542	2564.976886
726.107453	2568.583831
726.439315	2566.038048
726.771129	2572.591548
727.102895	2569.987792
727.434612	2569.415622
727.766281	2569.329922
728.097901	2565.188614
728.429473	2566.222051
728.760996	2565.135682
729.092471	2563.073850
729.423897	2568.538461
729.755276	2568.823286
730.086606	2571.366548
730.417887	2570.499470
730.749120	2573.715726
731.080305	2569.052658
731.411442	2570.708677
731.742530	2571.129614
732.073570	2571.452248
732.404562	2569.841599
732.735506	2571.598441
733.066401	2570.691033
733.397249	2574.597928
733.728048	2569.395457
734.058798	2568.571228
734.389501	2565.188614
734.720156	2566.839592
735.050762	2563.174673
735.381320	2563.673747
735.711831	2563.676268
736.042293	2563.441854
736.372707	2563.363716
736.703073	2563.827502
737.033391	2561.972358
737.363661	2561.879097
737.693883	2563.577965
738.024056	2566.040569
738.354182	2563.088973
738.684260	2567.255487
739.014290	2563.542677
739.344272	2563.270455
739.674207	2568.815724
740.004093	2565.105435
740.333931	2567.242884
740.663722	2567.381516
740.993464	2566.557287
741.323159	2569.226578
741.652806	2563.519992
741.982405	2564.757595
742.311956	2564.225754
742.641460	2565.798594
742.970915	2562.904971
743.300323	2562.781463
743.629683	2561.024621
743.958996	2563.648542
744.288260	2558.660320
744.617477	2558.957748
744.946647	2557.420196
745.275768	2557.563869
745.604842	2557.049671
745.933869	2556.875751
746.262847	2550.584391
746.591778	2557.669733
746.920662	2559.960937
747.249498	2556.575803
747.578286	2558.466235
747.907027	2559.179559
748.235720	2558.224260
748.564365	2562.370609
748.892963	2557.029507
749.221514	2557.987326
749.550017	2558.541853
749.878473	2555.814588
750.206881	2555.439023
750.535242	2557.062274
750.863555	2556.651420
751.191821	2558.267110
751.520039	2557.359702
751.848210	2559.464384
752.176334	2556.265772
752.504411	2558.262069
752.832440	2555.892726
753.160421	2558.032696
753.488356	2555.353323
753.816243	2557.679815
754.144082	2557.079918
754.471875	2555.020607
754.799620	2557.044630
755.127318	2555.617983
755.454969	2555.270144
755.782572	2554.299722
756.110129	2557.339537
756.437638	2556.853066
756.765100	2552.938610
757.092515	2558.632593
757.419882	2556.311142
757.747203	2557.838612
758.074477	2555.376008
758.401703	2557.331976
758.728882	2557.452963
759.056014	2556.555638
759.383099	2559.913047
759.710138	2554.307283
760.037129	2559.129147
760.364073	2559.078736
760.690970	2557.417675
761.017820	2557.263920
761.344623	2559.459343
761.671379	2561.884138
761.998088	2554.287119
762.324751	2558.531770
762.651366	2565.390260
762.977935	2579.782754
763.304456	2581.673187
763.630931	2587.084866
763.957359	2583.349371
764.283740	2575.931313
764.610074	2568.727504
764.936362	2568.992165
765.262602	2562.952862
765.588796	2560.374312
765.914943	2558.499003
766.241044	2557.760474
766.567097	2556.545556
766.893104	2554.660164
767.219064	2557.984805
767.544978	2557.369784
767.870845	2555.355843
768.196665	2556.817778
768.522438	2554.093034
768.848165	2550.647406
769.173846	2554.027499
769.499479	2553.107489
769.825066	2552.978939
770.150607	2552.903322
770.476101	2550.508774
770.801548	2554.244269
771.126949	2551.648075
771.452303	2550.753270
771.777611	2550.806202
772.102872	2552.895760
772.428087	2549.803013
772.753256	2549.629093
773.078378	2550.382745
773.403453	2550.218908
773.728482	2548.351160
774.053465	2546.667415
774.378401	2548.683876
774.703291	2548.023485
775.028135	2548.429298
775.352932	2547.907539
775.677683	2548.368804
776.002388	2548.983825
776.327046	2548.693959
776.651658	2547.927703
776.976224	2546.153217
777.300743	2547.279915
777.625216	2547.973074
777.949643	2546.357384
778.274024	2548.373845
778.598359	2544.136756
778.922647	2543.872095
779.246889	2543.320089
779.571086	2541.832948
779.895236	2543.914945
780.219339	2544.741694
780.543397	2547.736139
780.867409	2547.857127
781.191374	2544.043494
781.515294	2544.948381
781.839167	2546.906870
782.162995	2547.902497
782.486776	2546.125491
782.810511	2548.189843
783.134201	2546.317055
783.457844	2544.945861
783.781441	2547.373176
784.104993	2546.909390
784.428498	2550.836449
784.751958	2548.187323
785.075372	2549.157745
785.398739	2546.785882
785.722061	2546.589277
786.045337	2545.581046
786.368568	2545.780172
786.691752	2544.940820
787.014891	2547.030378
787.337983	2544.290511
787.661030	2551.096068
787.984031	2548.283105
788.306987	2548.850234
788.629897	2553.485575
788.952760	2552.686552
789.275579	2548.376366
789.598351	2551.259906
789.921078	2545.659184
790.243759	2548.981304
790.566395	2545.369318
790.888984	2549.195553
791.211529	2545.891077
791.534027	2546.576674
791.856480	2544.116591
792.178888	2547.708413
792.501249	2546.924514
792.823566	2544.966025
793.145836	2547.000131
793.468062	2545.023999
793.790241	2545.208001
794.112375	2546.274205
794.434464	2545.543237
794.756507	2546.009544
795.078505	2544.822352
795.400457	2544.111550
795.722364	2542.551313
796.044226	2548.578012
796.366042	2546.735470
796.687812	2545.044163
797.009538	2548.570450
797.331218	2548.343598
797.652852	2547.070707
797.974442	2548.174720
798.295986	2545.429812
798.617484	2546.652291
798.938938	2545.265974
799.260346	2546.213711
799.581709	2545.646581
799.903026	2547.100954
800.224299	2545.074410
800.545526	2546.478372
800.866708	2546.690100
801.187845	2545.208001
801.508936	2544.935778
801.829983	2545.500388
802.150984	2544.668597
802.471940	2548.000800
802.792851	2544.179605
803.113717	2545.202960
803.434538	2544.051056
803.755314	2544.837476
804.076045	2542.750438
804.396731	2544.482075
804.717372	2545.439894
805.037967	2543.284801
805.358518	2544.023330
805.679024	2545.465100
805.999485	2547.305121
806.319901	2546.339740
806.640272	2543.990562
806.960598	2545.646581
807.280879	2545.691952
807.601115	2546.609442
807.921306	2543.229348
808.241453	2545.603731
808.561554	2544.794626
808.881611	2548.903167
809.201623	2542.793288
809.521590	2543.584749
809.841513	2546.216232
810.161390	2544.305634
810.481223	2544.897970
810.801011	2543.098278
811.120755	2546.299411
811.440453	2545.452497
811.760107	2543.032743
812.079716	2541.966539
812.399281	2540.232382
812.718801	2541.170037
813.038276	2541.893442
813.357707	2544.691283
813.677093	2541.974101
813.996434	2543.574667
814.315731	2543.471323
814.634983	2543.098278
814.954191	2543.310006
815.273354	2541.752290
815.592473	2543.448638
815.911547	2544.988711
816.230577	2547.080789
816.549562	2546.513660
816.868502	2546.085162
817.187399	2547.189174
817.506250	2544.661036
817.825058	2547.418547
818.143821	2548.371325
818.462539	2548.978784
818.781213	2549.467776
819.099843	2550.221428
819.418429	2553.891388
819.736970	2553.422561
820.055466	2556.840463
820.373919	2559.471946
820.692327	2564.195507
821.010691	2575.195304
821.329011	2594.288675
821.647286	2629.571710
821.965517	2671.062927
822.283704	2695.817513
822.601847	2705.630119
822.919945	2686.466173
823.237999	2662.722338
823.556010	2637.647639
823.873976	2618.095524
824.191897	2605.658997
824.509775	2594.528129
824.827609	2585.040678
825.145398	2581.229566
825.463144	2578.981211
825.780845	2578.819894
826.098502	2580.309555
826.416116	2593.595516
826.733685	2606.268977
827.051210	2611.796602
827.368692	2608.560181
827.686129	2594.520568
828.003522	2583.525811
828.320872	2571.283369
828.638177	2565.062585
828.955439	2560.089487
829.272656	2555.804506
829.589830	2552.157231
829.906960	2551.995914
830.224046	2548.978784
830.541088	2551.028013
830.858086	2549.228321
831.175041	2549.823177
831.491952	2548.880481
831.808819	2547.305121
832.125642	2549.487940
832.442421	2552.774773
832.759157	2555.617983
833.075849	2567.512586
833.392497	2573.403174
833.709101	2580.475913
834.025662	2577.254616
834.342179	2575.376786
834.658653	2567.179870
834.975083	2562.947821
835.291469	2562.567214
835.607811	2554.087993
835.924110	2550.097920
836.240366	2545.533155
836.556578	2546.468289
836.872746	2548.951057
837.188871	2545.097095
837.504952	2544.114070
837.820990	2543.423432
838.136984	2542.815973
838.452935	2542.868905
838.768842	2544.630789
839.084706	2542.170706
839.400526	2547.922662
839.716303	2552.462221
840.032037	2556.442212
840.347727	2558.032696
840.663373	2555.063457
840.978977	2549.127498
841.294537	2548.567930
841.610054	2546.707744
841.925527	2543.272198
842.240957	2542.712630
842.556344	2543.796478
842.871687	2540.555016
843.186987	2541.780016
843.502244	2541.112063
843.817458	2539.730787
844.132629	2541.893442
844.447756	2540.025695
844.762840	2535.299613
845.077881	2537.356404
845.392879	2534.455220
845.707833	2536.877494
846.022745	2535.402957
846.337613	2538.168029
846.652438	2539.937474
846.967221	2539.486291
847.281960	2540.779347
847.596656	2540.746580
847.911309	2537.484953
848.225919	2540.244985
848.540485	2539.176260
848.855009	2537.840354
849.169490	2538.586445
849.483928	2538.001671
849.798323	2536.401105
850.112675	2538.457896
850.426984	2537.195087
850.741251	2535.607123
851.055474	2539.070396
851.369654	2537.316074
851.683792	2536.532175
851.997887	2535.907072
852.311938	2539.072917
852.625947	2534.722401
852.939914	2538.898997
853.253837	2537.905889
853.567718	2537.308513
853.881555	2538.271373
854.195350	2537.283307
854.509103	2537.280786
854.822812	2536.275076
855.136479	2537.631147
855.450103	2540.139121
855.763685	2538.611651
856.077224	2537.621064
856.390720	2537.333718
856.704173	2534.629139
857.017584	2536.685930
857.330953	2537.399253
857.644278	2537.089223
857.957561	2540.557536
858.270802	2539.405633
858.584000	2538.304141
858.897155	2537.996630
859.210268	2540.471837
859.523339	2538.352032
859.836367	2536.277597
860.149352	2540.441590
860.462295	2538.483102
860.775195	2536.388502
861.088054	2534.276259
861.400869	2535.788605
861.713642	2534.288862
862.026373	2538.553678
862.339062	2537.696682
862.651708	2538.868750
862.964312	2538.316743
863.276873	2539.120808
863.589392	2538.281455
863.901869	2539.478729
864.214303	2538.841023
864.526696	2540.504604
864.839045	2540.469316
865.151353	2539.945036
865.463619	2540.207176
865.775842	2539.007382
866.088023	2539.065355
866.400162	2541.676672
866.712258	2537.545447
867.024313	2540.691127
867.336325	2539.703061
867.648296	2538.941847
867.960224	2539.874460
868.272110	2539.997968
868.583954	2537.784902
868.895755	2539.629964
869.207515	2541.454862
869.519233	2541.021323
869.830909	2539.440921
870.142542	2540.229861
870.454134	2538.566281
870.765684	2541.374203
871.077191	2538.737680
871.388657	2540.857485
871.700081	2540.401261
872.011463	2541.522917
872.322803	2540.121477
872.634101	2540.575180
872.945357	2541.449821
873.256571	2538.122659
873.567744	2541.215407
873.878874	2542.382434
874.189963	2540.920499
874.501010	2543.025181
874.812015	2541.764893
875.122979	2539.282124
875.433900	2539.040149
875.744780	2541.994265
876.055618	2540.827238
876.366415	2543.342774
876.677169	2543.511652
876.987882	2542.344625
877.298554	2539.703061
877.609183	2543.304965
877.919771	2538.780530
878.230317	2543.748587
878.540822	2543.993083
878.851285	2547.584905
879.161707	2548.681356
879.472087	2553.528425
879.782425	2554.844166
880.092722	2561.911864
880.402977	2574.673545
880.713191	2593.577872
881.023363	2617.079731
881.333494	2631.023563
881.643583	2632.745117
881.953631	2636.402474
882.263637	2626.892337
882.573602	2619.275154
882.883526	2608.098916
883.193408	2598.959304
883.503248	2590.023858
883.813048	2580.808629
884.122806	2574.870150
884.432522	2570.655745
884.742197	2563.835064
885.051831	2562.491597
885.361424	2553.503219
885.670975	2554.697973
885.980485	2549.646737
886.289954	2552.358877
886.599382	2551.338044
886.908768	2550.090358
887.218113	2547.650440
887.527417	2549.278733
887.836680	2547.675646
888.145901	2544.769420
888.455082	2544.086344
888.764221	2542.480737
889.073319	2545.563402
889.382376	2541.618699
889.691392	2541.948895
890.000366	2541.739687
890.309300	2543.042825
890.618193	2541.913607
890.927044	2543.718340
891.235855	2544.119112
891.544625	2544.552651
891.853353	2541.469985
892.162041	2545.512991
892.470687	2544.565254
892.779293	2543.993083
893.087858	2545.823022
893.396381	2545.341591
893.704864	2551.726213
894.013306	2552.956254
894.321707	2565.632236
894.630068	2570.131465
894.938387	2574.262691
895.246665	2572.687330
895.554903	2570.254974
895.863100	2562.874724
896.171256	2560.989333
896.479371	2556.568241
896.787446	2556.406924
897.095480	2551.184289
897.403473	2549.135060
897.711425	2549.939124
898.019336	2549.818136
898.327207	2548.426778
898.635038	2544.335881
898.942827	2544.141797
899.250576	2543.597352
899.558284	2544.182126
899.865952	2543.304965
900.173579	2542.677342
900.481165	2539.642567
900.788711	2541.699358
901.096216	2540.983514
901.403681	2543.620037
901.711105	2541.797660
902.018489	2543.330171
902.325832	2544.358566
902.633135	2544.103988
902.940397	2546.037271
903.247619	2547.365615
903.554800	2550.501212
903.861941	2565.201217
904.169041	2576.984914
904.476101	2586.142170
904.783121	2584.554207
905.090100	2580.211252
905.397039	2574.958370
905.703938	2562.277348
906.010796	2559.524878
906.317614	2552.701676
906.624391	2550.924669
906.931129	2546.677497
907.237826	2544.403937
907.544483	2543.703216
907.851099	2541.225489
908.157675	2540.121477
908.464211	2539.115766
908.770707	2537.613502
909.077163	2538.415046
909.383578	2535.839016
909.689954	2535.095446
909.996289	2534.397246
910.302584	2539.007382
910.608839	2536.680889
910.915054	2537.684079
911.221229	2538.261291
911.527363	2538.709953
911.833458	2539.259439
912.139513	2539.004861
912.445527	2539.365303
912.751502	2538.646939
913.057436	2539.582073
913.363331	2539.899666
913.669186	2539.589635
913.975000	2540.978473
914.280775	2544.202291
914.586510	2551.804351
914.892205	2553.740154
915.197859	2559.494631
915.503475	2564.986968
915.809050	2572.190777
916.114585	2579.054308
916.420081	2580.095306
916.725536	2582.815008
917.030952	2575.059193
917.336328	2571.056517
917.641665	2565.362534
917.946961	2561.148129
918.252218	2558.756102
918.557435	2556.023796
918.862612	2551.920297
919.167750	2549.866027
919.472848	2548.537683
919.777906	2545.311344
920.082925	2546.806047
920.387904	2544.235058
920.692843	2543.957795
920.997743	2540.416384
921.302603	2545.223124
921.607423	2540.497043
921.912204	2542.064841
922.216946	2536.728780
922.521647	2540.756662
922.826310	2541.139790
923.130932	2539.662732
923.435516	2540.229861
923.740059	2537.255581
924.044564	2539.526620
924.349028	2537.540406
924.653454	2534.684592
924.957840	2533.446989
925.262186	2532.204344
925.566493	2534.296423
925.870761	2530.177801
926.174989	2535.796167
926.479178	2534.646783
926.783328	2534.162833
927.087438	2537.069058
927.391509	2535.244160
927.695541	2534.598893
927.999533	2533.603265
928.303486	2534.568646
928.607400	2533.320960
928.911275	2532.489170
929.215110	2534.785415
929.518906	2533.298275
929.822663	2534.268697
930.126381	2533.318439
930.430060	2534.548481
930.733699	2534.092257
931.037299	2534.951773
931.340861	2533.104190
931.644383	2534.611495
931.947866	2534.286341
932.251309	2535.312216
932.554714	2535.082843
932.858080	2536.373379
933.161407	2533.782226
933.464694	2532.859694
933.767943	2535.980169
934.071153	2531.422966
934.374323	2533.036135
934.677455	2532.889941
934.980548	2531.813655
935.283602	2533.333563
935.586617	2536.012936
935.889593	2536.527134
936.192530	2535.597041
936.495428	2535.554191
936.798287	2535.942360
937.101108	2533.477236
937.403890	2535.382792
937.706632	2537.333718
938.009336	2535.047555
938.312002	2535.856660
938.614628	2535.014788
938.917216	2537.303472
939.219765	2540.290355
939.522275	2533.467153
939.824747	2538.848585
940.127179	2535.433203
940.429573	2530.497914
940.731929	2534.616537
941.034246	2530.926412
941.336524	2534.551002
941.638763	2536.796836
941.940964	2535.730632
942.243126	2534.301464
942.545250	2536.920344
942.847335	2535.962525
943.149381	2533.084026
943.451389	2538.115097
943.753359	2535.178625
944.055290	2533.704088
944.357182	2536.340611
944.659036	2533.711649
944.960851	2535.896990
945.262628	2533.119314
945.564367	2532.325332
945.866067	2536.827082
946.167729	2533.865405
946.469352	2533.817514
946.770937	2535.329860
947.072484	2532.917668
947.373992	2531.236443
947.675462	2535.750796
947.976893	2535.781043
948.278286	2534.835827
948.579641	2531.753161
948.880958	2533.918337
949.182236	2533.615867
949.483476	2535.211393
949.784678	2532.199303
950.085841	2533.714170
950.386967	2532.295085
950.688054	2531.183511
950.989103	2533.820034
951.290114	2533.840199
951.591087	2534.994623
951.892021	2534.036804
952.192917	2535.534027
952.493776	2533.273069
952.794596	2535.171063
953.095378	2536.340611
953.396122	2534.424973
953.696828	2531.954807
953.997496	2532.625281
954.298126	2534.669469
954.598718	2534.994623
954.899272	2533.910775
955.199788	2532.221988
955.500266	2532.945394
955.800706	2532.635363
956.101108	2527.992460
956.401472	2529.555218
956.701798	2526.366688
957.002087	2531.841381
957.302337	2533.525127
957.602550	2530.749972
957.902724	2531.019673
958.202861	2532.186700
958.502960	2530.956659
958.803022	2529.898017
959.103045	2531.236443
959.403031	2531.385157
959.702979	2529.025897
960.002889	2530.737369
960.302762	2532.816845
960.602596	2531.304498
960.902393	2532.637884
961.202153	2530.296268
961.501875	2529.651000
961.801559	2529.809796
962.101205	2530.142513
962.400814	2532.600075
962.700385	2528.052954
962.999918	2532.037986
963.299414	2529.214940
963.598873	2531.307019
963.898293	2529.245187
964.197677	2531.906916
964.497022	2532.126207
964.796331	2530.964221
965.095601	2529.197296
965.394835	2533.348686
965.694030	2528.983047
965.993189	2530.397091
966.292309	2528.032790
966.591393	2531.859025
966.890439	2530.109745
967.189447	2532.821886
967.488419	2533.527647
967.787353	2529.787111
968.086249	2530.507996
968.385108	2531.259128
968.683930	2528.413397
968.982714	2530.286185
969.281462	2529.093952
969.580172	2529.530012
969.878844	2528.539426
970.177480	2531.624612
970.476078	2529.519930
970.774639	2530.008922
971.073162	2527.203520
971.371649	2528.713345
971.670098	2525.353416
971.968510	2526.956503
972.266885	2528.642769
972.565223	2531.269210
972.863524	2529.971113
973.161788	2533.857843
973.460014	2529.736700
973.758204	2529.918181
974.056356	2529.968593
974.354471	2530.659231
974.652550	2526.606143
974.950591	2532.489170
975.248595	2528.937677
975.546563	2528.849457
975.844493	2530.908768
976.142386	2529.905578
976.440243	2530.082019
976.738062	2528.834333
977.035845	2528.824251
977.333590	2529.088911
977.631299	2526.268386
977.928971	2529.671165
978.226606	2529.577903
978.524204	2529.862728
978.821765	2528.824251
979.119290	2527.909281
979.416777	2527.740403
979.714228	2529.381298
980.011642	2530.099663
980.309020	2534.019160
980.606360	2529.361134
980.903664	2528.864580
981.200931	2528.355423
981.498162	2528.733510
981.795356	2530.671834
982.092513	2528.224353
982.389633	2530.787780
982.686717	2532.413552
982.983764	2530.893644
983.280775	2530.208047
983.577749	2530.959179
983.874686	2531.117976
984.171587	2529.933305
984.468451	2531.516227
984.765279	2530.639066
985.062070	2531.319622
985.358824	2530.618902
985.655543	2529.973634
985.952224	2529.076308
986.248869	2529.547656
986.545478	2524.098169
986.842050	2527.223684
987.138586	2523.077335
987.435086	2523.899043
987.731549	2525.817203
988.027975	2528.967924
988.324366	2527.682429
988.620719	2527.957172
988.917037	2528.746113
989.213318	2529.744261
989.509563	2527.193437
989.805772	2528.380629
990.101944	2529.119158
990.398080	2529.139323
990.694180	2532.164015
990.990244	2527.637059
991.286271	2526.838036
991.582262	2527.584127
991.878217	2527.937008
992.174136	2528.723428
992.470019	2528.652852
992.765865	2528.559590
993.061676	2527.279137
993.357450	2528.236956
993.653188	2527.873993
993.948890	2528.322656
994.244556	2527.140505
994.540186	2528.085722
994.835780	2527.223684
995.131337	2528.267203
995.426859	2530.860877
995.722345	2526.822913
996.017795	2529.910619
996.313208	2527.405166
996.608586	2528.748633
996.903928	2527.931967
997.199234	2528.695701
997.494504	2527.432892
997.789738	2527.299302
998.084936	2530.838192
998.380099	2527.243849
998.675225	2531.002029
998.970316	2529.580424
999.265371	2528.408356
999.560390	2526.684281
999.855373	2528.725948
1000.150320	2528.844415
1000.445232	2530.019004
1000.740108	2527.495907
1001.034948	2528.592358
1001.329752	2526.737213
1001.624521	2526.583458
1001.919254	2524.254445
1002.213951	2527.909281
1002.508613	2523.702438
1002.803239	2526.240659
1003.097829	2523.329393
1003.392384	2525.867614
1003.686903	2526.777542
1003.981386	2529.701412
1004.275834	2525.721421
1004.570246	2527.483304
1004.864623	2525.600433
1005.158964	2528.005063
1005.453270	2527.959693
1005.747540	2528.773839
1006.041775	2526.916174
1006.335974	2527.531195
1006.630138	2526.538088
1006.924266	2531.649818
1007.218359	2525.708818
1007.512416	2529.005732
1007.806438	2526.676719
1008.100425	2531.364992
1008.394376	2528.267203
1008.688292	2525.686133
1008.982172	2526.749816
1009.276017	2528.219312
1009.569827	2527.803417
1009.863602	2528.720907
1010.157341	2526.039013
1010.451045	2526.414579
1010.744714	2525.663447
1011.038347	2525.134126
1011.331945	2523.987264
1011.625508	2531.370033
1011.919036	2528.055475
1012.212528	2528.161339
1012.505986	2525.199661
1012.799408	2525.623118
1013.092795	2526.754857
1013.386147	2526.676719
1013.679464	2528.005063
1013.972745	2524.183869
1014.265992	2527.294261
1014.559204	2527.256452
1014.852380	2525.928108
1015.145521	2527.153108
1015.438628	2524.481297
1015.731699	2528.322656
1016.024736	2524.992974
1016.317737	2524.498941
1016.610703	2528.342821
1016.903635	2523.654548
1017.196531	2521.280164
1017.489393	2524.234280
1017.782219	2521.920391
1018.075011	2528.365506
1018.367768	2527.097656
1018.660490	2526.696884
1018.953177	2526.696884
1019.245829	2526.696884
