Dividing Wavelength (nm)	Counts (n)	Blue Motor Position (mm): 0.000000	Red Motor Position (mm): 24.000000	
326.493990	2127.681995
326.888308	2127.681995
327.282561	2127.681995
327.676750	2094.667479
328.070874	2093.180338
328.464933	2098.108066
328.858929	2104.301124
329.252859	2114.017948
329.646726	2123.626387
330.040528	2137.794550
330.434265	2154.367343
330.827938	2169.450475
331.221547	2190.880420
331.615091	2207.150744
332.008571	2225.709752
332.401986	2245.334964
332.795338	2265.197110
333.188625	2286.574123
333.581847	2302.743624
333.975006	2323.671974
334.368100	2343.191322
334.761129	2358.098014
335.154095	2376.742722
335.546996	2391.788045
335.939833	2407.314799
336.332606	2423.650658
336.725315	2436.755137
337.117960	2445.637651
337.510540	2455.672067
337.903056	2466.250929
338.295508	2472.252422
338.687896	2480.726602
339.080220	2490.027531
339.472480	2496.727224
339.864676	2500.107318
340.256807	2503.605879
340.648875	2509.914883
341.040879	2510.282887
341.432818	2514.414113
341.824694	2512.821108
342.216506	2515.077024
342.608253	2515.704648
342.999937	2515.681963
343.391557	2515.573578
343.783113	2514.519977
344.174605	2513.942765
344.566033	2509.708195
344.957397	2509.446055
345.348697	2507.510252
345.739934	2507.056548
346.131106	2501.980107
346.522215	2501.360045
346.913260	2501.765858
347.304241	2502.040600
347.695159	2499.341063
348.086012	2496.288644
348.476802	2491.275216
348.867528	2493.321925
349.258191	2489.296563
349.648789	2489.258755
350.039324	2488.691625
350.429796	2487.993425
350.820203	2487.562407
351.210548	2485.515698
351.600828	2485.417396
351.991045	2485.830770
352.381198	2485.036788
352.771288	2482.753146
353.161314	2482.700214
353.551276	2483.259782
353.941175	2482.959833
354.331010	2484.628455
354.720782	2480.242651
355.110490	2483.524442
355.500135	2482.735502
355.889717	2484.361274
356.279235	2483.814309
356.668689	2484.625934
357.058080	2484.318424
357.447408	2483.216932
357.836672	2480.867754
358.225873	2482.611993
358.615010	2484.136943
359.004084	2488.442088
359.393095	2486.607108
359.782043	2489.185658
360.170927	2488.343785
360.559748	2490.745895
360.948505	2487.915287
361.337199	2489.339413
361.725830	2491.055926
362.114398	2490.942500
362.502903	2491.822182
362.891344	2493.926863
363.279722	2492.843015
363.668037	2494.080618
364.056289	2494.572131
364.444478	2495.174549
364.832603	2496.644045
365.220665	2495.875269
365.608665	2497.359889
365.996601	2497.596823
366.384474	2500.535816
366.772284	2497.944663
367.160031	2501.302071
367.547715	2502.083450
367.935336	2504.730056
368.322893	2506.126456
368.710388	2511.898577
369.097820	2521.383508
369.485189	2521.146573
369.872495	2526.684281
370.259738	2534.356917
370.646918	2542.528627
371.034035	2546.057435
371.421090	2557.495813
371.808081	2569.561815
372.195010	2576.004410
372.581875	2591.238777
372.968678	2606.052207
373.355418	2615.383383
373.742096	2633.657566
374.128710	2650.046357
374.515262	2664.663182
374.901751	2677.097188
375.288177	2690.241997
375.674540	2713.501881
376.060841	2731.922257
376.447079	2750.791296
376.833254	2771.822990
377.219367	2782.837911
377.605417	2823.008345
377.991404	2832.228616
378.377329	2855.183510
378.763191	2867.219264
379.148991	2906.051273
379.534727	2932.600509
379.920402	2962.791980
380.306013	2973.164154
380.691563	3024.392359
381.077049	3043.155534
381.462474	3062.276630
381.847835	3098.053699
382.233134	3124.852473
382.618371	3120.811988
383.003545	3192.262782
383.388657	3198.975078
383.773706	3229.496744
384.158693	3248.277563
384.543618	3273.601799
384.928480	3310.233344
385.313280	3354.610621
385.698017	3355.215560
386.082692	3410.534661
386.467305	3409.844023
386.851856	3444.932975
387.236344	3465.052220
387.620770	3499.619412
388.005133	3524.815098
388.389435	3551.470199
388.773674	3559.820871
389.157851	3607.679065
389.541965	3620.649954
389.926018	3587.325406
390.310008	3659.771828
390.693936	3675.782533
391.077802	3714.652349
391.461606	3701.920915
391.845348	3773.270886
392.229027	3769.464815
392.612645	3777.933954
392.996200	3856.722147
393.379694	3899.405597
393.763125	3962.014207
394.146494	3928.588836
394.529801	3993.534021
394.913047	4038.637225
395.296230	4005.836957
395.679351	4062.426430
396.062410	4082.419646
396.445408	4064.425247
396.828343	4097.764918
397.211217	4124.929176
397.594028	4041.309036
397.976778	4108.918471
398.359466	4135.182883
398.742092	4167.635311
399.124656	4084.758741
399.507158	4167.232018
399.889598	4190.297818
400.271977	4254.464144
400.654294	4227.526739
401.036549	4230.785845
401.418742	4203.435065
401.800874	4304.837874
402.182944	4325.922500
402.564952	4389.735946
402.946898	4378.695819
403.328783	4374.730952
403.710606	4285.734422
404.092367	4477.270542
404.474067	4441.730407
404.855705	4453.360349
405.237282	4380.707240
405.618797	4485.535513
406.000250	4520.586656
406.381642	4604.844501
406.762972	4563.272626
407.144240	4579.686623
407.525447	4579.003547
407.906593	4635.620746
408.287677	4681.137324
408.668700	4605.134368
409.049661	4655.518180
409.430560	4700.565931
409.811399	4626.224035
410.192176	4783.117345
410.572891	4728.340168
410.953545	4830.635262
411.334138	4709.198907
411.714669	4775.762302
412.095139	4675.929812
412.475547	4807.274555
412.855894	4793.857524
413.236180	4802.150222
413.616405	4757.558695
413.996568	4844.289227
414.376670	4786.371410
414.756711	4739.614708
415.136691	4770.874903
415.516609	4844.626984
415.896466	4885.256163
416.276262	4924.030198
416.655997	4903.875665
417.035670	5085.634467
417.415283	5176.518909
417.794834	5117.219817
418.174324	5068.968413
418.553753	4977.552129
418.933121	5164.094986
419.312428	5231.757352
419.691674	5168.770656
420.070859	5290.494357
420.449983	5203.486562
420.829045	5318.250950
421.208047	5230.492023
421.586988	5296.548782
421.965867	5309.736441
422.344686	5444.511689
422.723444	5293.413185
423.102141	5116.662769
423.480777	5412.444909
423.859352	5180.395557
424.237866	5439.341986
424.616319	5431.641623
424.994712	5539.960896
425.373044	5413.430455
425.751314	5559.210542
426.129524	5362.534966
426.507673	5554.217279
426.885762	5634.651409
427.263789	5563.329164
427.641756	5441.562614
428.019662	5566.827725
428.397508	5570.981636
428.775292	5506.800186
429.153016	5605.894147
429.530679	5529.820615
429.908282	5608.427327
430.285824	5472.943797
430.663305	5737.127984
431.040726	5470.171162
431.418086	5465.001459
431.795385	5560.508639
432.172624	5567.137756
432.549802	5543.459457
432.926920	5556.082506
433.303977	5552.941867
433.680974	5573.787038
434.057910	5578.845836
434.434786	5578.719807
434.811601	5529.356829
435.188355	5744.339355
435.565050	5609.221308
435.941683	5577.013377
436.318257	5753.211786
436.694770	5720.177105
437.071222	5736.646554
437.447614	5652.996168
437.823946	5555.144851
438.200218	5679.179921
438.576429	5529.500502
438.952580	5590.856385
439.328670	5610.993274
439.704700	5504.312376
440.080670	5463.766376
440.456580	5672.785217
440.832429	5539.056009
441.208218	5379.798397
441.583947	5478.262214
441.959616	5452.406136
442.335224	5358.305437
442.710773	5434.951141
443.086261	5419.016053
443.461689	5223.807453
443.837057	5299.873423
444.212365	5380.229416
444.587612	5257.379017
444.962800	5334.861552
445.337927	5276.384167
445.712995	4947.879897
446.088002	5319.107946
446.462949	5152.107122
446.837837	5054.394437
447.212664	5136.885358
447.587431	5166.048433
447.962139	5459.168844
448.336786	5981.074460
448.711374	5768.115957
449.085901	5147.557480
449.460369	5039.623856
449.834776	4938.737765
450.209124	5099.598463
450.583412	5115.407522
450.957640	5151.925640
451.331808	4959.222493
451.705917	4663.848687
452.079965	4565.636927
452.453954	4609.716777
452.827883	4504.475128
453.201752	4487.501563
453.575562	4343.228781
453.949311	4367.864900
454.323001	4276.919964
454.696632	4251.666304
455.070202	4248.281169
455.443713	4256.200822
455.817164	4234.707863
456.190556	4203.258624
456.563888	4174.763502
456.937160	4128.652068
457.310373	3963.614773
457.683526	3912.716763
458.056619	3825.749298
458.429653	3775.937657
458.802628	3711.000033
459.175542	3696.514278
459.548398	3736.483066
459.921194	3733.849063
460.293930	3691.911704
460.666607	3763.859052
461.039224	3788.555665
461.411782	3761.409051
461.784280	3705.159857
462.156719	3624.957620
462.529099	3545.395609
462.901419	3417.579674
463.273680	3357.557176
463.645882	3315.884477
464.018024	3250.868716
464.390106	3239.949577
464.762130	3255.262082
465.134094	3288.576547
465.505999	3405.422931
465.877845	3521.606404
466.249631	3539.812531
466.621358	3420.004469
466.993026	3292.019655
467.364634	3217.823953
467.736184	3140.812766
468.107674	3079.880339
468.479105	3047.906821
468.850477	3004.535254
469.221790	2956.551031
469.593043	2908.155954
469.964238	2872.782178
470.335373	2855.251565
470.706449	2833.355313
471.077467	2818.365442
471.448425	2860.292719
471.819324	2890.327914
472.190164	2866.803369
472.560945	2799.370375
472.931667	2757.266658
473.302330	2736.640777
473.672934	2712.602035
474.043479	2709.514328
474.413965	2701.544264
474.784393	2684.926100
475.154761	2680.565502
475.525070	2673.071827
475.895321	2661.641011
476.265513	2656.020124
476.635645	2660.932728
477.005719	2650.053918
477.375734	2651.034423
477.745691	2649.075935
478.115588	2645.751294
478.485427	2642.746766
478.855207	2647.210708
479.224928	2654.457366
479.594591	2658.472645
479.964194	2649.708599
480.333739	2646.900677
480.703226	2641.645274
481.072653	2640.379944
481.442022	2640.067393
481.811333	2640.621920
482.180584	2633.526496
482.549777	2630.252266
482.918912	2627.499796
483.287988	2626.312604
483.657005	2620.195164
484.025964	2619.141563
484.394864	2616.212653
484.763706	2613.051849
485.132489	2612.640995
485.501213	2611.534462
485.869879	2610.909359
486.238487	2609.344081
486.607036	2607.834255
486.975527	2604.512135
487.343959	2606.639502
487.712333	2606.571446
488.080648	2603.662700
488.448905	2604.648246
488.817104	2601.305961
489.185244	2601.520210
489.553326	2604.847371
489.921350	2605.459872
490.289315	2614.380193
490.657222	2616.358846
491.025070	2616.152159
491.392861	2612.683845
491.760593	2610.259050
492.128267	2608.121601
492.495883	2607.161261
492.863440	2602.127669
493.230939	2598.722369
493.598380	2601.704212
493.965763	2595.191041
494.333088	2595.276741
494.700354	2593.961000
495.067563	2591.233735
495.434713	2589.557552
495.801805	2594.034096
496.168839	2592.703232
496.535815	2594.838160
496.902733	2593.293047
497.269593	2593.270362
497.636395	2592.214240
498.003139	2591.077460
498.369825	2592.453695
498.736453	2591.891606
499.103023	2589.565113
499.469535	2589.673498
499.835989	2592.700711
500.202385	2590.638879
500.568723	2588.468662
500.935003	2589.555031
501.301226	2588.166193
501.667390	2589.088724
502.033497	2590.931266
502.399546	2588.730803
502.765537	2585.935483
503.131470	2585.900195
503.497345	2591.357244
503.863163	2588.382963
504.228923	2588.196440
504.594625	2588.816502
504.960269	2585.088569
505.325856	2588.982860
505.691385	2586.794999
506.056856	2585.292736
506.422270	2587.357088
506.787625	2585.007910
507.152924	2586.026223
507.518164	2588.025041
507.883347	2587.092427
508.248472	2588.632500
508.613540	2588.375401
508.978550	2584.987746
509.343503	2583.679566
509.708398	2586.560586
510.073236	2584.841552
510.438016	2589.368508
510.802738	2586.290884
511.167403	2587.417582
511.532010	2584.529001
511.896561	2588.020000
512.261053	2589.572675
512.625488	2587.563775
512.989866	2585.464135
513.354186	2586.006059
513.718449	2582.154617
514.082655	2584.042529
514.446803	2590.273396
514.810894	2588.372881
515.174927	2591.029569
515.538904	2586.553024
515.902822	2591.972264
516.266684	2590.386822
516.630488	2586.532859
516.994235	2590.838005
517.357925	2588.962696
517.721558	2589.575196
518.085133	2590.694332
518.448651	2590.722058
518.812112	2588.871955
519.175516	2588.788776
519.538863	2590.976637
519.902152	2588.324990
520.265385	2592.753643
520.628560	2591.087542
520.991678	2589.474373
521.354739	2590.278437
521.717743	2588.929928
522.080690	2588.476224
522.443580	2590.611153
522.806413	2592.793972
523.169189	2591.823550
523.531908	2591.949579
523.894569	2587.926738
524.257174	2591.997470
524.619722	2591.490834
524.982213	2593.204827
525.344647	2591.115268
525.707025	2593.504775
526.069345	2591.266503
526.431608	2590.069229
526.793815	2590.217943
527.155964	2589.570155
527.518057	2592.718355
527.880093	2591.594178
528.242072	2592.057964
528.603995	2589.837336
528.965860	2589.827253
529.327669	2590.326328
529.689421	2588.955134
530.051117	2589.590319
530.412755	2588.829105
530.774337	2590.535536
531.135862	2590.331369
531.497331	2588.236769
531.858743	2586.053950
532.220098	2591.140474
532.581396	2585.476738
532.942638	2587.901533
533.303824	2590.679208
533.664953	2589.638210
534.026025	2590.590988
534.387040	2587.924218
534.747999	2592.806575
535.108902	2590.717017
535.469748	2590.162490
535.830537	2588.582088
536.191270	2589.245000
536.551947	2590.913622
536.912567	2587.389856
537.273131	2587.455391
537.633638	2589.539908
537.994089	2592.967892
538.354483	2589.938159
538.714821	2588.508992
539.075103	2588.012438
539.435328	2590.722058
539.795497	2587.614187
540.155609	2589.814651
540.515665	2591.805906
540.875665	2588.095617
541.235609	2590.706935
541.595496	2590.933787
541.955328	2590.958992
542.315102	2589.819692
542.674821	2589.950762
543.034483	2589.983529
543.394090	2592.055443
543.753640	2591.566452
544.113134	2589.665937
544.472571	2587.306677
544.831953	2591.579054
545.191278	2587.251224
545.550548	2590.001173
545.909761	2590.953951
546.268918	2591.463108
546.628019	2591.861359
546.987064	2590.371698
547.346053	2591.619384
547.704986	2590.152408
548.063863	2591.110227
548.422684	2591.561410
548.781449	2590.782552
549.140158	2590.512850
549.498811	2590.366657
549.857408	2589.670978
550.215949	2585.476738
550.574434	2585.144022
550.932864	2586.210226
551.291237	2587.278950
551.649555	2591.609301
552.007817	2588.723241
552.366022	2594.439909
552.724173	2589.149218
553.082267	2589.141657
553.440305	2591.543766
553.798288	2591.546287
554.156215	2594.034096
554.514086	2591.304312
554.871902	2590.843046
555.229661	2590.689291
555.587365	2591.198447
555.945014	2589.355906
556.302606	2592.849425
556.660143	2591.904209
557.017625	2592.138622
557.375050	2590.195258
557.732421	2592.763726
558.089735	2592.660382
558.446994	2591.309353
558.804197	2591.921853
559.161345	2591.538725
559.518437	2591.352203
559.875474	2593.393870
560.232455	2592.763726
560.589381	2592.680547
560.946251	2592.564600
561.303065	2592.486462
561.659825	2591.952100
562.016528	2591.810947
562.373177	2591.689960
562.729770	2593.761874
563.086307	2594.618870
563.442789	2590.880855
563.799216	2591.203488
564.155587	2593.348499
564.511904	2591.798345
564.868164	2591.153077
565.224370	2592.607450
565.580520	2593.091401
565.936615	2590.313725
566.292654	2591.304312
566.648638	2591.858838
567.004567	2589.098807
567.360441	2591.710124
567.716260	2590.780032
568.072023	2589.852459
568.427732	2584.697879
568.783385	2587.520926
569.138982	2585.461614
569.494525	2585.358271
569.850013	2587.011769
570.205445	2591.077460
570.560823	2589.499578
570.916145	2590.790114
571.271412	2588.554362
571.626625	2591.069898
571.981782	2587.704928
572.336884	2589.746595
572.691931	2588.057808
573.046923	2587.977150
573.401860	2588.907243
573.756743	2588.277099
574.111570	2587.737695
574.466342	2591.332038
574.821059	2588.476224
575.175722	2588.181317
575.530330	2588.546800
575.884882	2588.498909
576.239380	2588.471183
576.593823	2586.830287
576.948211	2588.098138
577.302544	2586.807602
577.656823	2586.646285
578.011047	2588.587130
578.365216	2584.400451
578.719330	2586.507654
579.073389	2585.433888
579.427394	2584.279464
579.781344	2585.224680
580.135239	2583.951789
580.489080	2586.714341
580.842866	2585.910277
581.196597	2588.146029
581.550273	2584.859196
581.903895	2586.421954
582.257463	2587.982191
582.610975	2583.114957
582.964434	2583.959350
583.317837	2584.748291
583.671186	2585.443970
584.024481	2584.113106
584.377721	2584.607139
584.730906	2583.488002
585.084037	2585.552355
585.437113	2584.561768
585.790135	2584.397931
586.143103	2582.600759
586.496016	2583.346850
586.848874	2580.498598
587.201679	2581.322827
587.554428	2577.347877
587.907124	2582.734350
588.259765	2577.526838
588.612352	2581.600090
588.964884	2581.907601
589.317362	2581.912642
589.669786	2582.348702
590.022155	2584.274422
590.374470	2581.756366
590.726731	2584.707962
591.078937	2580.377611
591.431090	2582.739391
591.783188	2580.589339
592.135232	2580.707806
592.487222	2581.348033
592.839157	2579.974318
593.191038	2579.734863
593.542866	2579.616396
593.894639	2580.917014
594.246358	2578.464493
594.598022	2578.714030
594.949633	2580.175964
595.301190	2579.291242
595.652692	2579.903742
596.004141	2581.499267
596.355535	2581.269895
596.706876	2577.990624
597.058162	2576.906776
597.409395	2580.503639
597.760573	2578.144379
598.111698	2578.862744
598.462768	2579.689493
598.813785	2576.115315
599.164748	2578.661098
599.515657	2578.877867
599.866511	2579.717219
600.217312	2577.945254
600.568060	2576.281673
600.918753	2580.995152
601.269392	2576.974832
601.619978	2576.387537
601.970510	2580.778382
602.320988	2576.921900
602.671412	2578.777044
603.021783	2577.975501
603.372100	2578.756880
603.722363	2577.025243
604.072572	2578.048597
604.422728	2575.835531
604.772830	2574.597928
605.122878	2574.471899
605.472872	2577.675552
605.822813	2575.530541
606.172701	2576.662280
606.522534	2578.532548
606.872314	2581.544638
607.222041	2577.713361
607.571714	2578.426684
607.921333	2577.582291
608.270899	2579.487847
608.620411	2576.647157
608.969870	2577.998186
609.319276	2576.695048
609.668627	2581.590008
610.017926	2584.153435
610.367171	2585.527149
610.716362	2584.211408
611.065500	2582.976325
611.414585	2579.742425
611.763616	2581.814339
612.112594	2581.335430
612.461518	2578.794688
612.810389	2577.549523
613.159207	2578.469534
613.507971	2575.858216
613.856682	2580.286870
614.205340	2578.540110
614.553945	2578.207394
614.902496	2578.295614
615.250994	2577.940213
615.599439	2580.496078
615.947830	2578.807291
616.296169	2577.476427
616.644454	2578.613207
616.992686	2576.609348
617.340864	2577.907445
617.688990	2576.417784
618.037063	2574.890315
618.385082	2577.012640
618.733048	2579.520614
619.080961	2577.685634
619.428821	2578.698906
619.776628	2577.468865
620.124382	2578.963567
620.472083	2576.080027
620.819731	2577.221848
621.167326	2580.150759
621.514868	2578.041036
621.862357	2576.584142
622.209793	2575.001220
622.557176	2575.278483
622.904506	2571.805128
623.251783	2572.112639
623.599007	2571.474933
623.946179	2568.125086
624.293297	2569.755899
624.640363	2572.435273
624.987376	2573.451065
625.334336	2573.108267
625.681243	2571.270766
626.028097	2573.965263
626.374899	2573.022567
626.721647	2570.159192
627.068343	2573.027608
627.414987	2571.623647
627.761577	2569.397977
628.108115	2569.554253
628.454600	2569.965107
628.801032	2570.562484
629.147412	2572.939388
629.493739	2573.919892
629.840014	2570.360838
630.186236	2571.820252
630.532405	2570.292782
630.878521	2572.843606
631.224585	2570.834706
631.570597	2569.899572
631.916556	2571.656414
632.262462	2569.307237
632.608316	2569.776064
632.954117	2568.155333
633.299866	2571.139696
633.645562	2569.652556
633.991206	2570.680951
634.336797	2567.129458
634.682336	2569.435786
635.027823	2566.690878
635.373257	2566.547205
635.718639	2566.774057
636.063968	2565.690209
636.409245	2568.387226
636.754470	2566.423697
637.099642	2566.484191
637.444762	2565.982596
637.789829	2564.787842
638.134845	2566.282544
638.479808	2564.997050
638.824719	2563.782132
639.169577	2563.678788
639.514383	2566.267421
639.859137	2563.456978
640.203839	2566.912689
640.548489	2560.742316
640.893086	2561.296843
641.237632	2561.347255
641.582125	2559.726524
641.926566	2557.107644
642.270955	2563.406566
642.615292	2562.194169
642.959576	2564.019066
643.303809	2564.102245
643.647990	2559.744168
643.992118	2564.429920
644.336195	2562.501679
644.680219	2563.091494
645.024192	2560.699467
645.368112	2562.073181
645.711981	2566.622822
646.055797	2565.435631
646.399562	2567.260528
646.743274	2564.644169
647.086935	2564.908830
647.430544	2566.776577
647.774101	2566.443861
648.117606	2563.330949
648.461059	2565.773388
648.804460	2566.098542
649.147810	2565.365054
649.491108	2566.653069
649.834354	2565.430589
650.177548	2562.889848
650.520690	2562.443706
650.863781	2561.632080
651.206820	2564.248439
651.549807	2561.004456
651.892742	2560.394477
652.235626	2561.243911
652.578458	2562.983109
652.921238	2563.159550
653.263967	2561.740465
653.606644	2561.992523
653.949269	2560.417162
654.291843	2560.490259
654.634365	2561.589230
654.976836	2559.761812
655.319255	2560.472615
655.661622	2562.998233
656.003938	2559.892882
656.346203	2563.575445
656.688416	2561.185938
657.030577	2557.657130
657.372687	2559.240052
657.714746	2559.237532
658.056753	2559.540001
658.398708	2552.918446
658.740612	2559.149312
659.082465	2554.410627
659.424266	2558.952707
659.766016	2557.568910
660.107715	2557.778118
660.449362	2556.704352
660.790958	2558.655279
661.132503	2560.565876
661.473996	2560.155022
661.815438	2558.037737
662.156829	2561.445557
662.498168	2556.686708
662.839456	2561.281720
663.180693	2559.688715
663.521879	2558.662840
663.863013	2559.794579
664.204097	2560.127296
664.545129	2560.238201
664.886110	2560.210475
665.227040	2561.251473
665.567918	2562.955383
665.908746	2559.318190
666.249522	2561.196020
666.590248	2560.298695
666.930922	2559.343396
667.271545	2560.092007
667.612118	2563.164591
667.952639	2558.909857
668.293109	2560.449929
668.633528	2558.551935
668.973896	2559.355999
669.314213	2558.418344
669.654480	2557.899106
669.994695	2560.921277
670.334859	2560.535629
670.674973	2559.033365
671.015035	2559.202244
671.355047	2559.887841
671.695008	2560.069322
672.034918	2559.971020
672.374777	2560.414641
672.714585	2557.609239
673.054342	2559.413972
673.394049	2559.751730
673.733705	2561.299364
674.073310	2557.836091
674.412864	2559.156873
674.752368	2559.086297
675.091820	2561.170814
675.431223	2560.548232
675.770574	2559.923129
676.109875	2551.418702
676.449125	2557.747871
676.788324	2554.831563
677.127473	2556.769887
677.466571	2552.374001
677.805619	2556.288457
678.144616	2557.291647
678.483562	2557.216029
678.822458	2556.684188
679.161303	2559.340876
679.500098	2555.403734
679.838842	2557.485731
680.177535	2558.924980
680.516179	2556.588406
680.854771	2558.070505
681.193314	2556.676626
681.531805	2559.671071
681.870247	2559.766853
682.208638	2560.845660
682.546978	2558.529250
682.885268	2559.751730
683.223508	2557.936914
683.561697	2558.478838
683.899836	2556.966492
684.237925	2559.156873
684.575963	2559.436658
684.913951	2556.308622
685.251889	2558.309960
685.589776	2556.966492
685.927614	2559.240052
686.265401	2556.316183
686.603137	2558.977912
686.940824	2557.722665
687.278460	2558.244425
687.616046	2559.487069
687.953582	2557.619322
688.291068	2557.952038
688.628504	2561.969837
688.965889	2558.549414
689.303224	2560.207954
689.640510	2557.861297
689.977745	2559.991184
690.314930	2555.880123
690.652065	2560.533108
690.989150	2557.135371
691.326185	2555.141594
691.663170	2555.396173
692.000105	2554.634958
692.336990	2553.810730
692.673825	2555.945658
693.010610	2553.147818
693.347345	2551.990873
693.684030	2549.319062
694.020665	2550.551624
694.357251	2548.525080
694.693786	2550.120605
695.030272	2554.907181
695.366707	2551.113712
695.703093	2553.288970
696.039429	2552.631100
696.375716	2553.266285
696.711952	2552.621017
697.048139	2551.610266
697.384276	2551.816953
697.720363	2551.653116
698.056400	2551.151521
698.392388	2550.725544
698.728326	2551.582540
699.064214	2551.075904
699.400053	2552.976419
699.735842	2547.254709
700.071581	2552.784855
700.407270	2551.484237
700.742910	2550.355019
701.078501	2552.560524
701.414042	2549.155224
701.749533	2548.699000
702.084974	2551.035575
702.420366	2548.716644
702.755709	2548.280584
703.091002	2551.683363
703.426246	2550.907025
703.761440	2549.876109
704.096584	2547.988197
704.431679	2550.292004
704.766725	2549.772766
705.101721	2546.175902
705.436668	2550.970040
705.771565	2546.985007
706.106413	2550.934752
706.441212	2547.456355
706.775961	2549.112374
707.110661	2548.986346
707.445311	2551.645554
707.779913	2551.806871
708.114465	2550.748229
708.448967	2551.491799
708.783421	2551.015410
709.117825	2548.779658
709.452180	2551.169165
709.786485	2550.808723
710.120742	2550.400389
710.454949	2550.196222
710.789107	2548.935934
711.123216	2547.514329
711.457275	2550.591953
711.791286	2547.587425
712.125247	2548.366284
712.459159	2551.572457
712.793023	2555.383570
713.126837	2552.558003
713.460602	2551.297715
713.794318	2551.171686
714.127985	2551.902653
714.461602	2550.186140
714.795171	2553.450287
715.128691	2549.727395
715.462162	2550.367622
715.795584	2550.569268
716.128957	2549.442570
716.462281	2550.609597
716.795556	2549.281253
717.128782	2548.978784
717.461960	2545.134904
717.795088	2546.775800
718.128167	2549.606408
718.461198	2546.243958
718.794180	2549.263609
719.127113	2548.381407
719.459997	2547.234545
719.792833	2543.733463
720.125619	2547.040460
720.458357	2544.136756
720.791046	2547.761345
721.123686	2544.439225
721.456278	2546.281767
721.788821	2546.022147
722.121315	2547.607590
722.453761	2544.338402
722.786158	2545.520552
723.118506	2544.449307
723.450805	2546.566592
723.783056	2543.136087
724.115259	2546.712785
724.447412	2546.881664
724.779518	2545.243289
725.111574	2547.325285
725.443582	2544.842517
725.775542	2545.863351
726.107453	2547.726057
726.439315	2546.009544
726.771129	2551.774104
727.102895	2546.871582
727.434612	2549.689587
727.766281	2547.952909
728.097901	2542.586601
728.429473	2543.856972
728.760996	2547.292518
729.092471	2543.735984
729.423897	2550.236552
729.755276	2547.358053
730.086606	2545.018958
730.417887	2549.031716
730.749120	2549.296377
731.080305	2545.807898
731.411442	2548.721685
731.742530	2548.885523
732.073570	2546.921993
732.404562	2546.480892
732.735506	2551.476676
733.066401	2548.751932
733.397249	2548.008362
733.728048	2547.307641
734.058798	2547.489123
734.389501	2544.827394
734.720156	2544.915614
735.050762	2545.994421
735.381320	2548.031047
735.711831	2543.614996
736.042293	2546.140614
736.372707	2545.530635
736.703073	2548.492313
737.033391	2545.485264
737.363661	2545.926365
737.693883	2545.631458
738.024056	2547.347971
738.354182	2545.331509
738.684260	2548.315872
739.014290	2544.101468
739.344272	2545.192877
739.674207	2547.116077
740.004093	2547.410985
740.333931	2545.071890
740.663722	2547.229503
740.993464	2545.177754
741.323159	2544.852599
741.652806	2547.607590
741.982405	2547.242106
742.311956	2547.070707
742.641460	2546.062476
742.970915	2547.784030
743.300323	2544.764379
743.629683	2545.273536
743.958996	2543.768751
744.288260	2544.819832
744.617477	2541.444779
744.946647	2541.076775
745.275768	2544.071221
745.604842	2540.222300
745.933869	2541.439738
746.262847	2536.728780
746.591778	2542.705068
746.920662	2542.818494
747.249498	2543.451159
747.578286	2544.950902
747.907027	2544.242620
748.235720	2545.807898
748.564365	2542.735315
748.892963	2542.475695
749.221514	2544.252702
749.550017	2540.272711
749.878473	2540.708771
750.206881	2543.219266
750.535242	2541.283463
750.863555	2543.451159
751.191821	2540.744059
751.520039	2543.393185
751.848210	2543.370500
752.176334	2543.514173
752.504411	2541.832948
752.832440	2545.205480
753.160421	2545.056766
753.488356	2541.979142
753.816243	2543.647764
754.144082	2540.880170
754.471875	2542.321940
754.799620	2540.083668
755.127318	2541.238092
755.454969	2539.574511
755.782572	2544.635830
756.110129	2542.584080
756.437638	2544.187167
756.765100	2542.831097
757.092515	2543.839328
757.419882	2543.050387
757.747203	2543.083154
758.074477	2544.184647
758.401703	2542.440407
758.728882	2544.303114
759.056014	2543.519214
759.383099	2543.007537
759.710138	2544.005686
760.037129	2544.421581
760.364073	2542.697506
760.690970	2542.173226
761.017820	2541.422094
761.344623	2542.271529
761.671379	2541.401930
761.998088	2537.328677
762.324751	2545.485264
762.651366	2546.785882
762.977935	2551.408620
763.304456	2549.467776
763.630931	2558.798952
763.957359	2554.322407
764.283740	2554.584547
764.610074	2549.102292
764.936362	2549.160265
765.262602	2543.289842
765.588796	2546.322096
765.914943	2544.542568
766.241044	2545.147507
766.567097	2540.910417
766.893104	2542.339584
767.219064	2543.806560
767.544978	2541.308668
767.870845	2541.021323
768.196665	2543.136087
768.522438	2540.880170
768.848165	2540.958308
769.173846	2541.033925
769.499479	2537.956301
769.825066	2540.610468
770.150607	2539.551826
770.476101	2537.797505
770.801548	2539.526620
771.126949	2540.933102
771.452303	2540.292876
771.777611	2538.591486
772.102872	2538.588966
772.428087	2538.283976
772.753256	2540.244985
773.078378	2539.198945
773.403453	2539.312371
773.728482	2539.387989
774.053465	2536.567463
774.378401	2539.813966
774.703291	2539.088040
775.028135	2539.246836
775.352932	2541.124666
775.677683	2537.333718
776.002388	2538.893956
776.327046	2537.943698
776.651658	2539.022505
776.976224	2537.076620
777.300743	2537.590817
777.625216	2538.989737
777.949643	2537.565612
778.274024	2538.553678
778.598359	2537.752134
778.922647	2534.356917
779.246889	2535.826413
779.571086	2532.577390
779.895236	2537.444624
780.219339	2537.822710
780.543397	2538.972093
780.867409	2536.310364
781.191374	2536.935467
781.515294	2540.789429
781.839167	2537.079140
782.162995	2537.724408
782.486776	2537.217772
782.810511	2538.357073
783.134201	2540.544933
783.457844	2536.350693
783.781441	2540.116435
784.104993	2535.460930
784.428498	2539.113246
784.751958	2535.113090
785.075372	2537.248019
785.398739	2537.268183
785.722061	2539.221631
786.045337	2535.576876
786.368568	2539.284645
786.691752	2535.450848
787.014891	2535.965045
787.337983	2538.029398
787.661030	2540.355890
787.984031	2541.003678
788.306987	2538.004192
788.629897	2540.401261
788.952760	2539.670293
789.275579	2539.589635
789.598351	2541.475026
789.921078	2539.448483
790.243759	2537.714326
790.566395	2536.723739
790.888984	2539.244316
791.211529	2537.900848
791.534027	2538.150385
791.856480	2535.425642
792.178888	2540.486960
792.501249	2537.157278
792.823566	2539.445962
793.145836	2536.524613
793.468062	2535.332380
793.790241	2536.370858
794.112375	2536.965714
794.434464	2538.629295
794.756507	2536.940508
795.078505	2538.525951
795.400457	2536.164171
795.722364	2536.794315
796.044226	2534.140148
796.366042	2535.561753
796.687812	2535.448327
797.009538	2537.439583
797.331218	2537.101825
797.652852	2536.544778
797.974442	2538.334387
798.295986	2538.664583
798.617484	2538.896476
798.938938	2538.793132
799.260346	2537.061496
799.581709	2536.900179
799.903026	2539.635005
800.224299	2537.116949
800.545526	2535.710467
800.866708	2537.172402
801.187845	2538.465457
801.508936	2533.356248
801.829983	2535.271887
802.150984	2534.578728
802.471940	2536.703574
802.792851	2536.708615
803.113717	2535.544109
803.434538	2535.556712
803.755314	2538.362114
804.076045	2537.058976
804.396731	2536.756506
804.717372	2536.983358
805.037967	2534.578728
805.358518	2534.409849
805.679024	2537.532844
805.999485	2535.216434
806.319901	2538.926723
806.640272	2534.167874
806.960598	2536.607792
807.280879	2537.595858
807.601115	2540.575180
807.921306	2537.139634
808.241453	2536.524613
808.561554	2534.671989
808.881611	2538.029398
809.201623	2537.081661
809.521590	2536.859850
809.841513	2536.340611
810.161390	2532.365661
810.481223	2538.959491
810.801011	2535.332380
811.120755	2535.854140
811.440453	2538.830941
811.760107	2535.970086
812.079716	2534.485467
812.399281	2530.510517
812.718801	2535.458409
813.038276	2531.685106
813.357707	2535.387833
813.677093	2534.971938
813.996434	2536.063348
814.315731	2535.115611
814.634983	2538.205838
814.954191	2534.079654
815.273354	2535.168543
815.592473	2536.481763
815.911547	2539.050231
816.230577	2537.426980
816.549562	2537.868081
816.868502	2537.842875
817.187399	2537.971424
817.506250	2536.953111
817.825058	2538.054603
818.143821	2539.506456
818.462539	2537.855478
818.781213	2537.497556
819.099843	2541.711961
819.418429	2538.858667
819.736970	2542.276570
820.055466	2543.380582
820.373919	2546.017106
820.692327	2546.788403
821.010691	2552.404248
821.329011	2560.991853
821.647286	2581.814339
821.965517	2603.042638
822.283704	2613.024123
822.601847	2620.926132
822.919945	2610.561519
823.237999	2599.602051
823.556010	2585.179310
823.873976	2574.998699
824.191897	2568.629202
824.509775	2560.586041
824.827609	2553.702345
825.145398	2553.911553
825.463144	2552.593291
825.780845	2554.476162
826.098502	2557.233673
826.416116	2562.484035
826.733685	2567.545353
827.051210	2570.106260
827.368692	2568.432597
827.686129	2561.269117
828.003522	2551.524567
828.320872	2547.494164
828.638177	2545.429812
828.955439	2540.519728
829.272656	2541.752290
829.589830	2536.101156
829.906960	2544.005686
830.224046	2536.706095
830.541088	2539.501415
830.858086	2538.142824
831.175041	2538.357073
831.491952	2537.416898
831.808819	2539.019984
832.125642	2541.066693
832.442421	2538.490663
832.759157	2542.014430
833.075849	2548.096582
833.392497	2547.718495
833.709101	2553.619166
834.025662	2554.173693
834.342179	2552.341233
834.658653	2547.773948
834.975083	2542.747918
835.291469	2550.775955
835.607811	2540.615510
835.924110	2538.089892
836.240366	2538.215920
836.556578	2535.758358
836.872746	2536.549819
837.188871	2534.833306
837.504952	2537.210210
837.820990	2537.701723
838.136984	2536.872453
838.452935	2531.780888
838.768842	2537.328677
839.084706	2533.857843
839.400526	2536.058307
839.716303	2538.518390
840.032037	2542.942002
840.347727	2542.478216
840.663373	2540.297917
840.978977	2539.700540
841.294537	2536.955632
841.610054	2536.328008
841.925527	2538.112577
842.240957	2536.978317
842.556344	2534.495549
842.871687	2533.462112
843.186987	2535.617206
843.502244	2531.629653
843.817458	2533.222657
844.132629	2535.715508
844.447756	2532.968079
844.762840	2530.162677
845.077881	2528.887265
845.392879	2529.308202
845.707833	2532.882380
846.022745	2525.829805
846.337613	2534.059489
846.652438	2530.346679
846.967221	2532.242153
847.281960	2530.908768
847.596656	2532.746268
847.911309	2530.573531
848.225919	2533.333563
848.540485	2533.595703
848.855009	2533.441948
849.169490	2532.930271
849.483928	2533.399098
849.798323	2533.131917
850.112675	2530.639066
850.426984	2530.686957
850.741251	2533.923378
851.055474	2531.307019
851.369654	2532.194262
851.683792	2532.559746
851.997887	2534.256094
852.311938	2532.650487
852.625947	2533.444468
852.939914	2534.417411
853.253837	2533.651156
853.567718	2530.613860
853.881555	2534.510672
854.195350	2530.558408
854.509103	2535.609644
854.822812	2527.982378
855.136479	2533.658717
855.450103	2530.752492
855.763685	2533.225178
856.077224	2527.226205
856.390720	2531.778367
856.704173	2531.060002
857.017584	2531.483459
857.330953	2531.929602
857.644278	2532.529499
857.957561	2534.361958
858.270802	2534.631660
858.584000	2529.991278
858.897155	2532.635363
859.210268	2533.903213
859.523339	2531.584282
859.836367	2533.038655
860.149352	2535.637370
860.462295	2532.879859
860.775195	2530.833151
861.088054	2529.487163
861.400869	2529.091432
861.713642	2527.185876
862.026373	2530.513037
862.339062	2532.678213
862.651708	2531.874149
862.964312	2531.092770
863.276873	2535.047555
863.589392	2533.792308
863.901869	2532.012781
864.214303	2533.694005
864.526696	2530.555887
864.839045	2532.484128
865.151353	2534.828265
865.463619	2531.060003
865.775842	2535.183666
866.088023	2532.279962
866.400162	2533.411701
866.712258	2535.665097
867.024313	2530.931453
867.336325	2534.606454
867.648296	2533.822555
867.960224	2531.112935
868.272110	2533.061341
868.583954	2532.607637
868.895755	2533.716691
869.207515	2535.450847
869.519233	2532.035466
869.830909	2534.717360
870.142542	2534.803059
870.454134	2534.306506
870.765684	2534.336753
871.077191	2532.012781
871.388657	2535.881866
871.700081	2532.910106
872.011463	2533.446989
872.322803	2531.213758
872.634101	2533.308357
872.945357	2534.119983
873.256571	2535.939839
873.567744	2530.984385
873.878874	2535.839016
874.189963	2532.796680
874.501010	2536.156609
874.812015	2534.349355
875.122979	2531.513706
875.433900	2532.121165
875.744780	2536.615354
876.055618	2533.426824
876.366415	2532.804242
876.677169	2530.555887
876.987882	2531.493542
877.298554	2529.764426
877.609183	2532.174098
877.919771	2530.450023
878.230317	2530.823068
878.540822	2535.876825
878.851285	2533.777184
879.161707	2539.390509
879.472087	2536.209541
879.782425	2540.093750
880.092722	2544.776982
880.402977	2551.907694
880.713191	2560.361709
881.023363	2574.187074
881.333494	2579.881057
881.643583	2583.528332
881.953631	2581.794175
882.263637	2581.345512
882.573602	2574.857547
882.883526	2571.933678
883.193408	2563.918243
883.503248	2556.056564
883.813048	2555.363405
884.122806	2549.049360
884.432522	2547.012734
884.742197	2544.356046
885.051831	2546.720347
885.361424	2541.248174
885.670975	2541.749769
885.980485	2540.703730
886.289954	2536.471681
886.599382	2538.825900
886.908768	2537.467309
887.218113	2537.394212
887.527417	2536.010416
887.836680	2538.256250
888.145901	2534.404808
888.455082	2532.521937
888.764221	2533.381454
889.073319	2533.605785
889.382376	2535.211393
889.691392	2533.376413
890.000366	2535.997813
890.309300	2533.827596
890.618193	2537.006043
890.927044	2533.394057
891.235855	2534.122503
891.544625	2533.091587
891.853353	2532.458923
892.162041	2533.404139
892.470687	2534.218285
892.779293	2535.859181
893.087858	2533.605785
893.396381	2534.707277
893.704864	2537.656352
894.013306	2540.943185
894.321707	2545.054246
894.630068	2550.564227
894.938387	2549.704710
895.246665	2547.773948
895.554903	2547.698331
895.863100	2545.785213
896.171256	2541.691796
896.479371	2540.847403
896.787446	2541.253216
897.095480	2536.534696
897.403473	2537.636188
897.711425	2535.672658
898.019336	2537.663914
898.327207	2537.759696
898.635038	2535.138296
898.942827	2535.229037
899.250576	2535.017308
899.558284	2535.718029
899.865952	2534.752648
900.173579	2533.996475
900.481165	2536.161650
900.788711	2534.366999
901.096216	2535.178625
901.403681	2532.980682
901.711105	2533.124355
902.018489	2533.368851
902.325832	2534.795498
902.633135	2533.323481
902.940397	2535.602082
903.247619	2538.215920
903.554800	2539.592155
903.861941	2544.592980
904.169041	2552.638662
904.476101	2554.841646
904.783121	2556.963972
905.090100	2551.824515
905.397039	2549.533311
905.703938	2545.344112
906.010796	2543.635161
906.317614	2539.733308
906.624391	2536.544778
906.931129	2535.138296
907.237826	2533.507483
907.544483	2534.235929
907.851099	2535.839016
908.157675	2533.628470
908.464211	2534.573687
908.770707	2527.866432
909.077163	2531.264169
909.383578	2526.769981
909.689954	2528.088242
909.996289	2528.035310
910.302584	2530.888603
910.608839	2528.378109
910.915054	2530.306350
911.221229	2531.027235
911.527363	2530.301309
911.833458	2532.133768
912.139513	2533.971269
912.445527	2532.615198
912.751502	2530.540764
913.057436	2533.567977
913.363331	2533.358769
913.669186	2534.649304
913.975000	2535.856660
914.280775	2536.098636
914.586510	2537.157278
914.892205	2540.081147
915.197859	2543.720860
915.503475	2545.099616
915.809050	2550.324772
916.114585	2552.608415
916.420081	2554.463559
916.725536	2551.360729
917.030952	2550.738147
917.336328	2547.070707
917.641665	2548.139432
917.946961	2542.347146
918.252218	2541.500232
918.557435	2539.115766
918.862612	2539.062834
919.167750	2538.367155
919.472848	2536.844727
919.777906	2535.130734
920.082925	2537.305992
920.387904	2535.443286
920.692843	2530.024045
920.997743	2534.356917
921.302603	2533.212575
921.607423	2530.664272
921.912204	2531.480939
922.216946	2531.886752
922.521647	2530.870959
922.826310	2533.326001
923.130932	2531.967410
923.435516	2530.949097
923.740059	2531.546474
924.044564	2530.404653
924.349028	2531.279293
924.653454	2527.914322
924.957840	2529.247708
925.262186	2526.933818
925.566493	2528.620084
925.870761	2526.835516
926.174989	2531.523789
926.479178	2528.526823
926.783328	2530.727286
927.087438	2528.037831
927.391509	2530.739889
927.695541	2527.508510
927.999533	2529.512368
928.303486	2529.953469
928.607400	2531.836340
928.911275	2530.215609
929.215110	2531.596885
929.518906	2527.755526
929.822663	2529.358613
930.126381	2530.308871
930.430060	2529.096473
930.733699	2530.381967
931.037299	2530.344159
931.340861	2528.267203
931.644383	2527.753006
931.947866	2532.398429
932.251309	2530.271062
932.554714	2529.255269
932.858080	2529.860208
933.161407	2530.036648
933.464694	2529.726617
933.767943	2528.771319
934.071153	2528.678057
934.374323	2531.397760
934.677455	2530.409694
934.980548	2527.937008
935.283602	2527.994981
935.586617	2528.247039
935.889593	2530.059333
936.192530	2530.540764
936.495428	2529.504807
936.798287	2529.371216
937.101108	2528.461288
937.403890	2528.471370
937.706632	2531.707791
938.009336	2528.872142
938.312002	2527.904240
938.614628	2528.897348
938.917216	2531.392719
939.219765	2531.939684
939.522275	2534.230888
939.824747	2532.058151
940.127179	2527.707635
940.429573	2525.355937
940.731929	2529.789632
941.034246	2525.696215
941.336524	2527.906761
941.638763	2529.973634
941.940964	2528.693181
942.243126	2530.573531
942.545250	2530.301309
942.847335	2531.985054
943.149381	2529.729138
943.451389	2530.056813
943.753359	2530.848274
944.055290	2529.262831
944.357182	2528.478932
944.659036	2528.403314
944.960851	2529.033459
945.262628	2528.388191
945.564367	2527.498427
945.866067	2529.955990
946.167729	2528.249559
946.469352	2528.864580
946.770937	2530.197965
947.072484	2527.994981
947.373992	2528.355423
947.675462	2527.488345
947.976893	2528.839374
948.278286	2531.312060
948.579641	2529.623274
948.880958	2529.116638
949.182236	2529.827440
949.483476	2527.972296
949.784678	2529.124199
950.085841	2531.196114
950.386967	2529.391381
950.688054	2527.440454
950.989103	2528.592358
951.290114	2527.024559
951.591087	2531.332225
951.892021	2526.036493
952.192917	2531.241484
952.493776	2528.889786
952.794596	2529.245187
953.095378	2529.479601
953.396122	2530.996988
953.696828	2528.882224
953.997496	2525.940711
954.298126	2529.547656
954.598718	2529.759385
954.899272	2526.875845
955.199788	2531.100332
955.500266	2528.254600
955.800706	2528.378109
956.101108	2523.795700
956.401472	2527.349713
956.701798	2522.540453
957.002087	2523.478107
957.302337	2526.580937
957.602550	2527.894158
957.902724	2526.013807
958.202861	2526.631349
958.502960	2529.197296
958.803022	2527.868952
959.103045	2527.400125
959.403031	2527.304343
959.702979	2528.504138
960.002889	2527.634538
960.302762	2526.989271
960.602596	2526.217974
960.902393	2524.481297
961.202153	2522.941224
961.501875	2525.771832
961.801559	2527.352234
962.101205	2528.000022
962.400814	2525.154291
962.700385	2529.953469
962.999918	2527.359796
963.299414	2529.479601
963.598873	2528.244518
963.898293	2527.843746
964.197677	2526.898530
964.497022	2526.263345
964.796331	2524.609846
965.095601	2526.472552
965.394835	2529.272913
965.694030	2527.969775
965.993189	2529.673685
966.292309	2525.325690
966.591393	2528.741072
966.890439	2526.109589
967.189447	2527.843746
967.488419	2526.175124
967.787353	2527.579086
968.086249	2527.868952
968.385108	2526.654034
968.683930	2525.182017
968.982714	2526.437264
969.281462	2525.870135
969.580172	2526.848118
969.878844	2525.930628
970.177480	2529.091432
970.476078	2527.916843
970.774639	2527.785773
971.073162	2525.487007
971.371649	2522.858045
971.670098	2524.067922
971.968510	2521.645648
972.266885	2520.937366
972.565223	2527.296781
972.863524	2526.212933
973.161788	2527.574045
973.460014	2527.085053
973.758204	2525.892820
974.056356	2526.293592
974.354471	2527.561442
974.652550	2526.903571
974.950591	2527.387522
975.248595	2522.671522
975.546563	2527.478263
975.844493	2526.175124
976.142386	2525.555062
976.440243	2526.961544
976.738062	2529.681247
977.035845	2528.078160
977.333590	2524.756040
977.631299	2526.122192
977.928971	2525.776873
978.226606	2525.429034
978.524204	2528.970444
978.821765	2526.081863
979.119290	2527.495907
979.416777	2525.260155
979.714228	2522.409383
980.011642	2526.308715
980.309020	2528.862059
980.606360	2525.149250
980.903664	2527.505989
981.200931	2524.083046
981.498162	2529.519930
981.795356	2525.476925
982.092513	2529.610671
982.389633	2527.435413
982.686717	2527.775691
982.983764	2525.872655
983.280775	2529.577903
983.577749	2529.693850
983.874686	2528.947759
984.171587	2527.417769
984.468451	2528.736031
984.765279	2527.153108
985.062070	2528.133613
985.358824	2525.882737
985.655543	2523.813344
985.952224	2526.651513
986.248869	2525.938190
986.545478	2523.649506
986.842050	2525.575227
987.138586	2522.711852
987.435086	2521.491893
987.731549	2522.779907
988.027975	2524.589682
988.324366	2525.706297
988.620719	2529.043541
988.917037	2526.447347
989.213318	2526.187727
989.509563	2524.148581
989.805772	2526.107069
990.101944	2524.632531
990.398080	2525.093797
990.694180	2525.741585
990.990244	2525.129085
991.286271	2526.827954
991.582262	2525.436595
991.878217	2524.277130
992.174136	2525.151770
992.470019	2527.246370
992.765865	2526.459950
993.061676	2526.598581
993.357450	2526.069260
993.653188	2525.910464
993.948890	2527.553880
994.244556	2526.396935
994.540186	2527.677388
994.835780	2524.514064
995.131337	2527.289219
995.426859	2524.113292
995.722345	2525.030783
996.017795	2526.152439
996.313208	2529.986237
996.608586	2525.267717
996.903928	2528.589837
997.199234	2526.094466
997.494504	2528.035310
997.789738	2525.310567
998.084936	2526.008766
998.380099	2527.327028
998.675225	2524.133457
998.970316	2526.470032
999.265371	2523.596574
999.560390	2525.920546
999.855373	2525.691174
1000.150320	2529.590506
1000.445232	2525.000536
1000.740108	2527.377440
1001.034948	2527.027079
1001.329752	2525.562624
1001.624521	2526.081863
1001.919254	2523.289064
1002.213951	2521.960720
1002.508613	2523.649506
1002.803239	2523.556245
1003.097829	2519.639268
1003.392384	2526.296112
1003.686903	2521.423837
1003.981386	2525.577748
1004.275834	2527.248890
1004.570246	2524.393077
1004.864623	2524.914836
1005.158964	2524.869466
1005.453270	2525.918026
1005.747540	2525.602953
1006.041775	2524.224198
1006.335974	2524.713190
1006.630138	2526.142357
1006.924266	2524.304856
1007.218359	2525.560104
1007.512416	2527.304343
1007.806438	2526.568334
1008.100425	2525.174455
1008.394376	2526.280989
1008.688292	2527.833664
1008.982172	2523.704959
1009.276017	2525.149250
1009.569827	2525.998684
1009.863602	2529.035979
1010.157341	2526.444826
1010.451045	2526.515402
1010.744714	2527.473222
1011.038347	2523.258817
1011.331945	2523.155473
1011.625508	2523.919208
1011.919036	2526.099507
1012.212528	2529.512368
1012.505986	2525.255114
1012.799408	2525.673530
1013.092795	2523.092459
1013.386147	2524.776204
1013.679464	2525.245032
1013.972745	2525.282840
1014.265992	2526.182686
1014.559204	2524.607326
1014.852380	2526.626308
1015.145521	2527.306863
1015.438628	2524.390556
1015.731699	2526.906092
1016.024736	2525.749147
1016.317737	2524.955165
1016.610703	2529.136802
1016.903635	2522.237983
1017.196531	2520.198837
1017.489393	2524.191430
1017.782219	2520.710514
1018.075011	2523.899043
1018.367768	2525.862573
1018.660490	2526.419620
1018.953177	2526.419620
1019.245829	2526.419620
