Dividing Wavelength (nm)	Counts (n)	Blue Motor Position (mm): 0.000000	Red Motor Position (mm): 46.600000	
326.493990	2128.191152
326.888308	2128.191152
327.282561	2128.191152
327.676750	2096.976327
328.070874	2094.569176
328.464933	2095.481625
328.858929	2104.101998
329.252859	2113.627258
329.646726	2124.357354
330.040528	2137.441669
330.434265	2155.927580
330.827938	2171.792091
331.221547	2190.978723
331.615091	2209.041177
332.008571	2230.975238
332.401986	2252.518608
332.795338	2269.540064
333.188625	2288.386418
333.581847	2304.079530
333.975006	2323.311532
334.368100	2344.507063
334.761129	2361.583972
335.154095	2378.393699
335.546996	2398.671741
335.939833	2421.830802
336.332606	2439.631116
336.725315	2450.648558
337.117960	2461.262707
337.510540	2467.914509
337.903056	2480.446818
338.295508	2486.801192
338.687896	2495.227481
339.080220	2506.617968
339.472480	2511.349091
339.864676	2515.818074
340.256807	2522.326203
340.648875	2522.971471
341.040879	2526.028931
341.432818	2528.602440
341.824694	2526.280989
342.216506	2530.245856
342.608253	2529.073788
342.999937	2529.290558
343.391557	2525.426513
343.783113	2527.858870
344.174605	2529.245187
344.566033	2524.509023
344.957397	2524.945083
345.348697	2523.236132
345.739934	2521.973323
346.131106	2517.721109
346.522215	2515.571057
346.913260	2514.870337
347.304241	2514.638444
347.695159	2510.668535
348.086012	2509.539317
348.476802	2508.011847
348.867528	2505.518997
349.258191	2507.527896
349.648789	2505.561846
350.039324	2503.164778
350.429796	2503.368944
350.820203	2501.458347
351.210548	2501.851557
351.600828	2497.886690
351.991045	2499.066320
352.381198	2496.339055
352.771288	2498.244612
353.161314	2494.604898
353.551276	2496.767553
353.941175	2499.535147
354.331010	2496.908706
354.720782	2495.824858
355.110490	2498.968017
355.500135	2497.745537
355.889717	2496.109683
356.279235	2497.208654
356.668689	2497.269148
357.058080	2499.956083
357.447408	2496.518016
357.836672	2496.908706
358.225873	2498.668068
358.615010	2494.892244
359.004084	2499.343583
359.393095	2501.501197
359.782043	2503.036228
360.170927	2504.099912
360.559748	2502.839623
360.948505	2505.375324
361.337199	2505.574449
361.725830	2506.713750
362.114398	2508.488236
362.502903	2509.597290
362.891344	2506.255005
363.279722	2508.412619
363.668037	2508.243740
364.056289	2508.624347
364.444478	2508.788185
364.832603	2509.657784
365.220665	2511.122239
365.608665	2509.178874
365.996601	2515.147600
366.384474	2513.587363
366.772284	2513.642816
367.160031	2517.771521
367.547715	2517.345543
367.935336	2517.320338
368.322893	2525.822244
368.710388	2525.171935
369.097820	2536.388502
369.485189	2536.693492
369.872495	2540.955787
370.259738	2550.816284
370.646918	2555.101265
371.034035	2562.811710
371.421090	2575.444842
371.808081	2584.387848
372.195010	2591.442943
372.581875	2608.378700
372.968678	2618.997890
373.355418	2628.082049
373.742096	2647.440080
374.128710	2661.812410
374.515262	2677.714730
374.901751	2691.104034
375.288177	2705.735983
375.674540	2728.219529
376.060841	2745.863568
376.447079	2764.596496
376.833254	2788.564662
377.219367	2799.657721
377.605417	2835.258349
377.991404	2845.123887
378.377329	2867.095756
378.763191	2882.683004
379.148991	2923.589447
379.534727	2947.550051
379.920402	2976.178764
380.306013	2985.540186
380.691563	3039.914072
381.077049	3056.789334
381.462474	3078.322623
381.847835	3117.348715
382.233134	3139.895276
382.618371	3138.193887
383.003545	3204.371634
383.388657	3212.407233
383.773706	3245.257912
384.158693	3261.941611
384.543618	3287.888429
384.928480	3323.466373
385.313280	3371.450596
385.698017	3366.008670
386.082692	3419.414654
386.467305	3424.594439
386.851856	3458.970068
387.236344	3483.102071
387.620770	3513.099457
388.005133	3540.203221
388.389435	3567.284299
388.773674	3577.933737
389.157851	3619.493009
389.541965	3635.410452
389.926018	3601.415431
390.310008	3672.301616
390.693936	3689.960778
391.077802	3727.875296
391.461606	3723.081159
391.845348	3780.865385
392.229027	3781.072072
392.612645	3795.363743
392.996200	3873.113459
393.379694	3914.783637
393.763125	3976.179849
394.146494	3947.306641
394.529801	4004.496010
394.913047	4056.102302
395.296230	4022.525697
395.679351	4076.944953
396.062410	4097.054116
396.445408	4081.827310
396.828343	4114.942650
397.211217	4138.323522
397.594028	4057.380235
397.976778	4124.253661
398.359466	4151.526303
398.742092	4177.510931
399.124656	4102.974951
399.507158	4182.310109
399.889598	4205.990930
400.271977	4270.202627
400.654294	4238.851691
401.036549	4249.110439
401.418742	4219.970049
401.800874	4321.211542
402.182944	4344.456302
402.564952	4400.874376
402.946898	4394.701483
403.328783	4386.479361
403.710606	4301.006597
404.092367	4492.416688
404.474067	4459.422336
404.855705	4470.815344
405.237282	4394.431781
405.618797	4506.189121
406.000250	4540.106004
406.381642	4623.216987
406.762972	4582.040842
407.144240	4591.936627
407.525447	4590.988890
407.906593	4653.476513
408.287677	4695.217266
408.668700	4625.230927
409.049661	4672.942928
409.430560	4714.358527
409.811399	4640.913957
410.192176	4802.684584
410.572891	4740.880038
410.953545	4847.732335
411.334138	4727.578953
411.714669	4793.139159
412.095139	4689.460269
412.475547	4833.773380
412.855894	4811.889731
413.236180	4818.191173
413.616405	4775.101911
413.996568	4861.335888
414.376670	4802.193072
414.756711	4759.391155
415.136691	4793.605466
415.516609	4867.932238
415.896466	4903.202671
416.276262	4938.831026
416.655997	4918.454682
417.035670	5100.253813
417.415283	5193.787382
417.794834	5135.599863
418.174324	5089.513635
418.553753	4997.162217
418.933121	5185.114077
419.312428	5252.181587
419.691674	5192.955591
420.070859	5315.087626
420.449983	5224.702258
420.829045	5341.145350
421.208047	5251.211165
421.586988	5320.625333
421.965867	5331.476417
422.344686	5462.924503
422.723444	5321.101722
423.102141	5139.937776
423.480777	5434.245379
423.859352	5202.503537
424.237866	5466.740657
424.616319	5455.698009
424.994712	5560.911931
425.373044	5443.919353
425.751314	5584.650725
426.129524	5386.772833
426.507673	5584.617957
426.885762	5666.594680
427.263789	5594.223876
427.641756	5479.325897
428.019662	5602.662767
428.397508	5605.306852
428.775292	5553.879522
429.153016	5651.874511
429.530679	5580.758954
429.908282	5663.257437
430.285824	5532.212642
430.663305	5810.842257
431.040726	5544.238315
431.418086	5547.184869
431.795385	5651.088091
432.172624	5663.015461
432.549802	5657.097147
432.926920	5670.483931
433.303977	5677.355023
433.680974	5717.681733
434.057910	5731.192026
434.434786	5739.668726
434.811601	5710.422472
435.188355	5943.117092
435.565050	5816.264018
435.941683	5800.661646
436.318257	6013.128637
436.694770	5997.856461
437.071222	6035.985228
437.447614	5963.821111
437.823946	5871.096648
438.200218	6030.197984
438.576429	5891.727570
438.952580	5991.396223
439.328670	6032.060690
439.704700	5945.874603
440.080670	5932.344147
440.456580	6202.678542
440.832429	6088.322488
441.208218	5927.739053
441.583947	6087.982210
441.959616	6090.928764
442.335224	6020.481160
442.710773	6157.784547
443.086261	6183.045768
443.461689	5977.311239
443.837057	6127.653570
444.212365	6280.660151
444.587612	6169.046484
444.962800	6327.031205
445.337927	6308.295756
445.712995	5919.670686
446.088002	6499.191650
446.462949	6325.574311
446.837837	6255.124186
447.212664	6426.278921
447.587431	6567.340488
447.962139	7109.982891
448.336786	8042.717340
448.711374	7781.172196
449.085901	6858.081474
449.460369	6768.749707
449.834776	6709.170831
450.209124	7100.843279
450.583412	7248.584375
450.957640	7399.428301
451.331808	7162.335273
451.705917	6711.759463
452.079965	6639.875130
452.453954	6852.967224
452.827883	6725.015177
453.201752	6820.892882
453.575562	6617.482325
453.949311	6825.772719
454.323001	6711.010852
454.696632	6783.222860
455.070202	6927.735097
455.443713	7081.391987
455.817164	7184.654982
456.190556	7262.387054
456.563888	7336.136614
456.937160	7378.295784
457.310373	7037.652415
457.683526	7057.335601
458.056619	6956.157122
458.429653	6940.267405
458.802628	6875.314659
459.175542	6979.106975
459.548398	7341.482758
459.921194	7500.296748
460.293930	7502.358580
460.666607	8027.641769
461.039224	8337.496291
461.411782	8466.633008
461.784280	8484.042633
462.156719	8375.004996
462.529099	8254.103003
462.901419	7845.388934
463.273680	7734.602017
463.645882	7748.538287
464.018024	7615.716486
464.390106	7781.504912
464.762130	8170.813059
465.134094	8634.150550
465.505999	9653.406323
465.877845	10879.263704
466.249631	11527.427539
466.621358	11147.599282
466.993026	10521.125011
467.364634	10262.440722
467.736184	9897.166276
468.107674	9565.019773
468.479105	9593.467004
468.850477	9364.021407
469.221790	9136.970358
469.593043	8811.314341
469.964238	8670.260335
470.335373	8681.902880
470.706449	8742.308506
471.077467	8718.216832
471.448425	10029.436071
471.819324	11102.362488
472.190164	11132.836263
472.560945	9880.490139
472.931667	9089.273481
473.302330	8959.189027
473.672934	8596.614119
474.043479	8958.553842
474.413965	8899.408504
474.784393	8781.407695
475.154761	8936.377806
475.525070	9021.986680
475.895321	8851.812450
476.265513	9030.128144
476.635645	9197.668371
477.005719	9202.255821
477.375734	9307.623498
477.745691	9545.397081
478.115588	9676.119242
478.485427	9927.264485
478.855207	10456.464651
479.224928	11276.713314
479.594591	11904.026937
479.964194	11716.259080
480.333739	11666.830566
480.703226	11569.624517
481.072653	11660.385451
481.442022	11902.217163
481.811333	12090.859660
482.180584	11895.860268
482.549777	11606.245979
482.918912	11427.216962
483.287988	11454.928185
483.657005	11465.617952
484.025964	11145.335804
484.394864	11276.209199
484.763706	11247.880435
485.132489	11003.883548
485.501213	10971.834412
485.869879	11040.878055
486.238487	10887.127904
486.607036	10996.039512
486.975527	10777.366861
487.343959	10965.691766
487.712333	11016.267142
488.080648	10944.662593
488.448905	10990.539613
488.817104	10918.798953
489.185244	11188.218379
489.553326	11347.642349
489.921350	11883.643032
490.289315	12943.482613
490.657222	13283.395014
491.025070	13195.028628
491.392861	13078.903129
491.760593	12690.983820
492.128267	12342.826612
492.495883	12016.285872
492.863440	11676.244921
493.230939	11351.405570
493.598380	11278.820517
493.965763	11147.072481
494.333088	11048.119673
494.700354	10963.745881
495.067563	11026.127639
495.434713	10861.092865
495.801805	10982.060392
496.168839	10908.391491
496.535815	10834.871303
496.902733	10842.213744
497.269593	10773.709504
497.636395	10874.880421
498.003139	10858.557164
498.369825	10733.619728
498.736453	10886.401978
499.103023	10813.854733
499.469535	10842.458240
499.835989	10831.216467
500.202385	10793.911928
500.568723	10645.724690
500.935003	10872.932015
501.301226	10677.609988
501.667390	10933.027610
502.033497	11028.045798
502.399546	10888.085723
502.765537	10794.630293
503.131470	10873.468897
503.497345	11041.881245
503.863163	10650.365072
504.228923	10959.891918
504.594625	11026.820798
504.960269	10781.062027
505.325856	10998.676036
505.691385	10792.659201
506.056856	10952.683068
506.422270	10967.980450
506.787625	10853.904179
507.152924	10984.596093
507.518164	10956.438728
507.883347	10882.333767
508.248472	10802.421396
508.613540	11028.585201
508.978550	10913.457850
509.343503	10885.108922
509.708398	11011.006698
510.073236	11118.670621
510.438016	11123.021136
510.802738	11079.521020
511.167403	11129.491457
511.532010	11025.431960
511.896561	11255.180026
512.261053	11323.643936
512.625488	11193.496467
512.989866	11171.428816
513.354186	11169.898826
513.718449	11067.923845
514.082655	11263.697055
514.446803	11157.958853
514.810894	11282.364448
515.174927	11149.588017
515.538904	11175.262614
515.902822	11326.492188
516.266684	11211.503469
516.630488	11151.443162
516.994235	11210.351565
517.357925	11273.676019
517.721558	11359.383196
518.085133	11376.636545
518.448651	11388.919317
518.812112	11266.701583
519.175516	11283.980137
519.538863	11402.653940
519.902152	11325.909935
520.265385	11481.396763
520.628560	11395.041798
520.991678	11368.933662
521.354739	11432.358939
521.717743	11366.322344
522.080690	11340.544404
522.443580	11477.308387
522.806413	11438.312542
523.169189	11465.784310
523.531908	11523.540809
523.894569	11337.290339
524.257174	11344.511792
524.619722	11470.086935
524.982213	11411.899416
525.344647	11463.982097
525.707025	11410.850856
526.069345	11513.035045
526.431608	11424.119173
526.793815	11531.785617
527.155964	11319.512710
527.518057	11377.382636
527.880093	11330.391520
528.242072	11400.095555
528.603995	11302.599639
528.965860	11217.991434
529.327669	11274.215422
529.689421	11226.952085
530.051117	11196.359842
530.412755	11303.524691
530.774337	11185.475991
531.135862	11169.540904
531.497331	11193.998062
531.858743	11047.625639
532.220098	11207.616739
532.581396	11083.155692
532.942638	11070.807385
533.303824	11024.912721
533.664953	11035.264730
534.026025	10953.267842
534.387040	11055.142000
534.747999	11054.063193
535.108902	11110.725762
535.469748	10871.989319
535.830537	10979.310443
536.191270	10954.588625
536.551947	10976.520164
536.912567	10976.792387
537.273131	10899.738350
537.633638	10880.579445
537.994089	10870.441685
538.354483	10814.968828
538.714821	10958.583739
539.075103	10974.319701
539.435328	10928.755232
539.795497	10762.666857
540.155609	10921.911865
540.515665	11012.045176
540.875665	10741.274720
541.235609	10817.305403
541.595496	10809.479011
541.955328	10971.305091
542.315102	10849.987203
542.674821	10803.545573
543.034483	10797.579368
543.394090	10804.268979
543.753640	10733.138298
544.113134	10957.570467
544.472571	10806.391304
544.831953	10952.983017
545.191278	10758.112174
545.550548	10784.003540
545.909761	10923.346074
546.268918	10894.445139
546.628019	10981.919240
546.987064	10838.253917
547.346053	10766.036868
547.704986	10869.783814
548.063863	10852.369148
548.422684	10835.128402
548.781449	10757.880281
549.140158	10859.177226
549.498811	10733.682743
549.857408	10595.867679
550.215949	10825.640950
550.574434	10676.412714
550.932864	10775.862077
551.291237	10830.903915
551.649555	10779.088415
552.007817	10791.139293
552.366022	10756.309962
552.724173	10743.933929
553.082267	10732.525798
553.440305	10869.776252
553.798288	10670.040696
554.156215	10823.322020
554.514086	10801.332507
554.871902	10653.805660
555.229661	10694.767555
555.587365	10667.802423
555.945014	10558.631196
556.302606	10686.134579
556.660143	10572.650645
557.017625	10739.091901
557.375050	10636.136416
557.732421	10764.753894
558.089735	10679.238281
558.446994	10680.186018
558.804197	10715.365710
559.161345	10713.026615
559.518437	10564.148739
559.875474	10655.323047
560.232455	10682.915803
560.589381	10640.572631
560.946251	10626.147369
561.303065	10737.385470
561.659825	10672.057157
562.016528	10605.176169
562.373177	10484.077572
562.729770	10602.824471
563.086307	10511.834165
563.442789	10604.223391
563.799216	10483.717129
564.155587	10532.691939
564.511904	10487.263581
564.868164	10470.297577
565.224370	10490.131997
565.580520	10413.824052
565.936615	10421.930227
566.292654	10286.539958
566.648638	10418.013250
567.004567	10370.775118
567.360441	10357.171565
567.716260	10276.581159
568.072023	10363.483089
568.427732	10317.911058
568.783385	10221.743487
569.138982	10295.755187
569.494525	10306.394542
569.850013	10186.856182
570.205445	10270.559500
570.560823	10167.782976
570.916145	10079.741745
571.271412	10156.488271
571.626625	10099.014076
571.981782	10077.949615
572.336884	10052.504391
572.691931	10056.985977
573.046923	10002.246608
573.401860	9955.356315
573.756743	9896.367253
574.111570	9942.516496
574.466342	9922.281305
574.821059	9954.098547
575.175722	9846.709367
575.530330	9853.547693
575.884882	9846.081744
576.239380	9766.328169
576.593823	9749.334440
576.948211	9763.943703
577.302544	9646.154623
577.656823	9657.134256
578.011047	9656.632662
578.365216	9632.798086
578.719330	9562.378208
579.073389	9572.420187
579.427394	9517.988328
579.781344	9490.085541
580.135239	9443.568294
580.489080	9447.828069
580.842866	9347.967853
581.196597	9354.486065
581.550273	9399.218743
581.903895	9362.776242
582.257463	9426.367877
582.610975	9310.491915
582.964434	9337.099125
583.317837	9260.844111
583.671186	9239.704033
584.024481	9236.477694
584.377721	9154.637082
584.730906	9133.590265
585.084037	9161.578751
585.437113	9098.473587
585.790135	9117.743398
586.143103	9020.723871
586.496016	8991.550714
586.848874	9054.139160
587.201679	9033.634266
587.554428	8926.590406
587.907124	8972.774937
588.259765	8944.506666
588.612352	8944.531872
588.964884	8815.450607
589.317362	8840.452210
589.669786	8838.087909
590.022155	8884.222028
590.374470	8902.029904
590.726731	8842.201490
591.078937	8689.313376
591.431090	8805.822003
591.783188	8670.945932
592.135232	8670.829986
592.487222	8670.177156
592.839157	8722.393428
593.191038	8656.185434
593.542866	8594.716124
593.894639	8492.322728
594.246358	8549.000421
594.598022	8569.124707
594.949633	8459.187224
595.301190	8436.779295
595.652692	8467.384140
596.004141	8580.860513
596.355535	8345.852003
596.706876	8328.369282
597.058162	8265.309488
597.409395	8345.000048
597.760573	8403.008605
598.111698	8311.370511
598.462768	8303.415570
598.813785	8263.860156
599.164748	8229.348417
599.515657	8222.341213
599.866511	8136.248388
600.217312	8259.146677
600.568060	8120.580482
600.918753	8225.842295
601.269392	8193.503293
601.619978	8102.639015
601.970510	8167.606885
602.320988	8161.398704
602.671412	8221.073363
603.021783	8155.271182
603.372100	8133.463150
603.722363	8134.007595
604.072572	8110.253678
604.422728	8122.791028
604.772830	8049.880820
605.122878	8057.311480
605.472872	8051.746047
605.822813	8084.780728
606.172701	8025.325359
606.522534	8102.089529
606.872314	8103.465764
607.222041	8073.566681
607.571714	8124.358827
607.921333	8081.635048
608.270899	8090.169721
608.620411	8175.110643
608.969870	8085.957837
609.319276	8079.290911
609.668627	8095.261287
610.017926	8131.580279
610.367171	8175.826487
610.716362	8152.695152
611.065500	8143.734501
611.414585	8166.709560
611.763616	8158.946183
612.112594	8136.664283
612.461518	8153.456367
612.810389	8214.247641
613.159207	8157.827047
613.507971	8101.300589
613.856682	8219.808033
614.205340	8175.826487
614.553945	8256.711800
614.902496	8149.975450
615.250994	8208.084830
615.599439	8187.582458
615.947830	8199.161988
616.296169	8172.958070
616.644454	8182.153135
616.992686	8180.345881
617.340864	8242.662104
617.688990	8146.096282
618.037063	8241.694203
618.385082	8186.470883
618.733048	8272.891383
619.080961	8209.622382
619.428821	8229.895382
619.776628	8232.892348
620.124382	8183.395779
620.472083	8168.090836
620.819731	8196.301133
621.167326	8090.169721
621.514868	8098.780012
621.862357	7985.482600
622.209793	8006.347936
622.557176	7937.984848
622.904506	7902.825321
623.251783	7844.700817
623.599007	7793.064278
623.946179	7803.635578
624.293297	7758.073629
624.640363	7676.031371
624.987376	7656.771643
625.334336	7601.260977
625.681243	7553.395221
626.028097	7541.477934
626.374899	7518.114706
626.721647	7511.299066
627.068343	7442.371370
627.414987	7416.084273
627.761577	7365.294648
628.108115	7408.661174
628.454600	7303.182591
628.801032	7352.185127
629.147412	7310.378838
629.493739	7300.828372
629.840014	7236.795636
630.186236	7294.027856
630.532405	7176.362284
630.878521	7228.699543
631.224585	7185.093562
631.570597	7108.682273
631.916556	7139.377859
632.262462	7137.600852
632.608316	7099.063752
632.954117	7073.366470
633.299866	7063.321971
633.645562	7057.416259
633.991206	6972.230841
634.336797	6913.445946
634.682336	6877.583178
635.027823	6842.143866
635.373257	6833.619275
635.718639	6763.388440
636.063968	6778.537108
636.409245	6671.218504
636.754470	6665.630385
637.099642	6630.417925
637.444762	6570.904584
637.789829	6581.354896
638.134845	6529.211721
638.479808	6507.005438
638.824719	6512.122209
639.169577	6442.813906
639.514383	6467.757535
639.859137	6392.626698
640.203839	6400.132977
640.548489	6381.644545
640.893086	6360.486822
641.237632	6332.508418
641.582125	6357.605803
641.926566	6327.421894
642.270955	6339.059398
642.615292	6332.001782
642.959576	6348.950142
643.303809	6339.853379
643.647990	6346.290933
643.992118	6332.717626
644.336195	6283.037055
644.680219	6305.757535
645.024192	6295.403005
645.368112	6390.925309
645.711981	6411.152939
646.055797	6490.054558
646.399562	6450.153826
646.743274	6571.696045
647.086935	6628.625795
647.430544	6619.927284
647.774101	6646.345451
648.117606	6648.732437
648.461059	6638.582074
648.804460	6592.702533
649.147810	6507.431416
649.491108	6486.417366
649.834354	6456.520803
650.177548	6371.811774
650.520690	6291.170957
650.863781	6263.182471
651.206820	6286.003774
651.549807	6207.263472
651.892742	6146.938504
652.235626	6154.958980
652.578458	6142.565303
652.921238	6045.807917
653.263967	6086.437096
653.606644	6028.778899
653.949269	6024.163723
654.291843	5969.888140
654.634365	6018.537795
654.976836	5974.747812
655.319255	5973.338810
655.661622	5952.622188
656.003938	5943.785045
656.346203	5904.950517
656.688416	5935.567964
657.030577	5891.926696
657.372687	5858.929823
657.714746	5844.686043
658.056753	5890.434514
658.398708	5832.317572
658.740612	5830.011244
659.082465	5871.898191
659.424266	5862.619948
659.766016	5863.179516
660.107715	5837.877965
660.449362	5854.544019
660.790958	5844.076063
661.132503	5835.551472
661.473996	5870.411051
661.815438	5857.687179
662.156829	5854.823803
662.498168	5846.702504
662.839456	5823.452703
663.180693	5858.382858
663.521879	5858.546695
663.863013	5852.114183
664.204097	5866.909970
664.545129	5911.267082
664.886110	5907.566875
665.227040	5938.731288
665.567918	5907.405558
665.908746	5926.466161
666.249522	5936.235917
666.590248	5920.905768
666.930922	5948.879131
667.271545	5958.429597
667.612118	5967.181040
667.952639	5934.436225
668.293109	5954.068999
668.633528	5913.825468
668.973896	5917.596251
669.314213	5906.997225
669.654480	5891.107508
669.994695	5886.767075
670.334859	5875.106886
670.674973	5870.171596
671.015035	5871.590681
671.355047	5867.280494
671.695008	5854.924626
672.034918	5832.463765
672.374777	5841.835270
672.714585	5826.918496
673.054342	5826.580739
673.394049	5822.250388
673.733705	5854.463361
674.073310	5839.223953
674.412864	5805.478469
674.752368	5791.849709
675.091820	5799.613086
675.431223	5733.495833
675.770574	5733.576492
676.109875	5680.654458
676.449125	5689.035377
676.788324	5652.537423
677.127473	5595.506849
677.466571	5591.423515
677.805619	5581.323563
678.144616	5565.610287
678.483562	5545.896854
678.822458	5514.465260
679.161303	5507.755484
679.500098	5501.131408
679.838842	5481.259180
680.177535	5483.946115
680.516179	5498.890615
680.854771	5513.716649
681.193314	5598.055153
681.531805	5700.814033
681.870247	5850.057392
682.208638	5953.912723
682.546978	5966.036698
682.885268	5946.353513
683.223508	5859.355801
683.561697	5806.519467
683.899836	5773.580568
684.237925	5733.760494
684.575963	5696.400503
684.913951	5655.373072
685.251889	5716.025714
685.589776	5686.353483
685.927614	5657.576056
686.265401	5722.730449
686.603137	5710.026741
686.940824	5782.263955
687.278460	5806.441329
687.616046	5814.855015
687.953582	5881.128544
688.291068	5867.325865
688.628504	5929.301810
688.965889	5892.866871
689.303224	5831.485782
689.640510	5784.343431
689.977745	5714.195776
690.314930	5612.130054
690.652065	5553.743410
690.989150	5463.819308
691.326185	5387.186208
691.663170	5336.726778
692.000105	5257.182412
692.336990	5180.876987
692.673825	5157.417977
693.010610	5089.281742
693.347345	5020.006206
693.684030	5004.464328
694.020665	4962.552175
694.357251	4873.268300
694.693786	4877.959093
695.030272	4848.140668
695.366707	4814.344773
695.703093	4783.427376
696.039429	4800.829439
696.375716	4781.804125
696.711952	4757.137759
697.048139	4742.299123
697.384276	4726.991659
697.720363	4738.150253
698.056400	4745.527982
698.392388	4692.792471
698.728326	4675.521478
699.064214	4652.864012
699.400053	4647.903517
699.735842	4612.459164
700.071581	4589.063169
700.407270	4560.646185
700.742910	4541.739338
701.078501	4494.778469
701.414042	4487.741018
701.749533	4459.807985
702.084974	4392.783324
702.420366	4450.353301
702.755709	4390.449269
703.091002	4336.072863
703.426246	4385.692941
703.761440	4341.497145
704.096584	4304.842915
704.431679	4323.835462
704.766725	4310.932629
705.101721	4298.246566
705.436668	4326.471986
705.771565	4273.628091
706.106413	4303.388542
706.441212	4331.039271
706.775961	4339.911702
707.110661	4323.996779
707.445311	4349.638608
707.779913	4369.919170
708.114465	4384.888877
708.448967	4405.297988
708.783421	4464.339982
709.117825	4504.757433
709.452180	4508.694574
709.786485	4553.384403
710.120742	4639.215088
710.454949	4625.382162
710.789107	4685.679403
711.123216	4760.066669
711.457275	4751.186677
711.791286	4817.772757
712.125247	4835.605839
712.459159	4739.801231
712.793023	4816.716636
713.126837	4773.181231
713.460602	4770.600160
713.794318	4692.694169
714.127985	4697.384962
714.461602	4612.091160
714.795171	4586.116615
715.128691	4519.522972
715.462162	4465.902740
715.795584	4412.174122
716.128957	4394.429260
716.462281	4343.942105
716.795556	4317.433197
717.128782	4278.071868
717.461960	4212.806570
717.795088	4219.294535
718.128167	4180.860778
718.461198	4123.058908
718.794180	4118.635295
719.127113	4095.166203
719.459997	4075.407401
719.792833	4034.367367
720.125619	4025.469731
720.458357	3988.132425
720.791046	3994.300277
721.123686	3969.575938
721.456278	3927.172272
721.788821	3942.898152
722.121315	3916.182557
722.453761	3889.976118
722.786158	3898.798138
723.118506	3922.917538
723.450805	3876.538923
723.783056	3900.174373
724.115259	3913.631733
724.447412	3919.817229
724.779518	3912.595776
725.111574	3917.689862
725.443582	3944.690282
725.775542	3931.827778
726.107453	3979.847289
726.439315	3975.514417
726.771129	3991.492354
727.102895	4022.674411
727.434612	4073.169129
727.766281	4082.979214
728.097901	4085.986262
728.429473	4092.144032
728.760996	4095.163683
729.092471	4089.346191
729.423897	4076.778595
729.755276	4079.324377
730.086606	4078.999223
730.417887	4117.417857
730.749120	4183.575439
731.080305	4239.872525
731.411442	4270.764715
731.742530	4238.990323
732.073570	4244.308740
732.404562	4295.728509
732.735506	4290.576450
733.066401	4252.742590
733.397249	4187.227755
733.728048	4109.813276
734.058798	4028.968292
734.389501	3959.970019
734.720156	3897.494999
735.050762	3856.124770
735.381320	3846.904500
735.711831	3801.024959
736.042293	3767.032458
736.372707	3790.975419
736.703073	3765.857870
737.033391	3753.325561
737.363661	3770.503293
737.693883	3791.625728
738.024056	3802.325577
738.354182	3798.983292
738.684260	3858.710882
739.014290	3881.539747
739.344272	3875.790312
739.674207	3914.455962
740.004093	3919.154317
740.333931	3914.118204
740.663722	3915.610386
740.993464	3910.818769
741.323159	3882.492526
741.652806	3853.042105
741.982405	3831.438240
742.311956	3799.449598
742.641460	3792.346613
742.970915	3768.169239
743.300323	3729.218763
743.629683	3693.166952
743.958996	3682.809901
744.288260	3661.652178
744.617477	3627.810913
744.946647	3612.715177
745.275768	3587.083431
745.604842	3583.925148
745.933869	3541.302192
746.262847	3526.990356
746.591778	3563.390008
746.920662	3539.061399
747.249498	3506.976976
747.578286	3546.265208
747.907027	3568.264803
748.235720	3567.102817
748.564365	3587.388421
748.892963	3587.842124
749.221514	3570.863518
749.550017	3547.202863
749.878473	3543.180022
750.206881	3517.603728
750.535242	3514.921834
750.863555	3513.845548
751.191821	3510.994775
751.520039	3489.663133
751.848210	3472.243426
752.176334	3503.322139
752.504411	3506.853467
752.832440	3468.644042
753.160421	3458.216415
753.488356	3463.214719
753.816243	3472.828199
754.144082	3429.585182
754.471875	3416.808377
754.799620	3435.899227
755.127318	3425.630397
755.454969	3426.104265
755.782572	3432.277158
756.110129	3406.123652
756.437638	3400.162487
756.765100	3410.736307
757.092515	3421.836928
757.419882	3428.120727
757.747203	3401.011922
758.074477	3403.630801
758.401703	3414.060948
758.728882	3435.316974
759.056014	3443.796194
759.383099	3446.218469
759.710138	3443.324847
760.037129	3462.486272
760.364073	3487.709686
760.690970	3476.109991
761.017820	3453.271043
761.344623	3472.898776
761.671379	3512.315558
761.998088	3561.794482
762.324751	3684.561702
762.651366	3921.805964
762.977935	4375.749265
763.304456	4797.809788
763.630931	4880.078898
763.957359	4538.964182
764.283740	4213.976117
764.610074	4027.135832
764.936362	3832.517047
765.262602	3684.632278
765.588796	3577.374168
765.914943	3491.901405
766.241044	3410.620361
766.567097	3382.145403
766.893104	3335.799556
767.219064	3309.091523
767.544978	3285.483799
767.870845	3232.833988
768.196665	3213.952347
768.522438	3221.604818
768.848165	3215.807491
769.173846	3179.276770
769.499479	3165.748833
769.825066	3147.698982
770.150607	3131.468987
770.476101	3147.273005
770.801548	3140.941315
771.126949	3101.854729
771.452303	3082.476534
771.777611	3084.460228
772.102872	3092.904160
772.428087	3068.966241
772.753256	3055.796227
773.078378	3051.939744
773.403453	3019.338602
773.728482	3010.561953
774.053465	3027.895961
774.378401	3015.492202
774.703291	2986.896257
775.028135	2987.735609
775.352932	2982.797799
775.677683	2970.648618
776.002388	2968.037300
776.327046	2966.782053
776.651658	2957.413068
776.976224	2943.622992
777.300743	2949.561471
777.625216	2939.229627
777.949643	2934.594286
778.274024	2940.099226
778.598359	2926.982143
778.922647	2930.573965
779.246889	2929.391815
779.571086	2917.507295
779.895236	2907.409863
780.219339	2917.224990
780.543397	2926.725044
780.867409	2931.436003
781.191374	2926.231011
781.515294	2923.173552
781.839167	2923.786052
782.162995	2916.496543
782.486776	2923.286978
782.810511	2924.307811
783.134201	2907.735018
783.457844	2912.607293
783.781441	2904.165881
784.104993	2890.290105
784.428498	2889.735578
784.751958	2899.570869
785.075372	2898.910478
785.398739	2880.359032
785.722061	2895.701784
786.045337	2905.698392
786.368568	2891.313459
786.691752	2884.424723
787.014891	2931.723348
787.337983	2958.958182
787.661030	2984.688231
787.984031	3046.132335
788.306987	3088.213367
788.629897	3085.561720
788.952760	3067.262331
789.275579	3050.790361
789.598351	2995.536794
789.921078	2954.189251
790.243759	2943.262550
790.566395	2930.465581
790.888984	2909.000348
791.211529	2891.144581
791.534027	2879.960781
791.856480	2873.077085
792.178888	2859.367667
792.501249	2854.019003
792.823566	2848.224197
793.145836	2847.962057
793.468062	2844.531552
793.790241	2840.564163
794.112375	2843.535924
794.434464	2857.162162
794.756507	2860.396063
795.078505	2867.796477
795.400457	2881.468086
795.722364	2914.689290
796.044226	2935.572269
796.366042	2937.361879
796.687812	2928.809562
797.009538	2947.043415
797.331218	2932.998760
797.652852	2922.130033
797.974442	2905.080850
798.295986	2900.591703
798.617484	2896.468039
798.938938	2883.439177
799.260346	2867.652804
799.581709	2860.068388
799.903026	2855.773325
800.224299	2852.801564
800.545526	2842.071468
800.866708	2829.002277
801.187845	2818.307469
801.508936	2819.973571
801.829983	2825.486072
802.150984	2810.733136
802.471940	2803.766261
802.792851	2803.068061
803.113717	2802.561425
803.434538	2807.153916
803.755314	2798.712504
804.076045	2795.755867
804.396731	2795.271917
804.717372	2794.180507
805.037967	2790.036678
805.358518	2795.312246
805.679024	2803.645273
805.999485	2801.883390
806.319901	2806.904379
806.640272	2798.820889
806.960598	2805.760037
807.280879	2811.960657
807.601115	2817.969712
807.921306	2807.879842
808.241453	2804.961014
808.561554	2806.675007
808.881611	2810.465954
809.201623	2804.164512
809.521590	2807.000161
809.841513	2800.340797
810.161390	2805.260963
810.481223	2797.568162
810.801011	2786.890998
811.120755	2785.580298
811.440453	2788.398303
811.760107	2788.065587
812.079716	2785.920576
812.399281	2777.388423
812.718801	2768.185797
813.038276	2767.306116
813.357707	2770.161929
813.677093	2776.647374
813.996434	2774.580501
814.315731	2768.027001
814.634983	2764.228491
814.954191	2763.260590
815.273354	2776.201232
815.592473	2784.730864
815.911547	2786.412089
816.230577	2792.390897
816.549562	2802.853812
816.868502	2800.988585
817.187399	2810.299596
817.506250	2825.264262
817.825058	2818.478868
818.143821	2830.592761
818.462539	2843.362004
818.781213	2868.053575
819.099843	2902.401477
819.418429	2957.423151
819.736970	3013.074969
820.055466	3078.307499
820.373919	3168.392919
820.692327	3295.611477
821.010691	3454.717854
821.329011	3866.068446
821.647286	4713.304926
821.965517	6012.173338
822.283704	6739.964719
822.601847	6709.301901
822.919945	6075.344037
823.237999	5565.900153
823.556010	5035.139750
823.873976	4513.685316
824.191897	4132.190958
824.509775	3860.089638
824.827609	3620.967546
825.145398	3505.751975
825.463144	3492.748319
825.780845	3575.266966
826.098502	3676.904189
826.416116	3935.159980
826.733685	4232.388932
827.051210	4288.580153
827.368692	4178.297351
827.686129	3925.460800
828.003522	3631.014566
828.320872	3393.820716
828.638177	3219.331258
828.955439	3098.945983
829.272656	3024.011752
829.589830	2963.490179
829.906960	2919.150711
830.224046	2879.885163
830.541088	2848.972808
830.858086	2833.975375
831.175041	2819.250165
831.491952	2822.055567
831.808819	2831.308605
832.125642	2852.647809
832.442421	2895.490055
832.759157	2967.684419
833.075849	3130.309522
833.392497	3390.659912
833.709101	3571.871749
834.025662	3519.347967
834.342179	3372.257180
834.658653	3214.126266
834.975083	3079.144331
835.291469	2993.343893
835.607811	2913.378590
835.924110	2862.059643
836.240366	2817.999959
836.556578	2778.696603
836.872746	2757.967378
837.188871	2740.754358
837.504952	2728.214488
837.820990	2721.366081
838.136984	2707.477702
838.452935	2700.367154
838.768842	2699.784901
839.084706	2715.034392
839.400526	2787.153138
839.716303	2908.314751
840.032037	2985.240238
840.347727	2967.679378
840.663373	2904.818710
840.978977	2837.047959
841.294537	2774.956067
841.610054	2733.656414
841.925527	2712.589432
842.240957	2694.219467
842.556344	2673.477640
842.871687	2661.731751
843.186987	2651.901501
843.502244	2646.729277
843.817458	2643.523104
844.132629	2633.302164
844.447756	2627.222533
844.762840	2620.419496
845.077881	2616.868003
845.392879	2618.118209
845.707833	2616.197529
846.022745	2608.328288
846.337613	2611.758793
846.652438	2609.646550
846.967221	2612.245265
847.281960	2609.722167
847.596656	2607.927516
847.911309	2607.393154
848.225919	2606.251333
848.540485	2600.771598
848.855009	2603.561877
849.169490	2605.437186
849.483928	2603.496342
849.798323	2602.785539
850.112675	2599.297061
850.426984	2600.121290
850.741251	2599.339911
851.055474	2600.154057
851.369654	2602.387288
851.683792	2604.980962
851.997887	2600.121290
852.311938	2599.208841
852.625947	2601.888214
852.939914	2603.791250
853.253837	2601.938626
853.567718	2599.312184
853.881555	2598.492997
854.195350	2601.936105
854.509103	2601.946187
854.822812	2596.937801
855.136479	2599.665065
855.450103	2600.375868
855.763685	2603.151023
856.077224	2601.000971
856.390720	2598.329159
856.704173	2599.450816
857.017584	2601.931064
857.330953	2603.375354
857.644278	2604.025663
857.957561	2606.775613
858.270802	2604.101281
858.584000	2602.510797
858.897155	2604.665890
859.210268	2602.846033
859.523339	2603.395519
859.836367	2597.172215
860.149352	2597.073912
860.462295	2598.346803
860.775195	2595.140630
861.088054	2596.317739
861.400869	2596.564756
861.713642	2591.195927
862.026373	2596.433686
862.339062	2597.729262
862.651708	2601.792432
862.964312	2602.057093
863.276873	2602.752772
863.589392	2600.953080
863.901869	2606.747886
864.214303	2610.309462
864.526696	2614.017230
864.839045	2613.737446
865.151353	2617.135184
865.463619	2616.941099
865.775842	2617.208281
866.088023	2615.239710
866.400162	2616.109309
866.712258	2614.647374
867.024313	2614.786006
867.336325	2611.345419
867.648296	2612.472117
867.960224	2617.861110
868.272110	2615.186778
868.583954	2610.619492
868.895755	2613.298866
869.207515	2616.580657
869.519233	2623.890330
869.830909	2619.617952
870.142542	2613.684514
870.454134	2616.557972
870.765684	2618.387911
871.077191	2621.248765
871.388657	2626.967954
871.700081	2624.326390
872.011463	2622.932511
872.322803	2623.940742
872.634101	2627.759416
872.945357	2632.959366
873.256571	2641.095788
873.567744	2639.205355
873.878874	2633.387864
874.189963	2635.923564
874.501010	2638.804584
874.812015	2644.201139
875.122979	2645.269863
875.433900	2635.689151
875.744780	2634.890128
876.055618	2640.301806
876.366415	2641.022691
876.677169	2643.548309
876.987882	2639.883391
877.298554	2635.406846
877.609183	2643.974287
877.919771	2649.582571
878.230317	2657.403921
878.540822	2663.609581
878.851285	2673.989317
879.161707	2692.981864
879.472087	2723.579147
879.782425	2767.139758
880.092722	2865.714480
880.402977	3032.523740
880.713191	3275.318312
881.023363	3552.521280
881.333494	3739.217892
881.643583	3896.630442
881.953631	3885.187022
882.263637	3710.390054
882.573602	3502.961697
882.883526	3381.900908
883.193408	3275.504835
883.503248	3181.978828
883.813048	3076.177612
884.122806	2980.259578
884.432522	2902.391395
884.742197	2848.937520
885.051831	2815.986018
885.361424	2783.463014
885.670975	2753.536204
885.980485	2728.436299
886.289954	2716.571943
886.599382	2701.297247
886.908768	2691.797193
887.218113	2679.960564
887.527417	2666.699808
887.836680	2659.662358
888.145901	2656.985505
888.455082	2650.205153
888.764221	2641.720891
889.073319	2634.302833
889.382376	2632.435086
889.691392	2633.153450
890.000366	2635.278297
890.309300	2632.987092
890.618193	2635.366517
890.927044	2637.284676
891.235855	2636.281486
891.544625	2638.423977
891.853353	2636.157978
892.162041	2641.244502
892.470687	2659.735454
892.779293	2670.959583
893.087858	2678.828825
893.396381	2696.344314
893.704864	2730.273800
894.013306	2796.098666
894.321707	2877.641850
894.630068	2919.551483
894.938387	2937.266097
895.246665	2922.059457
895.554903	2883.076214
895.863100	2842.431911
896.171256	2794.120013
896.479371	2744.008423
896.787446	2711.286294
897.095480	2697.796166
897.403473	2691.532532
897.711425	2679.988290
898.019336	2666.046979
898.327207	2653.968374
898.635038	2655.198416
898.942827	2648.806233
899.250576	2642.116622
899.558284	2633.420631
899.865952	2630.350569
900.173579	2625.553911
900.481165	2623.557614
900.788711	2616.225256
901.096216	2615.101078
901.403681	2610.911879
901.711105	2611.630244
902.018489	2609.447424
902.325832	2613.553444
902.633135	2615.012858
902.940397	2626.733541
903.247619	2656.514157
903.554800	2718.583364
903.861941	2829.894561
904.169041	2942.720626
904.476101	2996.277844
904.783121	2986.818119
905.090100	2936.257866
905.397039	2862.036958
905.703938	2801.601085
906.010796	2748.870616
906.317614	2704.649615
906.624391	2678.415450
906.931129	2653.555000
907.237826	2635.124541
907.544483	2619.998559
907.851099	2608.870212
908.157675	2601.021136
908.464211	2594.901175
908.770707	2585.690987
909.077163	2580.274267
909.383578	2578.721592
909.689954	2580.692683
909.996289	2576.674883
910.302584	2575.565829
910.608839	2572.286559
910.915054	2573.866960
911.221229	2578.683783
911.527363	2578.093968
911.833458	2576.795871
912.139513	2579.210583
912.445527	2580.586818
912.751502	2584.642427
913.057436	2587.294074
913.363331	2592.529312
913.669186	2602.432659
913.975000	2613.019082
914.280775	2626.884775
914.586510	2643.495377
914.892205	2677.301355
915.197859	2735.872001
915.503475	2806.566622
915.809050	2865.585931
916.114585	2880.563199
916.420081	2890.912688
916.725536	2894.252452
917.030952	2868.416538
917.336328	2829.657627
917.641665	2789.663633
917.946961	2743.902559
918.252218	2718.225442
918.557435	2694.829447
918.862612	2673.775068
919.167750	2660.602533
919.472848	2645.564771
919.777906	2631.036166
920.082925	2621.742798
920.387904	2612.411623
920.692843	2609.260902
920.997743	2605.212855
921.302603	2598.117431
921.607423	2595.057451
921.912204	2590.681729
922.216946	2588.178796
922.521647	2582.857858
922.826310	2581.090934
923.130932	2577.040367
923.435516	2574.665983
923.740059	2573.551888
924.044564	2572.732701
924.349028	2570.670869
924.653454	2565.254149
924.957840	2560.293654
925.262186	2560.926318
925.566493	2560.180228
925.870761	2559.411452
926.174989	2559.431616
926.479178	2558.098231
926.783328	2555.136553
927.087438	2555.857438
927.391509	2558.488921
927.695541	2553.299053
927.999533	2551.627910
928.303486	2551.930379
928.607400	2554.934907
928.911275	2550.387786
929.215110	2552.401727
929.518906	2548.699000
929.822663	2550.861655
930.126381	2550.964998
930.430060	2550.039947
930.733699	2550.675132
931.037299	2552.353836
931.340861	2550.476007
931.644383	2551.970709
931.947866	2551.675801
932.251309	2552.368960
932.554714	2551.615307
932.858080	2553.871224
933.161407	2550.360060
933.464694	2549.654298
933.767943	2548.580533
934.071153	2547.252189
934.374323	2547.690769
934.677455	2548.192364
934.980548	2546.548948
935.283602	2549.137580
935.586617	2550.349978
935.889593	2547.045501
936.192530	2548.056253
936.495428	2547.587425
936.798287	2547.703372
937.101108	2546.634647
937.403890	2553.858621
937.706632	2557.813406
938.009336	2556.391801
938.312002	2560.593602
938.614628	2562.007646
938.917216	2565.173491
939.219765	2565.969993
939.522275	2566.877401
939.824747	2567.694067
940.127179	2561.445557
940.429573	2559.754250
940.731929	2558.856925
941.034246	2556.749722
941.336524	2559.872717
941.638763	2560.233160
941.940964	2556.974054
942.243126	2560.018911
942.545250	2555.565051
942.847335	2558.660320
943.149381	2555.900288
943.451389	2554.037582
943.753359	2552.416851
944.055290	2552.799978
944.357182	2553.684701
944.659036	2550.448280
944.960851	2548.817467
945.262628	2548.192364
945.564367	2552.845349
945.866067	2551.083466
946.167729	2552.537838
946.469352	2549.593805
946.770937	2549.540872
947.072484	2549.936603
947.373992	2552.018600
947.675462	2546.440563
947.976893	2547.746222
948.278286	2547.491643
948.579641	2546.823691
948.880958	2547.310162
949.182236	2547.486602
949.483476	2545.523073
949.784678	2545.525593
950.085841	2546.357384
950.386967	2547.710934
950.688054	2547.859648
950.989103	2547.174051
951.290114	2551.864844
951.591087	2551.378373
951.892021	2548.769576
952.192917	2553.296532
952.493776	2550.644885
952.794596	2557.216029
953.095378	2554.095555
953.396122	2554.660164
953.696828	2552.053888
953.997496	2554.579506
954.298126	2550.173537
954.598718	2549.757642
954.899272	2549.583722
955.199788	2548.464586
955.500266	2546.591798
955.800706	2541.331353
956.101108	2538.241126
956.401472	2540.449152
956.701798	2540.610468
957.002087	2540.645757
957.302337	2541.064172
957.602550	2541.321271
957.902724	2539.445962
958.202861	2535.690302
958.502960	2539.196425
958.803022	2539.526620
959.103045	2538.162988
959.403031	2539.771116
959.702979	2534.281300
960.002889	2538.984696
960.302762	2536.088553
960.602596	2537.520241
960.902393	2538.906558
961.202153	2537.195087
961.501875	2535.604603
961.801559	2534.510672
962.101205	2537.253060
962.400814	2535.629808
962.700385	2534.873635
962.999918	2535.803728
963.299414	2535.478574
963.598873	2536.638039
963.898293	2534.883718
964.197677	2535.866743
964.497022	2533.835158
964.796331	2534.440096
965.095601	2535.319778
965.394835	2532.499252
965.694030	2533.187369
965.993189	2534.082174
966.292309	2534.261135
966.591393	2535.372710
966.890439	2535.234078
967.189447	2535.360107
967.488419	2533.827596
967.787353	2535.637370
968.086249	2534.828265
968.385108	2534.485467
968.683930	2533.883049
968.982714	2537.691640
969.281462	2534.339273
969.580172	2534.170394
969.878844	2534.152750
970.177480	2535.478574
970.476078	2535.949922
970.774639	2537.545447
971.073162	2534.803059
971.371649	2532.746268
971.670098	2530.581093
971.968510	2531.178470
972.266885	2529.280475
972.565223	2535.239119
972.863524	2533.822555
973.161788	2536.292720
973.460014	2533.852802
973.758204	2538.951929
974.056356	2531.569159
974.354471	2536.179294
974.652550	2534.790456
974.950591	2536.010416
975.248595	2535.871784
975.546563	2535.362627
975.844493	2535.493697
976.142386	2534.530837
976.440243	2533.754499
976.738062	2536.728780
977.035845	2536.017977
977.333590	2534.888759
977.631299	2534.077133
977.928971	2532.164015
978.226606	2536.756506
978.524204	2536.259953
978.821765	2536.660724
979.119290	2532.957997
979.416777	2535.319778
979.714228	2532.262318
980.011642	2536.144006
980.309020	2537.759696
980.606360	2531.985054
980.903664	2531.276772
981.200931	2536.554860
981.498162	2536.451517
981.795356	2537.631147
982.092513	2538.425128
982.389633	2541.444779
982.686717	2542.521066
982.983764	2545.772610
983.280775	2546.327137
983.577749	2545.550799
983.874686	2544.779503
984.171587	2546.175902
984.468451	2542.584080
984.765279	2539.730787
985.062070	2536.184335
985.358824	2537.369007
985.655543	2536.892618
985.952224	2533.318439
986.248869	2535.450848
986.545478	2531.082688
986.842050	2531.501103
987.138586	2529.338448
987.435086	2529.250228
987.731549	2528.894827
988.027975	2532.942873
988.324366	2532.592513
988.620719	2533.925898
988.917037	2530.742410
989.213318	2531.228881
989.509563	2531.443130
989.805772	2533.545291
990.101944	2531.017153
990.398080	2535.251722
990.694180	2532.811803
990.990244	2529.527492
991.286271	2530.732327
991.582262	2531.249046
991.878217	2532.103521
992.174136	2529.726617
992.470019	2530.989426
992.765865	2531.261649
993.061676	2532.214427
993.357450	2533.878007
993.653188	2532.879859
993.948890	2533.207534
994.244556	2530.699560
994.540186	2534.777853
994.835780	2532.685775
995.131337	2533.356248
995.426859	2531.170908
995.722345	2532.910106
996.017795	2534.109901
996.313208	2534.485467
996.608586	2536.254912
996.903928	2534.276259
997.199234	2533.575538
997.494504	2534.407329
997.789738	2534.205683
998.084936	2532.050589
998.380099	2531.959848
998.675225	2533.424304
998.970316	2532.915147
999.265371	2535.801208
999.560390	2532.814324
999.855373	2531.969931
1000.150320	2530.825589
1000.445232	2530.316432
1000.740108	2531.110414
1001.034948	2531.322143
1001.329752	2530.888603
1001.624521	2529.540095
1001.919254	2526.603623
1002.213951	2528.010104
1002.508613	2526.003725
1002.803239	2529.875331
1003.097829	2525.600433
1003.392384	2531.057482
1003.686903	2530.313912
1003.981386	2531.548994
1004.275834	2532.499252
1004.570246	2529.008253
1004.864623	2529.053623
1005.158964	2528.037831
1005.453270	2529.789632
1005.747540	2531.299457
1006.041775	2529.313243
1006.335974	2531.922040
1006.630138	2528.310053
1006.924266	2530.641587
1007.218359	2531.080167
1007.512416	2530.485311
1007.806438	2529.260311
1008.100425	2529.335928
1008.394376	2532.484128
1008.688292	2530.190403
1008.982172	2527.425331
1009.276017	2528.627646
1009.569827	2529.146885
1009.863602	2529.688809
1010.157341	2528.299971
1010.451045	2530.931453
1010.744714	2530.996988
1011.038347	2528.814168
1011.331945	2526.202851
1011.625508	2530.598737
1011.919036	2529.146885
1012.212528	2529.456916
1012.505986	2529.393901
1012.799408	2530.528161
1013.092795	2529.711494
1013.386147	2528.730989
1013.679464	2529.262831
1013.972745	2531.080167
1014.265992	2528.410876
1014.559204	2529.277955
1014.852380	2525.484486
1015.145521	2531.271731
1015.438628	2527.402645
1015.731699	2531.354910
1016.024736	2530.593696
1016.317737	2527.644621
1016.610703	2530.109745
1016.903635	2525.290402
1017.196531	2524.138498
1017.489393	2527.942049
1017.782219	2523.248735
1018.075011	2527.750485
1018.367768	2529.837523
1018.660490	2528.781401
1018.953177	2528.781401
1019.245829	2528.781401
