Dividing Wavelength (nm)	Counts (n)	Blue Motor Position (mm): 0.000000	Red Motor Position (mm): 47.000000	
326.493990	2128.130658
326.888308	2128.130658
327.282561	2128.130658
327.676750	2096.671337
328.070874	2095.763930
328.464933	2097.742583
328.858929	2104.749786
329.252859	2114.680859
329.646726	2124.679988
330.040528	2138.218007
330.434265	2156.519916
330.827938	2172.351659
331.221547	2190.908147
331.615091	2208.814325
332.008571	2230.012377
332.401986	2247.941241
332.795338	2266.147368
333.188625	2288.449433
333.581847	2307.220169
333.975006	2323.228353
334.368100	2341.918431
334.761129	2359.053313
335.154095	2376.460417
335.546996	2401.116700
335.939833	2424.913467
336.332606	2441.418205
336.725315	2454.235338
337.117960	2460.120886
337.510540	2469.336115
337.903056	2480.381283
338.295508	2489.238590
338.687896	2497.543891
339.080220	2505.178719
339.472480	2510.320696
339.864676	2516.871675
340.256807	2518.250431
340.648875	2520.970133
341.040879	2525.907943
341.432818	2527.165711
341.824694	2529.792152
342.216506	2528.173942
342.608253	2532.509334
342.999937	2529.053623
343.391557	2527.493386
343.783113	2526.149919
344.174605	2527.977337
344.566033	2523.382325
344.957397	2519.707324
345.348697	2519.422499
345.739934	2519.669515
346.131106	2519.150277
346.522215	2519.334279
346.913260	2514.381345
347.304241	2514.928310
347.695159	2512.299348
348.086012	2512.284225
348.476802	2507.585870
348.867528	2505.297186
349.258191	2507.301044
349.648789	2504.634274
350.039324	2503.555467
350.429796	2500.986999
350.820203	2500.515651
351.210548	2498.723521
351.600828	2499.729231
351.991045	2500.775271
352.381198	2498.191679
352.771288	2498.494149
353.161314	2497.959786
353.551276	2497.518685
353.941175	2496.833088
354.331010	2496.951556
354.720782	2496.976761
355.110490	2499.300733
355.500135	2496.213027
355.889717	2498.509272
356.279235	2500.913902
356.668689	2499.031032
357.058080	2498.836947
357.447408	2496.051710
357.836672	2494.652789
358.225873	2499.547750
358.615010	2494.894765
359.004084	2501.549088
359.393095	2500.210662
359.782043	2501.352483
360.170927	2502.053203
360.559748	2502.980776
360.948505	2504.790550
361.337199	2504.178050
361.725830	2504.634274
362.114398	2507.003616
362.502903	2508.309275
362.891344	2506.290293
363.279722	2506.751559
363.668037	2506.000427
364.056289	2507.608555
364.444478	2510.585356
364.832603	2507.122083
365.220665	2512.798423
365.608665	2511.482682
365.996601	2511.853206
366.384474	2510.159379
366.772284	2513.897394
367.160031	2516.798578
367.547715	2516.947292
367.935336	2520.680267
368.322893	2521.328055
368.710388	2526.016328
369.097820	2536.176774
369.485189	2537.580735
369.872495	2542.372352
370.259738	2549.901315
370.646918	2554.135884
371.034035	2564.266083
371.421090	2571.732032
371.808081	2584.251737
372.195010	2591.813468
372.581875	2606.122783
372.968678	2618.982767
373.355418	2631.530199
373.742096	2649.537200
374.128710	2665.247956
374.515262	2676.643484
374.901751	2694.539581
375.288177	2702.839840
375.674540	2728.055692
376.060841	2745.919021
376.447079	2766.018101
376.833254	2785.335802
377.219367	2798.092442
377.605417	2835.346569
377.991404	2845.932992
378.377329	2868.711446
378.763191	2883.950854
379.148991	2923.576844
379.534727	2947.376131
379.920402	2980.403251
380.306013	2987.034888
380.691563	3037.711087
381.077049	3061.215467
381.462474	3075.822211
381.847835	3117.900722
382.233134	3138.430821
382.618371	3139.441572
383.003545	3206.824155
383.388657	3215.741956
383.773706	3246.976945
384.158693	3263.504368
384.543618	3289.020168
384.928480	3328.283195
385.313280	3369.086294
385.698017	3372.423538
386.082692	3422.134356
386.467305	3429.413783
386.851856	3462.871921
387.236344	3485.345384
387.620770	3513.961494
388.005133	3542.678427
388.389435	3567.654824
388.773674	3578.049683
389.157851	3621.527114
389.541965	3638.944301
389.926018	3599.174638
390.310008	3673.574507
390.693936	3691.137887
391.077802	3734.829568
391.461606	3716.910786
391.845348	3785.573822
392.229027	3785.052063
392.612645	3795.678815
392.996200	3877.685785
393.379694	3918.204059
393.763125	3982.002382
394.146494	3944.105508
394.529801	4010.862988
394.913047	4058.320410
395.296230	4021.525028
395.679351	4078.792536
396.062410	4101.097121
396.445408	4082.512907
396.828343	4114.955253
397.211217	4139.276300
397.594028	4059.424423
397.976778	4125.637458
398.359466	4155.244154
398.742092	4182.153834
399.124656	4105.724900
399.507158	4189.524001
399.889598	4209.875139
400.271977	4272.640025
400.654294	4239.502000
401.036549	4250.635388
401.418742	4222.919124
401.800874	4321.151048
402.182944	4343.430428
402.564952	4409.056168
402.946898	4399.084766
403.328783	4392.221235
403.710606	4305.702432
404.092367	4498.690404
404.474067	4464.655054
404.855705	4471.100169
405.237282	4401.302874
405.618797	4508.941591
406.000250	4541.877969
406.381642	4620.172130
406.762972	4585.420936
407.144240	4593.965691
407.525447	4600.108337
407.906593	4654.870392
408.287677	4697.064849
408.668700	4628.608501
409.049661	4676.199513
409.430560	4717.237026
409.811399	4641.823885
410.192176	4807.312363
410.572891	4746.112756
410.953545	4848.947253
411.334138	4733.066249
411.714669	4797.492196
412.095139	4694.292215
412.475547	4833.112989
412.855894	4809.439730
413.236180	4821.498170
413.616405	4779.656593
413.996568	4865.615828
414.376670	4808.751613
414.756711	4761.876444
415.136691	4792.216628
415.516609	4871.516499
415.896466	4906.827261
416.276262	4942.027118
416.655997	4920.995424
417.035670	5107.230770
417.415283	5198.140418
417.794834	5142.367613
418.174324	5098.373463
418.553753	5001.729503
418.933121	5186.737328
419.312428	5252.970528
419.691674	5194.485582
420.070859	5323.554243
420.449983	5233.224328
420.829045	5341.697356
421.208047	5257.439511
421.586988	5320.395961
421.965867	5340.416903
422.344686	5467.204443
422.723444	5323.098019
423.102141	5141.210668
423.480777	5437.978353
423.859352	5209.752716
424.237866	5467.758970
424.616319	5457.606086
424.994712	5570.248148
425.373044	5445.940856
425.751314	5589.160037
426.129524	5394.705089
426.507673	5586.601651
426.885762	5673.579199
427.263789	5602.448518
427.641756	5486.015508
428.019662	5601.813333
428.397508	5612.205672
428.775292	5560.201128
429.153016	5659.360625
429.530679	5584.433955
429.908282	5668.091903
430.285824	5540.510382
430.663305	5809.811341
431.040726	5545.617070
431.418086	5550.769130
431.795385	5657.598741
432.172624	5668.701883
432.549802	5660.845244
432.926920	5674.829405
433.303977	5683.948852
433.680974	5718.558894
434.057910	5741.052523
434.434786	5745.287092
434.811601	5713.837854
435.188355	5950.552794
435.565050	5822.691489
435.941683	5807.031144
436.318257	6022.545512
436.694770	6003.512636
437.071222	6033.716709
437.447614	5966.707172
437.823946	5878.917998
438.200218	6037.114447
438.576429	5901.658643
438.952580	5998.098437
439.328670	6040.008069
439.704700	5948.506086
440.080670	5937.324807
440.456580	6206.910591
440.832429	6091.773158
441.208218	5936.235917
441.583947	6096.073262
441.959616	6092.418425
442.335224	6025.587849
442.710773	6160.116080
443.086261	6184.308578
443.461689	5977.638914
443.837057	6132.470393
444.212365	6287.692561
444.587612	6176.850190
444.962800	6331.941288
445.337927	6313.581406
445.712995	5924.679072
446.088002	6501.760117
446.462949	6334.270302
446.837837	6262.108705
447.212664	6436.099089
447.587431	6578.181489
447.962139	7117.317770
448.336786	8047.705562
448.711374	7791.809031
449.085901	6860.423090
449.460369	6782.549866
449.834776	6715.081584
450.209124	7107.215297
450.583412	7257.298009
450.957640	7402.944505
451.331808	7171.152252
451.705917	6718.509568
452.079965	6642.375542
452.453954	6858.681372
452.827883	6733.307875
453.201752	6824.005795
453.575562	6621.895855
453.949311	6829.989644
454.323001	6716.533436
454.696632	6796.967566
455.070202	6931.526045
455.443713	7084.187307
455.817164	7184.234046
456.190556	7271.483816
456.563888	7344.588108
456.937160	7384.861887
457.310373	7043.734567
457.683526	7066.818011
458.056619	6954.133099
458.429653	6947.902233
458.802628	6879.876903
459.175542	6989.436299
459.548398	7345.621545
459.921194	7508.229003
460.293930	7513.270157
460.666607	8042.435035
461.039224	8351.394752
461.411782	8470.310530
461.784280	8496.292637
462.156719	8390.025114
462.529099	8267.204962
462.901419	7854.266406
463.273680	7743.224911
463.645882	7751.774707
464.018024	7621.780994
464.390106	7788.822147
464.762130	8179.241868
465.134094	8644.494998
465.505999	9668.711266
465.877845	10896.426312
466.249631	11546.790611
466.621358	11152.705971
466.993026	10530.753615
467.364634	10274.804152
467.736184	9910.784953
468.107674	9578.824973
468.479105	9608.875291
468.850477	9373.667655
469.221790	9145.426894
469.593043	8818.674425
469.964238	8677.401130
470.335373	8691.604581
470.706449	8745.905369
471.077467	8723.661278
471.448425	10042.971569
471.819324	11111.401277
472.190164	11145.015691
472.560945	9889.710410
472.931667	9097.223381
473.302330	8961.150036
473.672934	8608.019729
474.043479	8967.746386
474.413965	8900.658710
474.784393	8785.380125
475.154761	8950.631668
475.525070	9040.762458
475.895321	8861.922484
476.265513	9035.181901
476.635645	9209.333601
477.005719	9206.505514
477.375734	9320.332247
477.745691	9554.443432
478.115588	9686.816570
478.485427	9937.366958
478.855207	10471.963679
479.224928	11290.095057
479.594591	11912.972465
479.964194	11727.856254
480.333739	11668.720999
480.703226	11585.967938
481.072653	11681.144923
481.442022	11914.683936
481.811333	12103.112185
482.180584	11907.432237
482.549777	11622.297013
482.918912	11444.238418
483.287988	11466.180040
483.657005	11475.591875
484.025964	11158.510859
484.394864	11291.796447
484.763706	11261.650347
485.132489	11016.262101
485.501213	10984.001237
485.869879	11051.653521
486.238487	10890.006403
486.607036	11002.537559
486.975527	10787.121494
487.343959	10976.537808
487.712333	11024.990859
488.080648	10961.121960
488.448905	11000.977322
488.817104	10931.661457
489.185244	11198.600635
489.553326	11357.391940
489.921350	11896.213149
490.289315	12967.118063
490.657222	13301.709526
491.025070	13211.230897
491.392861	13091.931991
491.760593	12712.486862
492.128267	12353.105525
492.495883	12028.087213
492.863440	11690.677745
493.230939	11353.230468
493.598380	11290.649584
493.965763	11153.046249
494.333088	11056.288862
494.700354	10975.312808
495.067563	11032.290449
495.434713	10874.620801
495.801805	10989.090282
496.168839	10915.524723
496.535815	10849.777995
496.902733	10852.134734
497.269593	10783.234764
497.636395	10882.389219
498.003139	10870.262724
498.369825	10743.485266
498.736453	10895.168544
499.103023	10825.537607
499.469535	10854.536844
499.835989	10840.615698
500.202385	10804.316870
500.568723	10658.894705
500.935003	10883.394929
501.301226	10682.459578
501.667390	10940.314597
502.033497	11044.303519
502.399546	10897.963864
502.765537	10805.478856
503.131470	10881.537264
503.497345	11062.570140
503.863163	10666.431230
504.228923	10978.899589
504.594625	11042.017356
504.960269	10793.833790
505.325856	11007.818168
505.691385	10808.591768
506.056856	10961.232865
506.422270	10981.664662
506.787625	10871.828002
507.152924	10985.989972
507.518164	10971.189144
507.883347	10892.983204
508.248472	10802.287805
508.613540	11048.747296
508.978550	10931.056518
509.343503	10901.008721
509.708398	11019.208655
510.073236	11130.363577
510.438016	11143.858746
510.802738	11090.049470
511.167403	11138.507561
511.532010	11040.593230
511.896561	11263.704617
512.261053	11340.632624
512.625488	11208.995495
512.989866	11190.053359
513.354186	11185.591938
513.718449	11079.619322
514.082655	11274.648962
514.446803	11173.601553
514.810894	11294.317023
515.174927	11164.557723
515.538904	11186.280055
515.902822	11331.518218
516.266684	11217.744417
516.630488	11162.521097
516.994235	11216.726104
517.357925	11283.690271
517.721558	11368.565658
518.085133	11383.973945
518.448651	11399.709906
518.812112	11278.132399
519.175516	11298.947323
519.538863	11422.566498
519.902152	11327.722229
520.265385	11498.871923
520.628560	11402.406924
520.991678	11379.099149
521.354739	11442.733634
521.717743	11380.394725
522.080690	11355.955212
522.443580	11488.938329
522.806413	11445.561721
523.169189	11478.987092
523.531908	11535.077490
523.894569	11358.443021
524.257174	11358.790861
524.619722	11471.246400
524.982213	11415.360168
525.344647	11470.230607
525.707025	11424.361149
526.069345	11517.904799
526.431608	11441.319590
526.793815	11551.370499
527.155964	11337.154228
527.518057	11390.572815
527.880093	11335.094917
528.242072	11412.786659
528.603995	11314.834520
528.965860	11231.844524
529.327669	11283.806218
529.689421	11232.615821
530.051117	11206.116996
530.412755	11312.356792
530.774337	11203.752695
531.135862	11183.202431
531.497331	11207.243694
531.858743	11056.765251
532.220098	11219.481095
532.581396	11090.851013
532.942638	11080.383057
533.303824	11039.234639
533.664953	11052.964221
534.026025	10967.496499
534.387040	11064.374873
534.747999	11068.062477
535.108902	11129.773762
535.469748	10886.530527
535.830537	10988.087092
536.191270	10960.935437
536.551947	10989.251598
536.912567	10984.056689
537.273131	10912.598334
537.633638	10891.657381
537.994089	10882.527851
538.354483	10825.668677
538.714821	10977.896399
539.075103	10980.411935
539.435328	10948.277100
539.795497	10774.425348
540.155609	10932.016858
540.515665	11022.036743
540.875665	10751.571277
541.235609	10827.168420
541.595496	10819.231123
541.955328	10975.579989
542.315102	10854.884684
542.674821	10815.699795
543.034483	10811.825668
543.394090	10812.722994
543.753640	10745.494166
544.113134	10967.297373
544.472571	10818.641308
544.831953	10959.133225
545.191278	10771.365367
545.550548	10792.800354
545.909761	10932.790675
546.268918	10908.890565
546.628019	10994.610345
546.987064	10849.732625
547.346053	10780.313416
547.704986	10873.042920
548.063863	10863.303411
548.422684	10853.702533
548.781449	10772.434092
549.140158	10879.568694
549.498811	10751.586400
549.857408	10604.974523
550.215949	10831.433236
550.574434	10683.916472
550.932864	10788.681731
551.291237	10844.633497
551.649555	10792.739860
552.007817	10806.950872
552.366022	10764.688359
552.724173	10761.194840
553.082267	10748.584393
553.440305	10879.777902
553.798288	10685.635505
554.156215	10835.912301
554.514086	10818.671555
554.871902	10659.020733
555.229661	10700.038082
555.587365	10678.282982
555.945014	10573.336242
556.302606	10696.345437
556.660143	10590.176216
557.017625	10746.053734
557.375050	10641.545574
557.732421	10771.919894
558.089735	10694.558348
558.446994	10694.512977
558.804197	10726.171423
559.161345	10729.917001
559.518437	10584.598179
559.875474	10662.085755
560.232455	10698.470283
560.589381	10653.921606
560.946251	10644.093877
561.303065	10755.069838
561.659825	10682.787253
562.016528	10613.983065
562.373177	10496.430919
562.729770	10607.679102
563.086307	10526.045177
563.442789	10612.896696
563.799216	10496.453604
564.155587	10536.503051
564.511904	10494.243058
564.868164	10487.311472
565.224370	10507.168577
565.580520	10421.713457
565.936615	10428.836608
566.292654	10303.286671
566.648638	10430.858110
567.004567	10385.502849
567.360441	10369.303101
567.716260	10283.578280
568.072023	10379.826510
568.427732	10332.139715
568.783385	10236.138502
569.138982	10309.071395
569.494525	10323.017747
569.850013	10200.805055
570.205445	10284.440317
570.560823	10180.095995
570.916145	10093.741029
571.271412	10163.646710
571.626625	10110.071847
571.981782	10085.970091
572.336884	10058.614269
572.691931	10065.558459
573.046923	10012.260860
573.401860	9972.685281
573.756743	9905.975693
574.111570	9954.506881
574.466342	9933.729765
574.821059	9964.052305
575.175722	9854.560964
575.530330	9862.394918
575.884882	9855.128094
576.239380	9778.678996
576.593823	9769.546946
576.948211	9774.169684
577.302544	9655.208536
577.656823	9665.489969
578.011047	9670.793263
578.365216	9646.454572
578.719330	9564.308970
579.073389	9582.867978
579.427394	9526.457466
579.781344	9501.962500
580.135239	9453.322927
580.489080	9463.783321
580.842866	9361.909164
581.196597	9364.812868
581.550273	9401.036079
581.903895	9377.476247
582.257463	9442.703736
582.610975	9317.254623
582.964434	9347.861988
583.317837	9270.260987
583.671186	9251.490250
584.024481	9244.762831
584.377721	9164.520264
584.730906	9138.086974
585.084037	9164.154781
585.437113	9102.012477
585.790135	9129.340572
586.143103	9026.037248
586.496016	9005.169391
586.848874	9059.515550
587.201679	9050.582626
587.554428	8936.324874
587.907124	8979.714085
588.259765	8954.851114
588.612352	8957.656516
588.964884	8832.648504
589.317362	8841.553702
589.669786	8847.895473
590.022155	8892.126557
590.374470	8910.730936
590.726731	8847.247685
591.078937	8700.618164
591.431090	8816.244589
591.783188	8683.203498
592.135232	8679.770472
592.487222	8680.622427
592.839157	8732.574038
593.191038	8664.778081
593.542866	8603.565870
593.894639	8508.086416
594.246358	8559.725476
594.598022	8579.201973
594.949633	8471.936302
595.301190	8444.993855
595.652692	8474.093916
596.004141	8582.892098
596.355535	8362.969241
596.706876	8340.538627
597.058162	8273.357690
597.409395	8351.513219
597.760573	8414.439422
598.111698	8322.609763
598.462768	8308.101322
598.813785	8276.248792
599.164748	8240.738904
599.515657	8232.688182
599.866511	8141.455900
600.217312	8270.965663
600.568060	8130.839230
600.918753	8233.025939
601.269392	8198.914971
601.619978	8111.650078
601.970510	8173.888163
602.320988	8175.718102
602.671412	8229.466884
603.021783	8166.326432
603.372100	8141.735684
603.722363	8140.349367
604.072572	8120.255327
604.422728	8129.268910
604.772830	8055.574803
605.122878	8062.284579
605.472872	8059.431286
605.822813	8092.886903
606.172701	8035.450517
606.522534	8106.989531
606.872314	8110.155376
607.222041	8081.476251
607.571714	8131.686144
607.921333	8092.014783
608.270899	8101.630784
608.620411	8185.989453
608.969870	8090.197447
609.319276	8082.958351
609.668627	8104.239582
610.017926	8138.995817
610.367171	8184.293105
610.716362	8163.377357
611.065500	8154.605750
611.414585	8177.890839
611.763616	8165.061103
612.112594	8149.524267
612.461518	8156.135740
612.810389	8222.210143
613.159207	8158.464753
613.507971	8108.214531
613.856682	8224.975216
614.205340	8185.966768
614.553945	8260.230526
614.902496	8163.059765
615.250994	8218.623362
615.599439	8196.959004
615.947830	8212.826035
616.296169	8182.962240
616.644454	8196.953963
616.992686	8192.399280
617.340864	8250.707786
617.688990	8154.061305
618.037063	8249.533197
618.385082	8196.598561
618.733048	8282.214998
619.080961	8221.648055
619.428821	8237.164726
619.776628	8244.423988
620.124382	8191.025566
620.472083	8174.162906
620.819731	8203.895631
621.167326	8093.708611
621.514868	8106.702185
621.862357	7994.753282
622.209793	8012.283894
622.557176	7943.008358
622.904506	7914.520798
623.251783	7846.631579
623.599007	7803.998541
623.946179	7807.098850
624.293297	7761.980523
624.640363	7681.826177
624.987376	7661.417066
625.334336	7612.154911
625.681243	7559.081643
626.028097	7548.802730
626.374899	7525.416818
626.721647	7519.599326
627.068343	7454.278575
627.414987	7422.123575
627.761577	7375.311421
628.108115	7409.923983
628.454600	7303.540513
628.801032	7362.274997
629.147412	7317.622977
629.493739	7304.999927
629.840014	7247.687049
630.186236	7302.451624
630.532405	7185.017945
630.878521	7230.380768
631.224585	7192.622526
631.570597	7111.953982
631.916556	7147.962944
632.262462	7144.303066
632.608316	7106.154134
632.954117	7078.856286
633.299866	7067.922024
633.645562	7056.758388
633.991206	6974.567416
634.336797	6922.053717
634.682336	6883.335134
635.027823	6847.001018
635.373257	6838.854513
635.718639	6768.250633
636.063968	6783.926101
636.409245	6675.329565
636.754470	6676.637744
637.099642	6634.372711
637.444762	6576.288536
637.789829	6589.405618
638.134845	6533.786568
638.479808	6517.415421
638.824719	6518.431213
639.169577	6450.214319
639.514383	6466.197298
639.859137	6396.755403
640.203839	6405.574902
640.548489	6385.677468
640.893086	6365.810281
641.237632	6339.349264
641.582125	6359.160999
641.926566	6325.546585
642.270955	6344.158525
642.615292	6336.901784
642.959576	6354.308888
643.303809	6335.838100
643.647990	6350.215471
643.992118	6335.943965
644.336195	6290.341687
644.680219	6310.624769
645.024192	6302.604294
645.368112	6399.744808
645.711981	6417.504793
646.055797	6492.151678
646.399562	6448.165090
646.743274	6576.835501
647.086935	6634.460931
647.430544	6627.642770
647.774101	6645.924515
648.117606	6656.735269
648.461059	6645.790924
648.804460	6604.692917
649.147810	6520.389702
649.491108	6485.061295
649.834354	6459.154806
650.177548	6379.915429
650.520690	6293.681451
650.863781	6267.280929
651.206820	6295.282018
651.549807	6209.637855
651.892742	6154.623743
652.235626	6152.871942
652.578458	6145.839533
652.921238	6050.070212
653.263967	6093.895483
653.606644	6030.404671
653.949269	6033.721750
654.291843	5980.209902
654.634365	6023.873856
654.976836	5976.174459
655.319255	5973.449715
655.661622	5950.978772
656.003938	5950.073885
656.346203	5906.876237
656.688416	5939.671464
657.030577	5893.928034
657.372687	5861.354618
657.714746	5851.047979
658.056753	5897.986163
658.398708	5838.989539
658.740612	5828.307334
659.082465	5872.422471
659.424266	5868.591194
659.766016	5869.483479
660.107715	5841.132029
660.449362	5855.239698
660.790958	5851.277352
661.132503	5833.822356
661.473996	5873.781062
661.815438	5856.588207
662.156829	5858.735739
662.498168	5852.247774
662.839456	5826.066541
663.180693	5862.675400
663.521879	5861.014340
663.863013	5853.354307
664.204097	5869.445670
664.545129	5912.126599
664.886110	5905.988994
665.227040	5939.391680
665.567918	5906.896402
665.908746	5938.159117
666.249522	5940.218429
666.590248	5925.130255
666.930922	5952.619667
667.271545	5967.743129
667.612118	5966.724816
667.952639	5938.582574
668.293109	5963.112829
668.633528	5918.128093
668.973896	5923.607827
669.314213	5913.764974
669.654480	5896.617489
669.994695	5889.355707
670.334859	5877.897164
670.674973	5868.349219
671.015035	5873.433223
671.355047	5870.746288
671.695008	5859.484350
672.034918	5836.899981
672.374777	5843.614798
672.714585	5828.728270
673.054342	5833.308159
673.394049	5824.602086
673.733705	5857.346901
674.073310	5841.527760
674.412864	5803.872861
674.752368	5793.283918
675.091820	5799.534948
675.431223	5734.456173
675.770574	5737.556483
676.109875	5686.633267
676.449125	5694.333629
676.788324	5658.871633
677.127473	5602.617397
677.466571	5591.529379
677.805619	5582.997226
678.144616	5568.360236
678.483562	5550.136465
678.822458	5517.278224
679.161303	5513.083984
679.500098	5503.669629
679.838842	5488.183205
680.177535	5489.887115
680.516179	5506.913612
680.854771	5515.675137
681.193314	5600.237972
681.531805	5708.141350
681.870247	5853.460171
682.208638	5957.801973
682.546978	5970.893850
682.885268	5948.894255
683.223508	5863.958374
683.561697	5810.050795
683.899836	5781.164984
684.237925	5734.315021
684.575963	5696.614752
684.913951	5660.797353
685.251889	5720.252722
685.589776	5688.374986
685.927614	5659.043032
686.265401	5730.458538
686.603137	5714.238625
686.940824	5795.202077
687.278460	5811.817720
687.616046	5828.871943
687.953582	5890.772271
688.291068	5873.707966
688.628504	5933.700217
688.965889	5902.596298
689.303224	5842.094890
689.640510	5793.480523
689.977745	5716.791970
690.314930	5621.380572
690.652065	5562.678856
690.989150	5469.535977
691.326185	5394.009410
691.663170	5340.613508
692.000105	5267.370584
692.336990	5184.821690
692.673825	5158.474099
693.010610	5093.720478
693.347345	5021.674828
693.684030	5013.228374
694.020665	4965.246672
694.357251	4874.682343
694.693786	4888.230444
695.030272	4856.408161
695.366707	4815.688240
695.703093	4783.414773
696.039429	4805.759688
696.375716	4791.261329
696.711952	4768.195530
697.048139	4750.722891
697.384276	4730.273450
697.720363	4743.965224
698.056400	4751.284979
698.392388	4701.594326
698.728326	4681.124721
699.064214	4658.593284
699.400053	4654.199918
699.735842	4624.799909
700.071581	4596.929890
700.407270	4569.022062
700.742910	4551.869536
701.078501	4496.684025
701.414042	4495.509436
701.749533	4462.895691
702.084974	4400.587030
702.420366	4457.710865
702.755709	4401.544849
703.091002	4342.727187
703.426246	4393.315165
703.761440	4348.204400
704.096584	4309.692505
704.431679	4328.659847
704.766725	4314.743742
705.101721	4304.502638
705.436668	4333.136391
705.771565	4280.655459
706.106413	4308.172598
706.441212	4340.604861
706.775961	4346.097198
707.110661	4327.749918
707.445311	4354.281511
707.779913	4375.789594
708.114465	4392.624527
708.448967	4416.486829
708.783421	4474.071929
709.117825	4518.610524
709.452180	4521.877191
709.786485	4566.458635
710.120742	4653.166482
710.454949	4635.348523
710.789107	4701.218760
711.123216	4775.762302
711.457275	4762.856948
711.791286	4842.222354
712.125247	4856.342626
712.459159	4755.524590
712.793023	4833.458308
713.126837	4792.594715
713.460602	4785.395947
713.794318	4706.862332
714.127985	4711.842992
714.461602	4627.323006
714.795171	4598.545580
715.128691	4530.832801
715.462162	4478.062003
715.795584	4424.472017
716.128957	4408.514244
716.462281	4356.764279
716.795556	4330.416689
717.128782	4293.089465
717.461960	4222.901480
717.795088	4236.651227
718.128167	4194.113971
718.461198	4133.846977
718.794180	4131.666678
719.127113	4112.827886
719.459997	4088.171603
719.792833	4046.083009
720.125619	4035.783932
720.458357	3999.452336
720.791046	4003.767564
721.123686	3980.769820
721.456278	3937.345321
721.788821	3951.183288
722.121315	3928.251079
722.453761	3900.993560
722.786158	3914.433276
723.118506	3938.091411
723.450805	3888.423443
723.783056	3910.123090
724.115259	3925.690173
724.447412	3928.472890
724.779518	3924.029113
725.111574	3932.886420
725.443582	3962.828353
725.775542	3943.384623
726.107453	3992.142663
726.439315	3991.089062
726.771129	4003.999457
727.102895	4043.065878
727.434612	4087.533897
727.766281	4103.221967
728.097901	4103.166515
728.429473	4106.775981
728.760996	4111.202114
729.092471	4109.442751
729.423897	4090.104885
729.755276	4100.494703
730.086606	4099.063015
730.417887	4136.710352
730.749120	4201.980692
731.080305	4261.791462
731.411442	4288.328095
731.742530	4261.975464
732.073570	4262.817336
732.404562	4315.567970
732.735506	4312.001354
733.066401	4271.372174
733.397249	4209.930591
733.728048	4129.002428
734.058798	4047.421435
734.389501	3977.432576
734.720156	3916.651384
735.050762	3871.371740
735.381320	3861.549052
735.711831	3814.187412
736.042293	3787.549955
736.372707	3806.197183
736.703073	3777.588635
737.033391	3771.080505
737.363661	3787.408802
737.693883	3812.070127
738.024056	3822.911128
738.354182	3816.622289
738.684260	3879.102350
739.014290	3898.092376
739.344272	3892.312693
739.674207	3935.172583
740.004093	3939.276082
740.333931	3935.326338
740.663722	3935.583437
740.993464	3932.644445
741.323159	3908.187287
741.652806	3878.583111
741.982405	3855.361036
742.311956	3820.461128
742.641460	3811.180363
742.970915	3789.548772
743.300323	3747.273656
743.629683	3713.122359
743.958996	3703.403015
744.288260	3678.484591
744.617477	3645.646515
744.946647	3632.836943
745.275768	3605.365175
745.604842	3605.539095
745.933869	3557.673339
746.262847	3549.156310
746.591778	3588.139552
746.920662	3559.031930
747.249498	3529.379863
747.578286	3567.627097
747.907027	3585.225766
748.235720	3585.230807
748.564365	3607.739559
748.892963	3611.810290
749.221514	3592.036364
749.550017	3566.187848
749.878473	3568.458888
750.206881	3535.567880
750.535242	3535.225081
750.863555	3536.326573
751.191821	3533.649721
751.520039	3515.647760
751.848210	3490.827639
752.176334	3520.091537
752.504411	3531.476983
752.832440	3490.585664
753.160421	3475.684013
753.488356	3483.074345
753.816243	3493.617918
754.144082	3450.884057
754.471875	3435.168260
754.799620	3454.934624
755.127318	3446.722584
755.454969	3444.902728
755.782572	3454.173410
756.110129	3427.689708
756.437638	3420.800971
756.765100	3431.319339
757.092515	3441.255453
757.419882	3446.316771
757.747203	3424.254162
758.074477	3422.837597
758.401703	3440.373251
758.728882	3459.519553
759.056014	3467.368630
759.383099	3469.122951
759.710138	3468.031542
760.037129	3479.560660
760.364073	3509.374044
760.690970	3498.190244
761.017820	3478.060917
761.344623	3493.592712
761.671379	3538.204403
761.998088	3588.658791
762.324751	3710.165722
762.651366	3951.432825
762.977935	4420.668466
763.304456	4850.983879
763.630931	4942.987457
763.957359	4592.564251
764.283740	4256.543620
764.610074	4061.912232
764.936362	3872.793346
765.262602	3715.574881
765.588796	3604.777881
765.914943	3523.804347
766.241044	3431.813372
766.567097	3403.363620
766.893104	3358.630941
767.219064	3329.840912
767.544978	3303.863846
767.870845	3249.232862
768.196665	3233.060840
768.522438	3241.066192
768.848165	3232.652507
769.173846	3200.532795
769.499479	3179.929599
769.825066	3163.409738
770.150607	3151.177378
770.476101	3163.581137
770.801548	3156.185765
771.126949	3115.415433
771.452303	3097.514296
771.777611	3103.609051
772.102872	3107.387395
772.428087	3088.561206
772.753256	3073.059658
773.078378	3068.031107
773.403453	3034.971220
773.728482	3023.527801
774.053465	3043.868857
774.378401	3030.066178
774.703291	3001.974348
775.028135	3003.529544
775.352932	2996.199706
775.677683	2987.624703
776.002388	2981.676142
776.327046	2980.408292
776.651658	2974.731953
776.976224	2959.628656
777.300743	2964.982361
777.625216	2954.035495
777.949643	2948.419650
778.274024	2947.663477
778.598359	2939.907662
778.922647	2942.322374
779.246889	2940.452106
779.571086	2929.525405
779.895236	2923.203798
780.219339	2932.494645
780.543397	2944.288424
780.867409	2946.007458
781.191374	2938.856581
781.515294	2936.356169
781.839167	2937.407249
782.162995	2929.328800
782.486776	2939.542178
782.810511	2934.901796
783.134201	2921.237748
783.457844	2928.928029
783.781441	2923.423089
784.104993	2900.768143
784.428498	2900.952145
784.751958	2912.967736
785.075372	2909.650656
785.398739	2895.696743
785.722061	2908.521438
786.045337	2918.739857
786.368568	2908.249216
786.691752	2898.645818
787.014891	2947.590380
787.337983	2974.963846
787.661030	2999.912516
787.984031	3065.956673
788.306987	3108.320009
788.629897	3106.396809
788.952760	3085.609611
789.275579	3071.650656
789.598351	3015.159486
789.921078	2969.587455
790.243759	2962.217288
790.566395	2943.285235
790.888984	2921.520053
791.211529	2909.388516
791.534027	2898.313101
791.856480	2888.122409
792.178888	2870.730428
792.501249	2867.163812
792.823566	2863.738348
793.145836	2859.891947
793.468062	2854.114785
793.790241	2851.579085
794.112375	2858.162832
794.434464	2870.921992
794.756507	2874.879298
795.078505	2880.832900
795.400457	2894.733882
795.722364	2930.362237
796.044226	2954.829477
796.366042	2955.562965
796.687812	2944.323713
797.009538	2965.156281
797.331218	2952.044240
797.652852	2936.852723
797.974442	2919.004517
798.295986	2915.710123
798.617484	2909.633012
798.938938	2895.663975
799.260346	2883.875237
799.581709	2874.879298
799.903026	2867.806559
800.224299	2862.140302
800.545526	2854.192923
800.866708	2838.477126
801.187845	2831.459840
801.508936	2831.464881
801.829983	2839.702126
802.150984	2826.096052
802.471940	2813.122642
802.792851	2817.057263
803.113717	2814.307314
803.434538	2818.824187
803.755314	2813.823363
804.076045	2803.962866
804.396731	2805.306333
804.717372	2807.383289
805.037967	2802.362300
805.358518	2809.296407
805.679024	2817.624393
805.999485	2810.624751
806.319901	2818.877120
806.640272	2812.041315
806.960598	2815.988538
807.280879	2825.211329
807.601115	2831.054027
807.921306	2819.623210
808.241453	2814.859320
808.561554	2822.216884
808.881611	2821.085145
809.201623	2818.010041
809.521590	2817.105154
809.841513	2812.217755
810.161390	2816.485092
810.481223	2814.758497
810.801011	2801.054120
811.120755	2796.922895
811.440453	2799.556897
811.760107	2799.037659
812.079716	2796.794345
812.399281	2787.594239
812.718801	2780.037550
813.038276	2779.909000
813.357707	2782.895884
813.677093	2790.376956
813.996434	2784.748508
814.315731	2780.899587
814.634983	2775.495470
814.954191	2774.963628
815.273354	2789.671195
815.592473	2796.721248
815.911547	2800.774336
816.230577	2805.195428
816.549562	2817.914259
816.868502	2813.099957
817.187399	2824.077070
817.506250	2839.825634
817.825058	2831.603512
818.143821	2844.771006
818.462539	2860.912781
818.781213	2886.226935
819.099843	2919.783376
819.418429	2975.530975
819.736970	3034.678833
820.055466	3105.333125
820.373919	3206.657797
820.692327	3342.748786
821.010691	3499.579082
821.329011	3930.461625
821.647286	4805.948731
821.965517	6152.214072
822.283704	6898.597228
822.601847	6881.303549
822.919945	6228.330453
823.237999	5727.267487
823.556010	5163.774872
823.873976	4629.352071
824.191897	4228.991194
824.509775	3941.166515
824.827609	3683.316537
825.145398	3565.920667
825.463144	3556.831467
825.780845	3640.149137
826.098502	3740.117738
826.416116	4016.360366
826.733685	4321.246830
827.051210	4381.816293
827.368692	4267.840846
827.686129	4011.412473
828.003522	3698.439999
828.320872	3453.392031
828.638177	3263.204420
828.955439	3133.959317
829.272656	3055.443346
829.589830	2990.203254
829.906960	2945.586522
830.224046	2902.845099
830.541088	2869.911241
830.858086	2853.746781
831.175041	2837.983093
831.491952	2839.598782
831.808819	2851.758046
832.125642	2871.680686
832.442421	2914.485123
832.759157	2992.872545
833.075849	3159.860766
833.392497	3433.043413
833.709101	3629.814771
834.025662	3575.483736
834.342179	3422.618307
834.658653	3253.762338
834.975083	3113.277984
835.291469	3023.341278
835.607811	2939.592590
835.924110	2883.260216
836.240366	2834.318174
836.556578	2795.508851
836.872746	2774.877929
837.188871	2753.364805
837.504952	2738.969790
837.820990	2732.270097
838.136984	2719.478169
838.452935	2711.092209
838.768842	2709.940306
839.084706	2730.251114
839.400526	2801.409522
839.716303	2931.131013
840.032037	3008.311078
840.347727	2991.254334
840.663373	2932.209820
840.978977	2860.869931
841.294537	2794.558593
841.610054	2744.119329
841.925527	2725.456977
842.240957	2705.146168
842.556344	2682.423167
842.871687	2668.801970
843.186987	2653.950730
843.502244	2657.819816
843.817458	2650.434526
844.132629	2641.128556
844.447756	2631.555404
844.762840	2626.955352
845.077881	2627.953500
845.392879	2628.634056
845.707833	2623.968468
846.022745	2613.797940
846.337613	2617.825822
846.652438	2616.318517
846.967221	2617.346912
847.281960	2617.417488
847.596656	2615.612755
847.911309	2612.348608
848.225919	2608.106477
848.540485	2604.406270
848.855009	2608.724019
849.169490	2609.409616
849.483928	2610.443052
849.798323	2608.174533
850.112675	2607.231837
850.426984	2606.016919
850.741251	2605.790067
851.055474	2603.108173
851.369654	2606.331991
851.683792	2607.645212
851.997887	2606.763010
852.311938	2601.857967
852.625947	2607.907352
852.939914	2608.232506
853.253837	2609.618823
853.567718	2606.949532
853.881555	2604.900303
854.195350	2608.146807
854.509103	2606.221086
854.822812	2602.120107
855.136479	2603.282093
855.450103	2606.185798
855.763685	2605.530448
856.077224	2607.332660
856.390720	2602.498194
856.704173	2606.458020
857.017584	2609.770058
857.330953	2609.538165
857.644278	2611.584873
857.957561	2611.247116
858.270802	2606.435335
858.584000	2608.691251
858.897155	2609.512959
859.210268	2608.386261
859.523339	2605.888370
859.836367	2601.600868
860.149352	2604.726384
860.462295	2607.441045
860.775195	2605.656477
861.088054	2601.290837
861.400869	2601.444592
861.713642	2594.674323
862.026373	2600.222113
862.339062	2600.741352
862.651708	2606.677310
862.964312	2609.918772
863.276873	2607.998092
863.589392	2609.165120
863.901869	2612.530090
864.214303	2616.492437
864.526696	2620.351440
864.839045	2619.605349
865.151353	2622.773714
865.463619	2623.290433
865.775842	2621.268930
866.088023	2624.323869
866.400162	2625.503499
866.712258	2626.010135
867.024313	2623.537449
867.336325	2616.237858
867.648296	2620.923611
867.960224	2625.304374
868.272110	2624.699435
868.583954	2617.788013
868.895755	2621.949486
869.207515	2622.677932
869.519233	2629.672533
869.830909	2629.367544
870.142542	2621.160545
870.454134	2622.531739
870.765684	2628.538274
871.077191	2632.591362
871.388657	2632.631691
871.700081	2633.808800
872.011463	2634.330560
872.322803	2633.740745
872.634101	2635.883235
872.945357	2642.958494
873.256571	2648.294556
873.567744	2647.666932
873.878874	2642.789616
874.189963	2644.281797
874.501010	2652.695483
874.812015	2655.369815
875.122979	2654.553148
875.433900	2645.637868
875.744780	2644.818680
876.055618	2649.655667
876.366415	2654.628766
876.677169	2656.362922
876.987882	2650.487458
877.298554	2649.007879
877.609183	2655.274033
877.919771	2662.422389
878.230317	2670.009326
878.540822	2679.017868
878.851285	2691.477080
879.161707	2712.881819
879.472087	2746.362642
879.782425	2792.358130
880.092722	2897.745972
880.402977	3078.524269
880.713191	3328.701611
881.023363	3617.073255
881.333494	3808.180877
881.643583	3974.508707
881.953631	3965.606029
882.263637	3790.070532
882.573602	3578.755445
882.883526	3446.074796
883.193408	3336.313753
883.503248	3238.049062
883.813048	3130.763226
884.122806	3021.415558
884.432522	2940.278187
884.742197	2879.282746
885.051831	2847.652026
885.361424	2810.997796
885.670975	2778.636109
885.980485	2748.515215
886.289954	2734.634398
886.599382	2722.094527
886.908768	2710.184802
887.218113	2692.959179
887.527417	2682.080369
887.836680	2672.865140
888.145901	2668.212155
888.455082	2657.887872
888.764221	2652.203971
889.073319	2645.796664
889.382376	2644.390182
889.691392	2644.125522
890.000366	2642.489667
890.309300	2643.732312
890.618193	2646.043681
890.927044	2646.784730
891.235855	2648.355050
891.544625	2647.460245
891.853353	2647.533342
892.162041	2653.885195
892.470687	2672.592917
892.779293	2685.399969
893.087858	2694.053109
893.396381	2712.705378
893.704864	2751.595360
894.013306	2821.201092
894.321707	2907.054462
894.630068	2956.167903
894.938387	2973.912765
895.246665	2962.328193
895.554903	2919.148190
895.863100	2880.401882
896.171256	2829.072853
896.479371	2769.062958
896.787446	2732.592730
897.095480	2716.473641
897.403473	2711.124977
897.711425	2698.423790
898.019336	2678.667508
898.327207	2668.408760
898.635038	2666.772905
898.942827	2664.017915
899.250576	2656.362922
899.558284	2643.366828
899.865952	2640.460603
900.173579	2639.170067
900.481165	2634.386012
900.788711	2626.098355
901.096216	2624.427213
901.403681	2619.118878
901.711105	2618.677777
902.018489	2618.614762
902.325832	2625.259003
902.633135	2623.413941
902.940397	2636.909110
903.247619	2671.362876
903.554800	2737.555746
903.861941	2858.303984
904.169041	2978.263281
904.476101	3039.351983
904.783121	3029.766229
905.090100	2973.547281
905.397039	2897.723286
905.703938	2831.384222
906.010796	2772.193514
906.317614	2723.417830
906.624391	2690.126050
906.931129	2666.062102
907.237826	2643.639050
907.544483	2630.887452
907.851099	2615.464041
908.157675	2610.690069
908.464211	2598.624067
908.770707	2592.882193
909.077163	2586.757191
909.383578	2584.007241
909.689954	2584.539083
909.996289	2582.358784
910.302584	2581.463979
910.608839	2580.412899
910.915054	2581.196798
911.221229	2582.943558
911.527363	2584.556727
911.833458	2581.153948
912.139513	2581.703434
912.445527	2585.116295
912.751502	2587.901533
913.057436	2594.533171
913.363331	2599.869232
913.669186	2611.383227
913.975000	2620.560648
914.280775	2635.026239
914.586510	2655.306801
914.892205	2690.423478
915.197859	2753.236255
915.503475	2831.840447
915.809050	2896.347051
916.114585	2913.340781
916.420081	2926.606577
916.725536	2931.549429
917.030952	2904.720408
917.336328	2861.628625
917.641665	2814.327478
917.946961	2768.573966
918.252218	2734.609192
918.557435	2711.014071
918.862612	2689.042202
919.167750	2676.464523
919.472848	2659.695125
919.777906	2645.279946
920.082925	2634.650673
920.387904	2623.960906
920.692843	2620.079218
920.997743	2617.104937
921.302603	2607.819132
921.607423	2600.890066
921.912204	2596.688264
922.216946	2593.172059
922.521647	2595.601895
922.826310	2589.945721
923.130932	2585.459094
923.435516	2579.331571
923.740059	2577.390727
924.044564	2573.602300
924.349028	2577.118505
924.653454	2564.939077
924.957840	2565.496124
925.262186	2564.898748
925.566493	2567.058882
925.870761	2560.966648
926.174989	2561.627039
926.479178	2558.325083
926.783328	2557.551266
927.087438	2556.800134
927.391509	2556.207798
927.695541	2555.459187
927.999533	2558.153684
928.303486	2552.938610
928.607400	2554.705535
928.911275	2551.905174
929.215110	2552.709238
929.518906	2551.567416
929.822663	2549.926521
930.126381	2551.441388
930.430060	2551.189330
930.733699	2555.229815
931.037299	2553.591440
931.340861	2552.805020
931.644383	2557.972202
931.947866	2555.058415
932.251309	2549.626572
932.554714	2554.768549
932.858080	2554.271995
933.161407	2552.701676
933.464694	2552.454659
933.767943	2551.668239
934.071153	2552.593291
934.374323	2546.795964
934.677455	2549.218239
934.980548	2546.712785
935.283602	2550.307128
935.586617	2548.487271
935.889593	2549.666901
936.192530	2549.203115
936.495428	2551.607746
936.798287	2552.167314
937.101108	2551.680842
937.403890	2553.687222
937.706632	2556.356512
938.009336	2559.340876
938.312002	2561.082594
938.614628	2569.566856
938.917216	2570.496949
939.219765	2570.688513
939.522275	2571.976528
939.824747	2571.285890
940.127179	2564.374468
940.429573	2562.899930
940.731929	2564.407235
941.034246	2560.616287
941.336524	2563.482183
941.638763	2559.335834
941.940964	2560.112172
942.243126	2557.271482
942.545250	2559.711400
942.847335	2557.483210
943.149381	2555.280226
943.451389	2556.328786
943.753359	2555.192006
944.055290	2553.755277
944.357182	2552.482386
944.659036	2552.187478
944.960851	2552.321069
945.262628	2552.656306
945.564367	2554.226625
945.866067	2551.915256
946.167729	2554.226625
946.469352	2551.315359
946.770937	2553.916594
947.072484	2554.168652
947.373992	2553.336861
947.675462	2552.792417
947.976893	2551.728733
948.278286	2549.119936
948.579641	2549.114895
948.880958	2547.905018
949.182236	2547.030378
949.483476	2551.143959
949.784678	2550.647406
950.085841	2547.521890
950.386967	2550.760832
950.688054	2546.773279
950.989103	2550.818805
951.290114	2551.333003
951.591087	2550.549103
951.892021	2555.665874
952.192917	2553.619166
952.493776	2555.842315
952.794596	2556.724517
953.095378	2555.378529
953.396122	2558.254507
953.696828	2558.186451
953.997496	2555.436502
954.298126	2551.428785
954.598718	2553.173024
954.899272	2548.794782
955.199788	2550.034906
955.500266	2546.727909
955.800706	2542.664739
956.101108	2542.074924
956.401472	2540.101312
956.701798	2540.804553
957.002087	2541.008720
957.302337	2542.871426
957.602550	2541.270860
957.902724	2539.584594
958.202861	2540.237423
958.502960	2538.031918
958.803022	2540.794471
959.103045	2537.520241
959.403031	2539.672814
959.702979	2536.653163
960.002889	2537.714326
960.302762	2535.982689
960.602596	2536.464119
960.902393	2536.174253
961.202153	2535.879346
961.501875	2535.914634
961.801559	2537.164840
962.101205	2535.551671
962.400814	2536.169212
962.700385	2535.715508
962.999918	2536.973276
963.299414	2535.801208
963.598873	2536.045704
963.898293	2533.152081
964.197677	2537.769778
964.497022	2532.940353
964.796331	2535.773481
965.095601	2534.256094
965.394835	2534.888759
965.694030	2533.467153
965.993189	2537.013605
966.292309	2533.918337
966.591393	2534.402288
966.890439	2533.431865
967.189447	2536.101156
967.488419	2534.024201
967.787353	2532.809283
968.086249	2533.391536
968.385108	2535.702905
968.683930	2536.688451
968.982714	2534.911444
969.281462	2534.916485
969.580172	2537.006043
969.878844	2534.147709
970.177480	2535.864222
970.476078	2533.134437
970.774639	2537.124511
971.073162	2535.917154
971.371649	2533.825075
971.670098	2531.692667
971.968510	2535.481094
972.266885	2533.474715
972.565223	2536.930426
972.863524	2535.823893
973.161788	2536.363296
973.460014	2537.779861
973.758204	2534.243491
974.056356	2535.740714
974.354471	2536.353214
974.652550	2537.164840
974.950591	2534.591331
975.248595	2534.719880
975.546563	2532.274921
975.844493	2534.520755
976.142386	2535.105528
976.440243	2534.336753
976.738062	2534.727442
977.035845	2534.218285
977.333590	2530.359282
977.631299	2532.970600
977.928971	2534.243491
978.226606	2534.094777
978.524204	2536.504449
978.821765	2536.151568
979.119290	2531.254087
979.416777	2531.828778
979.714228	2533.658717
980.011642	2533.353727
980.309020	2535.798687
980.606360	2536.272556
980.903664	2533.583100
981.200931	2535.602082
981.498162	2535.387833
981.795356	2537.661393
982.092513	2538.180632
982.389633	2544.618186
982.686717	2543.768751
982.983764	2546.105326
983.280775	2549.568599
983.577749	2547.214380
983.874686	2545.606252
984.171587	2543.254554
984.468451	2540.852444
984.765279	2539.990407
985.062070	2540.434028
985.358824	2539.463606
985.655543	2539.942516
985.952224	2536.065868
986.248869	2536.867412
986.545478	2529.683768
986.842050	2531.145702
987.138586	2530.944056
987.435086	2530.414735
987.731549	2527.689991
988.027975	2533.565456
988.324366	2530.981865
988.620719	2533.222658
988.917037	2532.978162
989.213318	2533.716691
989.509563	2530.649148
989.805772	2533.532688
990.101944	2530.182842
990.398080	2535.140817
990.694180	2532.234591
990.990244	2528.950280
991.286271	2530.518078
991.582262	2532.204344
991.878217	2530.016484
992.174136	2531.317101
992.470019	2534.019160
992.765865	2533.507483
993.061676	2532.952956
993.357450	2532.882380
993.653188	2529.177132
993.948890	2532.847092
994.244556	2534.498069
994.540186	2531.793490
994.835780	2531.317101
995.131337	2532.688295
995.426859	2534.946732
995.722345	2534.926567
996.017795	2533.469674
996.313208	2532.221988
996.608586	2533.608306
996.903928	2534.828265
997.199234	2532.118645
997.494504	2536.272556
997.789738	2533.668800
998.084936	2533.436907
998.380099	2533.015970
998.675225	2532.118645
998.970316	2531.843902
999.265371	2533.993954
999.560390	2529.930784
999.855373	2534.603934
1000.150320	2531.859025
1000.445232	2532.181659
1000.740108	2531.049920
1001.034948	2532.106042
1001.329752	2531.503624
1001.624521	2533.225178
1001.919254	2525.711338
1002.213951	2528.320135
1002.508613	2527.851308
1002.803239	2530.500434
1003.097829	2527.208561
1003.392384	2532.441279
1003.686903	2529.608150
1003.981386	2533.217616
1004.275834	2528.415917
1004.570246	2531.357431
1004.864623	2533.023532
1005.158964	2527.863911
1005.453270	2530.336597
1005.747540	2529.419107
1006.041775	2533.255425
1006.335974	2530.273583
1006.630138	2528.408356
1006.924266	2529.431710
1007.218359	2528.405835
1007.512416	2533.567977
1007.806438	2529.356093
1008.100425	2529.663603
1008.394376	2529.824920
1008.688292	2529.895496
1008.982172	2529.182173
1009.276017	2529.267872
1009.569827	2530.495393
1009.863602	2528.675537
1010.157341	2527.725279
1010.451045	2529.555218
1010.744714	2528.937677
1011.038347	2530.397091
1011.331945	2528.312574
1011.625508	2528.862059
1011.919036	2527.430372
1012.212528	2529.439272
1012.505986	2529.603109
1012.799408	2529.219981
1013.092795	2527.546318
1013.386147	2529.809796
1013.679464	2530.505476
1013.972745	2527.833664
1014.265992	2528.436082
1014.559204	2530.288706
1014.852380	2530.258459
1015.145521	2529.771988
1015.438628	2529.608150
1015.731699	2529.613191
1016.024736	2527.291740
1016.317737	2530.601257
1016.610703	2531.047400
1016.903635	2526.603623
1017.196531	2528.728469
1017.489393	2525.487007
1017.782219	2526.568334
1018.075011	2526.666637
1018.367768	2528.100845
1018.660490	2527.974816
1018.953177	2527.974816
1019.245829	2527.974816
