Dividing Wavelength (nm)	Counts (n)	Blue Motor Position (mm): 0.000000	Red Motor Position (mm): 24.600000	
326.493990	2128.367592
326.888308	2128.367592
327.282561	2128.367592
327.676750	2094.911975
328.070874	2093.455081
328.464933	2096.827613
328.858929	2103.222317
329.252859	2111.615838
329.646726	2126.293157
330.040528	2136.811525
330.434265	2155.075625
330.827938	2173.337205
331.221547	2190.489731
331.615091	2209.018492
332.008571	2229.508262
332.401986	2249.773700
332.795338	2267.687440
333.188625	2287.819288
333.581847	2308.051959
333.975006	2324.435709
334.368100	2341.885663
334.761129	2357.344362
335.154095	2374.335571
335.546996	2395.359703
335.939833	2410.223545
336.332606	2425.467994
336.725315	2437.591969
337.117960	2447.129832
337.510540	2454.242900
337.903056	2466.739921
338.295508	2474.142855
338.687896	2482.012096
339.080220	2488.051398
339.472480	2499.323418
339.864676	2501.838954
340.256807	2506.408760
340.648875	2509.246930
341.040879	2509.471261
341.432818	2514.633403
341.824694	2516.619617
342.216506	2513.481499
342.608253	2518.711696
342.999937	2516.614576
343.391557	2514.824967
343.783113	2516.309586
344.174605	2516.208763
344.566033	2513.289935
344.957397	2509.904800
345.348697	2509.771210
345.739934	2508.306755
346.131106	2505.781137
346.522215	2501.914572
346.913260	2502.330467
347.304241	2497.833758
347.695159	2499.900631
348.086012	2498.723521
348.476802	2495.466936
348.867528	2495.529950
349.258191	2490.398056
349.648789	2490.728251
350.039324	2490.176245
350.429796	2490.740854
350.820203	2485.548466
351.210548	2488.434526
351.600828	2485.087200
351.991045	2486.849083
352.381198	2482.841366
352.771288	2486.143322
353.161314	2483.995790
353.551276	2483.738691
353.941175	2485.934114
354.331010	2482.579226
354.720782	2484.966212
355.110490	2482.619555
355.500135	2485.795482
355.889717	2483.405975
356.279235	2485.155256
356.668689	2483.652992
357.058080	2486.007211
357.447408	2486.276912
357.836672	2482.125522
358.225873	2481.326499
358.615010	2482.808598
359.004084	2485.248517
359.393095	2487.675833
359.782043	2489.465442
360.170927	2487.514516
360.559748	2491.030720
360.948505	2491.401245
361.337199	2491.229846
361.725830	2490.304794
362.114398	2494.292347
362.502903	2493.609271
362.891344	2493.440392
363.279722	2494.622543
363.668037	2494.667913
364.056289	2496.086998
364.444478	2496.870897
364.832603	2495.109014
365.220665	2498.224447
365.608665	2496.097080
365.996601	2499.542709
366.384474	2500.734942
366.772284	2499.840137
367.160031	2504.036897
367.547715	2505.748369
367.935336	2506.832217
368.322893	2511.293638
368.710388	2512.750532
369.097820	2521.335617
369.485189	2524.367871
369.872495	2528.083201
370.259738	2535.962525
370.646918	2544.353525
371.034035	2545.928886
371.421090	2559.792059
371.808081	2570.007957
372.195010	2578.489698
372.581875	2592.287337
372.968678	2607.073041
373.355418	2618.559310
373.742096	2633.438275
374.128710	2647.435039
374.515262	2667.090498
374.901751	2679.897549
375.288177	2692.800382
375.674540	2715.838456
376.060841	2733.220354
376.447079	2752.081831
376.833254	2773.181581
377.219367	2784.773714
377.605417	2823.933397
377.991404	2833.257011
378.377329	2851.914321
378.763191	2869.553319
379.148991	2907.029256
379.534727	2935.085798
379.920402	2960.619242
380.306013	2975.762868
380.691563	3024.798172
381.077049	3045.552602
381.462474	3063.148750
381.847835	3102.671396
382.233134	3125.207874
382.618371	3122.553707
383.003545	3194.407793
383.388657	3200.013556
383.773706	3232.614698
384.158693	3246.175402
384.543618	3275.179681
384.928480	3307.705205
385.313280	3356.364943
385.698017	3352.193388
386.082692	3409.029877
386.467305	3411.701688
386.851856	3444.098664
387.236344	3468.074391
387.620770	3498.263341
388.005133	3526.904657
388.389435	3552.100344
388.773674	3565.540060
389.157851	3605.418107
389.541965	3622.411837
389.926018	3588.260540
390.310008	3656.608504
390.693936	3675.409487
391.077802	3716.867937
391.461606	3709.349056
391.845348	3764.642952
392.229027	3767.831481
392.612645	3780.038635
392.996200	3857.120398
393.379694	3899.198909
393.763125	3963.481183
394.146494	3928.787962
394.529801	3994.552334
394.913047	4038.397770
395.296230	4007.803007
395.679351	4060.546079
396.062410	4081.655911
396.445408	4065.483890
396.828343	4099.073098
397.211217	4126.837253
397.594028	4038.102862
397.976778	4107.398563
398.359466	4131.528046
398.742092	4163.486441
399.124656	4087.856530
399.507158	4166.682533
399.889598	4189.506357
400.271977	4255.560595
400.654294	4223.521542
401.036549	4232.867841
401.418742	4203.014128
401.800874	4302.251762
402.182944	4322.481913
402.564952	4393.000093
402.946898	4372.656517
403.328783	4371.093759
403.710606	4285.706695
404.092367	4480.033094
404.474067	4443.338535
404.855705	4452.770534
405.237282	4377.957290
405.618797	4489.512984
406.000250	4522.184702
406.381642	4603.296867
406.762972	4565.548707
407.144240	4575.285696
407.525447	4575.333587
407.906593	4635.020848
408.287677	4677.870656
408.668700	4605.451960
409.049661	4661.060928
409.430560	4698.247000
409.811399	4627.428871
410.192176	4786.094147
410.572891	4721.325402
410.953545	4828.225590
411.334138	4710.207137
411.714669	4774.910347
412.095139	4672.184234
412.475547	4815.128672
412.855894	4794.298625
413.236180	4801.688956
413.616405	4757.490640
413.996568	4842.902909
414.376670	4784.672541
414.756711	4740.232250
415.136691	4771.119399
415.516609	4850.918344
415.896466	4885.014188
416.276262	4920.962656
416.655997	4903.341303
417.035670	5086.224282
417.415283	5174.938508
417.794834	5113.998519
418.174324	5068.197116
418.553753	4979.059434
418.933121	5164.218494
419.312428	5229.705603
419.691674	5168.087579
420.070859	5297.756139
420.449983	5203.370615
420.829045	5321.562988
421.208047	5228.916662
421.586988	5301.360564
421.965867	5309.038241
422.344686	5444.680568
422.723444	5295.800171
423.102141	5115.367193
423.480777	5413.485907
423.859352	5186.248336
424.237866	5437.857366
424.616319	5430.088948
424.994712	5541.911822
425.373044	5421.859264
425.751314	5562.507456
426.129524	5367.097210
426.507673	5564.435698
426.885762	5640.385722
427.263789	5573.388787
427.641756	5451.841527
428.019662	5578.545887
428.397508	5580.217030
428.775292	5521.903483
429.153016	5619.664059
429.530679	5548.608995
429.908282	5636.317510
430.285824	5502.895812
430.663305	5772.209374
431.040726	5502.374053
431.418086	5504.808930
431.795385	5604.331389
432.172624	5614.849757
432.549802	5604.596050
432.926920	5611.351196
433.303977	5614.842195
433.680974	5650.944418
434.057910	5657.260984
434.434786	5659.030429
434.811601	5620.904182
435.188355	5838.077090
435.565050	5708.564807
435.941683	5685.751065
436.318257	5879.200303
436.694770	5852.237691
437.071222	5873.458428
437.447614	5795.983456
437.823946	5703.687490
438.200218	5837.641030
438.576429	5690.837589
438.952580	5766.001193
439.328670	5792.920955
439.704700	5690.240212
440.080670	5659.595038
440.456580	5891.341922
440.832429	5761.764103
441.208218	5602.398107
441.583947	5726.808743
441.959616	5706.424837
442.335224	5615.129541
442.710773	5714.150405
443.086261	5704.080700
443.461689	5504.602243
443.837057	5610.290033
444.212365	5712.940528
444.587612	5593.339153
444.962800	5685.347773
445.337927	5639.937059
445.712995	5284.250887
446.088002	5716.565118
446.462949	5541.105238
446.837837	5448.315239
447.212664	5556.596703
447.587431	5616.500735
447.962139	5977.096990
448.336786	6609.640810
448.711374	6377.445264
449.085901	5657.737373
449.460369	5550.587648
449.834776	5450.324139
450.209124	5666.813971
450.583412	5707.032296
450.957640	5768.088231
451.331808	5549.075302
451.705917	5204.860276
452.079965	5102.572744
452.453954	5173.642931
452.827883	5050.003592
453.201752	5053.368562
453.575562	4880.388929
453.949311	4935.919760
454.323001	4828.606197
454.696632	4815.174043
455.070202	4825.795754
455.443713	4855.974621
455.817164	4844.286706
456.190556	4822.685362
456.563888	4796.463800
456.937160	4756.371504
457.310373	4545.989030
457.683526	4496.399200
458.056619	4388.977253
458.429653	4326.744208
458.802628	4247.683793
459.175542	4238.723142
459.548398	4316.309020
459.921194	4322.857479
460.293930	4272.163636
460.666607	4388.518507
461.039224	4441.637146
461.411782	4419.451027
461.784280	4350.576263
462.156719	4250.708485
462.529099	4143.699912
462.901419	3964.522181
463.273680	3877.348028
463.645882	3828.232066
464.018024	3734.154053
464.390106	3725.170717
464.762130	3764.663116
465.134094	3827.942200
465.505999	4012.503883
465.877845	4222.450297
466.249631	4281.804842
466.621358	4104.956124
466.993026	3900.658323
467.364634	3784.169861
467.736184	3661.047240
468.107674	3559.009245
468.479105	3506.281296
468.850477	3437.648507
469.221790	3354.887885
469.593043	3270.141047
469.964238	3212.644167
470.335373	3174.500277
470.706449	3147.666215
471.077467	3115.143211
471.448425	3204.381716
471.819324	3260.923297
472.190164	3231.230901
472.560945	3093.166300
472.931667	2999.415962
473.302330	2964.553863
473.672934	2920.756318
474.043479	2913.993610
474.413965	2889.576782
474.784393	2857.308356
475.154761	2847.883919
475.525070	2831.709377
475.895321	2807.408495
476.265513	2797.714356
476.635645	2791.906947
477.005719	2774.399019
477.375734	2765.687905
477.745691	2760.397214
478.115588	2749.609145
478.485427	2746.410533
478.855207	2750.635020
479.224928	2759.451998
479.594591	2762.711104
479.964194	2742.344842
480.333739	2731.604664
480.703226	2716.700493
481.072653	2711.855944
481.442022	2708.793443
481.811333	2704.677341
482.180584	2691.784590
482.549777	2680.578105
482.918912	2673.218020
483.287988	2671.559481
483.657005	2663.448264
484.025964	2657.572799
484.394864	2651.657005
484.763706	2648.160965
485.132489	2641.710809
485.501213	2639.477578
485.869879	2636.823410
486.238487	2628.692029
486.607036	2632.384674
486.975527	2627.976185
487.343959	2622.924949
487.712333	2625.732872
488.080648	2622.541821
488.448905	2620.573251
488.817104	2619.197016
489.185244	2618.829012
489.553326	2619.751543
489.921350	2624.767491
490.289315	2632.684623
490.657222	2634.698564
491.025070	2629.513737
491.392861	2628.472739
491.760593	2623.693725
492.128267	2619.577623
492.495883	2613.767693
492.863440	2614.198712
493.230939	2607.932557
493.598380	2608.746704
493.965763	2599.763368
494.333088	2603.370313
494.700354	2600.297730
495.067563	2604.693616
495.434713	2596.889910
495.801805	2600.764037
496.168839	2601.552977
496.535815	2598.082143
496.902733	2600.451485
497.269593	2597.754468
497.636395	2598.457709
498.003139	2600.161619
498.369825	2596.020311
498.736453	2597.847729
499.103023	2595.717842
499.469535	2597.497369
499.835989	2597.026021
500.202385	2595.730445
500.568723	2593.285485
500.935003	2595.793459
501.301226	2590.679208
501.667390	2596.859663
502.033497	2599.453337
502.399546	2596.037955
502.765537	2592.957810
503.131470	2595.266658
503.497345	2595.702718
503.863163	2594.084508
504.228923	2592.625094
504.594625	2591.780701
504.960269	2588.874475
505.325856	2594.402101
505.691385	2590.616194
506.056856	2590.631317
506.422270	2591.879003
506.787625	2591.047213
507.152924	2589.885227
507.518164	2591.440423
507.883347	2590.941348
508.248472	2590.036461
508.613540	2589.557552
508.978550	2591.211050
509.343503	2590.381780
509.708398	2591.667275
510.073236	2592.867069
510.438016	2593.774477
510.802738	2591.435382
511.167403	2592.320104
511.532010	2588.241811
511.896561	2592.914960
512.261053	2593.134250
512.625488	2588.945052
512.989866	2587.092428
513.354186	2589.376070
513.718449	2584.549165
514.082655	2591.185844
514.446803	2592.582244
514.810894	2593.318252
515.174927	2591.798345
515.538904	2590.391863
515.902822	2591.158118
516.266684	2592.428489
516.630488	2593.368664
516.994235	2593.897985
517.357925	2593.847574
517.721558	2594.699529
518.085133	2592.370516
518.448651	2593.734148
518.812112	2593.245156
519.175516	2592.350351
519.538863	2592.925042
519.902152	2591.221132
520.265385	2595.460743
520.628560	2594.316401
520.991678	2595.251535
521.354739	2592.642738
521.717743	2590.341451
522.080690	2591.919332
522.443580	2592.141143
522.806413	2594.044179
523.169189	2593.227512
523.531908	2594.276072
523.894569	2590.787593
524.257174	2593.744230
524.619722	2593.605598
524.982213	2595.203644
525.344647	2594.513006
525.707025	2594.349168
526.069345	2594.606267
526.431608	2595.485949
526.793815	2592.602409
527.155964	2595.085177
527.518057	2593.751792
527.880093	2593.288006
528.242072	2594.757502
528.603995	2594.112234
528.965860	2594.064343
529.327669	2593.870259
529.689421	2591.185844
530.051117	2596.340424
530.412755	2592.678026
530.774337	2595.314549
531.135862	2591.044692
531.497331	2590.338931
531.858743	2588.531677
532.220098	2590.016297
532.581396	2591.233735
532.942638	2590.159970
533.303824	2591.271544
533.664953	2590.081832
534.026025	2593.681216
534.387040	2592.715835
534.747999	2592.814137
535.108902	2592.741040
535.469748	2594.041658
535.830537	2593.472008
536.191270	2592.136102
536.551947	2590.933787
536.912567	2591.944538
537.273131	2591.440423
537.633638	2590.737182
537.994089	2590.802717
538.354483	2592.874631
538.714821	2593.663572
539.075103	2591.831112
539.435328	2593.880341
539.795497	2589.008066
540.155609	2593.154415
540.515665	2595.057451
540.875665	2590.538056
541.235609	2592.604929
541.595496	2594.543253
541.955328	2590.868252
542.315102	2594.155084
542.674821	2590.936307
543.034483	2592.259610
543.394090	2596.345465
543.753640	2594.371854
544.113134	2592.418407
544.472571	2591.795824
544.831953	2596.859663
545.191278	2592.720876
545.550548	2593.870259
545.909761	2597.376381
546.268918	2595.410331
546.628019	2594.220619
546.987064	2591.329517
547.346053	2592.022676
547.704986	2591.347161
548.063863	2595.743047
548.422684	2591.790783
548.781449	2594.447471
549.140158	2592.080649
549.498811	2593.275403
549.857408	2592.945207
550.215949	2592.844384
550.574434	2588.856831
550.932864	2590.870772
551.291237	2588.645103
551.649555	2593.363623
552.007817	2593.393870
552.366022	2593.978644
552.724173	2593.908068
553.082267	2593.456884
553.440305	2594.739858
553.798288	2595.516196
554.156215	2594.109714
554.514086	2594.301277
554.871902	2589.587799
555.229661	2593.376226
555.587365	2593.628283
555.945014	2594.447471
556.302606	2594.137440
556.660143	2593.083839
557.017625	2591.321956
557.375050	2594.205496
557.732421	2596.955445
558.089735	2593.938314
558.446994	2591.760536
558.804197	2591.629466
559.161345	2594.278592
559.518437	2594.011411
559.875474	2594.790269
560.232455	2594.565938
560.589381	2590.835484
560.946251	2593.282964
561.303065	2595.327152
561.659825	2593.361102
562.016528	2594.563417
562.373177	2594.167687
562.729770	2591.480752
563.086307	2595.551484
563.442789	2592.925042
563.799216	2591.813468
564.155587	2593.461925
564.511904	2593.456884
564.868164	2596.617688
565.224370	2593.842532
565.580520	2592.615012
565.936615	2591.490834
566.292654	2592.856987
566.648638	2595.012080
567.004567	2592.703232
567.360441	2593.822368
567.716260	2593.224991
568.072023	2591.813468
568.427732	2585.648137
568.783385	2590.714497
569.138982	2588.617377
569.494525	2591.062336
569.850013	2588.239290
570.205445	2593.688777
570.560823	2592.211719
570.916145	2590.966554
571.271412	2589.562593
571.626625	2589.610484
571.981782	2592.345310
572.336884	2592.163828
572.691931	2591.203488
573.046923	2592.531832
573.401860	2590.759867
573.756743	2592.282295
574.111570	2589.486976
574.466342	2590.621235
574.821059	2590.490165
575.175722	2592.007552
575.530330	2591.977306
575.884882	2590.560741
576.239380	2587.621749
576.593823	2589.701225
576.948211	2590.074270
577.302544	2588.445977
577.656823	2588.259455
578.011047	2592.120978
578.365216	2589.494537
578.719330	2588.098138
579.073389	2587.697366
579.427394	2586.822726
579.781344	2586.613518
580.135239	2589.948241
580.489080	2588.793817
580.842866	2586.288363
581.196597	2587.404979
581.550273	2588.209043
581.903895	2587.604105
582.257463	2587.425144
582.610975	2587.107551
582.964434	2588.582088
583.317837	2589.096286
583.671186	2586.016141
584.024481	2586.787438
584.377721	2584.380287
584.730906	2584.355081
585.084037	2586.280802
585.437113	2588.148549
585.790135	2586.263158
586.143103	2588.390525
586.496016	2584.155955
586.848874	2579.606314
587.201679	2584.095462
587.554428	2582.515060
587.907124	2583.518249
588.259765	2582.416757
588.612352	2584.047571
588.964884	2584.334916
589.317362	2584.705441
589.669786	2583.379618
590.022155	2587.079825
590.374470	2583.795513
590.726731	2586.545462
591.078937	2585.030596
591.431090	2583.039340
591.783188	2581.630337
592.135232	2582.676377
592.487222	2583.230904
592.839157	2586.109402
593.191038	2585.796851
593.542866	2583.145204
593.894639	2582.953640
594.246358	2584.523960
594.598022	2581.753846
594.949633	2581.781572
595.301190	2581.678228
595.652692	2584.337437
596.004141	2583.379618
596.355535	2583.702252
596.706876	2579.971798
597.058162	2579.482806
597.409395	2579.928948
597.760573	2583.135122
598.111698	2583.573702
598.462768	2582.250399
598.813785	2579.394586
599.164748	2580.944740
599.515657	2582.099165
599.866511	2581.458938
600.217312	2580.173444
600.568060	2580.135635
600.918753	2582.290728
601.269392	2581.040522
601.619978	2579.724781
601.970510	2582.157138
602.320988	2578.696386
602.671412	2582.656212
603.021783	2579.056828
603.372100	2582.131932
603.722363	2578.146900
604.072572	2580.347364
604.422728	2581.877354
604.772830	2575.611200
605.122878	2577.297466
605.472872	2576.642116
605.822813	2574.766806
606.172701	2577.000037
606.522534	2579.145048
606.872314	2579.616396
607.222041	2579.805440
607.571714	2581.733681
607.921333	2580.591860
608.270899	2577.650346
608.620411	2577.980542
608.969870	2580.158320
609.319276	2581.950451
609.668627	2584.894484
610.017926	2587.145360
610.367171	2588.493868
610.716362	2586.827767
611.065500	2584.894484
611.414585	2586.139649
611.763616	2586.636203
612.112594	2579.797878
612.461518	2582.850297
612.810389	2583.500605
613.159207	2582.197467
613.507971	2580.533886
613.856682	2583.036819
614.205340	2581.138825
614.553945	2581.196798
614.902496	2580.906932
615.250994	2579.263516
615.599439	2579.989442
615.947830	2579.278639
616.296169	2580.493557
616.644454	2582.946078
616.992686	2582.447004
617.340864	2582.217632
617.688990	2577.824266
618.037063	2580.788465
618.385082	2577.569688
618.733048	2581.032961
619.080961	2578.575398
619.428821	2580.460790
619.776628	2578.862744
620.124382	2581.864751
620.472083	2579.276118
620.819731	2579.235789
621.167326	2578.310738
621.514868	2578.066242
621.862357	2580.349884
622.209793	2578.693865
622.557176	2580.261664
622.904506	2577.118505
623.251783	2570.622978
623.599007	2575.152455
623.946179	2572.833524
624.293297	2573.496436
624.640363	2575.301169
624.987376	2575.984245
625.334336	2576.664801
625.681243	2576.805953
626.028097	2574.769327
626.374899	2580.070100
626.721647	2578.686303
627.068343	2573.577094
627.414987	2576.097671
627.761577	2576.238823
628.108115	2576.029615
628.454600	2577.360480
628.801032	2572.611713
629.147412	2574.965932
629.493739	2574.209759
629.840014	2573.120870
630.186236	2573.390571
630.532405	2576.382496
630.878521	2573.226734
631.224585	2572.977197
631.570597	2572.420149
631.916556	2570.580128
632.262462	2570.239850
632.608316	2572.016857
632.954117	2571.575756
633.299866	2570.229768
633.645562	2571.316137
633.991206	2571.394274
634.336797	2569.284552
634.682336	2570.980900
635.027823	2570.302865
635.373257	2571.777402
635.718639	2567.603327
636.063968	2572.594069
636.409245	2567.104252
636.754470	2567.126938
637.099642	2567.963769
637.444762	2565.760785
637.789829	2568.213306
638.134845	2568.356979
638.479808	2566.769016
638.824719	2568.503173
639.169577	2567.101732
639.514383	2566.784139
639.859137	2565.982596
640.203839	2567.353790
640.548489	2564.790363
640.893086	2562.741134
641.237632	2562.448747
641.582125	2562.554611
641.926566	2562.158881
642.270955	2565.596947
642.615292	2567.164746
642.959576	2566.907648
643.303809	2568.573749
643.647990	2568.979562
643.992118	2566.355641
644.336195	2566.811866
644.680219	2564.946639
645.024192	2567.129458
645.368112	2562.279868
645.711981	2566.385888
646.055797	2565.412945
646.399562	2568.969479
646.743274	2566.002760
647.086935	2568.679613
647.430544	2567.807493
647.774101	2568.835889
648.117606	2564.674416
648.461059	2568.341856
648.804460	2570.040725
649.147810	2567.300857
649.491108	2566.489232
649.834354	2566.766495
650.177548	2566.832030
650.520690	2565.826320
650.863781	2565.677606
651.206820	2568.755230
651.549807	2564.734910
651.892742	2564.336659
652.235626	2564.026628
652.578458	2561.775753
652.921238	2563.648542
653.263967	2564.049313
653.606644	2563.313305
653.949269	2563.835064
654.291843	2562.363047
654.634365	2563.073850
654.976836	2562.204251
655.319255	2565.055023
655.661622	2563.131823
656.003938	2560.114693
656.346203	2562.761298
656.688416	2564.268603
657.030577	2558.861966
657.372687	2561.528736
657.714746	2561.445557
658.056753	2563.837585
658.398708	2555.239897
658.740612	2562.315156
659.082465	2558.710731
659.424266	2559.449260
659.766016	2557.115206
660.107715	2563.431772
660.449362	2561.493448
660.790958	2563.041083
661.132503	2563.109138
661.473996	2561.480845
661.815438	2561.533777
662.156829	2560.828016
662.498168	2562.940259
662.839456	2561.516133
663.180693	2560.535629
663.521879	2559.935732
663.863013	2561.526216
664.204097	2562.037893
664.545129	2563.066288
664.886110	2563.111659
665.227040	2561.642162
665.567918	2560.739796
665.908746	2563.862791
666.249522	2562.279868
666.590248	2562.337842
666.930922	2560.800290
667.271545	2562.300033
667.612118	2562.673078
667.952639	2566.206927
668.293109	2562.355486
668.633528	2563.709035
668.973896	2563.716597
669.314213	2561.995043
669.654480	2563.257852
669.994695	2560.853222
670.334859	2562.789025
670.674973	2560.230639
671.015035	2561.687533
671.355047	2563.366237
671.695008	2562.494117
672.034918	2562.761298
672.374777	2562.486556
672.714585	2562.436144
673.054342	2562.108469
673.394049	2562.292471
673.733705	2560.354148
674.073310	2563.416648
674.412864	2561.695094
674.752368	2561.319528
675.091820	2558.362892
675.431223	2562.809189
675.770574	2562.594940
676.109875	2556.003632
676.449125	2557.180741
676.788324	2558.246945
677.127473	2554.385421
677.466571	2554.524053
677.805619	2560.848181
678.144616	2560.036555
678.483562	2561.538819
678.822458	2561.362378
679.161303	2560.170145
679.500098	2559.721483
679.838842	2561.448078
680.177535	2556.038920
680.516179	2561.735424
680.854771	2558.559497
681.193314	2559.479507
681.531805	2560.112172
681.870247	2561.311967
682.208638	2561.140568
682.546978	2559.345917
682.885268	2563.920764
683.223508	2562.418500
683.561697	2562.368088
683.899836	2561.317008
684.237925	2560.344065
684.575963	2560.386915
684.913951	2561.727862
685.251889	2560.124775
685.589776	2562.010167
685.927614	2561.947152
686.265401	2559.439178
686.603137	2560.288613
686.940824	2562.088304
687.278460	2562.191648
687.616046	2562.753737
687.953582	2562.799107
688.291068	2564.293809
688.628504	2560.959086
688.965889	2563.386402
689.303224	2562.211813
689.640510	2562.189127
689.977745	2559.882800
690.314930	2559.310629
690.652065	2558.181410
690.989150	2558.509085
691.326185	2558.136040
691.663170	2556.235525
692.000105	2557.069836
692.336990	2560.046637
692.673825	2556.386759
693.010610	2557.563869
693.347345	2553.533466
693.684030	2552.210163
694.020665	2552.726882
694.357251	2550.430636
694.693786	2555.557490
695.030272	2554.881975
695.366707	2553.747715
695.703093	2554.624876
696.039429	2554.075390
696.375716	2554.486244
696.711952	2553.354505
697.048139	2554.004814
697.384276	2552.754608
697.720363	2554.980277
698.056400	2553.414999
698.392388	2551.915256
698.728326	2552.174875
699.064214	2553.939279
699.400053	2551.088507
699.735842	2552.542880
700.071581	2552.053888
700.407270	2553.183106
700.742910	2552.421892
701.078501	2552.742005
701.414042	2552.348795
701.749533	2550.856614
702.084974	2548.978784
702.420366	2551.370811
702.755709	2550.561706
703.091002	2550.723023
703.426246	2548.751932
703.761440	2552.379042
704.096584	2553.354505
704.431679	2552.169834
704.766725	2550.125646
705.101721	2554.587067
705.436668	2551.695966
705.771565	2552.323589
706.106413	2552.484906
706.441212	2549.840821
706.775961	2548.913249
707.110661	2550.097920
707.445311	2551.504402
707.779913	2550.317210
708.114465	2552.351316
708.448967	2551.834597
708.783421	2549.319062
709.117825	2551.028013
709.452180	2553.311656
709.786485	2553.611604
710.120742	2552.621018
710.454949	2555.330638
710.789107	2553.846018
711.123216	2552.328631
711.457275	2554.881975
711.791286	2550.234031
712.125247	2553.278888
712.459159	2555.968344
712.793023	2555.486913
713.126837	2552.905843
713.460602	2554.609753
713.794318	2555.451625
714.127985	2555.650751
714.461602	2554.773590
714.795171	2553.127653
715.128691	2553.336861
715.462162	2552.936090
715.795584	2548.472148
716.128957	2553.132695
716.462281	2550.266799
716.795556	2550.768393
717.128782	2549.056922
717.461960	2551.610266
717.795088	2548.094061
718.128167	2546.657332
718.461198	2550.178578
718.794180	2549.961809
719.127113	2548.300749
719.459997	2549.823177
719.792833	2547.388300
720.125619	2549.951727
720.458357	2548.388969
720.791046	2548.855276
721.123686	2547.980635
721.456278	2548.880481
721.788821	2547.715975
722.121315	2547.531973
722.453761	2547.501726
722.786158	2545.260933
723.118506	2547.211859
723.450805	2548.971222
723.783056	2547.499205
724.115259	2548.603218
724.447412	2548.930893
724.779518	2547.947868
725.111574	2549.223280
725.443582	2546.276725
725.775542	2547.421067
726.107453	2548.729247
726.439315	2548.031047
726.771129	2552.696635
727.102895	2547.413506
727.434612	2547.847045
727.766281	2548.991387
728.097901	2548.101623
728.429473	2546.417878
728.760996	2546.858979
729.092471	2547.426108
729.423897	2547.773948
729.755276	2547.912580
730.086606	2551.338044
730.417887	2549.918959
730.749120	2547.358053
731.080305	2549.114895
731.411442	2551.605225
731.742530	2551.126315
732.073570	2551.948023
732.404562	2549.901315
732.735506	2550.433157
733.066401	2549.903836
733.397249	2550.944834
733.728048	2549.906356
734.058798	2548.567930
734.389501	2547.451314
734.720156	2550.382745
735.050762	2547.647919
735.381320	2547.655481
735.711831	2546.082641
736.042293	2545.611293
736.372707	2547.814277
736.703073	2544.582898
737.033391	2546.629606
737.363661	2546.377548
737.693883	2546.904349
738.024056	2549.669422
738.354182	2546.312013
738.684260	2547.443753
739.014290	2548.709082
739.344272	2548.741850
739.674207	2547.980635
740.004093	2549.742519
740.333931	2546.717826
740.663722	2546.382590
740.993464	2548.552806
741.323159	2551.756460
741.652806	2547.310162
741.982405	2549.424926
742.311956	2546.743032
742.641460	2548.522559
742.970915	2544.895449
743.300323	2547.355532
743.629683	2545.886036
743.958996	2545.936448
744.288260	2543.383103
744.617477	2547.965512
744.946647	2540.683565
745.275768	2542.435366
745.604842	2540.035777
745.933869	2546.049873
746.262847	2541.974101
746.591778	2546.125491
746.920662	2545.533155
747.249498	2545.480223
747.578286	2544.328319
747.907027	2547.022816
748.235720	2546.790923
748.564365	2549.308979
748.892963	2547.426108
749.221514	2545.374359
749.550017	2544.333361
749.878473	2545.109698
750.206881	2546.722867
750.535242	2545.649102
750.863555	2544.361087
751.191821	2544.222455
751.520039	2542.178267
751.848210	2547.721016
752.176334	2544.643392
752.504411	2544.955943
752.832440	2546.402754
753.160421	2545.427291
753.488356	2542.846220
753.816243	2544.739173
754.144082	2543.582229
754.471875	2544.867723
754.799620	2542.326981
755.127318	2541.953936
755.454969	2545.374359
755.782572	2542.873947
756.110129	2544.477033
756.437638	2546.115408
756.765100	2542.279090
757.092515	2545.250851
757.419882	2545.109698
757.747203	2545.223124
758.074477	2542.316899
758.401703	2544.456869
758.728882	2543.703216
759.056014	2544.459389
759.383099	2543.451159
759.710138	2545.797816
760.037129	2545.104657
760.364073	2544.020809
760.690970	2544.943340
761.017820	2546.765717
761.344623	2546.493495
761.671379	2547.083310
761.998088	2541.142310
762.324751	2547.042981
762.651366	2547.030378
762.977935	2555.625545
763.304456	2555.504557
763.630931	2559.328273
763.957359	2555.164280
764.283740	2556.759805
764.610074	2551.910215
764.936362	2546.619524
765.262602	2545.888557
765.588796	2546.007024
765.914943	2546.314534
766.241044	2543.473844
766.567097	2544.812270
766.893104	2542.150541
767.219064	2542.984852
767.544978	2543.050387
767.870845	2544.388813
768.196665	2541.827907
768.522438	2542.634492
768.848165	2542.347146
769.173846	2544.030891
769.499479	2540.953267
769.825066	2539.448483
770.150607	2541.220448
770.476101	2543.254554
770.801548	2543.557023
771.126949	2540.975952
771.452303	2543.085675
771.777611	2539.468647
772.102872	2540.686086
772.428087	2539.287166
772.753256	2541.543082
773.078378	2539.357742
773.403453	2539.506456
773.728482	2537.283307
774.053465	2539.521579
774.378401	2543.191539
774.703291	2540.265149
775.028135	2538.372196
775.352932	2540.915458
775.677683	2539.161137
776.002388	2538.362114
776.327046	2539.093081
776.651658	2540.517207
776.976224	2537.737011
777.300743	2539.755993
777.625216	2537.099305
777.949643	2540.670962
778.274024	2540.547454
778.598359	2536.433872
778.922647	2533.789787
779.246889	2538.374717
779.571086	2533.883049
779.895236	2536.101156
780.219339	2540.234903
780.543397	2539.433359
780.867409	2537.984027
781.191374	2538.641898
781.515294	2539.642567
781.839167	2540.108874
782.162995	2540.217258
782.486776	2539.090561
782.810511	2540.459234
783.134201	2536.935467
783.457844	2536.050745
783.781441	2540.449152
784.104993	2537.762217
784.428498	2539.014943
784.751958	2539.924872
785.075372	2538.236085
785.398739	2536.446475
785.722061	2539.662732
786.045337	2537.424459
786.368568	2539.703061
786.691752	2540.670962
787.014891	2538.601569
787.337983	2536.537216
787.661030	2541.633823
787.984031	2539.766075
788.306987	2541.094419
788.629897	2539.771116
788.952760	2542.064841
789.275579	2539.589635
789.598351	2537.946219
789.921078	2541.202804
790.243759	2542.813453
790.566395	2538.402443
790.888984	2537.081661
791.211529	2536.995961
791.534027	2542.319420
791.856480	2537.686599
792.178888	2538.074768
792.501249	2536.958153
792.823566	2539.955118
793.145836	2536.416228
793.468062	2538.377237
793.790241	2539.829090
794.112375	2538.858667
794.434464	2538.296579
794.756507	2539.103163
795.078505	2538.442772
795.400457	2534.233409
795.722364	2538.349511
796.044226	2536.905220
796.366042	2537.139634
796.687812	2537.681558
797.009538	2538.992258
797.331218	2537.764737
797.652852	2539.720705
797.974442	2538.536034
798.295986	2537.822710
798.617484	2537.661393
798.938938	2538.099974
799.260346	2538.402443
799.581709	2535.904551
799.903026	2540.383617
800.224299	2537.978986
800.545526	2539.932433
800.866708	2539.597197
801.187845	2538.364634
801.508936	2535.891948
801.829983	2539.698020
802.150984	2537.331198
802.471940	2537.842875
802.792851	2540.108874
803.113717	2536.890097
803.434538	2537.376568
803.755314	2538.742721
804.076045	2539.753472
804.396731	2539.919830
804.717372	2539.382948
805.037967	2536.101156
805.358518	2536.091074
805.679024	2538.667104
805.999485	2536.428831
806.319901	2538.805735
806.640272	2536.726259
806.960598	2537.217772
807.280879	2537.076620
807.601115	2537.434542
807.921306	2540.096271
808.241453	2538.420087
808.561554	2534.931609
808.881611	2538.054603
809.201623	2536.940508
809.521590	2536.280117
809.841513	2537.673996
810.161390	2539.140972
810.481223	2538.218441
810.801011	2540.897814
811.120755	2537.031249
811.440453	2540.179450
811.760107	2537.701723
812.079716	2535.702905
812.399281	2533.141999
812.718801	2536.869932
813.038276	2532.136289
813.357707	2538.294058
813.677093	2536.214582
813.996434	2537.905889
814.315731	2535.534027
814.634983	2538.672145
814.954191	2537.616023
815.273354	2535.420601
815.592473	2538.188194
815.911547	2536.829603
816.230577	2538.117618
816.549562	2538.042001
816.868502	2540.718853
817.187399	2537.169881
817.506250	2540.658359
817.825058	2540.663401
818.143821	2536.534696
818.462539	2539.874460
818.781213	2538.992258
819.099843	2539.761034
819.418429	2541.855633
819.736970	2542.677342
820.055466	2546.259081
820.373919	2547.920142
820.692327	2547.673125
821.010691	2554.087993
821.329011	2563.615774
821.647286	2582.832652
821.965517	2603.768564
822.283704	2618.720627
822.601847	2623.542490
822.919945	2612.280553
823.237999	2597.877976
823.556010	2588.597212
823.873976	2575.573391
824.191897	2567.232802
824.509775	2562.726010
824.827609	2558.052861
825.145398	2554.987839
825.463144	2556.462377
825.780845	2557.737789
826.098502	2560.704508
826.416116	2564.661813
826.733685	2570.817062
827.051210	2574.789492
827.368692	2568.578790
827.686129	2562.000084
828.003522	2556.419527
828.320872	2548.320913
828.638177	2544.499719
828.955439	2546.851417
829.272656	2543.327650
829.589830	2536.605272
829.906960	2542.755479
830.224046	2541.343956
830.541088	2540.963349
830.858086	2539.811446
831.175041	2541.618699
831.491952	2537.192566
831.808819	2538.480581
832.125642	2541.154913
832.442421	2541.328833
832.759157	2543.874616
833.075849	2551.489278
833.392497	2551.562375
833.709101	2556.164949
834.025662	2553.727551
834.342179	2554.327448
834.658653	2546.135573
834.975083	2545.137425
835.291469	2547.378217
835.607811	2543.753628
835.924110	2541.200283
836.240366	2541.495191
836.556578	2537.691640
836.872746	2537.805066
837.188871	2538.510828
837.504952	2536.822041
837.820990	2538.447813
838.136984	2535.561753
838.452935	2535.856660
838.768842	2539.113246
839.084706	2536.380940
839.400526	2538.203318
839.716303	2541.341436
840.032037	2543.317568
840.347727	2542.470654
840.663373	2540.711292
840.978977	2542.798329
841.294537	2537.774819
841.610054	2538.011754
841.925527	2540.292876
842.240957	2536.403626
842.556344	2536.721218
842.871687	2536.214582
843.186987	2533.704088
843.502244	2535.249201
843.817458	2534.896321
844.132629	2531.727955
844.447756	2533.031094
844.762840	2529.950949
845.077881	2533.678882
845.392879	2533.252904
845.707833	2530.150074
846.022745	2530.036648
846.337613	2533.242822
846.652438	2535.292051
846.967221	2532.539581
847.281960	2533.701567
847.596656	2534.298944
847.911309	2533.719211
848.225919	2531.609488
848.540485	2533.787267
848.855009	2534.440096
849.169490	2533.154602
849.483928	2533.008408
849.798323	2532.484128
850.112675	2532.300126
850.426984	2532.121165
850.741251	2534.271218
851.055474	2532.927750
851.369654	2533.673841
851.683792	2533.502442
851.997887	2534.540919
852.311938	2533.578059
852.625947	2533.878007
852.939914	2533.308357
853.253837	2533.658717
853.567718	2534.949253
853.881555	2532.864736
854.195350	2533.961187
854.509103	2534.828265
854.822812	2532.227030
855.136479	2532.463964
855.450103	2535.566794
855.763685	2533.482277
856.077224	2534.649304
856.390720	2531.705270
856.704173	2534.979500
857.017584	2532.466484
857.330953	2534.596372
857.644278	2534.099818
857.957561	2537.673996
858.270802	2534.223327
858.584000	2532.718542
858.897155	2529.953469
859.210268	2534.152750
859.523339	2533.066382
859.836367	2531.463295
860.149352	2536.118800
860.462295	2535.198790
860.775195	2533.436907
861.088054	2528.557070
861.400869	2531.168387
861.713642	2529.582944
862.026373	2534.092257
862.339062	2533.595703
862.651708	2533.205013
862.964312	2533.268028
863.276873	2536.854809
863.589392	2532.348017
863.901869	2532.882380
864.214303	2532.905065
864.526696	2535.168543
864.839045	2532.448840
865.151353	2534.818183
865.463619	2530.719725
865.775842	2534.195600
866.088023	2534.833306
866.400162	2535.740714
866.712258	2532.768954
867.024313	2533.915816
867.336325	2531.460774
867.648296	2535.344983
867.960224	2535.564273
868.272110	2532.799201
868.583954	2535.203831
868.895755	2535.569315
869.207515	2533.303316
869.519233	2535.884387
869.830909	2535.970086
870.142542	2534.165353
870.454134	2536.733821
870.765684	2534.089736
871.077191	2533.041176
871.388657	2533.988913
871.700081	2533.860363
872.011463	2533.651156
872.322803	2534.482946
872.634101	2536.312885
872.945357	2534.888759
873.256571	2536.985879
873.567744	2532.146371
873.878874	2535.337422
874.189963	2533.991433
874.501010	2534.954294
874.812015	2532.332894
875.122979	2536.247350
875.433900	2533.653676
875.744780	2533.971269
876.055618	2536.486805
876.366415	2538.034439
876.677169	2533.948584
876.987882	2537.041332
877.298554	2527.919364
877.609183	2533.421783
877.919771	2531.455733
878.230317	2534.034283
878.540822	2534.588810
878.851285	2536.678368
879.161707	2539.178781
879.472087	2542.876467
879.782425	2544.529966
880.092722	2545.376879
880.402977	2551.653116
880.713191	2563.401525
881.023363	2575.147413
881.333494	2583.727457
881.643583	2586.484968
881.953631	2582.116809
882.263637	2580.521283
882.573602	2578.383834
882.883526	2571.933678
883.193408	2566.068295
883.503248	2559.522357
883.813048	2556.167469
884.122806	2555.035730
884.432522	2549.379556
884.742197	2546.584236
885.051831	2545.747404
885.361424	2541.948895
885.670975	2543.105840
885.980485	2537.895807
886.289954	2541.734646
886.599382	2538.848585
886.908768	2540.940664
887.218113	2537.943698
887.527417	2536.217103
887.836680	2534.356917
888.145901	2538.430169
888.455082	2538.049562
888.764221	2535.622247
889.073319	2533.537730
889.382376	2536.365817
889.691392	2537.111908
890.000366	2534.243491
890.309300	2535.042514
890.618193	2535.541588
890.927044	2533.268028
891.235855	2534.924047
891.544625	2535.811290
891.853353	2534.891279
892.162041	2534.172915
892.470687	2538.286497
892.779293	2536.922864
893.087858	2535.385312
893.396381	2535.410518
893.704864	2536.970755
894.013306	2539.728267
894.321707	2547.627755
894.630068	2548.479710
894.938387	2552.177396
895.246665	2550.130687
895.554903	2548.449463
895.863100	2545.321427
896.171256	2543.115922
896.479371	2543.042825
896.787446	2542.707588
897.095480	2538.480581
897.403473	2539.665252
897.711425	2534.543440
898.019336	2537.926054
898.327207	2535.465971
898.635038	2537.994110
898.942827	2534.989582
899.250576	2538.341949
899.558284	2535.387833
899.865952	2535.546629
900.173579	2537.915972
900.481165	2537.830272
900.788711	2535.879346
901.096216	2532.683254
901.403681	2535.549150
901.711105	2534.966897
902.018489	2536.080992
902.325832	2535.871784
902.633135	2533.326001
902.940397	2536.040662
903.247619	2537.527803
903.554800	2537.865560
903.861941	2547.665563
904.169041	2554.266954
904.476101	2558.065464
904.783121	2556.853066
905.090100	2555.083621
905.397039	2552.046326
905.703938	2546.586756
906.010796	2543.284801
906.317614	2540.318082
906.624391	2541.263298
906.931129	2536.670807
907.237826	2537.018646
907.544483	2536.093595
907.851099	2533.920857
908.157675	2534.941691
908.464211	2535.317257
908.770707	2527.271575
909.077163	2531.944725
909.383578	2529.734179
909.689954	2529.933305
909.996289	2529.769467
910.302584	2531.191073
910.608839	2533.996475
910.915054	2531.281813
911.221229	2533.320960
911.527363	2533.172246
911.833458	2532.055630
912.139513	2534.409849
912.445527	2532.794159
912.751502	2531.901875
913.057436	2533.888090
913.363331	2535.765920
913.669186	2534.349355
913.975000	2533.318439
914.280775	2536.413708
914.586510	2539.619882
914.892205	2538.306661
915.197859	2543.065510
915.503475	2547.244627
915.809050	2551.597663
916.114585	2555.081101
916.420081	2558.158725
916.725536	2554.425751
917.030952	2551.882488
917.336328	2548.908208
917.641665	2547.738660
917.946961	2545.608772
918.252218	2543.688093
918.557435	2544.691282
918.862612	2541.164995
919.167750	2537.938657
919.472848	2537.190046
919.777906	2535.566794
920.082925	2538.228523
920.387904	2534.735004
920.692843	2537.263142
920.997743	2533.439427
921.302603	2533.958666
921.607423	2531.705270
921.912204	2532.174098
922.216946	2532.486649
922.521647	2536.292720
922.826310	2533.469674
923.130932	2533.210055
923.435516	2531.087729
923.740059	2531.508665
924.044564	2532.922709
924.349028	2532.819365
924.653454	2529.255269
924.957840	2528.645290
925.262186	2526.286030
925.566493	2530.888603
925.870761	2525.993643
926.174989	2531.475898
926.479178	2530.646628
926.783328	2531.357431
927.087438	2532.529499
927.391509	2530.797863
927.695541	2534.072092
927.999533	2527.140505
928.303486	2529.497245
928.607400	2528.552028
928.911275	2530.649148
929.215110	2528.436082
929.518906	2532.055630
929.822663	2531.821217
930.126381	2527.868952
930.430060	2532.620240
930.733699	2529.126720
931.037299	2532.642925
931.340861	2528.057995
931.644383	2530.923891
931.947866	2530.654190
932.251309	2530.805424
932.554714	2528.572193
932.858080	2532.748789
933.161407	2529.640918
933.464694	2531.117976
933.767943	2529.872811
934.071153	2530.381967
934.374323	2533.136958
934.677455	2532.045548
934.980548	2529.308202
935.283602	2530.286185
935.586617	2530.618902
935.889593	2529.754344
936.192530	2533.688964
936.495428	2531.972451
936.798287	2530.243336
937.101108	2529.610671
937.403890	2531.095291
937.706632	2529.993798
938.009336	2530.069416
938.312002	2533.630991
938.614628	2531.065044
938.917216	2532.837009
939.219765	2530.107224
939.522275	2533.439427
939.824747	2528.264683
940.127179	2528.491535
940.429573	2526.785104
940.731929	2530.815507
941.034246	2527.616894
941.336524	2529.822399
941.638763	2528.748633
941.940964	2531.775846
942.243126	2532.080836
942.545250	2531.392719
942.847335	2531.077647
943.149381	2533.101670
943.451389	2530.220650
943.753359	2531.455733
944.055290	2530.996988
944.357182	2529.860208
944.659036	2531.657379
944.960851	2530.412214
945.262628	2529.184693
945.564367	2527.987419
945.866067	2529.388860
946.167729	2530.245856
946.469352	2531.319622
946.770937	2528.524302
947.072484	2531.758202
947.373992	2529.106555
947.675462	2528.766278
947.976893	2529.895496
948.278286	2531.410363
948.579641	2532.045548
948.880958	2530.381967
949.182236	2530.258459
949.483476	2532.471526
949.784678	2530.339118
950.085841	2525.781914
950.386967	2531.964890
950.688054	2529.048582
950.989103	2528.342821
951.290114	2530.558408
951.591087	2529.605630
951.892021	2529.535053
952.192917	2530.371885
952.493776	2530.190403
952.794596	2529.245187
953.095378	2529.988757
953.396122	2529.628315
953.696828	2531.511186
953.997496	2528.284847
954.298126	2533.189890
954.598718	2528.604961
954.899272	2529.282996
955.199788	2527.863911
955.500266	2529.945908
955.800706	2528.221833
956.101108	2524.970289
956.401472	2528.776360
956.701798	2525.436595
957.002087	2527.193438
957.302337	2528.869621
957.602550	2527.937008
957.902724	2527.337110
958.202861	2530.076978
958.502960	2529.865249
958.803022	2529.519930
959.103045	2525.184538
959.403031	2528.882224
959.702979	2528.688140
960.002889	2527.400125
960.302762	2528.584796
960.602596	2527.644621
960.902393	2527.405166
961.202153	2529.174611
961.501875	2530.281144
961.801559	2530.520599
962.101205	2527.251411
962.400814	2528.690660
962.700385	2528.194107
962.999918	2529.035979
963.299414	2526.351565
963.598873	2527.216123
963.898293	2528.453726
964.197677	2524.756040
964.497022	2525.691174
964.796331	2531.735517
965.095601	2529.346010
965.394835	2530.099663
965.694030	2528.115969
965.993189	2529.499765
966.292309	2528.794004
966.591393	2530.576052
966.890439	2528.788963
967.189447	2528.794004
967.488419	2527.110258
967.787353	2529.192255
968.086249	2529.267872
968.385108	2529.267872
968.683930	2530.016484
968.982714	2528.468849
969.281462	2531.342307
969.580172	2526.822913
969.878844	2526.832995
970.177480	2529.635877
970.476078	2526.522964
970.774639	2529.320804
971.073162	2526.911133
971.371649	2525.350896
971.670098	2527.919364
971.968510	2526.598581
972.266885	2521.101203
972.565223	2529.991278
972.863524	2526.938859
973.161788	2527.286699
973.460014	2528.562111
973.758204	2527.700073
974.056356	2527.148067
974.354471	2529.313243
974.652550	2527.906761
974.950591	2526.631349
975.248595	2526.265865
975.546563	2525.963396
975.844493	2527.879034
976.142386	2529.088911
976.440243	2527.001874
976.738062	2529.966072
977.035845	2526.144878
977.333590	2527.556401
977.631299	2528.231915
977.928971	2528.730989
978.226606	2526.903571
978.524204	2529.479601
978.821765	2526.948942
979.119290	2527.906761
979.416777	2528.206709
979.714228	2528.541946
980.011642	2528.020187
980.309020	2528.259642
980.606360	2528.151257
980.903664	2528.370547
981.200931	2530.467667
981.498162	2527.047244
981.795356	2527.102697
982.092513	2531.443130
982.389633	2529.033459
982.686717	2527.044723
982.983764	2530.679395
983.280775	2530.578572
983.577749	2529.524971
983.874686	2531.783408
984.171587	2526.903571
984.468451	2529.963552
984.765279	2529.940866
985.062070	2526.583458
985.358824	2528.554549
985.655543	2527.135464
985.952224	2525.313087
986.248869	2527.548839
986.545478	2523.830988
986.842050	2526.497758
987.138586	2525.449198
987.435086	2523.936852
987.731549	2522.064063
988.027975	2526.696884
988.324366	2526.638911
988.620719	2527.248890
988.917037	2528.199148
989.213318	2529.028418
989.509563	2528.176462
989.805772	2526.588499
990.101944	2524.781245
990.398080	2527.942049
990.694180	2521.544825
990.990244	2526.152439
991.286271	2528.937677
991.582262	2530.016484
991.878217	2528.362985
992.174136	2527.223684
992.470019	2526.394415
992.765865	2527.758047
993.061676	2527.889117
993.357450	2526.570855
993.653188	2525.303005
993.948890	2524.750998
994.244556	2524.864424
994.540186	2528.267203
994.835780	2530.049251
995.131337	2525.207223
995.426859	2528.794004
995.722345	2527.180835
996.017795	2526.172604
996.313208	2526.543129
996.608586	2528.670496
996.903928	2527.107738
997.199234	2527.773170
997.494504	2524.408200
997.789738	2528.055475
998.084936	2525.797038
998.380099	2529.028418
998.675225	2529.948428
998.970316	2527.168232
999.265371	2525.865093
999.560390	2526.737213
999.855373	2528.168901
1000.150320	2526.444826
1000.445232	2525.857532
1000.740108	2527.606812
1001.034948	2525.844929
1001.329752	2525.678571
1001.624521	2528.057995
1001.919254	2521.880061
1002.213951	2523.107582
1002.508613	2520.690349
1002.803239	2524.768643
1003.097829	2523.503313
1003.392384	2526.775022
1003.686903	2527.160670
1003.981386	2526.381812
1004.275834	2529.514889
1004.570246	2524.544311
1004.864623	2526.896009
1005.158964	2526.427182
1005.453270	2526.349044
1005.747540	2527.531195
1006.041775	2523.556245
1006.335974	2529.260311
1006.630138	2526.409538
1006.924266	2528.252080
1007.218359	2530.036648
1007.512416	2527.140505
1007.806438	2526.457429
1008.100425	2526.190248
1008.394376	2523.301667
1008.688292	2526.817872
1008.982172	2527.072450
1009.276017	2528.486493
1009.569827	2526.744775
1009.863602	2529.298119
1010.157341	2526.336441
1010.451045	2523.692356
1010.744714	2526.956503
1011.038347	2527.725279
1011.331945	2525.129085
1011.625508	2525.514733
1011.919036	2525.638242
1012.212528	2526.762419
1012.505986	2525.847449
1012.799408	2526.412059
1013.092795	2526.049096
1013.386147	2527.652183
1013.679464	2527.221164
1013.972745	2526.782583
1014.265992	2527.629497
1014.559204	2527.579086
1014.852380	2530.213089
1015.145521	2524.078004
1015.438628	2526.323838
1015.731699	2528.307533
1016.024736	2525.534898
1016.317737	2524.718231
1016.610703	2525.313087
1016.903635	2522.726975
1017.196531	2523.926770
1017.489393	2524.158663
1017.782219	2519.417458
1018.075011	2526.066740
1018.367768	2525.749147
1018.660490	2525.996163
1018.953177	2525.996163
1019.245829	2525.996163
