Dividing Wavelength (nm)	Counts (n)	Blue Motor Position (mm): 0.000000	Red Motor Position (mm): 14.800000	
326.493990	2128.304578
326.888308	2128.304578
327.282561	2128.304578
327.676750	2095.158991
328.070874	2095.572366
328.464933	2097.278796
328.858929	2103.607965
329.252859	2112.256064
329.646726	2125.902468
330.040528	2139.110291
330.434265	2155.282313
330.827938	2173.503563
331.221547	2191.613908
331.615091	2211.430684
332.008571	2231.212172
332.401986	2249.020048
332.795338	2268.804056
333.188625	2286.949689
333.581847	2306.176650
333.975006	2323.845894
334.368100	2343.997907
334.761129	2359.348220
335.154095	2376.248688
335.546996	2399.279200
335.939833	2411.771179
336.332606	2423.151584
336.725315	2435.421752
337.117960	2445.723350
337.510540	2452.773404
337.903056	2466.376957
338.295508	2471.834007
338.687896	2483.441263
339.080220	2492.669095
339.472480	2496.734786
339.864676	2501.173522
340.256807	2507.510252
340.648875	2507.452279
341.040879	2510.552589
341.432818	2511.795233
341.824694	2514.378824
342.216506	2510.983607
342.608253	2512.725326
342.999937	2514.212466
343.391557	2515.639113
343.783113	2515.061901
344.174605	2512.455624
344.566033	2509.975377
344.957397	2509.128463
345.348697	2508.581497
345.739934	2504.858605
346.131106	2503.119407
346.522215	2503.252998
346.913260	2499.981289
347.304241	2499.618326
347.695159	2497.344766
348.086012	2495.353510
348.476802	2494.708242
348.867528	2492.558190
349.258191	2492.215392
349.648789	2488.961327
350.039324	2485.505616
350.429796	2487.385966
350.820203	2487.141470
351.210548	2486.632314
351.600828	2482.884216
351.991045	2480.824904
352.381198	2481.797847
352.771288	2481.616366
353.161314	2482.881695
353.551276	2481.961685
353.941175	2483.032930
354.331010	2482.864051
354.720782	2481.790285
355.110490	2482.818681
355.500135	2480.966057
355.889717	2483.678198
356.279235	2483.025368
356.668689	2484.189875
357.058080	2482.995121
357.447408	2480.330871
357.836672	2480.587970
358.225873	2484.673825
358.615010	2479.224338
359.004084	2485.949237
359.393095	2486.140801
359.782043	2487.625421
360.170927	2487.683394
360.559748	2488.797489
360.948505	2488.530308
361.337199	2489.833446
361.725830	2489.901502
362.114398	2490.498879
362.502903	2492.538025
362.891344	2490.811430
363.279722	2490.496358
363.668037	2494.093221
364.056289	2492.338900
364.444478	2492.883344
364.832603	2493.294198
365.220665	2494.768736
365.608665	2492.419558
365.996601	2497.969869
366.384474	2495.696308
366.772284	2500.346773
367.160031	2499.199910
367.547715	2505.934892
367.935336	2505.559326
368.322893	2507.043946
368.710388	2510.338340
369.097820	2518.631038
369.485189	2520.140863
369.872495	2523.745288
370.259738	2530.739889
370.646918	2540.804553
371.034035	2546.173382
371.421090	2557.127809
371.808081	2567.557956
372.195010	2574.862588
372.581875	2587.190730
372.968678	2600.915271
373.355418	2612.570419
373.742096	2630.811834
374.128710	2646.499905
374.515262	2661.641011
374.901751	2674.120387
375.288177	2689.246369
375.674540	2710.199925
376.060841	2727.768346
376.447079	2747.877509
376.833254	2768.692433
377.219367	2779.014196
377.605417	2818.614980
377.991404	2831.096877
378.377329	2850.044053
378.763191	2865.850591
379.148991	2904.460788
379.534727	2932.403904
379.920402	2957.889458
380.306013	2967.828092
380.691563	3019.751977
381.077049	3038.522713
381.462474	3056.108778
381.847835	3096.236363
382.233134	3117.878037
382.618371	3118.500619
383.003545	3187.597194
383.388657	3192.860159
383.773706	3227.076991
384.158693	3243.894280
384.543618	3264.137033
384.928480	3304.373002
385.313280	3347.558047
385.698017	3346.995958
386.082692	3398.226684
386.467305	3402.894793
386.851856	3434.976696
387.236344	3459.658185
387.620770	3487.374449
388.005133	3515.138604
388.389435	3540.243550
388.773674	3553.544634
389.157851	3594.705655
389.541965	3611.921196
389.926018	3574.747727
390.310008	3648.338491
390.693936	3666.201820
391.077802	3704.882593
391.461606	3691.515974
391.845348	3751.838421
392.229027	3748.763317
392.612645	3758.671705
392.996200	3831.055112
393.379694	3872.594220
393.763125	3927.822581
394.146494	3895.891912
394.529801	3946.273204
394.913047	3983.187053
395.296230	3940.511165
395.679351	3984.432218
396.062410	3997.297243
396.445408	3967.017552
396.828343	3981.803256
397.211217	3986.604955
397.594028	3899.818971
397.976778	3943.067030
398.359466	3947.909058
398.742092	3951.332002
399.124656	3863.668857
399.507158	3912.845313
399.889598	3911.285076
400.271977	3937.083181
400.654294	3887.694996
401.036549	3866.023076
401.418742	3816.234120
401.800874	3868.510885
402.182944	3850.110674
402.564952	3866.875031
402.946898	3821.116477
403.328783	3789.135398
403.710606	3692.700645
404.092367	3784.280766
404.474067	3723.481930
404.855705	3692.771221
405.237282	3615.039149
405.618797	3638.220895
406.000250	3617.547123
406.381642	3623.415027
406.762972	3560.420768
407.144240	3528.366591
407.525447	3485.741115
407.906593	3475.434476
408.287677	3448.562605
408.668700	3379.902090
409.049661	3359.964327
409.430560	3337.200996
409.811399	3269.881428
410.192176	3287.923717
410.572891	3230.827609
410.953545	3222.262689
411.334138	3149.907007
411.714669	3137.188176
412.095139	3073.286510
412.475547	3069.039338
412.855894	3030.366126
413.236180	3000.338493
413.616405	2958.350723
413.996568	2945.793209
414.376670	2907.364493
414.756711	2873.490460
415.136691	2854.220649
415.516609	2839.255984
415.896466	2819.945844
416.276262	2799.556897
416.655997	2775.434976
417.035670	2771.974224
417.415283	2758.542070
417.794834	2737.137331
418.174324	2715.389793
418.553753	2691.731658
418.933121	2687.494568
419.312428	2676.126766
419.691674	2658.432316
420.070859	2647.714823
420.449983	2633.438275
420.829045	2626.458798
421.208047	2612.588063
421.586988	2605.981631
421.965867	2599.859150
422.344686	2591.725248
422.723444	2582.961202
423.102141	2570.869994
423.480777	2575.051632
423.859352	2564.482853
424.237866	2563.525033
424.616319	2561.327090
424.994712	2556.943807
425.373044	2553.006666
425.751314	2553.147818
426.129524	2549.276212
426.507673	2545.397044
426.885762	2546.140614
427.263789	2540.728936
427.641756	2542.422763
428.019662	2536.791794
428.397508	2541.774975
428.775292	2538.231044
429.153016	2539.695499
429.530679	2537.237937
429.908282	2537.038811
430.285824	2536.176774
430.663305	2536.897659
431.040726	2535.556712
431.418086	2534.654345
431.795385	2537.104346
432.172624	2536.731301
432.549802	2536.058307
432.926920	2535.259284
433.303977	2533.968748
433.680974	2532.244674
434.057910	2535.874304
434.434786	2531.289375
434.811601	2532.980682
435.188355	2535.589479
435.565050	2533.580579
435.941683	2534.838347
436.318257	2531.453212
436.694770	2531.690147
437.071222	2534.059489
437.447614	2530.165198
437.823946	2533.890610
438.200218	2535.355066
438.576429	2535.292051
438.952580	2533.822555
439.328670	2536.355735
439.704700	2532.292565
440.080670	2536.975797
440.456580	2535.967566
440.832429	2536.529654
441.208218	2535.967566
441.583947	2535.468492
441.959616	2535.839016
442.335224	2534.203162
442.710773	2533.998995
443.086261	2534.868594
443.461689	2536.801877
443.837057	2533.525127
444.212365	2535.597041
444.587612	2535.954963
444.962800	2536.985879
445.337927	2537.532844
445.712995	2535.566794
446.088002	2536.554860
446.462949	2535.216434
446.837837	2537.777340
447.212664	2536.595189
447.587431	2539.554347
447.962139	2540.938143
448.336786	2543.446118
448.711374	2541.976621
449.085901	2540.547454
449.460369	2539.330015
449.834776	2537.379089
450.209124	2539.476209
450.583412	2541.533000
450.957640	2542.004347
451.331808	2539.256919
451.705917	2536.912782
452.079965	2539.783719
452.453954	2538.430169
452.827883	2539.617361
453.201752	2537.588297
453.575562	2541.527958
453.949311	2540.635674
454.323001	2539.256919
454.696632	2541.676672
455.070202	2542.523586
455.443713	2540.499563
455.817164	2539.554347
456.190556	2537.192566
456.563888	2541.689275
456.937160	2536.494366
457.310373	2540.875129
457.683526	2540.870088
458.056619	2539.188863
458.429653	2542.458051
458.802628	2540.267670
459.175542	2541.006199
459.548398	2542.397557
459.921194	2546.329657
460.293930	2542.936961
460.666607	2545.152548
461.039224	2545.205480
461.411782	2542.967208
461.784280	2545.180274
462.156719	2545.621375
462.529099	2547.279915
462.901419	2546.238917
463.273680	2545.981818
463.645882	2546.470810
464.018024	2545.782692
464.390106	2547.700851
464.762130	2547.753783
465.134094	2550.465924
465.505999	2551.154042
465.877845	2555.696121
466.249631	2560.853222
466.621358	2558.073025
466.993026	2559.925649
467.364634	2558.826678
467.736184	2554.191337
468.107674	2551.390976
468.479105	2553.808209
468.850477	2553.110009
469.221790	2553.208312
469.593043	2551.549772
469.964238	2552.071532
470.335373	2549.379556
470.706449	2551.668239
471.077467	2551.574978
471.448425	2555.660833
471.819324	2560.888510
472.190164	2560.263407
472.560945	2557.397511
472.931667	2554.924825
473.302330	2550.995245
473.672934	2551.726213
474.043479	2553.230997
474.413965	2554.713096
474.784393	2549.137580
475.154761	2551.242262
475.525070	2552.033723
475.895321	2551.343085
476.265513	2551.257385
476.635645	2554.299722
477.005719	2551.859803
477.375734	2553.079762
477.745691	2554.957592
478.115588	2558.597305
478.485427	2556.255689
478.855207	2558.388098
479.224928	2562.002605
479.594591	2561.995043
479.964194	2561.863973
480.333739	2562.441185
480.703226	2559.204764
481.072653	2561.601833
481.442022	2563.741803
481.811333	2562.806669
482.180584	2564.041752
482.549777	2561.906823
482.918912	2561.599313
483.287988	2561.755588
483.657005	2560.636452
484.025964	2559.058571
484.394864	2560.175187
484.763706	2559.638304
485.132489	2561.362378
485.501213	2562.763819
485.869879	2557.914229
486.238487	2559.058571
486.607036	2559.121585
486.975527	2559.376164
487.343959	2559.618139
487.712333	2561.281720
488.080648	2556.583364
488.448905	2558.642676
488.817104	2555.544887
489.185244	2557.841132
489.553326	2559.116544
489.921350	2561.816082
490.289315	2564.359344
490.657222	2564.424879
491.025070	2565.087791
491.392861	2566.458985
491.760593	2561.425393
492.128267	2565.080229
492.495883	2562.642831
492.863440	2561.621998
493.230939	2558.723334
493.598380	2560.838098
493.965763	2553.425082
494.333088	2554.851728
494.700354	2555.307952
495.067563	2557.190823
495.434713	2555.592778
495.801805	2560.212995
496.168839	2559.413972
496.535815	2557.611760
496.902733	2561.148129
497.269593	2559.996226
497.636395	2562.025290
498.003139	2561.299364
498.369825	2557.629404
498.736453	2560.059240
499.103023	2556.253169
499.469535	2556.482541
499.835989	2561.576627
500.202385	2558.685526
500.568723	2558.990515
500.935003	2559.232491
501.301226	2557.019424
501.667390	2559.212326
502.033497	2563.260373
502.399546	2558.234342
502.765537	2559.736606
503.131470	2558.874569
503.497345	2559.156873
503.863163	2558.219219
504.228923	2557.518498
504.594625	2558.912377
504.960269	2558.836760
505.325856	2561.216185
505.691385	2561.352296
506.056856	2560.563355
506.422270	2560.273489
506.787625	2559.419013
507.152924	2559.126627
507.518164	2558.181410
507.883347	2561.616957
508.248472	2560.273489
508.613540	2560.989333
508.978550	2558.183931
509.343503	2560.757440
509.708398	2559.872717
510.073236	2563.613253
510.438016	2560.870866
510.802738	2558.204095
511.167403	2564.283727
511.532010	2558.320042
511.896561	2562.302553
512.261053	2560.765002
512.625488	2558.569579
512.989866	2556.401883
513.354186	2558.251986
513.718449	2555.759136
514.082655	2558.004970
514.446803	2560.034034
514.810894	2560.197872
515.174927	2563.270455
515.538904	2561.374981
515.902822	2560.210475
516.266684	2561.180897
516.630488	2561.692574
516.994235	2559.968499
517.357925	2561.309446
517.721558	2560.298695
518.085133	2560.785166
518.448651	2561.115362
518.812112	2561.480845
519.175516	2560.523026
519.538863	2562.484035
519.902152	2562.574776
520.265385	2562.509241
520.628560	2561.513613
520.991678	2560.354147
521.354739	2560.182748
521.717743	2560.586041
522.080690	2561.541339
522.443580	2562.446226
522.806413	2560.858263
523.169189	2560.031514
523.531908	2562.070660
523.894569	2559.708880
524.257174	2563.646021
524.619722	2560.402038
524.982213	2562.690722
525.344647	2560.994374
525.707025	2561.327090
526.069345	2560.744837
526.431608	2563.288099
526.793815	2561.795917
527.155964	2560.291133
527.518057	2560.833057
527.880093	2560.744837
528.242072	2560.119734
528.603995	2563.151988
528.965860	2564.724828
529.327669	2562.799107
529.689421	2562.282389
530.051117	2562.496638
530.412755	2558.793910
530.774337	2561.178376
531.135862	2562.088304
531.497331	2559.285423
531.858743	2557.236194
532.220098	2558.894733
532.581396	2558.965310
532.942638	2556.598488
533.303824	2561.490928
533.664953	2560.560835
534.026025	2559.943293
534.387040	2559.237532
534.747999	2559.126627
535.108902	2562.458829
535.469748	2560.759960
535.830537	2561.664847
536.191270	2562.196689
536.551947	2560.331462
536.912567	2561.947152
537.273131	2562.002605
537.633638	2559.794579
537.994089	2562.146278
538.354483	2559.119065
538.714821	2560.376833
539.075103	2559.106462
539.435328	2559.779456
539.795497	2559.524878
540.155609	2561.503531
540.515665	2559.446740
540.875665	2559.986143
541.235609	2561.823644
541.595496	2559.542522
541.955328	2560.560835
542.315102	2562.237018
542.674821	2560.283571
543.034483	2564.137533
543.394090	2561.450598
543.753640	2563.041082
544.113134	2559.061092
544.472571	2562.090825
544.831953	2560.684343
545.191278	2559.582851
545.550548	2560.757440
545.909761	2559.643345
546.268918	2561.097718
546.628019	2562.320197
546.987064	2560.482697
547.346053	2561.470763
547.704986	2562.710887
548.063863	2562.335321
548.422684	2559.388767
548.781449	2562.713407
549.140158	2562.007646
549.498811	2558.451112
549.857408	2561.173335
550.215949	2559.988664
550.574434	2559.630742
550.932864	2558.700649
551.291237	2558.304918
551.649555	2559.066133
552.007817	2560.054199
552.366022	2562.181566
552.724173	2561.962276
553.082267	2560.994374
553.440305	2560.505382
553.798288	2564.119889
554.156215	2564.709704
554.514086	2560.291133
554.871902	2563.640980
555.229661	2557.281564
555.587365	2560.389436
555.945014	2561.473284
556.302606	2562.196689
556.660143	2557.339538
557.017625	2560.124775
557.375050	2563.209961
557.732421	2559.905485
558.089735	2560.974209
558.446994	2561.022100
558.804197	2561.483366
559.161345	2559.267779
559.518437	2560.598643
559.875474	2559.255176
560.232455	2561.329611
560.589381	2563.368757
560.946251	2559.890361
561.303065	2561.619477
561.659825	2563.144426
562.016528	2559.625701
562.373177	2560.041596
562.729770	2559.343396
563.086307	2560.686864
563.442789	2561.064950
563.799216	2556.676626
564.155587	2560.512944
564.511904	2560.719631
564.868164	2560.999415
565.224370	2560.538150
565.580520	2562.040413
565.936615	2561.659806
566.292654	2558.572100
566.648638	2560.664178
567.004567	2562.809189
567.360441	2561.657286
567.716260	2558.002449
568.072023	2561.042265
568.427732	2553.911553
568.783385	2558.299877
569.138982	2556.558159
569.494525	2560.399518
569.850013	2558.665361
570.205445	2560.981771
570.560823	2563.320867
570.916145	2561.745506
571.271412	2559.454302
571.626625	2562.322718
571.981782	2560.147460
572.336884	2559.860114
572.691931	2560.843139
573.046923	2558.194013
573.401860	2558.899775
573.756743	2559.509754
574.111570	2560.659137
574.466342	2558.037737
574.821059	2557.946997
575.175722	2561.047306
575.530330	2558.708211
575.884882	2560.127296
576.239380	2563.071329
576.593823	2557.246276
576.948211	2556.502706
577.302544	2560.155022
577.656823	2560.399518
578.011047	2561.080074
578.365216	2558.509085
578.719330	2559.479507
579.073389	2559.550083
579.427394	2555.789383
579.781344	2557.573951
580.135239	2557.984805
580.489080	2559.214847
580.842866	2557.440361
581.196597	2559.693756
581.550273	2560.928839
581.903895	2557.024465
582.257463	2560.099569
582.610975	2556.343910
582.964434	2557.286605
583.317837	2557.236194
583.671186	2558.589744
584.024481	2558.372974
584.377721	2555.396173
584.730906	2556.439692
585.084037	2556.941286
585.437113	2555.731409
585.790135	2557.397511
586.143103	2556.205278
586.496016	2559.103941
586.848874	2553.709907
587.201679	2554.662685
587.554428	2550.415513
587.907124	2559.189641
588.259765	2554.582026
588.612352	2555.297870
588.964884	2555.053374
589.317362	2557.029507
589.669786	2555.796944
590.022155	2556.346430
590.374470	2557.647048
590.726731	2557.916750
591.078937	2558.158725
591.431090	2557.440361
591.783188	2554.173693
592.135232	2557.463046
592.487222	2555.030689
592.839157	2555.355843
593.191038	2556.779969
593.542866	2559.570248
593.894639	2556.449774
594.246358	2554.519012
594.598022	2554.395504
594.949633	2555.406255
595.301190	2555.761656
595.652692	2552.437015
596.004141	2554.493806
596.355535	2561.468243
596.706876	2556.684188
597.058162	2555.005483
597.409395	2554.584547
597.760573	2558.302398
598.111698	2556.754764
598.462768	2556.018755
598.813785	2554.183775
599.164748	2559.061092
599.515657	2556.764846
599.866511	2553.677139
600.217312	2554.534135
600.568060	2556.628735
600.918753	2557.026986
601.269392	2556.936245
601.619978	2552.653785
601.970510	2557.379867
602.320988	2553.054557
602.671412	2554.629917
603.021783	2554.602191
603.372100	2555.544887
603.722363	2554.418189
604.072572	2552.956254
604.422728	2554.491286
604.772830	2551.592622
605.122878	2550.695297
605.472872	2550.627241
605.822813	2547.809236
606.172701	2551.849721
606.522534	2552.648744
606.872314	2555.544887
607.222041	2555.103786
607.571714	2554.753426
607.921333	2555.043292
608.270899	2553.596481
608.620411	2556.865669
608.969870	2558.998077
609.319276	2557.193344
609.668627	2561.097718
610.017926	2560.129816
610.367171	2563.663665
610.716362	2562.000084
611.065500	2560.981771
611.414585	2557.735268
611.763616	2559.164435
612.112594	2556.348951
612.461518	2557.016904
612.810389	2556.507747
613.159207	2558.257028
613.507971	2558.977912
613.856682	2558.350289
614.205340	2553.294012
614.553945	2557.117727
614.902496	2558.221739
615.250994	2555.837274
615.599439	2556.260731
615.947830	2557.442881
616.296169	2556.278375
616.644454	2556.013714
616.992686	2556.749722
617.340864	2554.445915
617.688990	2556.452294
618.037063	2553.236038
618.385082	2552.563044
618.733048	2554.277037
619.080961	2554.503888
619.428821	2554.874413
619.776628	2553.223435
620.124382	2558.357851
620.472083	2559.328273
620.819731	2554.516491
621.167326	2552.406768
621.514868	2556.931204
621.862357	2554.617314
622.209793	2551.519525
622.557176	2556.457336
622.904506	2549.979453
623.251783	2550.470965
623.599007	2551.310317
623.946179	2548.623383
624.293297	2549.145142
624.640363	2555.413817
624.987376	2556.013714
625.334336	2554.014897
625.681243	2554.468600
626.028097	2550.715461
626.374899	2555.378529
626.721647	2552.051367
627.068343	2554.264434
627.414987	2551.821995
627.761577	2553.921635
628.108115	2552.011038
628.454600	2551.789227
628.801032	2550.397869
629.147412	2554.128322
629.493739	2553.077242
629.840014	2552.729402
630.186236	2554.156049
630.532405	2551.237221
630.878521	2551.106151
631.224585	2554.156049
631.570597	2554.176213
631.916556	2551.756460
632.262462	2550.163455
632.608316	2552.931048
632.954117	2551.418702
633.299866	2551.012889
633.645562	2550.859134
633.991206	2550.024823
634.336797	2550.135729
634.682336	2551.832077
635.027823	2550.670091
635.373257	2552.774773
635.718639	2552.008517
636.063968	2551.249824
636.409245	2550.723023
636.754470	2549.487940
637.099642	2551.678322
637.444762	2550.246634
637.789829	2550.811243
638.134845	2548.827549
638.479808	2550.662529
638.824719	2548.817467
639.169577	2549.200595
639.514383	2547.784030
639.859137	2549.997097
640.203839	2551.141439
640.548489	2548.116747
640.893086	2546.072559
641.237632	2546.553989
641.582125	2545.850748
641.926566	2542.591642
642.270955	2547.985677
642.615292	2547.390820
642.959576	2549.031716
643.303809	2548.565409
643.647990	2550.581871
643.992118	2546.196067
644.336195	2549.588763
644.680219	2548.066335
645.024192	2549.535831
645.368112	2547.731098
645.711981	2549.329144
646.055797	2550.912066
646.399562	2547.242106
646.743274	2547.476520
647.086935	2549.104813
647.430544	2547.854607
647.774101	2549.140101
648.117606	2549.220759
648.461059	2550.428116
648.804460	2548.933413
649.147810	2547.015254
649.491108	2550.039947
649.834354	2549.593805
650.177548	2546.485933
650.520690	2548.724206
650.863781	2551.201933
651.206820	2551.348126
651.549807	2548.845193
651.892742	2548.968702
652.235626	2549.180430
652.578458	2548.946016
652.921238	2547.262271
653.263967	2546.148176
653.606644	2547.370656
653.949269	2546.291849
654.291843	2545.376879
654.634365	2546.899308
654.976836	2546.778320
655.319255	2550.254196
655.661622	2548.993907
656.003938	2546.954761
656.346203	2547.405944
656.688416	2545.760007
657.030577	2545.676828
657.372687	2547.390820
657.714746	2546.644730
658.056753	2548.484751
658.398708	2545.399565
658.740612	2544.852599
659.082465	2542.763041
659.424266	2547.894936
659.766016	2545.354194
660.107715	2546.443083
660.449362	2544.499719
660.790958	2548.013403
661.132503	2544.645912
661.473996	2549.510626
661.815438	2546.962322
662.156829	2545.724719
662.498168	2546.385110
662.839456	2547.105995
663.180693	2544.776982
663.521879	2551.005328
663.863013	2548.096582
664.204097	2549.828218
664.545129	2546.218752
664.886110	2550.778476
665.227040	2546.702703
665.567918	2545.318906
665.908746	2545.712116
666.249522	2549.389638
666.590248	2543.675490
666.930922	2548.852755
667.271545	2544.151879
667.612118	2548.802343
667.952639	2546.838814
668.293109	2550.846531
668.633528	2547.368135
668.973896	2545.384441
669.314213	2548.709082
669.654480	2547.723537
669.994695	2546.140614
670.334859	2548.149514
670.674973	2547.179092
671.015035	2546.062476
671.355047	2545.150027
671.695008	2544.366128
672.034918	2548.184802
672.374777	2550.143290
672.714585	2547.315203
673.054342	2546.259081
673.394049	2545.878474
673.733705	2547.088351
674.073310	2543.831766
674.412864	2547.264792
674.752368	2547.179092
675.091820	2547.189174
675.431223	2545.548279
675.770574	2546.604400
676.109875	2543.244471
676.449125	2546.274205
676.788324	2542.884029
677.127473	2543.541899
677.466571	2542.994934
677.805619	2545.691952
678.144616	2545.686910
678.483562	2544.988711
678.822458	2547.975594
679.161303	2545.651622
679.500098	2547.728578
679.838842	2546.697662
680.177535	2545.117260
680.516179	2545.555840
680.854771	2547.980635
681.193314	2547.410985
681.531805	2544.590459
681.870247	2546.458207
682.208638	2547.385779
682.546978	2547.330327
682.885268	2547.030378
683.223508	2546.871582
683.561697	2546.400234
683.899836	2545.641540
684.237925	2546.906870
684.575963	2544.663556
684.913951	2547.892415
685.251889	2547.889895
685.589776	2546.874102
685.927614	2544.161961
686.265401	2545.162630
686.603137	2547.905018
686.940824	2546.566592
687.278460	2547.761345
687.616046	2547.778989
687.953582	2545.696993
688.291068	2545.956612
688.628504	2549.397200
688.965889	2549.077086
689.303224	2548.767055
689.640510	2548.071376
689.977745	2542.558874
690.314930	2548.966181
690.652065	2545.581046
690.989150	2545.543238
691.326185	2547.504246
691.663170	2544.966025
692.000105	2546.546427
692.336990	2545.860830
692.673825	2543.796478
693.010610	2545.931406
693.347345	2542.974770
693.684030	2540.635674
694.020665	2540.789429
694.357251	2537.076620
694.693786	2544.933258
695.030272	2544.920655
695.366707	2545.245809
695.703093	2543.050387
696.039429	2542.596683
696.375716	2540.612989
696.711952	2541.969059
697.048139	2542.783206
697.384276	2543.957795
697.720363	2546.329657
698.056400	2545.092054
698.392388	2543.720860
698.728326	2545.722198
699.064214	2541.492670
699.400053	2545.369318
699.735842	2543.050387
700.071581	2544.285470
700.407270	2546.251520
700.742910	2542.478216
701.078501	2541.583411
701.414042	2543.352856
701.749533	2542.339584
702.084974	2544.998793
702.420366	2542.427804
702.755709	2543.294883
703.091002	2539.811446
703.426246	2541.376724
703.761440	2542.768082
704.096584	2544.484595
704.431679	2540.257588
704.766725	2544.136756
705.101721	2542.183308
705.436668	2544.330840
705.771565	2541.235572
706.106413	2543.425953
706.441212	2541.225489
706.775961	2543.685572
707.110661	2542.137938
707.445311	2544.910573
707.779913	2541.583411
708.114465	2546.324616
708.448967	2541.170037
708.783421	2542.747918
709.117825	2542.745397
709.452180	2545.815460
709.786485	2542.276570
710.120742	2542.810932
710.454949	2544.930737
710.789107	2541.404450
711.123216	2540.577701
711.457275	2544.144317
711.791286	2540.050900
712.125247	2540.441590
712.459159	2544.701365
712.793023	2545.661705
713.126837	2541.076775
713.460602	2544.504760
713.794318	2542.531148
714.127985	2542.460572
714.461602	2543.254554
714.795171	2545.308824
715.128691	2542.405119
715.462162	2543.183977
715.795584	2540.600386
716.128957	2543.579708
716.462281	2540.025695
716.795556	2541.641384
717.128782	2541.490150
717.461960	2544.386293
717.795088	2542.780685
718.128167	2541.901004
718.461198	2540.015612
718.794180	2541.769934
719.127113	2539.206507
719.459997	2540.660880
719.792833	2539.539223
720.125619	2541.573329
720.458357	2540.650798
720.791046	2540.827238
721.123686	2542.657177
721.456278	2542.573998
721.788821	2538.568801
722.121315	2541.427135
722.453761	2541.754810
722.786158	2535.534027
723.118506	2541.795140
723.450805	2541.296065
723.783056	2537.462268
724.115259	2539.267001
724.447412	2540.451672
724.779518	2543.181457
725.111574	2539.259439
725.443582	2541.404450
725.775542	2540.585263
726.107453	2541.873277
726.439315	2539.670293
726.771129	2546.720347
727.102895	2540.371014
727.434612	2541.837989
727.766281	2539.970242
728.097901	2537.774819
728.429473	2537.752134
728.760996	2539.700540
729.092471	2538.231044
729.423897	2538.190715
729.755276	2539.549306
730.086606	2540.802032
730.417887	2542.001827
730.749120	2541.593493
731.080305	2539.050231
731.411442	2542.936961
731.742530	2542.795809
732.073570	2542.599204
732.404562	2543.365459
732.735506	2542.329502
733.066401	2544.134235
733.397249	2542.831097
733.728048	2541.401930
734.058798	2541.331353
734.389501	2539.451003
734.720156	2542.793288
735.050762	2541.573329
735.381320	2542.067362
735.711831	2541.303627
736.042293	2540.381096
736.372707	2542.049718
736.703073	2539.728267
737.033391	2540.434028
737.363661	2538.709953
737.693883	2541.346477
738.024056	2542.689944
738.354182	2539.055273
738.684260	2539.181301
739.014290	2538.974614
739.344272	2540.197094
739.674207	2539.627443
740.004093	2543.925027
740.333931	2537.931095
740.663722	2540.575180
740.993464	2538.714995
741.323159	2538.820859
741.652806	2541.238092
741.982405	2541.205325
742.311956	2540.751621
742.641460	2541.003678
742.970915	2541.611138
743.300323	2540.804553
743.629683	2541.137269
743.958996	2542.074924
744.288260	2540.471837
744.617477	2540.940664
744.946647	2536.607792
745.275768	2539.246836
745.604842	2536.590148
745.933869	2537.613503
746.262847	2532.816845
746.591778	2537.305992
746.920662	2539.609799
747.249498	2538.684748
747.578286	2539.781199
747.907027	2539.022505
748.235720	2541.157434
748.564365	2540.204656
748.892963	2541.061652
749.221514	2541.245654
749.550017	2537.011085
749.878473	2540.532331
750.206881	2540.809594
750.535242	2541.076775
750.863555	2540.376055
751.191821	2540.968390
751.520039	2539.193904
751.848210	2539.168698
752.176334	2538.586445
752.504411	2540.948226
752.832440	2539.057793
753.160421	2538.762886
753.488356	2539.251877
753.816243	2539.894625
754.144082	2538.432690
754.471875	2537.651311
754.799620	2538.503266
755.127318	2538.112577
755.454969	2538.399923
755.782572	2541.230530
756.110129	2536.116280
756.437638	2536.529654
756.765100	2541.036446
757.092515	2538.714995
757.419882	2535.607123
757.747203	2540.376055
758.074477	2538.714995
758.401703	2537.835313
758.728882	2540.517207
759.056014	2540.759182
759.383099	2540.668442
759.710138	2539.047711
760.037129	2540.746580
760.364073	2537.369007
760.690970	2539.519059
761.017820	2539.622402
761.344623	2537.573173
761.671379	2542.029553
761.998088	2535.781043
762.324751	2539.851775
762.651366	2535.960004
762.977935	2542.884029
763.304456	2541.069213
763.630931	2546.090203
763.957359	2544.025850
764.283740	2542.619368
764.610074	2542.692465
764.936362	2542.813453
765.262602	2540.933102
765.588796	2539.390509
765.914943	2538.331867
766.241044	2540.945705
766.567097	2538.735159
766.893104	2538.898997
767.219064	2540.325643
767.544978	2538.026877
767.870845	2534.936650
768.196665	2536.935467
768.522438	2536.877494
768.848165	2536.920344
769.173846	2539.476209
769.499479	2539.037628
769.825066	2537.560570
770.150607	2539.430838
770.476101	2537.976466
770.801548	2539.095602
771.126949	2536.212062
771.452303	2538.021836
771.777611	2537.989068
772.102872	2536.146527
772.428087	2536.484284
772.753256	2536.270035
773.078378	2535.765920
773.403453	2537.613503
773.728482	2537.167360
774.053465	2537.477391
774.378401	2538.820859
774.703291	2536.146527
775.028135	2535.488656
775.352932	2537.134593
775.677683	2537.555529
776.002388	2536.161650
776.327046	2534.974458
776.651658	2536.464119
776.976224	2534.777853
777.300743	2537.827752
777.625216	2538.858668
777.949643	2539.100643
778.274024	2537.578214
778.598359	2533.562935
778.922647	2530.717204
779.246889	2536.169212
779.571086	2532.358100
779.895236	2535.670138
780.219339	2537.517721
780.543397	2536.874973
780.867409	2536.199459
781.191374	2537.905889
781.515294	2533.222658
781.839167	2535.410518
782.162995	2537.522762
782.486776	2538.253729
782.810511	2534.230888
783.134201	2538.107536
783.457844	2534.936650
783.781441	2536.207021
784.104993	2533.237781
784.428498	2535.856660
784.751958	2535.382792
785.075372	2536.302803
785.398739	2536.595189
785.722061	2536.186856
786.045337	2534.833306
786.368568	2536.398584
786.691752	2536.632998
787.014891	2535.652494
787.337983	2534.452699
787.661030	2537.031249
787.984031	2536.517052
788.306987	2535.614685
788.629897	2538.389840
788.952760	2538.646939
789.275579	2534.959335
789.598351	2537.127031
789.921078	2535.660055
790.243759	2537.484953
790.566395	2534.298944
790.888984	2538.669624
791.211529	2534.172915
791.534027	2536.030580
791.856480	2534.528316
792.178888	2536.391023
792.501249	2538.067206
792.823566	2540.139121
793.145836	2534.256094
793.468062	2536.542257
793.790241	2533.515044
794.112375	2537.179963
794.434464	2535.518903
794.756507	2536.738862
795.078505	2537.250539
795.400457	2533.227699
795.722364	2533.585621
796.044226	2534.634181
796.366042	2531.763243
796.687812	2533.867925
797.009538	2536.398584
797.331218	2537.802546
797.652852	2534.500590
797.974442	2537.802546
798.295986	2535.564273
798.617484	2534.931609
798.938938	2536.383461
799.260346	2534.349355
799.581709	2534.803059
799.903026	2537.369007
800.224299	2533.797349
800.545526	2536.222144
800.866708	2535.912113
801.187845	2533.956145
801.508936	2534.172915
801.829983	2537.704243
802.150984	2535.670138
802.471940	2536.171732
802.792851	2536.151568
803.113717	2535.226516
803.434538	2537.210210
803.755314	2534.495549
804.076045	2535.155940
804.396731	2537.026208
804.717372	2535.944881
805.037967	2534.079654
805.358518	2534.571166
805.679024	2535.506300
805.999485	2533.404139
806.319901	2537.495035
806.640272	2536.136444
806.960598	2534.815662
807.280879	2534.089736
807.601115	2537.638708
807.921306	2534.581248
808.241453	2534.346835
808.561554	2534.785415
808.881611	2536.645601
809.201623	2536.249870
809.521590	2535.027391
809.841513	2534.853471
810.161390	2534.954294
810.481223	2531.964890
810.801011	2533.802390
811.120755	2534.051927
811.440453	2534.457740
811.760107	2535.995292
812.079716	2532.053110
812.399281	2530.603778
812.718801	2534.792977
813.038276	2530.079498
813.357707	2537.767258
813.677093	2534.253573
813.996434	2536.844727
814.315731	2534.785415
814.634983	2535.831455
814.954191	2534.785415
815.273354	2536.552340
815.592473	2534.056968
815.911547	2533.182328
816.230577	2537.028729
816.549562	2536.809438
816.868502	2535.072761
817.187399	2535.584438
817.506250	2531.493542
817.825058	2533.600744
818.143821	2534.556043
818.462539	2535.990251
818.781213	2535.564273
819.099843	2537.341280
819.418429	2536.262473
819.736970	2537.376568
820.055466	2535.904551
820.373919	2538.861188
820.692327	2540.272711
821.010691	2543.403268
821.329011	2546.485933
821.647286	2555.481872
821.965517	2565.027297
822.283704	2572.962073
822.601847	2576.044739
822.919945	2569.516445
823.237999	2564.064437
823.556010	2560.306257
823.873976	2552.094217
824.191897	2548.008362
824.509775	2549.082127
824.827609	2543.297403
825.145398	2544.482075
825.463144	2544.088865
825.780845	2540.854964
826.098502	2546.032229
826.416116	2543.589790
826.733685	2551.244783
827.051210	2550.864175
827.368692	2552.283260
827.686129	2546.259081
828.003522	2543.909904
828.320872	2536.146527
828.638177	2537.177443
828.955439	2535.486136
829.272656	2534.535878
829.589830	2532.947915
829.906960	2537.174922
830.224046	2534.656866
830.541088	2536.995961
830.858086	2534.974458
831.175041	2536.995961
831.491952	2532.900024
831.808819	2536.204500
832.125642	2537.986548
832.442421	2534.624098
832.759157	2536.796836
833.075849	2537.643749
833.392497	2543.236910
833.709101	2543.680531
834.025662	2543.577188
834.342179	2538.445293
834.658653	2541.301107
834.975083	2538.233564
835.291469	2544.477033
835.607811	2535.899510
835.924110	2535.826413
836.240366	2537.311033
836.556578	2537.212731
836.872746	2536.179294
837.188871	2532.388347
837.504952	2533.467153
837.820990	2534.130065
838.136984	2534.278779
838.452935	2532.663089
838.768842	2534.177956
839.084706	2535.460930
839.400526	2533.774664
839.716303	2533.051258
840.032037	2536.275076
840.347727	2536.716177
840.663373	2538.848585
840.978977	2535.624767
841.294537	2536.257432
841.610054	2534.223327
841.925527	2534.520755
842.240957	2535.334901
842.556344	2534.971938
842.871687	2531.029756
843.186987	2534.992103
843.502244	2532.395908
843.817458	2535.952442
844.132629	2534.170394
844.447756	2534.157792
844.762840	2527.788294
845.077881	2531.193593
845.392879	2526.190248
845.707833	2530.661751
846.022745	2527.405166
846.337613	2533.192411
846.652438	2532.940353
846.967221	2532.809283
847.281960	2534.109901
847.596656	2534.787936
847.911309	2533.094108
848.225919	2531.047400
848.540485	2536.282638
848.855009	2534.551002
849.169490	2532.342976
849.483928	2530.898686
849.798323	2532.668131
850.112675	2532.579910
850.426984	2529.938346
850.741251	2532.905065
851.055474	2532.065713
851.369654	2530.364323
851.683792	2533.792308
851.997887	2534.230888
852.311938	2530.828109
852.625947	2532.917668
852.939914	2530.767616
853.253837	2534.989582
853.567718	2531.117976
853.881555	2531.753161
854.195350	2531.793490
854.509103	2534.114942
854.822812	2533.898172
855.136479	2530.601257
855.450103	2533.000847
855.763685	2529.358613
856.077224	2534.414890
856.390720	2530.548325
856.704173	2532.068233
857.017584	2530.281144
857.330953	2533.283151
857.644278	2533.900693
857.957561	2531.491021
858.270802	2532.385826
858.584000	2531.198634
858.897155	2534.553522
859.210268	2532.292565
859.523339	2532.557225
859.836367	2535.745755
860.149352	2534.755168
860.462295	2534.072092
860.775195	2531.080167
861.088054	2529.701412
861.400869	2530.631504
861.713642	2528.660413
862.026373	2532.879859
862.339062	2531.450692
862.651708	2531.906916
862.964312	2537.512679
863.276873	2532.632843
863.589392	2531.296937
863.901869	2532.458923
864.214303	2532.239633
864.526696	2532.884900
864.839045	2534.535878
865.151353	2531.606968
865.463619	2532.403470
865.775842	2534.084695
866.088023	2533.787267
866.400162	2532.874818
866.712258	2533.898172
867.024313	2534.573687
867.336325	2533.878008
867.648296	2534.150230
867.960224	2532.431196
868.272110	2532.542102
868.583954	2533.230219
868.895755	2533.318439
869.207515	2533.716691
869.519233	2531.057482
869.830909	2530.381967
870.142542	2530.555887
870.454134	2535.080323
870.765684	2533.746938
871.077191	2530.684437
871.388657	2533.058820
871.700081	2530.467667
872.011463	2534.840868
872.322803	2531.548994
872.634101	2533.802390
872.945357	2532.582431
873.256571	2533.822555
873.567744	2529.882893
873.878874	2533.830117
874.189963	2531.798532
874.501010	2531.415404
874.812015	2531.798532
875.122979	2533.159643
875.433900	2533.071423
875.744780	2532.625281
876.055618	2534.777853
876.366415	2532.600075
876.677169	2534.266176
876.987882	2532.237112
877.298554	2529.282996
877.609183	2530.313912
877.919771	2532.113604
878.230317	2531.304498
878.540822	2537.633667
878.851285	2535.612164
879.161707	2534.175436
879.472087	2535.889428
879.782425	2539.324974
880.092722	2538.528472
880.402977	2539.277083
880.713191	2546.924514
881.023363	2551.955585
881.333494	2557.185782
881.643583	2558.380536
881.953631	2557.750392
882.263637	2555.998591
882.573602	2551.620348
882.883526	2551.338044
883.193408	2546.470810
883.503248	2545.311344
883.813048	2540.716333
884.122806	2538.982176
884.432522	2540.126518
884.742197	2539.287166
885.051831	2534.253573
885.361424	2534.324150
885.670975	2536.849768
885.980485	2535.108049
886.289954	2535.917154
886.599382	2536.176774
886.908768	2536.796836
887.218113	2534.132586
887.527417	2535.435724
887.836680	2532.491690
888.145901	2530.933974
888.455082	2532.758871
888.764221	2534.634181
889.073319	2532.007739
889.382376	2534.389685
889.691392	2531.929602
890.000366	2534.107380
890.309300	2531.927081
890.618193	2534.122503
890.927044	2532.663089
891.235855	2534.891279
891.544625	2529.416586
891.853353	2534.011598
892.162041	2530.568490
892.470687	2531.332225
892.779293	2533.928419
893.087858	2529.953469
893.396381	2530.762574
893.704864	2533.053779
894.013306	2532.645445
894.321707	2539.995448
894.630068	2539.617361
894.938387	2540.799512
895.246665	2539.687937
895.554903	2539.975283
895.863100	2536.234747
896.171256	2536.932947
896.479371	2538.767927
896.787446	2533.580579
897.095480	2535.828934
897.403473	2534.490508
897.711425	2533.464633
898.019336	2534.808100
898.327207	2532.007739
898.635038	2532.073274
898.942827	2533.227699
899.250576	2532.882380
899.558284	2532.229550
899.865952	2532.595034
900.173579	2532.892462
900.481165	2533.731814
900.788711	2534.687113
901.096216	2532.169056
901.403681	2532.872297
901.711105	2534.125024
902.018489	2534.505631
902.325832	2532.368182
902.633135	2531.206196
902.940397	2533.242822
903.247619	2533.005888
903.554800	2536.852288
903.861941	2537.570653
904.169041	2542.140459
904.476101	2541.553164
904.783121	2543.703216
905.090100	2541.036446
905.397039	2543.317568
905.703938	2539.498894
906.010796	2537.043852
906.317614	2532.655528
906.624391	2538.702392
906.931129	2534.334232
907.237826	2535.095446
907.544483	2533.885569
907.851099	2532.965559
908.157675	2533.177287
908.464211	2533.636032
908.770707	2528.978006
909.077163	2534.777853
909.383578	2527.246370
909.689954	2528.952800
909.996289	2526.417100
910.302584	2530.835671
910.608839	2531.932122
910.915054	2531.082688
911.221229	2531.291896
911.527363	2531.049920
911.833458	2532.161495
912.139513	2532.131248
912.445527	2531.072605
912.751502	2532.000178
913.057436	2531.637215
913.363331	2530.109745
913.669186	2534.029242
913.975000	2532.242153
914.280775	2532.950435
914.586510	2531.518747
914.892205	2535.541588
915.197859	2536.670807
915.503475	2537.721887
915.809050	2540.179450
916.114585	2539.337577
916.420081	2542.793288
916.725536	2538.344470
917.030952	2541.885880
917.336328	2541.729605
917.641665	2539.614841
917.946961	2536.575025
918.252218	2537.535365
918.557435	2536.209541
918.862612	2535.244160
919.167750	2535.420601
919.472848	2534.324150
919.777906	2534.934129
920.082925	2536.189377
920.387904	2533.091588
920.692843	2531.622091
920.997743	2529.018335
921.302603	2529.968593
921.607423	2534.679551
921.912204	2529.575383
922.216946	2530.011443
922.521647	2533.346166
922.826310	2531.148223
923.130932	2533.114273
923.435516	2529.862728
923.740059	2533.802390
924.044564	2531.526309
924.349028	2533.210055
924.653454	2525.020700
924.957840	2527.301822
925.262186	2525.817203
925.566493	2528.743592
925.870761	2525.423993
926.174989	2529.277955
926.479178	2533.580579
926.783328	2530.712163
927.087438	2531.150743
927.391509	2530.533202
927.695541	2532.884900
927.999533	2528.322656
928.303486	2529.139323
928.607400	2531.579241
928.911275	2533.777184
929.215110	2529.966072
929.518906	2531.828778
929.822663	2528.131092
930.126381	2530.180321
930.430060	2529.774508
930.733699	2530.437420
931.037299	2529.015815
931.340861	2529.827440
931.644383	2530.976823
931.947866	2529.895496
932.251309	2531.075126
932.554714	2531.070085
932.858080	2533.172246
933.161407	2526.901051
933.464694	2531.808614
933.767943	2527.904240
934.071153	2529.608150
934.374323	2528.662934
934.677455	2532.947915
934.980548	2527.984899
935.283602	2531.496062
935.586617	2530.558408
935.889593	2529.227543
936.192530	2530.046731
936.495428	2529.303160
936.798287	2531.412883
937.101108	2531.009591
937.403890	2528.746113
937.706632	2531.375075
938.009336	2529.219981
938.312002	2528.627646
938.614628	2529.759385
938.917216	2530.893644
939.219765	2529.759385
939.522275	2530.376926
939.824747	2529.177132
940.127179	2525.459281
940.429573	2524.902233
940.731929	2526.399456
941.034246	2527.145547
941.336524	2526.346524
941.638763	2529.167049
941.940964	2528.617563
942.243126	2530.472708
942.545250	2530.298788
942.847335	2528.998171
943.149381	2528.904909
943.451389	2531.029756
943.753359	2529.403983
944.055290	2528.912471
944.357182	2529.930784
944.659036	2529.035979
944.960851	2529.119158
945.262628	2529.472039
945.564367	2530.588655
945.866067	2531.659900
946.167729	2529.315763
946.469352	2532.708460
946.770937	2528.239477
947.072484	2530.316432
947.373992	2528.511699
947.675462	2530.228212
947.976893	2532.380785
948.278286	2531.606968
948.579641	2526.177645
948.880958	2529.835002
949.182236	2531.811134
949.483476	2528.499096
949.784678	2529.645959
950.085841	2531.168387
950.386967	2530.182842
950.688054	2528.771319
950.989103	2528.158818
951.290114	2527.901720
951.591087	2530.341638
951.892021	2528.894827
952.192917	2530.195445
952.493776	2527.342152
952.794596	2530.417255
953.095378	2529.482121
953.396122	2528.453726
953.696828	2530.828109
953.997496	2529.114117
954.298126	2529.073788
954.598718	2530.238294
954.899272	2527.372398
955.199788	2529.991278
955.500266	2527.316946
955.800706	2527.621936
956.101108	2526.502799
956.401472	2527.132944
956.701798	2525.610515
957.002087	2526.817872
957.302337	2527.279137
957.602550	2528.420958
957.902724	2528.927594
958.202861	2531.947246
958.502960	2529.363654
958.803022	2530.019004
959.103045	2527.468180
959.403031	2529.504807
959.702979	2528.841895
960.002889	2528.519261
960.302762	2527.561442
960.602596	2530.654190
960.902393	2529.484642
961.202153	2529.630835
961.501875	2527.853829
961.801559	2529.963552
962.101205	2527.032121
962.400814	2525.842408
962.700385	2525.330731
962.999918	2528.932636
963.299414	2529.025897
963.598873	2530.812986
963.898293	2527.276617
964.197677	2528.690660
964.497022	2527.934487
964.796331	2526.878365
965.095601	2528.274765
965.394835	2528.715866
965.694030	2529.225023
965.993189	2531.637215
966.292309	2527.334590
966.591393	2529.129241
966.890439	2527.470701
967.189447	2530.349200
967.488419	2527.793335
967.787353	2527.132944
968.086249	2528.806607
968.385108	2527.629497
968.683930	2526.225536
968.982714	2530.876000
969.281462	2527.059847
969.580172	2528.456247
969.878844	2529.739220
970.177480	2528.978006
970.476078	2528.121010
970.774639	2527.390043
971.073162	2525.320649
971.371649	2525.774353
971.670098	2522.737058
971.968510	2523.858714
972.266885	2526.744775
972.565223	2527.115300
972.863524	2528.481452
973.161788	2528.526823
973.460014	2530.505476
973.758204	2527.861390
974.056356	2528.385670
974.354471	2526.858201
974.652550	2529.651000
974.950591	2525.489528
975.248595	2527.609333
975.546563	2524.909795
975.844493	2529.484642
976.142386	2528.574714
976.440243	2529.391381
976.738062	2528.221833
977.035845	2528.206709
977.333590	2528.199148
977.631299	2527.747964
977.928971	2526.749816
978.226606	2526.853160
978.524204	2526.646472
978.821765	2526.240659
979.119290	2528.564631
979.416777	2525.396266
979.714228	2527.304343
980.011642	2527.697553
980.309020	2529.560259
980.606360	2527.508510
980.903664	2529.154446
981.200931	2527.952131
981.498162	2529.260311
981.795356	2530.835671
982.092513	2529.346010
982.389633	2527.072450
982.686717	2531.503624
982.983764	2526.318797
983.280775	2528.836854
983.577749	2529.449354
983.874686	2528.267203
984.171587	2527.367357
984.468451	2528.516740
984.765279	2527.942049
985.062070	2528.206709
985.358824	2530.366844
985.655543	2524.360309
985.952224	2528.763757
986.248869	2529.121679
986.545478	2524.851822
986.842050	2526.333921
987.138586	2522.812675
987.435086	2526.505320
987.731549	2522.159845
988.027975	2529.396422
988.324366	2527.964734
988.620719	2528.090763
988.917037	2527.387522
989.213318	2528.665454
989.509563	2527.158149
989.805772	2529.756864
990.101944	2525.020700
990.398080	2525.665968
990.694180	2528.867101
990.990244	2527.624456
991.286271	2525.983561
991.582262	2528.473891
991.878217	2531.491021
992.174136	2526.951462
992.470019	2527.314425
992.765865	2527.553880
993.061676	2526.850639
993.357450	2526.530526
993.653188	2524.395597
993.948890	2528.849457
994.244556	2524.630011
994.540186	2529.973634
994.835780	2524.985412
995.131337	2528.065557
995.426859	2527.672347
995.722345	2526.349044
996.017795	2526.913653
996.313208	2525.728982
996.608586	2525.300484
996.903928	2525.673530
997.199234	2527.047244
997.494504	2525.182017
997.789738	2529.479601
998.084936	2527.453057
998.380099	2525.723941
998.675225	2525.366019
998.970316	2529.857687
999.265371	2529.973634
999.560390	2527.679909
999.855373	2525.791997
1000.150320	2526.951462
1000.445232	2527.591689
1000.740108	2528.824251
1001.034948	2529.456916
1001.329752	2524.839219
1001.624521	2528.347862
1001.919254	2523.604136
1002.213951	2525.242511
1002.508613	2522.101872
1002.803239	2526.427182
1003.097829	2524.307377
1003.392384	2526.081863
1003.686903	2523.659589
1003.981386	2530.903727
1004.275834	2527.080012
1004.570246	2529.436751
1004.864623	2525.383663
1005.158964	2526.439785
1005.453270	2528.557070
1005.747540	2525.592871
1006.041775	2525.764270
1006.335974	2527.828623
1006.630138	2528.836854
1006.924266	2526.311236
1007.218359	2526.175124
1007.512416	2525.320649
1007.806438	2526.974147
1008.100425	2525.136647
1008.394376	2526.792666
1008.688292	2529.923222
1008.982172	2525.144208
1009.276017	2525.607995
1009.569827	2526.049096
1009.863602	2526.154960
1010.157341	2525.113962
1010.451045	2529.618233
1010.744714	2525.013138
1011.038347	2527.362316
1011.331945	2526.908612
1011.625508	2527.679909
1011.919036	2527.102697
1012.212528	2527.929446
1012.505986	2527.886596
1012.799408	2527.223684
1013.092795	2528.504137
1013.386147	2527.132944
1013.679464	2526.868283
1013.972745	2527.011956
1014.265992	2525.877696
1014.559204	2525.522295
1014.852380	2524.216636
1015.145521	2524.750998
1015.438628	2526.573376
1015.731699	2527.639580
1016.024736	2526.855680
1016.317737	2525.822244
1016.610703	2529.550177
1016.903635	2523.838550
1017.196531	2521.900226
1017.489393	2522.910977
1017.782219	2520.801254
1018.075011	2524.877027
1018.367768	2526.714528
1018.660490	2525.232429
1018.953177	2525.232429
1019.245829	2525.232429
