Dividing Wavelength (nm)	Counts (n)	Blue Motor Position (mm): 0.000000	Red Motor Position (mm): 1.300000	
326.493990	2128.700308
326.888308	2128.700308
327.282561	2128.700308
327.676750	2095.842068
328.070874	2094.128075
328.464933	2097.548498
328.858929	2102.761051
329.252859	2110.632813
329.646726	2125.514299
330.040528	2139.632050
330.434265	2154.432878
330.827938	2172.775116
331.221547	2187.391942
331.615091	2207.281814
332.008571	2229.679661
332.401986	2248.823443
332.795338	2265.829775
333.188625	2284.960954
333.581847	2304.107256
333.975006	2322.925884
334.368100	2342.871209
334.761129	2359.449043
335.154095	2375.774820
335.546996	2388.750750
335.939833	2406.851013
336.332606	2419.375760
336.725315	2435.472164
337.117960	2444.221086
337.510540	2449.751232
337.903056	2463.385033
338.295508	2470.974490
338.687896	2480.514873
339.080220	2487.373363
339.472480	2493.994919
339.864676	2497.311998
340.256807	2503.570591
340.648875	2506.875067
341.040879	2507.268277
341.432818	2507.510252
341.824694	2511.931344
342.216506	2511.636437
342.608253	2512.954698
342.999937	2514.459483
343.391557	2510.938237
343.783113	2506.837258
344.174605	2507.520335
344.566033	2508.387413
344.957397	2504.551095
345.348697	2504.515807
345.739934	2500.926505
346.131106	2503.116887
346.522215	2500.185456
346.913260	2496.747389
347.304241	2494.783859
347.695159	2493.447954
348.086012	2495.540033
348.476802	2488.288333
348.867528	2489.755308
349.258191	2485.324134
349.648789	2487.264978
350.039324	2484.177272
350.429796	2487.219608
350.820203	2482.080152
351.210548	2483.080821
351.600828	2480.991262
351.991045	2480.038484
352.381198	2479.443628
352.771288	2478.420274
353.161314	2478.105202
353.551276	2476.716364
353.941175	2480.696355
354.331010	2477.091930
354.720782	2478.868937
355.110490	2476.774337
355.500135	2479.410861
355.889717	2476.008082
356.279235	2477.578401
356.668689	2478.258957
357.058080	2479.988073
357.447408	2477.195274
357.836672	2477.638895
358.225873	2479.879688
358.615010	2479.539410
359.004084	2480.726602
359.393095	2480.537559
359.782043	2483.894967
360.170927	2481.278608
360.559748	2481.795327
360.948505	2484.590646
361.337199	2483.650471
361.725830	2482.901860
362.114398	2487.164155
362.502903	2485.235914
362.891344	2485.203147
363.279722	2485.792962
363.668037	2488.978971
364.056289	2489.014259
364.444478	2488.048878
364.832603	2487.459063
365.220665	2488.956286
365.608665	2490.861842
365.996601	2487.244814
366.384474	2489.215905
366.772284	2491.723879
367.160031	2491.484424
367.547715	2489.631800
367.935336	2494.592296
368.322893	2490.410658
368.710388	2490.241780
369.097820	2495.913078
369.485189	2491.015597
369.872495	2492.293529
370.259738	2489.102479
370.646918	2494.743530
371.034035	2492.883344
371.421090	2495.030876
371.808081	2494.473828
372.195010	2492.691781
372.581875	2494.105824
372.968678	2495.610609
373.355418	2494.657831
373.742096	2494.819147
374.128710	2493.591627
374.515262	2495.177069
374.901751	2495.333345
375.288177	2493.954590
375.674540	2493.309322
376.060841	2498.962976
376.447079	2493.833602
376.833254	2493.687408
377.219367	2493.818478
377.605417	2492.280927
377.991404	2494.196565
378.377329	2493.077429
378.763191	2491.428972
379.148991	2498.363079
379.534727	2496.444920
379.920402	2496.117245
380.306013	2496.139930
380.691563	2499.232678
381.077049	2498.952894
381.462474	2497.299395
381.847835	2499.560353
382.233134	2500.152688
382.618371	2498.942811
383.003545	2499.081443
383.388657	2500.961793
383.773706	2500.775271
384.158693	2503.817607
384.543618	2500.467760
384.928480	2501.536485
385.313280	2500.150168
385.698017	2500.969355
386.082692	2501.113028
386.467305	2502.716115
386.851856	2503.290807
387.236344	2501.591938
387.620770	2501.186125
388.005133	2501.712925
388.389435	2502.358193
388.773674	2504.631753
389.157851	2504.838441
389.541965	2505.108142
389.926018	2502.186794
390.310008	2503.986486
390.693936	2504.349449
391.077802	2505.750890
391.461606	2505.589573
391.845348	2503.691578
392.229027	2508.057217
392.612645	2503.500014
392.996200	2504.576301
393.379694	2503.184942
393.763125	2505.813904
394.146494	2506.096209
394.529801	2507.036384
394.913047	2506.945643
395.296230	2507.512773
395.679351	2507.303565
396.062410	2506.101250
396.445408	2507.308606
396.828343	2505.740807
397.211217	2503.505056
397.594028	2503.613440
397.976778	2502.194356
398.359466	2507.963956
398.742092	2505.171157
399.124656	2507.986641
399.507158	2508.831035
399.889598	2507.626199
400.271977	2507.361538
400.654294	2510.350943
401.036549	2507.235509
401.418742	2507.875736
401.800874	2508.682321
402.182944	2511.417147
402.564952	2507.220386
402.946898	2508.170643
403.328783	2508.460510
403.710606	2510.681138
404.092367	2510.106447
404.474067	2514.807323
404.855705	2508.994872
405.237282	2507.767351
405.618797	2511.170130
406.000250	2510.847496
406.381642	2511.656601
406.762972	2511.046622
407.144240	2507.933709
407.525447	2513.161386
407.906593	2510.948319
408.287677	2511.381858
408.668700	2513.887312
409.049661	2512.342198
409.430560	2511.525531
409.811399	2511.603669
410.192176	2512.627023
410.572891	2515.059380
410.953545	2511.502846
411.334138	2512.629544
411.714669	2511.767507
412.095139	2510.184584
412.475547	2515.273629
412.855894	2514.522497
413.236180	2513.204236
413.616405	2515.162724
413.996568	2516.838907
414.376670	2513.874709
414.756711	2515.074504
415.136691	2517.837056
415.516609	2512.969822
415.896466	2515.664319
416.276262	2514.388907
416.655997	2510.328257
417.035670	2509.214162
417.415283	2513.491581
417.794834	2509.191477
418.174324	2514.552744
418.553753	2514.459483
418.933121	2516.992663
419.312428	2517.022910
419.691674	2518.794875
420.070859	2514.184740
420.449983	2517.922756
420.829045	2517.242200
421.208047	2518.018538
421.586988	2515.218177
421.965867	2517.466531
422.344686	2515.896212
422.723444	2517.416120
423.102141	2516.601973
423.480777	2518.116840
423.859352	2517.665657
424.237866	2519.457787
424.616319	2517.950482
424.994712	2517.537107
425.373044	2515.916376
425.751314	2516.120543
426.129524	2516.496109
426.507673	2518.762108
426.885762	2518.762108
427.263789	2518.159690
427.641756	2518.005935
428.019662	2518.358815
428.397508	2516.498630
428.775292	2518.855369
429.153016	2519.669515
429.530679	2522.716893
429.908282	2520.846625
430.285824	2518.850328
430.663305	2521.922911
431.040726	2518.242869
431.418086	2522.313601
431.795385	2521.259999
432.172624	2519.767818
432.549802	2519.772859
432.926920	2520.924763
433.303977	2521.139012
433.680974	2518.739423
434.057910	2518.293280
434.434786	2518.295801
434.811601	2520.292098
435.188355	2520.506347
435.565050	2517.138856
435.941683	2523.253776
436.318257	2519.185565
436.694770	2520.584485
437.071222	2519.399814
437.447614	2517.285050
437.823946	2517.781603
438.200218	2519.205729
438.576429	2524.743437
438.952580	2523.241173
439.328670	2522.817716
439.704700	2520.652540
440.080670	2522.273271
440.456580	2521.335617
440.832429	2523.621780
441.208218	2522.726975
441.583947	2520.153466
441.959616	2524.377953
442.335224	2522.038858
442.710773	2523.823426
443.086261	2523.974661
443.461689	2524.055319
443.837057	2523.397449
444.212365	2523.725124
444.587612	2521.368384
444.962800	2525.020700
445.337927	2523.871317
445.712995	2522.265710
446.088002	2524.584640
446.462949	2522.842922
446.837837	2524.410721
447.212664	2521.514578
447.587431	2526.764939
447.962139	2525.015659
448.336786	2527.528674
448.711374	2525.713859
449.085901	2523.490710
449.460369	2524.125895
449.834776	2522.832839
450.209124	2525.018180
450.583412	2525.146729
450.957640	2524.070443
451.331808	2525.602953
451.705917	2525.401307
452.079965	2523.115144
452.453954	2525.358458
452.827883	2527.150588
453.201752	2526.001205
453.575562	2525.648324
453.949311	2525.552542
454.323001	2527.067409
454.696632	2523.964578
455.070202	2527.884076
455.443713	2526.187727
455.817164	2523.339475
456.190556	2523.268899
456.563888	2523.742768
456.937160	2519.561131
457.310373	2527.581606
457.683526	2525.431554
458.056619	2525.968437
458.429653	2526.197810
458.802628	2525.292922
459.175542	2526.039013
459.548398	2526.626308
459.921194	2525.227388
460.293930	2527.833664
460.666607	2526.533046
461.039224	2526.288550
461.411782	2528.196627
461.784280	2527.919364
462.156719	2524.922398
462.529099	2526.255783
462.901419	2528.965403
463.273680	2527.178314
463.645882	2526.623787
464.018024	2527.634538
464.390106	2528.196627
464.762130	2529.136802
465.134094	2528.332738
465.505999	2528.040351
465.877845	2527.644621
466.249631	2530.250897
466.621358	2529.295599
466.993026	2528.010104
467.364634	2530.376926
467.736184	2527.256452
468.107674	2529.116638
468.479105	2528.279806
468.850477	2527.339631
469.221790	2529.900537
469.593043	2527.185876
469.964238	2529.867770
470.335373	2528.461288
470.706449	2530.432379
471.077467	2529.245187
471.448425	2528.030269
471.819324	2526.127233
472.190164	2528.178983
472.560945	2530.729807
472.931667	2528.494055
473.302330	2530.631504
473.672934	2527.221164
474.043479	2528.622605
474.413965	2528.342821
474.784393	2524.892151
475.154761	2527.909281
475.525070	2524.816533
475.895321	2526.558252
476.265513	2526.018849
476.635645	2529.156967
477.005719	2530.162677
477.375734	2531.659900
477.745691	2530.008922
478.115588	2526.830474
478.485427	2528.055475
478.855207	2531.909437
479.224928	2527.591689
479.594591	2531.019673
479.964194	2529.197296
480.333739	2531.579241
480.703226	2531.700229
481.072653	2532.537061
481.442022	2526.346524
481.811333	2532.821886
482.180584	2531.493542
482.549777	2530.507996
482.918912	2529.121679
483.287988	2532.763913
483.657005	2529.804755
484.025964	2528.141174
484.394864	2533.683923
484.763706	2529.560259
485.132489	2529.061185
485.501213	2531.400280
485.869879	2531.601927
486.238487	2528.546987
486.607036	2529.217461
486.975527	2531.037317
487.343959	2529.393901
487.712333	2532.695857
488.080648	2532.363141
488.448905	2532.615198
488.817104	2531.400280
489.185244	2530.243336
489.553326	2533.406660
489.921350	2530.016484
490.289315	2532.045548
490.657222	2531.916999
491.025070	2531.969931
491.392861	2530.588655
491.760593	2531.004550
492.128267	2530.676875
492.495883	2532.587472
492.863440	2532.244674
493.230939	2529.477080
493.598380	2532.716022
493.965763	2527.957172
494.333088	2529.857687
494.700354	2527.750485
495.067563	2533.220137
495.434713	2526.096987
495.801805	2532.620240
496.168839	2532.998326
496.535815	2531.637215
496.902733	2531.682585
497.269593	2534.104859
497.636395	2533.169725
498.003139	2532.446320
498.369825	2532.622760
498.736453	2532.910106
499.103023	2530.278624
499.469535	2532.620240
499.835989	2531.516227
500.202385	2533.217616
500.568723	2533.021011
500.935003	2531.445651
501.301226	2531.874149
501.667390	2533.242822
502.033497	2533.136958
502.399546	2533.147040
502.765537	2533.371372
503.131470	2532.665610
503.497345	2532.474046
503.863163	2535.014788
504.228923	2533.129396
504.594625	2532.801721
504.960269	2532.005219
505.325856	2532.194262
505.691385	2532.237112
506.056856	2532.017822
506.422270	2533.164684
506.787625	2533.641073
507.152924	2532.998326
507.518164	2534.729963
507.883347	2530.868439
508.248472	2533.835158
508.613540	2532.955476
508.978550	2533.961187
509.343503	2533.802390
509.708398	2536.254912
510.073236	2535.012267
510.438016	2532.834489
510.802738	2533.389016
511.167403	2531.967410
511.532010	2531.110414
511.896561	2532.393388
512.261053	2533.744417
512.625488	2531.969931
512.989866	2532.216947
513.354186	2531.175949
513.718449	2527.266534
514.082655	2530.550846
514.446803	2534.200641
514.810894	2535.733152
515.174927	2533.313398
515.538904	2533.615868
515.902822	2532.307688
516.266684	2534.182997
516.630488	2532.801721
516.994235	2532.642925
517.357925	2534.382123
517.721558	2533.535209
518.085133	2535.370189
518.448651	2535.594520
518.812112	2533.807431
519.175516	2536.728780
519.538863	2532.610157
519.902152	2532.385826
520.265385	2533.580579
520.628560	2532.587472
520.991678	2533.683923
521.354739	2535.783564
521.717743	2533.643594
522.080690	2536.161650
522.443580	2534.873635
522.806413	2533.857843
523.169189	2532.030425
523.531908	2533.366330
523.894569	2535.103008
524.257174	2534.356917
524.619722	2535.244160
524.982213	2536.973276
525.344647	2534.165353
525.707025	2534.346835
526.069345	2533.078985
526.431608	2532.869777
526.793815	2534.248532
527.155964	2532.663089
527.518057	2531.143182
527.880093	2534.273738
528.242072	2533.817514
528.603995	2535.707946
528.965860	2535.783564
529.327669	2533.361289
529.689421	2533.585621
530.051117	2534.573687
530.412755	2533.353728
530.774337	2535.445806
531.135862	2532.980682
531.497331	2530.356762
531.858743	2529.353572
532.220098	2535.370189
532.581396	2533.268028
532.942638	2533.845240
533.303824	2534.621578
533.664953	2533.951104
534.026025	2531.962369
534.387040	2533.719211
534.747999	2536.897659
535.108902	2534.341794
535.469748	2535.481094
535.830537	2533.124355
536.191270	2535.937319
536.551947	2534.871115
536.912567	2537.094264
537.273131	2535.334901
537.633638	2533.784746
537.994089	2536.259953
538.354483	2536.156609
538.714821	2536.496887
539.075103	2535.715508
539.435328	2535.097967
539.795497	2535.027391
540.155609	2535.871784
540.515665	2534.921526
540.875665	2536.431352
541.235609	2537.926054
541.595496	2536.746424
541.955328	2532.894982
542.315102	2534.314067
542.674821	2535.486136
543.034483	2535.649973
543.394090	2536.146527
543.753640	2534.982020
544.113134	2536.827082
544.472571	2535.443286
544.831953	2536.469161
545.191278	2536.983358
545.550548	2535.082843
545.909761	2533.187369
546.268918	2535.649973
546.628019	2537.298430
546.987064	2534.641742
547.346053	2534.919006
547.704986	2535.002185
548.063863	2536.567463
548.422684	2534.495549
548.781449	2536.111239
549.140158	2534.442617
549.498811	2535.891948
549.857408	2534.205683
550.215949	2531.695188
550.574434	2532.685775
550.932864	2532.526978
551.291237	2533.353728
551.649555	2536.053265
552.007817	2534.235929
552.366022	2536.156609
552.724173	2537.676517
553.082267	2535.776002
553.440305	2535.309695
553.798288	2534.641742
554.156215	2534.377082
554.514086	2535.279448
554.871902	2534.558563
555.229661	2534.309026
555.587365	2536.569984
555.945014	2537.681558
556.302606	2532.111083
556.660143	2535.080323
557.017625	2533.978831
557.375050	2535.786084
557.732421	2537.157278
558.089735	2536.093595
558.446994	2536.138965
558.804197	2536.088553
559.161345	2534.646783
559.518437	2537.303472
559.875474	2537.419418
560.232455	2536.436393
560.589381	2533.804911
560.946251	2537.754655
561.303065	2533.935981
561.659825	2536.562422
562.016528	2535.985210
562.373177	2537.379089
562.729770	2536.121321
563.086307	2537.956301
563.442789	2536.179294
563.799216	2538.727598
564.155587	2535.720549
564.511904	2535.218954
564.868164	2536.665766
565.224370	2535.786084
565.580520	2536.360776
565.936615	2536.317926
566.292654	2536.214582
566.648638	2536.375899
567.004567	2537.610982
567.360441	2535.322298
567.716260	2538.402443
568.072023	2535.781043
568.427732	2529.298119
568.783385	2533.938501
569.138982	2528.995650
569.494525	2535.160981
569.850013	2531.843902
570.205445	2534.707277
570.560823	2533.434386
570.916145	2538.830941
571.271412	2534.122503
571.626625	2538.271373
571.981782	2537.426980
572.336884	2534.916485
572.691931	2534.868594
573.046923	2534.324150
573.401860	2536.181815
573.756743	2537.081661
574.111570	2537.268183
574.466342	2535.866743
574.821059	2536.131403
575.175722	2537.202648
575.530330	2535.256763
575.884882	2535.871784
576.239380	2536.053265
576.593823	2540.537372
576.948211	2537.379089
577.302544	2535.655014
577.656823	2536.736342
578.011047	2536.935467
578.365216	2535.405477
578.719330	2536.431352
579.073389	2535.675179
579.427394	2535.289531
579.781344	2532.980682
580.135239	2534.815662
580.489080	2535.831455
580.842866	2533.625950
581.196597	2540.570139
581.550273	2537.616023
581.903895	2537.081661
582.257463	2535.032432
582.610975	2536.111239
582.964434	2539.088040
583.317837	2537.212731
583.671186	2534.649304
584.024481	2534.782895
584.377721	2538.102494
584.730906	2537.313554
585.084037	2534.455220
585.437113	2536.940508
585.790135	2538.588966
586.143103	2538.788091
586.496016	2539.635005
586.848874	2533.542771
587.201679	2532.428676
587.554428	2530.863398
587.907124	2535.294572
588.259765	2532.572349
588.612352	2536.416228
588.964884	2535.062679
589.317362	2536.053265
589.669786	2537.023687
590.022155	2538.228523
590.374470	2536.080992
590.726731	2537.066537
591.078937	2535.793646
591.431090	2536.910262
591.783188	2533.462112
592.135232	2536.721218
592.487222	2536.312885
592.839157	2536.491846
593.191038	2537.477391
593.542866	2536.512010
593.894639	2536.000333
594.246358	2536.509490
594.598022	2535.801208
594.949633	2535.965045
595.301190	2538.639377
595.652692	2535.889428
596.004141	2538.616692
596.355535	2536.595189
596.706876	2536.784233
597.058162	2535.612164
597.409395	2536.973276
597.760573	2535.125693
598.111698	2535.007226
598.462768	2537.406815
598.813785	2535.665097
599.164748	2538.863709
599.515657	2533.608306
599.866511	2536.753986
600.217312	2533.152081
600.568060	2534.717360
600.918753	2536.900179
601.269392	2536.005374
601.619978	2537.341280
601.970510	2537.338760
602.320988	2536.431352
602.671412	2537.847916
603.021783	2535.677699
603.372100	2535.833975
603.722363	2533.961187
604.072572	2538.500746
604.422728	2536.252391
604.772830	2533.976310
605.122878	2532.484128
605.472872	2532.499252
605.822813	2532.055630
606.172701	2535.528985
606.522534	2535.891948
606.872314	2538.523431
607.222041	2536.670807
607.571714	2536.990920
607.921333	2537.605941
608.270899	2536.925385
608.620411	2537.489994
608.969870	2539.824048
609.319276	2539.161137
609.668627	2542.304296
610.017926	2542.977290
610.367171	2544.630789
610.716362	2542.342105
611.065500	2542.684903
611.414585	2539.723225
611.763616	2540.207176
612.112594	2538.704912
612.461518	2537.167360
612.810389	2539.115766
613.159207	2538.440252
613.507971	2538.195756
613.856682	2536.264994
614.205340	2539.128369
614.553945	2537.731970
614.902496	2538.384799
615.250994	2540.847403
615.599439	2535.307175
615.947830	2538.132741
616.296169	2536.653163
616.644454	2539.390509
616.992686	2537.069058
617.340864	2537.132072
617.688990	2538.238606
618.037063	2537.928575
618.385082	2537.336239
618.733048	2537.837834
619.080961	2536.343132
619.428821	2534.966897
619.776628	2535.496218
620.124382	2538.704912
620.472083	2536.701054
620.819731	2536.842206
621.167326	2539.037628
621.514868	2534.195600
621.862357	2535.874304
622.209793	2537.419418
622.557176	2539.907227
622.904506	2535.700385
623.251783	2534.177956
623.599007	2533.063861
623.946179	2531.748120
624.293297	2533.774664
624.640363	2536.270035
624.987376	2536.421270
625.334336	2539.655170
625.681243	2538.465458
626.028097	2536.726259
626.374899	2536.852288
626.721647	2535.707946
627.068343	2535.075282
627.414987	2535.541588
627.761577	2537.220292
628.108115	2534.188038
628.454600	2535.917154
628.801032	2532.171577
629.147412	2535.503780
629.493739	2536.784233
629.840014	2539.294727
630.186236	2538.220962
630.532405	2535.561753
630.878521	2536.295241
631.224585	2537.946219
631.570597	2536.537216
631.916556	2538.599048
632.262462	2536.632998
632.608316	2533.557894
632.954117	2535.773481
633.299866	2540.078627
633.645562	2534.114942
633.991206	2537.207690
634.336797	2537.268183
634.682336	2535.869263
635.027823	2537.545447
635.373257	2533.951104
635.718639	2535.382792
636.063968	2537.038811
636.409245	2535.844057
636.754470	2536.275076
637.099642	2533.991433
637.444762	2535.327339
637.789829	2535.034952
638.134845	2538.334387
638.479808	2539.077958
638.824719	2535.092926
639.169577	2538.798174
639.514383	2536.955632
639.859137	2534.271218
640.203839	2535.413039
640.548489	2536.428831
640.893086	2535.929757
641.237632	2530.782739
641.582125	2533.948584
641.926566	2528.226874
642.270955	2533.497400
642.615292	2535.952442
642.959576	2537.333718
643.303809	2534.437576
643.647990	2534.815662
643.992118	2537.366486
644.336195	2536.113759
644.680219	2534.840868
645.024192	2534.946732
645.368112	2538.432690
645.711981	2534.104859
646.055797	2536.073430
646.399562	2536.418749
646.743274	2534.430014
647.086935	2538.417567
647.430544	2535.544109
647.774101	2538.762886
648.117606	2533.565456
648.461059	2538.568801
648.804460	2536.307844
649.147810	2537.328677
649.491108	2534.072092
649.834354	2536.045704
650.177548	2536.045704
650.520690	2536.998482
650.863781	2536.907741
651.206820	2538.299099
651.549807	2535.208872
651.892742	2537.311033
652.235626	2537.021167
652.578458	2536.572504
652.921238	2534.666948
653.263967	2538.488143
653.606644	2536.474202
653.949269	2536.328008
654.291843	2534.644263
654.634365	2535.932278
654.976836	2534.916485
655.319255	2539.932433
655.661622	2533.595703
656.003938	2536.557381
656.346203	2535.725590
656.688416	2535.092926
657.030577	2533.814993
657.372687	2536.002854
657.714746	2534.876156
658.056753	2537.628626
658.398708	2530.553367
658.740612	2532.221988
659.082465	2531.622091
659.424266	2530.291227
659.766016	2531.801052
660.107715	2536.106197
660.449362	2535.854140
660.790958	2532.630322
661.132503	2535.440765
661.473996	2535.218954
661.815438	2535.410518
662.156829	2535.768440
662.498168	2536.784233
662.839456	2534.465302
663.180693	2536.827083
663.521879	2536.252391
663.863013	2536.075951
664.204097	2531.924560
664.545129	2535.221475
664.886110	2535.675179
665.227040	2538.780530
665.567918	2535.400436
665.908746	2534.520755
666.249522	2534.493028
666.590248	2534.795498
666.930922	2534.883718
667.271545	2533.424304
667.612118	2536.242309
667.952639	2538.475540
668.293109	2535.223996
668.633528	2536.365817
668.973896	2533.956145
669.314213	2537.048893
669.654480	2534.248532
669.994695	2536.171732
670.334859	2537.411856
670.674973	2533.583100
671.015035	2534.709798
671.355047	2534.366999
671.695008	2536.897659
672.034918	2536.383461
672.374777	2533.353728
672.714585	2533.719211
673.054342	2532.975641
673.394049	2537.671476
673.733705	2535.889428
674.073310	2537.454706
674.412864	2534.868594
674.752368	2531.642256
675.091820	2535.140817
675.431223	2534.961856
675.770574	2537.096784
676.109875	2530.102183
676.449125	2529.971113
676.788324	2532.514375
677.127473	2533.457071
677.466571	2529.905578
677.805619	2534.903882
678.144616	2531.576721
678.483562	2534.278779
678.822458	2536.512010
679.161303	2536.040662
679.500098	2536.199459
679.838842	2537.747093
680.177535	2538.470499
680.516179	2534.414890
680.854771	2533.746938
681.193314	2535.400436
681.531805	2537.038811
681.870247	2533.910775
682.208638	2537.800025
682.546978	2535.125693
682.885268	2533.797349
683.223508	2534.989582
683.561697	2533.424304
683.899836	2536.547298
684.237925	2535.413039
684.575963	2533.802390
684.913951	2531.939684
685.251889	2539.138452
685.589776	2534.833306
685.927614	2532.310209
686.265401	2533.527647
686.603137	2535.445806
686.940824	2533.094108
687.278460	2533.704088
687.616046	2533.951104
687.953582	2534.152750
688.291068	2531.473377
688.628504	2534.379602
688.965889	2535.849099
689.303224	2535.869263
689.640510	2535.307175
689.977745	2533.157122
690.314930	2535.592000
690.652065	2533.625950
690.989150	2536.706095
691.326185	2533.489839
691.663170	2536.784233
692.000105	2534.651825
692.336990	2534.666948
692.673825	2534.808100
693.010610	2538.530993
693.347345	2529.794673
693.684030	2534.177956
694.020665	2532.128727
694.357251	2527.727800
694.693786	2532.650487
695.030272	2534.603934
695.366707	2536.406146
695.703093	2532.405991
696.039429	2537.379089
696.375716	2534.598892
696.711952	2532.121165
697.048139	2535.327339
697.384276	2533.099149
697.720363	2535.458409
698.056400	2533.595703
698.392388	2534.062010
698.728326	2536.063348
699.064214	2534.523275
699.400053	2533.741896
699.735842	2533.651156
700.071581	2534.435055
700.407270	2532.884900
700.742910	2535.960004
701.078501	2534.596372
701.414042	2537.182484
701.749533	2533.799870
702.084974	2535.004705
702.420366	2535.145858
702.755709	2535.229037
703.091002	2536.101156
703.426246	2535.697864
703.761440	2534.286341
704.096584	2535.259284
704.431679	2534.278779
704.766725	2536.328008
705.101721	2535.503780
705.436668	2536.645601
705.771565	2531.117976
706.106413	2535.166022
706.441212	2536.885056
706.775961	2535.042514
707.110661	2535.183666
707.445311	2536.559901
707.779913	2537.242978
708.114465	2534.913965
708.448967	2534.737524
708.783421	2534.205682
709.117825	2531.569159
709.452180	2534.198121
709.786485	2532.348017
710.120742	2534.361958
710.454949	2533.434386
710.789107	2531.160826
711.123216	2529.570342
711.457275	2530.815507
711.791286	2531.957328
712.125247	2533.446989
712.459159	2533.247863
712.793023	2534.170394
713.126837	2535.269366
713.460602	2536.254912
713.794318	2532.844571
714.127985	2534.044366
714.461602	2533.807431
714.795171	2535.244160
715.128691	2534.180477
715.462162	2536.438914
715.795584	2533.489839
716.128957	2534.316588
716.462281	2534.921526
716.795556	2534.339273
717.128782	2534.361958
717.461960	2534.974458
717.795088	2532.385826
718.128167	2534.442617
718.461198	2534.175436
718.794180	2535.657535
719.127113	2534.062010
719.459997	2536.849768
719.792833	2533.106711
720.125619	2535.145858
720.458357	2530.379447
720.791046	2534.039324
721.123686	2533.925898
721.456278	2532.791639
721.788821	2533.726773
722.121315	2534.419932
722.453761	2532.035466
722.786158	2534.228368
723.118506	2532.388347
723.450805	2536.204500
723.783056	2529.887934
724.115259	2533.141999
724.447412	2532.882380
724.779518	2535.244160
725.111574	2534.997144
725.443582	2534.198121
725.775542	2536.504449
726.107453	2535.670138
726.439315	2534.130065
726.771129	2537.416898
727.102895	2537.096784
727.434612	2535.428162
727.766281	2534.553522
728.097901	2529.474560
728.429473	2529.177132
728.760996	2531.659900
729.092471	2529.419107
729.423897	2531.808614
729.755276	2532.322812
730.086606	2534.281300
730.417887	2534.031763
730.749120	2532.877338
731.080305	2534.248532
731.411442	2532.320291
731.742530	2532.237112
732.073570	2534.321629
732.404562	2534.697195
732.735506	2532.196783
733.066401	2533.714170
733.397249	2534.971938
733.728048	2536.726259
734.058798	2531.879190
734.389501	2533.840199
734.720156	2532.612678
735.050762	2534.344314
735.381320	2533.396577
735.711831	2533.462112
736.042293	2534.329191
736.372707	2530.447502
736.703073	2533.588141
737.033391	2535.481094
737.363661	2532.063192
737.693883	2535.967566
738.024056	2537.187525
738.354182	2534.009077
738.684260	2532.405991
739.014290	2531.818696
739.344272	2533.817514
739.674207	2536.212062
740.004093	2535.029911
740.333931	2532.930271
740.663722	2534.205682
740.993464	2531.402801
741.323159	2534.777853
741.652806	2532.718542
741.982405	2533.058820
742.311956	2530.800383
742.641460	2535.967566
742.970915	2531.513706
743.300323	2532.469005
743.629683	2530.911288
743.958996	2532.418593
744.288260	2535.501259
744.617477	2534.089736
744.946647	2528.239477
745.275768	2533.701567
745.604842	2526.560773
745.933869	2531.669982
746.262847	2530.336597
746.591778	2536.698533
746.920662	2534.999664
747.249498	2535.045035
747.578286	2533.618388
747.907027	2531.732997
748.235720	2530.455064
748.564365	2536.015457
748.892963	2530.371885
749.221514	2534.861032
749.550017	2530.588655
749.878473	2533.605785
750.206881	2532.466484
750.535242	2535.271887
750.863555	2534.288862
751.191821	2534.740045
751.520039	2532.244674
751.848210	2535.239119
752.176334	2533.285672
752.504411	2533.260466
752.832440	2531.856505
753.160421	2533.888090
753.488356	2532.113604
753.816243	2532.892462
754.144082	2530.530681
754.471875	2533.527647
754.799620	2533.260466
755.127318	2531.107893
755.454969	2533.515044
755.782572	2534.145189
756.110129	2534.621578
756.437638	2533.507483
756.765100	2530.278624
757.092515	2531.669982
757.419882	2533.215096
757.747203	2532.252235
758.074477	2528.247039
758.401703	2532.670651
758.728882	2532.859694
759.056014	2532.567307
759.383099	2530.344159
759.710138	2535.642411
760.037129	2535.105528
760.364073	2529.880372
760.690970	2532.980682
761.017820	2530.742410
761.344623	2533.699047
761.671379	2534.437576
761.998088	2527.962213
762.324751	2531.443130
762.651366	2527.909281
762.977935	2529.018335
763.304456	2529.661082
763.630931	2533.066382
763.957359	2532.514375
764.283740	2531.690147
764.610074	2532.428676
764.936362	2535.032432
765.262602	2532.584952
765.588796	2533.754499
765.914943	2533.298275
766.241044	2530.583613
766.567097	2528.569673
766.893104	2531.904396
767.219064	2533.257946
767.544978	2530.215609
767.870845	2533.310878
768.196665	2531.246525
768.522438	2532.814324
768.848165	2531.183511
769.173846	2532.537061
769.499479	2532.456402
769.825066	2532.337935
770.150607	2530.979344
770.476101	2533.081505
770.801548	2536.169212
771.126949	2531.271731
771.452303	2533.096629
771.777611	2531.367513
772.102872	2535.027391
772.428087	2533.802390
772.753256	2532.660569
773.078378	2532.101001
773.403453	2534.062010
773.728482	2533.232740
774.053465	2533.681402
774.378401	2531.901875
774.703291	2531.634694
775.028135	2531.969931
775.352932	2531.601927
775.677683	2532.385826
776.002388	2533.784746
776.327046	2530.160157
776.651658	2532.010260
776.976224	2533.235260
777.300743	2532.615198
777.625216	2532.746268
777.949643	2533.194931
778.274024	2532.670651
778.598359	2530.311391
778.922647	2526.860721
779.246889	2531.415404
779.571086	2527.942049
779.895236	2530.424817
780.219339	2530.147554
780.543397	2532.244674
780.867409	2533.121834
781.191374	2533.817514
781.515294	2531.130579
781.839167	2531.339787
782.162995	2532.501772
782.486776	2533.147040
782.810511	2529.892975
783.134201	2534.142668
783.457844	2533.114273
783.781441	2533.862884
784.104993	2533.547812
784.428498	2532.393388
784.751958	2531.163346
785.075372	2533.714170
785.398739	2532.842050
785.722061	2533.215096
786.045337	2529.129241
786.368568	2533.754499
786.691752	2534.616537
787.014891	2531.496062
787.337983	2532.612678
787.661030	2533.262987
787.984031	2531.828778
788.306987	2532.292565
788.629897	2530.936494
788.952760	2530.036648
789.275579	2530.598737
789.598351	2533.446989
789.921078	2531.843902
790.243759	2533.620909
790.566395	2528.715866
790.888984	2533.121834
791.211529	2529.232584
791.534027	2533.250384
791.856480	2531.901875
792.178888	2529.978675
792.501249	2533.870446
792.823566	2530.618902
793.145836	2531.725435
793.468062	2532.610157
793.790241	2532.257277
794.112375	2534.674510
794.434464	2532.022863
794.756507	2531.347348
795.078505	2534.450178
795.400457	2528.332738
795.722364	2525.544980
796.044226	2529.955990
796.366042	2529.414066
796.687812	2529.156967
797.009538	2530.812986
797.331218	2528.332738
797.652852	2531.276772
797.974442	2531.957328
798.295986	2532.511855
798.617484	2530.606299
798.938938	2532.312729
799.260346	2532.529499
799.581709	2530.346679
799.903026	2532.874818
800.224299	2530.913809
800.545526	2534.082174
800.866708	2529.000691
801.187845	2533.371372
801.508936	2533.817514
801.829983	2532.773995
802.150984	2530.727286
802.471940	2532.196783
802.792851	2532.418593
803.113717	2533.706608
803.434538	2533.076464
803.755314	2530.429858
804.076045	2528.990609
804.396731	2531.962369
804.717372	2529.532533
805.037967	2532.070754
805.358518	2534.036804
805.679024	2530.780218
805.999485	2528.947759
806.319901	2530.465146
806.640272	2530.157636
806.960598	2528.725948
807.280879	2529.890455
807.601115	2532.877338
807.921306	2531.584282
808.241453	2531.548994
808.561554	2531.669982
808.881611	2531.327184
809.201623	2532.602596
809.521590	2532.274921
809.841513	2530.959179
810.161390	2533.331042
810.481223	2531.846423
810.801011	2532.194262
811.120755	2530.641587
811.440453	2531.102852
811.760107	2533.401618
812.079716	2529.797193
812.399281	2526.361647
812.718801	2527.082532
813.038276	2527.117820
813.357707	2529.955990
813.677093	2531.049920
813.996434	2532.055630
814.315731	2532.257277
814.634983	2531.725435
814.954191	2532.020342
815.273354	2531.677544
815.592473	2529.507327
815.911547	2534.490508
816.230577	2532.050589
816.549562	2533.199972
816.868502	2529.167049
817.187399	2531.589324
817.506250	2530.039169
817.825058	2533.441948
818.143821	2532.748789
818.462539	2533.323481
818.781213	2530.233253
819.099843	2531.029756
819.418429	2531.322142
819.736970	2529.139323
820.055466	2532.315250
820.373919	2531.213758
820.692327	2530.059333
821.010691	2529.577903
821.329011	2531.952287
821.647286	2532.942873
821.965517	2531.254087
822.283704	2532.237112
822.601847	2528.249559
822.919945	2529.217461
823.237999	2531.047400
823.556010	2532.002698
823.873976	2528.194107
824.191897	2530.994468
824.509775	2529.877852
824.827609	2530.422297
825.145398	2532.796680
825.463144	2532.370703
825.780845	2531.332225
826.098502	2531.838861
826.416116	2530.417255
826.733685	2530.346679
827.051210	2528.748633
827.368692	2531.518748
827.686129	2530.928932
828.003522	2532.151412
828.320872	2527.858870
828.638177	2527.911802
828.955439	2528.095804
829.272656	2528.725948
829.589830	2525.658406
829.906960	2532.136289
830.224046	2529.686288
830.541088	2529.966072
830.858086	2528.168901
831.175041	2531.957328
831.491952	2533.394057
831.808819	2530.160157
832.125642	2531.659900
832.442421	2532.597554
832.759157	2529.855167
833.075849	2531.566638
833.392497	2528.907430
833.709101	2532.456402
834.025662	2531.087729
834.342179	2529.083870
834.658653	2530.087060
834.975083	2529.842564
835.291469	2536.149047
835.607811	2530.354241
835.924110	2531.493542
836.240366	2528.617563
836.556578	2529.328366
836.872746	2532.758871
837.188871	2530.737369
837.504952	2530.883562
837.820990	2528.395753
838.136984	2530.238294
838.452935	2528.476411
838.768842	2530.432379
839.084706	2530.941535
839.400526	2530.553367
839.716303	2528.720907
840.032037	2527.576565
840.347727	2525.481966
840.663373	2533.094108
840.978977	2529.489683
841.294537	2530.477749
841.610054	2530.497914
841.925527	2529.625794
842.240957	2529.729138
842.556344	2528.627646
842.871687	2533.136958
843.186987	2532.221988
843.502244	2532.184180
843.817458	2532.141330
844.132629	2529.703932
844.447756	2531.942204
844.762840	2524.743437
845.077881	2530.578572
845.392879	2527.450536
845.707833	2531.299457
846.022745	2527.742923
846.337613	2529.464477
846.652438	2531.145702
846.967221	2530.631504
847.281960	2531.037317
847.596656	2530.661751
847.911309	2528.383150
848.225919	2529.661082
848.540485	2531.228881
848.855009	2531.430527
849.169490	2528.408356
849.483928	2528.627646
849.798323	2528.226874
850.112675	2530.177801
850.426984	2531.433048
850.741251	2531.367513
851.055474	2529.219981
851.369654	2529.403983
851.683792	2531.785929
851.997887	2527.677388
852.311938	2530.276103
852.625947	2531.140661
852.939914	2529.789632
853.253837	2528.972965
853.567718	2533.686444
853.881555	2530.583613
854.195350	2531.823737
854.509103	2528.617563
854.822812	2529.403983
855.136479	2530.477749
855.450103	2531.695188
855.763685	2529.673685
856.077224	2529.335928
856.390720	2530.931453
856.704173	2527.788294
857.017584	2526.777542
857.330953	2531.372554
857.644278	2528.037831
857.957561	2531.410363
858.270802	2530.450023
858.584000	2531.420445
858.897155	2527.543798
859.210268	2530.089580
859.523339	2530.628984
859.836367	2528.103366
860.149352	2530.273582
860.462295	2533.784746
860.775195	2525.091276
861.088054	2525.192099
861.400869	2527.672347
861.713642	2525.517254
862.026373	2528.330218
862.339062	2529.724097
862.651708	2527.959693
862.964312	2528.756195
863.276873	2529.487163
863.589392	2528.486493
863.901869	2530.722245
864.214303	2530.323994
864.526696	2528.146216
864.839045	2530.870959
865.151353	2527.846267
865.463619	2530.911288
865.775842	2530.326515
866.088023	2529.724097
866.400162	2533.063861
866.712258	2528.909950
867.024313	2531.095291
867.336325	2527.876514
867.648296	2531.246525
867.960224	2529.323325
868.272110	2529.633356
868.583954	2529.497245
868.895755	2530.727286
869.207515	2529.222502
869.519233	2528.700742
869.830909	2531.286854
870.142542	2527.412728
870.454134	2529.915661
870.765684	2526.817872
871.077191	2530.286185
871.388657	2531.579241
871.700081	2531.937163
872.011463	2531.412883
872.322803	2528.746113
872.634101	2531.375075
872.945357	2531.191073
873.256571	2530.079498
873.567744	2527.871473
873.878874	2531.289375
874.189963	2531.092770
874.501010	2531.569159
874.812015	2528.312574
875.122979	2530.762574
875.433900	2527.967255
875.744780	2529.875331
876.055618	2530.087060
876.366415	2531.107893
876.677169	2529.782070
876.987882	2528.047913
877.298554	2523.783097
877.609183	2528.136133
877.919771	2525.229908
878.230317	2528.728469
878.540822	2531.685106
878.851285	2528.347862
879.161707	2529.444313
879.472087	2530.263500
879.782425	2527.483304
880.092722	2528.534384
880.402977	2527.947090
880.713191	2530.283665
881.023363	2527.221164
881.333494	2530.293747
881.643583	2527.637059
881.953631	2528.196627
882.263637	2529.466998
882.573602	2529.797193
882.883526	2527.821061
883.193408	2528.829292
883.503248	2527.768129
883.813048	2528.514220
884.122806	2527.569003
884.432522	2529.421627
884.742197	2526.016328
885.051831	2527.649662
885.361424	2531.904396
885.670975	2526.548170
885.980485	2530.326515
886.289954	2527.689991
886.599382	2527.354754
886.908768	2531.312060
887.218113	2529.149405
887.527417	2527.561442
887.836680	2530.102183
888.145901	2530.853315
888.455082	2526.928777
888.764221	2527.264014
889.073319	2528.284847
889.382376	2527.571524
889.691392	2527.092614
890.000366	2530.898686
890.309300	2525.116482
890.618193	2529.840043
890.927044	2524.448529
891.235855	2529.333407
891.544625	2531.337266
891.853353	2528.234436
892.162041	2528.453726
892.470687	2530.984385
892.779293	2531.702750
893.087858	2525.340813
893.396381	2523.692356
893.704864	2525.227388
894.013306	2524.088087
894.321707	2529.519930
894.630068	2527.896678
894.938387	2528.310053
895.246665	2529.179652
895.554903	2525.814682
895.863100	2527.238808
896.171256	2529.285516
896.479371	2530.906247
896.787446	2529.824920
897.095480	2530.316432
897.403473	2531.980013
897.711425	2529.482121
898.019336	2528.302491
898.327207	2526.555732
898.635038	2529.661082
898.942827	2527.208561
899.250576	2527.967255
899.558284	2526.812830
899.865952	2528.947759
900.173579	2527.148067
900.481165	2528.862059
900.788711	2527.596730
901.096216	2528.405835
901.403681	2529.038500
901.711105	2526.921215
902.018489	2527.395084
902.325832	2530.139992
902.633135	2529.653521
902.940397	2528.027748
903.247619	2529.177132
903.554800	2529.177132
903.861941	2528.514220
904.169041	2526.333921
904.476101	2528.582275
904.783121	2529.310722
905.090100	2526.787625
905.397039	2529.789632
905.703938	2525.860052
906.010796	2528.007584
906.317614	2528.536905
906.624391	2529.792152
906.931129	2526.054137
907.237826	2527.359796
907.544483	2529.645959
907.851099	2530.666793
908.157675	2528.975485
908.464211	2530.795342
908.770707	2522.258148
909.077163	2527.616894
909.383578	2525.219826
909.689954	2523.402490
909.996289	2522.986595
910.302584	2529.472039
910.608839	2526.255783
910.915054	2526.530526
911.221229	2527.074970
911.527363	2528.501617
911.833458	2530.573531
912.139513	2526.059178
912.445527	2529.068747
912.751502	2530.316432
913.057436	2530.082019
913.363331	2529.010773
913.669186	2526.911133
913.975000	2530.318953
914.280775	2524.206554
914.586510	2528.995650
914.892205	2526.911133
915.197859	2525.487007
915.503475	2527.422810
915.809050	2529.114117
916.114585	2529.106555
916.420081	2528.315094
916.725536	2528.226874
917.030952	2529.552698
917.336328	2528.153777
917.641665	2527.871473
917.946961	2530.243336
918.252218	2525.751667
918.557435	2528.431041
918.862612	2528.514220
919.167750	2528.867101
919.472848	2529.066226
919.777906	2525.305525
920.082925	2529.950949
920.387904	2530.626463
920.692843	2528.975485
920.997743	2527.684950
921.302603	2526.185207
921.607423	2528.612522
921.912204	2528.481452
922.216946	2529.731658
922.521647	2529.882893
922.826310	2528.163860
923.130932	2528.975485
923.435516	2528.355423
923.740059	2527.657224
924.044564	2526.470032
924.349028	2527.460619
924.653454	2522.588343
924.957840	2524.929959
925.262186	2525.557583
925.566493	2524.241842
925.870761	2524.871986
926.174989	2525.391225
926.479178	2528.781401
926.783328	2528.209230
927.087438	2527.637059
927.391509	2529.378778
927.695541	2525.106400
927.999533	2528.461288
928.303486	2527.367357
928.607400	2527.458098
928.911275	2528.327697
929.215110	2527.614374
929.518906	2529.232584
929.822663	2529.711494
930.126381	2527.821061
930.430060	2527.440454
930.733699	2527.987419
931.037299	2529.330887
931.340861	2527.027079
931.644383	2528.131092
931.947866	2527.647141
932.251309	2525.527336
932.554714	2527.253931
932.858080	2527.695032
933.161407	2525.348375
933.464694	2527.100176
933.767943	2528.282327
934.071153	2528.458767
934.374323	2526.336441
934.677455	2528.241997
934.980548	2527.780732
935.283602	2530.414735
935.586617	2529.608150
935.889593	2526.071781
936.192530	2528.723428
936.495428	2526.744775
936.798287	2528.133613
937.101108	2526.664116
937.403890	2525.935670
937.706632	2531.927081
938.009336	2526.429703
938.312002	2528.448685
938.614628	2526.293592
938.917216	2527.652183
939.219765	2526.278468
939.522275	2527.652183
939.824747	2529.703932
940.127179	2526.885927
940.429573	2522.338806
940.731929	2526.948942
941.034246	2522.056502
941.336524	2528.093283
941.638763	2523.614218
941.940964	2527.422810
942.243126	2526.974147
942.545250	2528.446164
942.847335	2528.121010
943.149381	2525.749147
943.451389	2528.400794
943.753359	2527.884076
944.055290	2526.956503
944.357182	2528.166380
944.659036	2529.028417
944.960851	2527.274096
945.262628	2526.659075
945.564367	2525.751667
945.866067	2528.171421
946.167729	2526.477594
946.469352	2525.134126
946.770937	2529.789632
947.072484	2525.461801
947.373992	2528.766278
947.675462	2528.073119
947.976893	2527.354754
948.278286	2527.818541
948.579641	2527.158149
948.880958	2524.322500
949.182236	2530.540764
949.483476	2527.742923
949.784678	2528.985568
950.085841	2529.499765
950.386967	2527.745444
950.688054	2526.160001
950.989103	2528.282327
951.290114	2526.409538
951.591087	2526.913653
951.892021	2527.639580
952.192917	2527.947090
952.493776	2525.693694
952.794596	2528.647810
953.095378	2527.828623
953.396122	2526.843077
953.696828	2530.021525
953.997496	2527.117820
954.298126	2527.460619
954.598718	2531.206196
954.899272	2526.459950
955.199788	2525.166894
955.500266	2527.223684
955.800706	2525.411390
956.101108	2524.675381
956.401472	2521.292767
956.701798	2522.177489
957.002087	2523.800741
957.302337	2526.210412
957.602550	2527.122861
957.902724	2525.108920
958.202861	2526.457429
958.502960	2527.516071
958.803022	2525.930628
959.103045	2527.059847
959.403031	2527.412728
959.702979	2527.092614
960.002889	2526.434744
960.302762	2528.927594
960.602596	2524.327542
960.902393	2527.541277
961.202153	2526.122192
961.501875	2527.813499
961.801559	2527.165711
962.101205	2523.974661
962.400814	2525.587830
962.700385	2525.408869
962.999918	2526.896009
963.299414	2527.868952
963.598873	2525.237470
963.898293	2524.879548
964.197677	2527.579086
964.497022	2524.133457
964.796331	2527.987419
965.095601	2529.494724
965.394835	2525.940711
965.694030	2524.793848
965.993189	2526.245701
966.292309	2527.561442
966.591393	2526.923736
966.890439	2527.077491
967.189447	2525.005577
967.488419	2523.866276
967.787353	2524.990453
968.086249	2527.460619
968.385108	2527.632018
968.683930	2526.555732
968.982714	2526.190248
969.281462	2527.853829
969.580172	2527.132944
969.878844	2526.467511
970.177480	2528.914992
970.476078	2525.991122
970.774639	2528.705784
971.073162	2524.312418
971.371649	2523.226049
971.670098	2522.946265
971.968510	2521.955679
972.266885	2521.204547
972.565223	2528.710825
972.863524	2525.595392
973.161788	2527.753006
973.460014	2525.199661
973.758204	2524.695546
974.056356	2525.333252
974.354471	2528.436082
974.652550	2526.681760
974.950591	2528.783922
975.248595	2526.830474
975.546563	2524.826616
975.844493	2528.274765
976.142386	2525.701256
976.440243	2527.155629
976.738062	2528.393232
977.035845	2524.914836
977.333590	2526.157480
977.631299	2527.523633
977.928971	2528.131092
978.226606	2526.608664
978.524204	2526.487676
978.821765	2525.587830
979.119290	2524.103210
979.416777	2525.406348
979.714228	2525.234949
980.011642	2525.857532
980.309020	2530.087060
980.606360	2528.985568
980.903664	2526.580937
981.200931	2527.125382
981.498162	2527.379960
981.795356	2527.052285
982.092513	2526.056657
982.389633	2523.939373
982.686717	2526.848118
982.983764	2526.248221
983.280775	2527.016997
983.577749	2526.661596
983.874686	2527.080012
984.171587	2527.208561
984.468451	2525.003056
984.765279	2524.788807
985.062070	2527.657224
985.358824	2524.531708
985.655543	2527.931967
985.952224	2524.350227
986.248869	2525.436595
986.545478	2522.038858
986.842050	2526.432223
987.138586	2520.823940
987.435086	2525.272758
987.731549	2520.549197
988.027975	2526.896009
988.324366	2526.911133
988.620719	2526.076822
988.917037	2527.505989
989.213318	2526.089425
989.509563	2521.625483
989.805772	2526.336441
990.101944	2526.696884
990.398080	2526.832995
990.694180	2526.409538
990.990244	2526.369209
991.286271	2523.382325
991.582262	2527.503468
991.878217	2526.457429
992.174136	2529.280475
992.470019	2524.806451
992.765865	2525.015659
993.061676	2526.787625
993.357450	2526.782583
993.653188	2523.657068
993.948890	2525.499610
994.244556	2525.532377
994.540186	2527.586647
994.835780	2523.979702
995.131337	2527.798376
995.426859	2525.935670
995.722345	2525.668488
996.017795	2524.589682
996.313208	2524.554393
996.608586	2524.733354
996.903928	2525.633200
997.199234	2526.074301
997.494504	2526.071781
997.789738	2523.352078
998.084936	2525.522295
998.380099	2523.775535
998.675225	2523.490710
998.970316	2527.069929
999.265371	2525.305525
999.560390	2526.180166
999.855373	2528.874662
1000.150320	2525.519774
1000.445232	2524.935001
1000.740108	2524.584640
1001.034948	2525.630680
1001.329752	2525.318128
1001.624521	2527.032121
1001.919254	2520.403003
1002.213951	2523.778056
1002.508613	2521.678415
1002.803239	2524.594723
1003.097829	2520.942407
1003.392384	2525.552542
1003.686903	2526.810310
1003.981386	2526.543129
1004.275834	2522.505164
1004.570246	2524.682943
1004.864623	2527.122861
1005.158964	2526.477594
1005.453270	2525.965917
1005.747540	2524.370391
1006.041775	2524.874507
1006.335974	2528.426000
1006.630138	2523.241173
1006.924266	2525.597912
1007.218359	2524.720752
1007.512416	2526.066740
1007.806438	2525.643283
1008.100425	2526.870804
1008.394376	2523.722603
1008.688292	2524.874507
1008.982172	2527.160670
1009.276017	2524.420803
1009.569827	2522.853004
1009.863602	2526.175124
1010.157341	2526.336441
1010.451045	2524.332583
1010.744714	2526.961544
1011.038347	2526.943900
1011.331945	2522.240504
1011.625508	2526.747295
1011.919036	2523.462984
1012.212528	2524.660258
1012.505986	2521.005421
1012.799408	2525.290402
1013.092795	2526.207892
1013.386147	2527.652183
1013.679464	2525.305525
1013.972745	2528.801566
1014.265992	2525.426513
1014.559204	2526.946421
1014.852380	2526.112110
1015.145521	2523.533560
1015.438628	2524.249404
1015.731699	2523.276461
1016.024736	2524.277130
1016.317737	2526.885927
1016.610703	2525.562624
1016.903635	2521.713703
1017.196531	2522.578261
1017.489393	2521.733868
1017.782219	2519.724968
1018.075011	2524.859383
1018.367768	2523.997346
1018.660490	2523.974661
1018.953177	2523.974661
1019.245829	2523.974661
