Dividing Wavelength (nm)	Counts (n)	Blue Motor Position (mm): 0.000000	Red Motor Position (mm): 18.200000	
326.493990	2127.956738
326.888308	2127.956738
327.282561	2127.956738
327.676750	2095.814341
328.070874	2096.159660
328.464933	2098.720566
328.858929	2106.171392
329.252859	2115.648761
329.646726	2124.833743
330.040528	2139.705147
330.434265	2156.469504
330.827938	2173.710250
331.221547	2191.049299
331.615091	2209.348688
332.008571	2229.667058
332.401986	2248.815881
332.795338	2266.795156
333.188625	2287.597478
333.581847	2304.747483
333.975006	2326.215237
334.368100	2343.697958
334.761129	2358.100535
335.154095	2377.335057
335.546996	2393.315515
335.939833	2408.222207
336.332606	2424.547983
336.725315	2437.213882
337.117960	2446.469441
337.510540	2452.488579
337.903056	2466.828141
338.295508	2471.244192
338.687896	2481.029071
339.080220	2494.471308
339.472480	2495.277893
339.864676	2503.346259
340.256807	2505.738287
340.648875	2507.812722
341.040879	2511.230624
341.432818	2512.886643
341.824694	2514.625841
342.216506	2515.918897
342.608253	2516.705317
342.999937	2514.227590
343.391557	2514.716582
343.783113	2512.876561
344.174605	2513.007631
344.566033	2510.754235
344.957397	2508.894049
345.348697	2508.503360
345.739934	2506.930520
346.131106	2504.916579
346.522215	2501.932216
346.913260	2497.591782
347.304241	2499.225116
347.695159	2496.845691
348.086012	2492.500217
348.476802	2492.321256
348.867528	2491.973416
349.258191	2492.913591
349.648789	2489.815802
350.039324	2488.026193
350.429796	2488.986533
350.820203	2487.673312
351.210548	2484.998980
351.600828	2481.659215
351.991045	2487.191882
352.381198	2482.906901
352.771288	2484.814978
353.161314	2482.133084
353.551276	2483.186685
353.941175	2484.968733
354.331010	2483.506798
354.720782	2481.260964
355.110490	2482.468321
355.500135	2483.703403
355.889717	2482.279277
356.279235	2481.639051
356.668689	2483.232055
357.058080	2482.312045
357.447408	2480.961016
357.836672	2482.052425
358.225873	2485.061994
358.615010	2481.286170
359.004084	2488.338744
359.393095	2485.374546
359.782043	2485.654330
360.170927	2490.135916
360.559748	2489.319249
360.948505	2489.140288
361.337199	2490.808910
361.725830	2487.640544
362.114398	2493.432830
362.502903	2491.986019
362.891344	2492.943838
363.279722	2491.353354
363.668037	2491.882675
364.056289	2495.466936
364.444478	2496.424755
364.832603	2497.974910
365.220665	2496.351658
365.608665	2494.582213
365.996601	2498.640342
366.384474	2499.958604
366.772284	2501.241578
367.160031	2497.889210
367.547715	2502.605210
367.935336	2505.997906
368.322893	2510.119049
368.710388	2509.514111
369.097820	2519.495596
369.485189	2521.925432
369.872495	2527.843746
370.259738	2533.578059
370.646918	2540.471837
371.034035	2549.021634
371.421090	2557.664692
371.808081	2566.872359
372.195010	2578.567836
372.581875	2591.826071
372.968678	2601.981475
373.355418	2615.227107
373.742096	2630.537091
374.128710	2648.634834
374.515262	2662.157729
374.901751	2678.554082
375.288177	2691.154446
375.674540	2713.582539
376.060841	2733.535426
376.447079	2748.666449
376.833254	2767.911054
377.219367	2783.112654
377.605417	2820.407110
377.991404	2831.253152
378.377329	2853.046060
378.763191	2868.444265
379.148991	2911.271387
379.534727	2929.686722
379.920402	2962.958338
380.306013	2971.281283
380.691563	3022.932945
381.077049	3041.441541
381.462474	3061.585992
381.847835	3101.786673
382.233134	3123.882051
382.618371	3119.977677
383.003545	3190.100127
383.388657	3196.126827
383.773706	3229.688308
384.158693	3247.763365
384.543618	3270.607354
384.928480	3308.773930
385.313280	3352.684900
385.698017	3349.582070
386.082692	3404.386974
386.467305	3411.283273
386.851856	3443.433231
387.236344	3464.674133
387.620770	3497.950790
388.005133	3520.802340
388.389435	3551.253430
388.773674	3559.835994
389.157851	3603.593210
389.541965	3617.736167
389.926018	3579.312492
390.310008	3652.623472
390.693936	3671.933612
391.077802	3709.235630
391.461606	3702.099876
391.845348	3763.453239
392.229027	3760.110954
392.612645	3776.028398
392.996200	3853.445397
393.379694	3894.099782
393.763125	3957.784679
394.146494	3929.130760
394.529801	3986.320130
394.913047	4035.610012
395.296230	4000.211030
395.679351	4056.797982
396.062410	4079.503338
396.445408	4060.062129
396.828343	4096.676029
397.211217	4115.114049
397.594028	4033.689332
397.976778	4100.419086
398.359466	4125.158548
398.742092	4157.701717
399.124656	4081.696240
399.507158	4158.278929
399.889598	4180.470088
400.271977	4243.731528
400.654294	4215.468299
401.036549	4226.503385
401.418742	4192.926779
401.800874	4295.849497
402.182944	4315.114266
402.564952	4381.193711
402.946898	4365.682081
403.328783	4356.247561
403.710606	4268.007204
404.092367	4457.042912
404.474067	4413.530192
404.855705	4419.597221
405.237282	4341.524871
405.618797	4442.602527
406.000250	4471.425324
406.381642	4540.514337
406.762972	4496.373994
407.144240	4497.167976
407.525447	4485.205318
407.906593	4532.511505
408.287677	4559.660639
408.668700	4477.736848
409.049661	4513.549205
409.430560	4534.364129
409.811399	4448.026808
410.192176	4578.466664
410.572891	4501.768029
410.953545	4572.291250
411.334138	4448.064617
411.714669	4481.578208
412.095139	4369.402452
412.475547	4463.881237
412.855894	4421.253240
413.236180	4403.112648
413.616405	4338.613605
413.996568	4379.356210
414.376670	4303.769150
414.756711	4238.098038
415.136691	4231.436154
415.516609	4255.235441
415.896466	4249.291921
416.276262	4240.222885
416.655997	4189.821429
417.035670	4272.456023
417.415283	4295.887306
417.794834	4216.365624
418.174324	4151.251561
418.553753	4048.321281
418.933121	4116.344091
419.312428	4112.623719
419.691674	4025.777241
420.070859	4047.280283
420.449983	3959.884319
420.829045	3971.161381
421.208047	3878.933471
421.586988	3861.397817
421.965867	3820.377948
422.344686	3828.353054
422.723444	3723.953278
423.102141	3598.662961
423.480777	3673.133406
423.859352	3541.599620
424.237866	3587.247268
424.616319	3543.618602
424.994712	3536.157695
425.373044	3447.055300
425.751314	3445.734518
426.129524	3345.392871
426.507673	3352.216073
426.885762	3334.703105
427.263789	3273.493415
427.641756	3207.940771
428.019662	3195.259748
428.397508	3159.643996
428.775292	3109.532406
429.153016	3091.996753
429.530679	3046.366749
429.908282	3026.297915
430.285824	2978.719505
430.663305	2985.414158
431.040726	2920.610125
431.418086	2893.481155
431.795385	2880.603528
432.172624	2855.501102
432.549802	2831.432113
432.926920	2810.435707
433.303977	2788.526853
433.680974	2771.452465
434.057910	2753.936976
434.434786	2735.529202
434.811601	2718.099413
435.188355	2712.675132
435.565050	2691.817357
435.941683	2679.088444
436.318257	2670.026970
436.694770	2658.104641
437.071222	2646.751963
437.447614	2633.604633
437.823946	2622.279681
438.200218	2618.849176
438.576429	2608.981117
438.952580	2601.810076
439.328670	2597.696495
439.704700	2589.063519
440.080670	2583.278795
440.456580	2584.375246
440.832429	2578.104050
441.208218	2570.675910
441.583947	2571.989131
441.959616	2567.086608
442.335224	2564.225754
442.710773	2562.408418
443.086261	2558.836760
443.461689	2556.293498
443.837057	2556.187634
444.212365	2556.250648
444.587612	2556.575803
444.962800	2554.874413
445.337927	2552.621018
445.712995	2551.580019
446.088002	2551.643034
446.462949	2551.096068
446.837837	2547.534493
447.212664	2551.905174
447.587431	2550.844011
447.962139	2551.610266
448.336786	2558.612429
448.711374	2556.795093
449.085901	2548.938455
449.460369	2546.770758
449.834776	2549.881150
450.209124	2549.051881
450.583412	2550.861655
450.957640	2550.080276
451.331808	2548.754453
451.705917	2544.540048
452.079965	2546.503577
452.453954	2546.957281
452.827883	2546.654812
453.201752	2546.707744
453.575562	2544.875285
453.949311	2549.508105
454.323001	2546.896787
454.696632	2545.775131
455.070202	2549.374514
455.443713	2548.661191
455.817164	2546.564071
456.190556	2545.860830
456.563888	2548.709082
456.937160	2545.336550
457.310373	2549.311500
457.683526	2548.504915
458.056619	2546.480892
458.429653	2547.035419
458.802628	2545.528114
459.175542	2547.650440
459.548398	2549.971891
459.921194	2549.724875
460.293930	2552.484906
460.666607	2552.167314
461.039224	2553.493137
461.411782	2555.045813
461.784280	2557.770556
462.156719	2554.942469
462.529099	2555.731409
462.901419	2549.092210
463.273680	2553.533466
463.645882	2554.937428
464.018024	2551.184289
464.390106	2551.247303
464.762130	2556.971533
465.134094	2556.699311
465.505999	2562.506720
465.877845	2566.494273
466.249631	2569.546692
466.621358	2568.868656
466.993026	2568.757751
467.364634	2569.536609
467.736184	2564.871021
468.107674	2560.868345
468.479105	2564.026628
468.850477	2560.933880
469.221790	2560.268448
469.593043	2561.495969
469.964238	2559.688715
470.335373	2559.592933
470.706449	2559.555125
471.077467	2561.417831
471.448425	2567.527709
471.819324	2569.216496
472.190164	2571.779923
472.560945	2565.173491
472.931667	2562.083263
473.302330	2565.392781
473.672934	2561.145609
474.043479	2561.798438
474.413965	2560.061761
474.784393	2557.523540
475.154761	2560.749878
475.525070	2559.529919
475.895321	2560.553273
476.265513	2560.850701
476.635645	2565.523851
477.005719	2563.593089
477.375734	2565.589386
477.745691	2567.247925
478.115588	2565.745662
478.485427	2568.659448
478.855207	2571.290931
479.224928	2573.216652
479.594591	2576.604307
479.964194	2576.238823
480.333739	2578.799729
480.703226	2576.523648
481.072653	2578.172106
481.442022	2579.921386
481.811333	2579.381983
482.180584	2578.381314
482.549777	2578.749318
482.918912	2577.438618
483.287988	2575.959039
483.657005	2576.188412
484.025964	2577.955336
484.394864	2577.844431
484.763706	2571.825293
485.132489	2571.795046
485.501213	2572.838565
485.869879	2573.816549
486.238487	2569.425704
486.607036	2574.976014
486.975527	2574.456775
487.343959	2573.090623
487.712333	2573.171281
488.080648	2571.646332
488.448905	2574.761765
488.817104	2571.432083
489.185244	2571.585838
489.553326	2575.144893
489.921350	2575.767475
490.289315	2580.327199
490.657222	2582.681418
491.025070	2578.956005
491.392861	2577.368042
491.760593	2575.338977
492.128267	2576.158165
492.495883	2574.920562
492.863440	2570.890159
493.230939	2572.006775
493.598380	2572.581466
493.965763	2564.450085
494.333088	2566.274983
494.700354	2566.688357
495.067563	2571.159861
495.434713	2565.710373
495.801805	2571.880746
496.168839	2569.317319
496.535815	2570.028122
496.902733	2569.032494
497.269593	2569.375292
497.636395	2567.005950
498.003139	2571.321178
498.369825	2568.992165
498.736453	2571.699264
499.103023	2566.388409
499.469535	2569.955025
499.835989	2567.704150
500.202385	2568.946794
500.568723	2567.900755
500.935003	2569.851681
501.301226	2567.104252
501.667390	2570.398647
502.033497	2573.526682
502.399546	2571.976528
502.765537	2569.778585
503.131470	2571.462330
503.497345	2573.559450
503.863163	2570.454099
504.228923	2572.210941
504.594625	2573.501477
504.960269	2570.398647
505.325856	2571.898390
505.691385	2568.057031
506.056856	2574.209759
506.422270	2573.604820
506.787625	2571.991651
507.152924	2569.947463
507.518164	2573.498956
507.883347	2571.348904
508.248472	2574.459296
508.613540	2572.977197
508.978550	2571.870663
509.343503	2571.051476
509.708398	2573.808987
510.073236	2573.866960
510.438016	2574.696230
510.802738	2572.299162
511.167403	2572.921744
511.532010	2570.368400
511.896561	2574.093812
512.261053	2575.099522
512.625488	2568.293965
512.989866	2569.098029
513.354186	2573.509038
513.718449	2566.521999
514.082655	2572.526013
514.446803	2572.100036
514.810894	2572.548699
515.174927	2577.075655
515.538904	2573.473750
515.902822	2573.637588
516.266684	2572.510890
516.630488	2572.926785
516.994235	2571.283369
517.357925	2575.137331
517.721558	2574.693710
518.085133	2572.707495
518.448651	2574.391240
518.812112	2575.104564
519.175516	2573.561971
519.538863	2572.896538
519.902152	2573.751014
520.265385	2575.399471
520.628560	2574.282856
520.991678	2571.648853
521.354739	2575.472568
521.717743	2576.208576
522.080690	2574.391240
522.443580	2576.480799
522.806413	2576.329564
523.169189	2575.780078
523.531908	2574.363514
523.894569	2575.051632
524.257174	2576.430387
524.619722	2575.180181
524.982213	2573.967783
525.344647	2573.751014
525.707025	2574.494584
526.069345	2573.672876
526.431608	2576.175809
526.793815	2576.435428
527.155964	2574.056004
527.518057	2574.640777
527.880093	2579.828125
528.242072	2575.412074
528.603995	2575.459965
528.965860	2574.103895
529.327669	2574.378637
529.689421	2574.053483
530.051117	2574.839903
530.412755	2574.734039
530.774337	2573.383010
531.135862	2573.536765
531.497331	2569.753379
531.858743	2570.416291
532.220098	2572.853688
532.581396	2570.333112
532.942638	2572.833524
533.303824	2572.089954
533.664953	2575.868298
534.026025	2572.957032
534.387040	2574.416446
534.747999	2573.463668
535.108902	2575.893504
535.469748	2573.531724
535.830537	2572.848647
536.191270	2572.954512
536.551947	2572.810839
536.912567	2572.518452
537.273131	2572.430232
537.633638	2572.687330
537.994089	2573.635067
538.354483	2568.329253
538.714821	2573.317475
539.075103	2574.232444
539.435328	2573.902248
539.795497	2573.728329
540.155609	2575.628844
540.515665	2573.519121
540.875665	2571.525344
541.235609	2569.806311
541.595496	2574.013154
541.955328	2574.353432
542.315102	2575.795202
542.674821	2574.340829
543.034483	2573.330077
543.394090	2572.427711
543.753640	2572.773030
544.113134	2571.467371
544.472571	2574.900397
544.831953	2574.131621
545.191278	2575.379307
545.550548	2571.853019
545.909761	2574.741601
546.268918	2570.869994
546.628019	2573.877043
546.987064	2573.209090
547.346053	2572.024419
547.704986	2571.071641
548.063863	2575.076837
548.422684	2571.174984
548.781449	2573.015005
549.140158	2573.509038
549.498811	2573.609862
549.857408	2571.825293
550.215949	2571.023750
550.574434	2568.563667
550.932864	2569.198852
551.291237	2567.807493
551.649555	2572.405026
552.007817	2572.397464
552.366022	2575.154975
552.724173	2574.096333
553.082267	2573.685479
553.440305	2573.814028
553.798288	2572.591548
554.156215	2572.362176
554.514086	2572.205900
554.871902	2572.132803
555.229661	2572.500808
555.587365	2573.451065
555.945014	2571.333781
556.302606	2574.509708
556.660143	2572.674727
557.017625	2574.229923
557.375050	2569.687844
557.732421	2574.335788
558.089735	2573.967783
558.446994	2572.984758
558.804197	2572.672207
559.161345	2572.158009
559.518437	2576.105233
559.875474	2572.871332
560.232455	2573.168761
560.589381	2571.616085
560.946251	2572.210941
561.303065	2574.456775
561.659825	2575.855696
562.016528	2574.358473
562.373177	2573.302351
562.729770	2572.465520
563.086307	2574.287897
563.442789	2572.107598
563.799216	2574.464337
564.155587	2572.483164
564.511904	2573.735890
564.868164	2572.049624
565.224370	2571.621126
565.580520	2570.557443
565.936615	2572.626837
566.292654	2571.043914
566.648638	2571.684141
567.004567	2574.154306
567.360441	2572.329408
567.716260	2570.587690
568.072023	2573.274625
568.427732	2566.448902
568.783385	2567.116855
569.138982	2568.304047
569.494525	2569.702967
569.850013	2567.046279
570.205445	2570.983420
570.560823	2571.197669
570.916145	2568.931671
571.271412	2568.523337
571.626625	2571.963925
571.981782	2567.585683
572.336884	2569.803790
572.691931	2569.506362
573.046923	2570.796898
573.401860	2570.749007
573.756743	2571.686661
574.111570	2568.445199
574.466342	2573.103226
574.821059	2569.803790
575.175722	2567.706670
575.530330	2567.739438
575.884882	2569.594582
576.239380	2568.450241
576.593823	2570.799418
576.948211	2569.123235
577.302544	2569.851681
577.656823	2570.217165
578.011047	2568.722463
578.365216	2570.088616
578.719330	2566.441341
579.073389	2568.654407
579.427394	2567.782288
579.781344	2569.889490
580.135239	2568.326732
580.489080	2566.635425
580.842866	2568.765313
581.196597	2568.188101
581.550273	2567.784808
581.903895	2566.655590
582.257463	2570.559963
582.610975	2566.791701
582.964434	2567.487380
583.317837	2566.285065
583.671186	2566.529561
584.024481	2565.319684
584.377721	2567.182390
584.730906	2566.489232
585.084037	2566.521999
585.437113	2564.951680
585.790135	2568.702298
586.143103	2569.713050
586.496016	2566.068295
586.848874	2564.992009
587.201679	2565.097873
587.554428	2561.107800
587.907124	2565.423028
588.259765	2561.372461
588.612352	2562.962945
588.964884	2564.210630
589.317362	2563.446895
589.669786	2564.558470
590.022155	2566.680796
590.374470	2563.981258
590.726731	2569.768502
591.078937	2565.044941
591.431090	2565.806155
591.783188	2564.056875
592.135232	2567.691547
592.487222	2566.814386
592.839157	2565.012174
593.191038	2566.458985
593.542866	2563.013356
593.894639	2562.408418
594.246358	2563.923284
594.598022	2564.767678
594.949633	2561.261555
595.301190	2561.425393
595.652692	2564.916392
596.004141	2564.797925
596.355535	2565.675085
596.706876	2560.359189
597.058162	2563.605692
597.409395	2562.864642
597.760573	2562.781463
598.111698	2562.776422
598.462768	2561.755588
598.813785	2563.625856
599.164748	2561.722821
599.515657	2563.930846
599.866511	2560.306257
600.217312	2562.121072
600.568060	2563.015877
600.918753	2565.264231
601.269392	2562.942780
601.619978	2561.064950
601.970510	2562.015208
602.320988	2563.683830
602.671412	2560.147460
603.021783	2559.169476
603.372100	2564.528223
603.722363	2562.647873
604.072572	2559.897923
604.422728	2563.270455
604.772830	2557.813406
605.122878	2557.868859
605.472872	2560.893551
605.822813	2558.040258
606.172701	2560.578479
606.522534	2560.283571
606.872314	2563.240208
607.222041	2562.607543
607.571714	2563.439334
607.921333	2564.187945
608.270899	2562.123592
608.620411	2561.180897
608.969870	2563.714077
609.319276	2565.407904
609.668627	2566.585014
610.017926	2567.373954
610.367171	2571.784964
610.716362	2566.464026
611.065500	2569.861764
611.414585	2564.661813
611.763616	2565.344890
612.112594	2565.178532
612.461518	2565.765826
612.810389	2564.800445
613.159207	2563.494786
613.507971	2562.796587
613.856682	2565.123079
614.205340	2562.902451
614.553945	2565.954869
614.902496	2562.446226
615.250994	2562.196689
615.599439	2563.179714
615.947830	2563.698953
616.296169	2564.233315
616.644454	2562.403377
616.992686	2564.750034
617.340864	2562.378171
617.688990	2559.040927
618.037063	2564.389591
618.385082	2562.231977
618.733048	2562.355486
619.080961	2564.681978
619.428821	2561.647203
619.776628	2560.885989
620.124382	2562.015208
620.472083	2560.906154
620.819731	2563.517472
621.167326	2561.470763
621.514868	2563.446895
621.862357	2560.560835
622.209793	2562.970506
622.557176	2562.025290
622.904506	2560.361709
623.251783	2555.575134
623.599007	2558.856925
623.946179	2558.940104
624.293297	2557.316852
624.640363	2561.906823
624.987376	2561.127965
625.334336	2558.425906
625.681243	2560.379353
626.028097	2557.730227
626.374899	2562.647872
626.721647	2559.948335
627.068343	2558.365412
627.414987	2559.255176
627.761577	2557.800803
628.108115	2558.183931
628.454600	2560.800290
628.801032	2558.047820
629.147412	2558.521688
629.493739	2557.999929
629.840014	2560.933880
630.186236	2557.034548
630.532405	2557.324414
630.878521	2556.243087
631.224585	2561.558983
631.570597	2558.693087
631.916556	2557.596636
632.262462	2558.163766
632.608316	2558.874569
632.954117	2557.987326
633.299866	2554.806358
633.645562	2555.834753
633.991206	2558.594785
634.336797	2557.309291
634.682336	2558.375495
635.027823	2555.859959
635.373257	2555.925494
635.718639	2554.710576
636.063968	2554.188816
636.409245	2557.130330
636.754470	2555.275185
637.099642	2555.136553
637.444762	2556.411965
637.789829	2557.311811
638.134845	2554.599670
638.479808	2557.349620
638.824719	2555.141594
639.169577	2552.192519
639.514383	2554.239228
639.859137	2553.160421
640.203839	2555.774259
640.548489	2554.647561
640.893086	2548.086500
641.237632	2548.303269
641.582125	2553.795606
641.926566	2549.515667
642.270955	2556.424568
642.615292	2550.700338
642.959576	2554.652602
643.303809	2553.233518
643.647990	2554.345092
643.992118	2553.888868
644.336195	2555.058415
644.680219	2552.764690
645.024192	2552.822664
645.368112	2555.991029
645.711981	2553.034392
646.055797	2555.431461
646.399562	2555.060936
646.743274	2554.183775
647.086935	2552.447098
647.430544	2555.280226
647.774101	2554.012376
648.117606	2555.552448
648.461059	2553.024310
648.804460	2557.342058
649.147810	2555.179403
649.491108	2552.565565
649.834354	2554.040102
650.177548	2555.093703
650.520690	2555.663354
650.863781	2551.464073
651.206820	2557.649568
651.549807	2554.778631
651.892742	2553.818292
652.235626	2553.412479
652.578458	2554.103117
652.921238	2551.726213
653.263967	2552.802499
653.606644	2553.220915
653.949269	2552.711758
654.291843	2551.902653
654.634365	2552.220246
654.976836	2552.983981
655.319255	2553.283929
655.661622	2553.102448
656.003938	2553.674619
656.346203	2551.572457
656.688416	2554.019938
657.030577	2552.235369
657.372687	2551.786707
657.714746	2549.487940
658.056753	2550.947354
658.398708	2547.163968
658.740612	2549.114895
659.082465	2547.161448
659.424266	2547.965512
659.766016	2547.020296
660.107715	2552.537838
660.449362	2552.074052
660.790958	2552.124464
661.132503	2554.110678
661.473996	2553.331820
661.815438	2549.767724
662.156829	2551.824515
662.498168	2551.343085
662.839456	2554.589588
663.180693	2549.719833
663.521879	2550.934752
663.863013	2547.277394
664.204097	2550.334854
664.545129	2550.927190
664.886110	2551.406099
665.227040	2551.963147
665.567918	2552.540359
665.908746	2549.644216
666.249522	2552.653785
666.590248	2551.222097
666.930922	2552.386604
667.271545	2551.007848
667.612118	2551.632951
667.952639	2552.643703
668.293109	2553.921635
668.633528	2551.141439
668.973896	2549.918959
669.314213	2551.587581
669.654480	2553.664536
669.994695	2548.144473
670.334859	2552.605894
670.674973	2549.888712
671.015035	2553.021789
671.355047	2546.677497
671.695008	2552.084135
672.034918	2550.589433
672.374777	2550.410472
672.714585	2549.124977
673.054342	2551.771583
673.394049	2550.100441
673.733705	2552.855431
674.073310	2548.290666
674.412864	2550.546583
674.752368	2550.181099
675.091820	2552.842828
675.431223	2551.116233
675.770574	2553.757798
676.109875	2549.349309
676.449125	2548.245296
676.788324	2548.313352
677.127473	2548.623382
677.466571	2548.318393
677.805619	2551.615307
678.144616	2550.360060
678.483562	2553.619166
678.822458	2547.320244
679.161303	2553.039433
679.500098	2548.260419
679.838842	2548.179761
680.177535	2549.845862
680.516179	2550.155893
680.854771	2552.807540
681.193314	2550.602035
681.531805	2550.997766
681.870247	2552.646223
682.208638	2549.586243
682.546978	2553.001625
682.885268	2550.954916
683.223508	2551.975750
683.561697	2551.428785
683.899836	2551.890050
684.237925	2548.444422
684.575963	2552.094217
684.913951	2550.327293
685.251889	2551.564896
685.589776	2552.132026
685.927614	2552.762170
686.265401	2550.470965
686.603137	2550.226469
686.940824	2548.449463
687.278460	2551.900132
687.616046	2549.818136
687.953582	2552.563044
688.291068	2551.433826
688.628504	2551.418702
688.965889	2550.017262
689.303224	2551.479196
689.640510	2551.501881
689.977745	2550.483568
690.314930	2550.715461
690.652065	2552.532797
690.989150	2551.958106
691.326185	2552.777293
691.663170	2545.790254
692.000105	2547.315203
692.336990	2548.973743
692.673825	2550.753270
693.010610	2549.676984
693.347345	2544.663556
693.684030	2542.823535
694.020665	2544.572815
694.357251	2540.728936
694.693786	2546.501057
695.030272	2545.318906
695.366707	2547.688248
695.703093	2546.344781
696.039429	2546.254040
696.375716	2546.498536
696.711952	2549.054401
697.048139	2548.693959
697.384276	2546.289328
697.720363	2548.739329
698.056400	2546.808567
698.392388	2546.974925
698.728326	2546.987528
699.064214	2544.600542
699.400053	2548.283105
699.735842	2542.568957
700.071581	2547.635316
700.407270	2545.175233
700.742910	2545.122301
701.078501	2547.360573
701.414042	2545.538196
701.749533	2545.901159
702.084974	2543.299924
702.420366	2545.626417
702.755709	2541.888401
703.091002	2545.505429
703.426246	2544.978628
703.761440	2546.246478
704.096584	2545.457538
704.431679	2544.219935
704.766725	2544.056097
705.101721	2546.576674
705.436668	2545.833104
705.771565	2544.507280
706.106413	2543.667928
706.441212	2542.415202
706.775961	2543.425953
707.110661	2543.723381
707.445311	2546.649771
707.779913	2544.797147
708.114465	2544.842517
708.448967	2544.882846
708.783421	2546.236396
709.117825	2543.819163
709.452180	2549.051881
709.786485	2543.738504
710.120742	2546.795964
710.454949	2546.637168
710.789107	2546.506098
711.123216	2541.631302
711.457275	2545.775131
711.791286	2543.557023
712.125247	2544.106509
712.459159	2546.780841
712.793023	2549.180430
713.126837	2549.671943
713.460602	2547.405944
713.794318	2544.552651
714.127985	2545.507949
714.461602	2543.791437
714.795171	2547.088351
715.128691	2544.214893
715.462162	2545.883515
715.795584	2546.017106
716.128957	2541.938812
716.462281	2544.340922
716.795556	2548.691438
717.128782	2545.538196
717.461960	2545.205480
717.795088	2542.763041
718.128167	2543.640202
718.461198	2543.007537
718.794180	2547.148845
719.127113	2542.783206
719.459997	2544.522404
719.792833	2541.742208
720.125619	2542.644574
720.458357	2541.860675
720.791046	2542.314378
721.123686	2543.221786
721.456278	2544.552651
721.788821	2543.836807
722.121315	2545.999462
722.453761	2543.093237
722.786158	2540.620551
723.118506	2541.051569
723.450805	2543.456200
723.783056	2543.120963
724.115259	2543.950233
724.447412	2543.509132
724.779518	2544.787064
725.111574	2542.853782
725.443582	2542.523586
725.775542	2542.465613
726.107453	2542.919317
726.439315	2539.138452
726.771129	2548.078938
727.102895	2541.616179
727.434612	2544.570295
727.766281	2543.357897
728.097901	2542.417722
728.429473	2542.246323
728.760996	2541.694317
729.092471	2539.546785
729.423897	2543.020140
729.755276	2541.540561
730.086606	2542.974770
730.417887	2545.114739
730.749120	2547.547096
731.080305	2543.650284
731.411442	2545.898639
731.742530	2544.217414
732.073570	2547.494164
732.404562	2543.793957
732.735506	2545.639019
733.066401	2548.043650
733.397249	2543.685572
733.728048	2547.000131
734.058798	2544.943340
734.389501	2542.735315
734.720156	2541.041487
735.050762	2541.424615
735.381320	2543.191539
735.711831	2543.206663
736.042293	2543.105840
736.372707	2540.038297
736.703073	2540.365972
737.033391	2544.141797
737.363661	2545.369318
737.693883	2542.649615
738.024056	2546.243958
738.354182	2542.576518
738.684260	2540.431508
739.014290	2543.683052
739.344272	2541.122146
739.674207	2542.785726
740.004093	2544.759338
740.333931	2545.812939
740.663722	2543.889739
740.993464	2543.070552
741.323159	2542.657177
741.652806	2543.819163
741.982405	2544.018288
742.311956	2542.153062
742.641460	2544.333361
742.970915	2542.921837
743.300323	2542.024512
743.629683	2542.558874
743.958996	2543.955274
744.288260	2544.827394
744.617477	2543.093237
744.946647	2538.614172
745.275768	2542.279090
745.604842	2539.148534
745.933869	2539.561908
746.262847	2538.679707
746.591778	2543.471323
746.920662	2541.805222
747.249498	2543.798998
747.578286	2541.228010
747.907027	2541.638864
748.235720	2543.332692
748.564365	2541.679193
748.892963	2543.483926
749.221514	2543.413350
749.550017	2540.398740
749.878473	2539.017464
750.206881	2542.558874
750.535242	2544.595501
750.863555	2541.558205
751.191821	2544.330840
751.520039	2541.129707
751.848210	2542.329502
752.176334	2540.633154
752.504411	2542.700027
752.832440	2543.894780
753.160421	2541.643905
753.488356	2541.437218
753.816243	2541.646426
754.144082	2540.524769
754.471875	2541.177598
754.799620	2537.001002
755.127318	2541.442259
755.454969	2539.463606
755.782572	2543.834286
756.110129	2538.911600
756.437638	2542.647095
756.765100	2538.326826
757.092515	2540.978473
757.419882	2538.808256
757.747203	2538.657021
758.074477	2542.405119
758.401703	2542.901673
758.728882	2538.929244
759.056014	2541.149872
759.383099	2541.278421
759.710138	2542.589121
760.037129	2543.158772
760.364073	2543.209183
760.690970	2541.475026
761.017820	2540.575180
761.344623	2543.483926
761.671379	2541.868236
761.998088	2538.394881
762.324751	2541.064172
762.651366	2540.171888
762.977935	2544.968546
763.304456	2545.278577
763.630931	2546.395193
763.957359	2549.929041
764.283740	2546.735470
764.610074	2544.882846
764.936362	2546.506098
765.262602	2541.028884
765.588796	2542.450490
765.914943	2543.211704
766.241044	2542.384955
766.567097	2538.346990
766.893104	2540.005530
767.219064	2539.287166
767.544978	2539.435880
767.870845	2538.599048
768.196665	2542.362269
768.522438	2540.728936
768.848165	2539.551826
769.173846	2539.206507
769.499479	2540.393699
769.825066	2539.171219
770.150607	2539.471168
770.476101	2538.074768
770.801548	2540.648277
771.126949	2538.720036
771.452303	2540.791950
771.777611	2537.333718
772.102872	2539.067875
772.428087	2537.051414
772.753256	2538.888914
773.078378	2538.364634
773.403453	2536.885056
773.728482	2538.755324
774.053465	2539.647608
774.378401	2538.420087
774.703291	2537.575694
775.028135	2539.521579
775.352932	2537.666435
775.677683	2537.336239
776.002388	2537.439583
776.327046	2539.410674
776.651658	2537.336239
776.976224	2538.788091
777.300743	2535.627288
777.625216	2536.547298
777.949643	2539.289686
778.274024	2537.363965
778.598359	2533.089067
778.922647	2535.017308
779.246889	2535.100487
779.571086	2531.944725
779.895236	2537.200128
780.219339	2536.267514
780.543397	2538.614172
780.867409	2536.519572
781.191374	2536.045704
781.515294	2537.250539
781.839167	2538.311702
782.162995	2538.231044
782.486776	2539.640046
782.810511	2535.612164
783.134201	2536.169212
783.457844	2537.031249
783.781441	2537.777340
784.104993	2541.530479
784.428498	2540.723894
784.751958	2539.876981
785.075372	2538.687268
785.398739	2536.322967
785.722061	2537.726928
786.045337	2536.443955
786.368568	2539.289686
786.691752	2536.512010
787.014891	2541.220448
787.337983	2534.220806
787.661030	2538.835982
787.984031	2538.251208
788.306987	2540.141641
788.629897	2538.868750
788.952760	2537.910931
789.275579	2538.838503
789.598351	2540.343287
789.921078	2539.342618
790.243759	2535.463450
790.566395	2538.026877
790.888984	2538.667104
791.211529	2538.551157
791.534027	2535.289531
791.856480	2536.988399
792.178888	2538.906558
792.501249	2535.841537
792.823566	2538.954449
793.145836	2536.360776
793.468062	2538.430169
793.790241	2536.068389
794.112375	2539.080478
794.434464	2535.869263
794.756507	2537.061496
795.078505	2536.819521
795.400457	2534.014119
795.722364	2532.728624
796.044226	2535.839016
796.366042	2535.355066
796.687812	2533.903213
797.009538	2536.995961
797.331218	2538.082330
797.652852	2537.361445
797.974442	2539.133410
798.295986	2535.339942
798.617484	2536.940508
798.938938	2536.844727
799.260346	2535.788605
799.581709	2535.370189
799.903026	2538.679707
800.224299	2537.837834
800.545526	2535.758358
800.866708	2537.961342
801.187845	2535.234078
801.508936	2534.913965
801.829983	2536.995961
802.150984	2535.576876
802.471940	2537.772299
802.792851	2537.900848
803.113717	2538.490663
803.434538	2536.824562
803.755314	2533.935981
804.076045	2533.973789
804.396731	2537.177443
804.717372	2536.733821
805.037967	2533.416742
805.358518	2537.701723
805.679024	2536.136444
805.999485	2538.044521
806.319901	2536.481763
806.640272	2538.072247
806.960598	2537.076620
807.280879	2535.707946
807.601115	2536.683410
807.921306	2537.255581
808.241453	2536.363296
808.561554	2535.360107
808.881611	2537.139634
809.201623	2537.671476
809.521590	2537.868081
809.841513	2535.113090
810.161390	2537.011085
810.481223	2537.404295
810.801011	2537.391692
811.120755	2535.725590
811.440453	2539.592155
811.760107	2535.831455
812.079716	2535.118131
812.399281	2532.842050
812.718801	2532.663089
813.038276	2531.107893
813.357707	2536.144006
813.677093	2534.576207
813.996434	2536.663245
814.315731	2536.751465
814.634983	2534.891279
814.954191	2532.501773
815.273354	2537.318595
815.592473	2536.000333
815.911547	2536.859850
816.230577	2537.951260
816.549562	2537.855478
816.868502	2537.096784
817.187399	2535.786084
817.506250	2536.259953
817.825058	2534.798018
818.143821	2537.404295
818.462539	2538.447813
818.781213	2534.835827
819.099843	2536.474202
819.418429	2540.524769
819.736970	2537.437062
820.055466	2538.838503
820.373919	2538.856147
820.692327	2544.126673
821.010691	2547.143804
821.329011	2551.305276
821.647286	2566.700960
821.965517	2582.126891
822.283704	2589.860021
822.601847	2594.308839
822.919945	2584.718044
823.237999	2576.591704
823.556010	2570.121383
823.873976	2555.950700
824.191897	2556.774928
824.509775	2550.004659
824.827609	2548.590615
825.145398	2546.296890
825.463144	2547.466438
825.780845	2547.105995
826.098502	2548.678835
826.416116	2551.519525
826.733685	2555.330638
827.051210	2557.694939
827.368692	2556.989177
827.686129	2555.522202
828.003522	2549.918959
828.320872	2540.229861
828.638177	2540.958308
828.955439	2535.183666
829.272656	2536.900179
829.589830	2534.845909
829.906960	2539.239275
830.224046	2537.253060
830.541088	2538.291538
830.858086	2536.650642
831.175041	2539.864378
831.491952	2536.312885
831.808819	2537.726928
832.125642	2536.655683
832.442421	2539.428318
832.759157	2539.135931
833.075849	2543.128525
833.392497	2543.791437
833.709101	2546.269164
834.025662	2547.605069
834.342179	2547.189174
834.658653	2542.657177
834.975083	2541.318751
835.291469	2542.805891
835.607811	2538.281455
835.924110	2534.924047
836.240366	2539.110725
836.556578	2534.215765
836.872746	2536.585107
837.188871	2534.228368
837.504952	2536.514531
837.820990	2534.876156
838.136984	2533.784746
838.452935	2534.961856
838.768842	2536.625436
839.084706	2534.382123
839.400526	2535.715508
839.716303	2538.354552
840.032037	2538.548637
840.347727	2538.334388
840.663373	2538.538554
840.978977	2536.839685
841.294537	2536.522093
841.610054	2534.593851
841.925527	2535.977648
842.240957	2535.163502
842.556344	2534.576207
842.871687	2534.135106
843.186987	2534.515713
843.502244	2532.335414
843.817458	2533.772143
844.132629	2531.216278
844.447756	2532.816845
844.762840	2530.255938
845.077881	2529.061185
845.392879	2531.052441
845.707833	2531.289375
846.022745	2528.846936
846.337613	2535.067720
846.652438	2534.787936
846.967221	2533.943543
847.281960	2534.119983
847.596656	2537.416897
847.911309	2531.364992
848.225919	2533.136958
848.540485	2534.992102
848.855009	2531.763243
849.169490	2530.450023
849.483928	2531.916999
849.798323	2533.928419
850.112675	2532.350538
850.426984	2535.239119
850.741251	2533.315919
851.055474	2531.070085
851.369654	2532.098480
851.683792	2533.630991
851.997887	2533.993954
852.311938	2532.116124
852.625947	2530.366844
852.939914	2535.097967
853.253837	2532.935312
853.567718	2532.534540
853.881555	2532.741227
854.195350	2532.196783
854.509103	2532.925229
854.822812	2532.763913
855.136479	2534.717360
855.450103	2532.262318
855.763685	2535.760878
856.077224	2532.519417
856.390720	2535.549150
856.704173	2532.411032
857.017584	2533.194931
857.330953	2531.712832
857.644278	2532.365661
857.957561	2533.144520
858.270802	2534.072092
858.584000	2531.070085
858.897155	2534.223327
859.210268	2534.140148
859.523339	2532.577390
859.836367	2534.147709
860.149352	2529.416586
860.462295	2533.643594
860.775195	2529.451874
861.088054	2531.110414
861.400869	2527.092614
861.713642	2529.199817
862.026373	2531.571680
862.339062	2532.642925
862.651708	2534.195600
862.964312	2534.062010
863.276873	2536.935467
863.589392	2533.459592
863.901869	2534.142668
864.214303	2534.278779
864.526696	2535.402957
864.839045	2531.974972
865.151353	2535.564273
865.463619	2532.196783
865.775842	2533.825075
866.088023	2534.084695
866.400162	2532.973120
866.712258	2534.636701
867.024313	2535.130734
867.336325	2532.164015
867.648296	2531.911958
867.960224	2534.213244
868.272110	2531.594365
868.583954	2531.082688
868.895755	2534.659386
869.207515	2532.257277
869.519233	2534.903882
869.830909	2533.023532
870.142542	2535.435724
870.454134	2536.345652
870.765684	2531.969931
871.077191	2534.283820
871.388657	2535.581917
871.700081	2533.210055
872.011463	2535.468492
872.322803	2531.833820
872.634101	2532.544622
872.945357	2534.487987
873.256571	2532.922709
873.567744	2534.581248
873.878874	2535.097967
874.189963	2535.743234
874.501010	2536.343132
874.812015	2534.334232
875.122979	2533.119314
875.433900	2532.884900
875.744780	2536.166691
876.055618	2537.129552
876.366415	2532.181659
876.677169	2537.074099
876.987882	2532.491690
877.298554	2530.966741
877.609183	2530.432379
877.919771	2529.149405
878.230317	2531.775846
878.540822	2536.300282
878.851285	2534.994623
879.161707	2534.034283
879.472087	2535.649973
879.782425	2538.636857
880.092722	2541.850592
880.402977	2545.933927
880.713191	2555.113868
881.023363	2562.274827
881.333494	2567.194993
881.643583	2567.094170
881.953631	2565.879252
882.263637	2565.029818
882.573602	2564.104766
882.883526	2557.606719
883.193408	2554.208981
883.503248	2550.259237
883.813048	2549.029195
884.122806	2544.124153
884.432522	2545.457538
884.742197	2542.783206
885.051831	2542.105171
885.361424	2541.129707
885.670975	2538.772968
885.980485	2536.174253
886.289954	2537.081661
886.599382	2536.711136
886.908768	2538.399923
887.218113	2535.513862
887.527417	2534.936650
887.836680	2539.181301
888.145901	2535.037473
888.455082	2533.918337
888.764221	2534.510672
889.073319	2534.644263
889.382376	2534.651825
889.691392	2534.908923
890.000366	2534.372041
890.309300	2536.212062
890.618193	2535.294572
890.927044	2535.586959
891.235855	2532.627801
891.544625	2532.776515
891.853353	2533.091588
892.162041	2532.501773
892.470687	2535.168543
892.779293	2532.526978
893.087858	2533.915816
893.396381	2531.985054
893.704864	2536.559901
894.013306	2536.436393
894.321707	2541.210366
894.630068	2545.611293
894.938387	2545.205480
895.246665	2542.843700
895.554903	2542.095088
895.863100	2542.309337
896.171256	2540.739018
896.479371	2538.740200
896.787446	2539.350180
897.095480	2535.597041
897.403473	2535.077802
897.711425	2537.510159
898.019336	2536.204500
898.327207	2536.690971
898.635038	2535.060158
898.942827	2537.429500
899.250576	2535.748276
899.558284	2534.626619
899.865952	2534.180477
900.173579	2535.657535
900.481165	2533.603265
900.788711	2532.433717
901.096216	2533.895652
901.403681	2530.908768
901.711105	2535.899510
902.018489	2534.505631
902.325832	2537.452186
902.633135	2534.014119
902.940397	2534.614016
903.247619	2535.939839
903.554800	2538.089892
903.861941	2542.667259
904.169041	2545.941489
904.476101	2548.076417
904.783121	2546.858979
905.090100	2545.308824
905.397039	2544.925696
905.703938	2540.484440
906.010796	2541.245654
906.317614	2539.773637
906.624391	2536.393543
906.931129	2533.396577
907.237826	2535.024870
907.544483	2534.906403
907.851099	2533.207534
908.157675	2531.533871
908.464211	2532.884900
908.770707	2530.381967
909.077163	2532.025383
909.383578	2528.526823
909.689954	2529.144364
909.996289	2529.177132
910.302584	2530.268541
910.608839	2532.436238
910.915054	2531.874149
911.221229	2533.346166
911.527363	2530.797863
911.833458	2531.503624
912.139513	2530.129910
912.445527	2532.128727
912.751502	2535.181146
913.057436	2530.941535
913.363331	2530.772657
913.669186	2533.154602
913.975000	2535.685261
914.280775	2535.201310
914.586510	2534.417411
914.892205	2535.803728
915.197859	2539.667773
915.503475	2541.530479
915.809050	2545.044163
916.114585	2544.711447
916.420081	2548.623382
916.725536	2545.979297
917.030952	2546.939637
917.336328	2541.795140
917.641665	2542.107691
917.946961	2538.636857
918.252218	2539.032587
918.557435	2535.788605
918.862612	2536.118800
919.167750	2538.362114
919.472848	2533.822555
919.777906	2532.897503
920.082925	2535.962525
920.387904	2534.702236
920.692843	2532.806762
920.997743	2533.772143
921.302603	2533.162164
921.607423	2534.256094
921.912204	2531.722914
922.216946	2533.915816
922.521647	2532.075795
922.826310	2530.853315
923.130932	2535.357586
923.435516	2532.612678
923.740059	2530.618902
924.044564	2533.565456
924.349028	2529.857687
924.653454	2529.081350
924.957840	2528.012625
925.262186	2527.657224
925.566493	2529.703932
925.870761	2527.286699
926.174989	2528.894827
926.479178	2532.413552
926.783328	2531.954807
927.087438	2530.298788
927.391509	2533.431865
927.695541	2533.031094
927.999533	2530.999509
928.303486	2530.223171
928.607400	2529.340969
928.911275	2531.443130
929.215110	2531.231402
929.518906	2532.123686
929.822663	2529.434230
930.126381	2529.431710
930.430060	2528.887265
930.733699	2530.752492
931.037299	2534.004036
931.340861	2529.187214
931.644383	2531.281813
931.947866	2532.416073
932.251309	2530.374406
932.554714	2529.560259
932.858080	2531.967410
933.161407	2531.160826
933.464694	2530.477749
933.767943	2531.473377
934.071153	2529.625794
934.374323	2530.979344
934.677455	2532.902544
934.980548	2529.466998
935.283602	2529.555218
935.586617	2531.052441
935.889593	2529.403983
936.192530	2529.237625
936.495428	2531.952287
936.798287	2531.203675
937.101108	2530.911288
937.403890	2529.885414
937.706632	2532.232071
938.009336	2529.386339
938.312002	2531.551515
938.614628	2531.985054
938.917216	2533.000847
939.219765	2528.337779
939.522275	2532.030425
939.824747	2531.465815
940.127179	2527.311905
940.429573	2527.251411
940.731929	2527.884076
941.034246	2523.795700
941.336524	2532.809283
941.638763	2530.132430
941.940964	2530.323994
942.243126	2529.681247
942.545250	2531.387677
942.847335	2529.630835
943.149381	2532.985723
943.451389	2529.363654
943.753359	2531.848943
944.055290	2530.089580
944.357182	2530.548325
944.659036	2531.528830
944.960851	2532.204344
945.262628	2533.956145
945.564367	2530.608819
945.866067	2530.707122
946.167729	2526.832995
946.469352	2530.102183
946.770937	2532.854653
947.072484	2529.429189
947.373992	2528.247039
947.675462	2528.942718
947.976893	2531.014632
948.278286	2528.052954
948.579641	2531.334745
948.880958	2532.169056
949.182236	2531.727955
949.483476	2528.368026
949.784678	2531.866587
950.085841	2529.799714
950.386967	2530.442461
950.688054	2528.005063
950.989103	2532.569828
951.290114	2529.769467
951.591087	2531.649817
951.892021	2528.446164
952.192917	2531.034797
952.493776	2528.461288
952.794596	2528.647810
953.095378	2526.941380
953.396122	2532.862215
953.696828	2530.941535
953.997496	2531.788449
954.298126	2527.760567
954.598718	2529.537574
954.899272	2529.567821
955.199788	2529.124199
955.500266	2532.655528
955.800706	2528.431041
956.101108	2526.754857
956.401472	2529.086391
956.701798	2524.461132
957.002087	2525.025741
957.302337	2530.160157
957.602550	2529.441792
957.902724	2529.451874
958.202861	2529.731658
958.502960	2529.293078
958.803022	2528.254600
959.103045	2529.512368
959.403031	2529.913140
959.702979	2528.572193
960.002889	2528.128572
960.302762	2527.034641
960.602596	2529.714014
960.902393	2527.180835
961.202153	2528.730989
961.501875	2527.218643
961.801559	2528.846936
962.101205	2527.798376
962.400814	2526.517923
962.700385	2530.230733
962.999918	2533.391536
963.299414	2528.554549
963.598873	2529.711494
963.898293	2530.986906
964.197677	2528.546987
964.497022	2527.311905
964.796331	2530.266021
965.095601	2526.074301
965.394835	2530.686957
965.694030	2527.944569
965.993189	2531.092770
966.292309	2526.096987
966.591393	2526.386853
966.890439	2528.541946
967.189447	2528.287368
967.488419	2527.977337
967.787353	2527.637059
968.086249	2530.013963
968.385108	2528.887265
968.683930	2528.909950
968.982714	2530.487832
969.281462	2525.892820
969.580172	2527.581606
969.878844	2525.572707
970.177480	2531.390198
970.476078	2527.019518
970.774639	2530.238294
971.073162	2528.794004
971.371649	2525.945752
971.670098	2526.396935
971.968510	2528.060516
972.266885	2523.488189
972.565223	2527.238808
972.863524	2527.732841
973.161788	2527.256452
973.460014	2526.681760
973.758204	2527.022038
974.056356	2528.433561
974.354471	2529.134282
974.652550	2531.281813
974.950591	2530.107224
975.248595	2529.618233
975.546563	2527.321987
975.844493	2529.056144
976.142386	2526.946421
976.440243	2528.849457
976.738062	2530.908768
977.035845	2529.794673
977.333590	2526.704446
977.631299	2526.011287
977.928971	2526.162522
978.226606	2528.325177
978.524204	2528.897347
978.821765	2526.896009
979.119290	2529.242667
979.416777	2527.054806
979.714228	2528.897348
980.011642	2528.937677
980.309020	2530.956659
980.606360	2529.093952
980.903664	2530.712163
981.200931	2529.242667
981.498162	2526.621267
981.795356	2526.142357
982.092513	2528.554549
982.389633	2529.633356
982.686717	2529.162008
982.983764	2530.044210
983.280775	2529.719056
983.577749	2529.842564
983.874686	2528.368026
984.171587	2528.368026
984.468451	2528.594878
984.765279	2527.873993
985.062070	2531.579241
985.358824	2527.914322
985.655543	2528.405835
985.952224	2528.675537
986.248869	2528.320135
986.545478	2523.745288
986.842050	2525.602953
987.138586	2523.314270
987.435086	2525.497089
987.731549	2522.961389
988.027975	2529.829961
988.324366	2525.817202
988.620719	2529.204858
988.917037	2527.884076
989.213318	2526.848118
989.509563	2525.786956
989.805772	2527.357275
990.101944	2527.049765
990.398080	2527.843746
990.694180	2527.679909
990.990244	2529.129241
991.286271	2528.032790
991.582262	2524.861904
991.878217	2528.637728
992.174136	2527.238808
992.470019	2527.952131
992.765865	2528.201668
993.061676	2530.031607
993.357450	2527.929446
993.653188	2527.175793
993.948890	2529.966072
994.244556	2527.513551
994.540186	2528.806607
994.835780	2526.003725
995.131337	2528.247039
995.426859	2525.703777
995.722345	2525.509692
996.017795	2528.259642
996.313208	2528.867101
996.608586	2526.616225
996.903928	2527.493386
997.199234	2528.405835
997.494504	2527.400125
997.789738	2527.253931
998.084936	2529.242667
998.380099	2526.517923
998.675225	2526.956503
998.970316	2527.236287
999.265371	2527.596730
999.560390	2528.909950
999.855373	2527.188396
1000.150320	2529.895496
1000.445232	2530.089580
1000.740108	2528.191586
1001.034948	2525.297964
1001.329752	2526.152439
1001.624521	2527.137985
1001.919254	2523.120185
1002.213951	2523.294105
1002.508613	2523.951976
1002.803239	2526.054137
1003.097829	2523.972140
1003.392384	2527.584127
1003.686903	2524.456091
1003.981386	2527.027079
1004.275834	2524.980371
1004.570246	2529.560259
1004.864623	2528.955321
1005.158964	2527.926925
1005.453270	2526.853160
1005.747540	2529.908099
1006.041775	2525.751668
1006.335974	2529.880372
1006.630138	2526.974147
1006.924266	2526.066740
1007.218359	2527.372398
1007.512416	2528.158818
1007.806438	2526.701925
1008.100425	2526.631349
1008.394376	2527.579086
1008.688292	2528.239477
1008.982172	2526.172604
1009.276017	2526.117151
1009.569827	2528.327697
1009.863602	2529.426669
1010.157341	2527.609333
1010.451045	2525.234949
1010.744714	2524.869466
1011.038347	2526.749816
1011.331945	2526.326359
1011.625508	2528.005063
1011.919036	2527.589168
1012.212528	2527.407687
1012.505986	2528.015146
1012.799408	2524.884589
1013.092795	2526.384332
1013.386147	2527.974816
1013.679464	2526.059178
1013.972745	2528.128572
1014.265992	2528.390712
1014.559204	2527.216123
1014.852380	2527.246370
1015.145521	2528.294930
1015.438628	2528.294930
1015.731699	2527.745444
1016.024736	2526.598581
1016.317737	2527.385001
1016.610703	2526.293592
1016.903635	2526.033972
1017.196531	2523.178158
1017.489393	2527.354754
1017.782219	2523.548683
1018.075011	2526.500279
1018.367768	2525.706297
1018.660490	2526.291071
1018.953177	2526.291071
1019.245829	2526.291071
