Dividing Wavelength (nm)	Counts (n)	Blue Motor Position (mm): 0.000000	Red Motor Position (mm): 26.000000	
326.493990	2126.305760
326.888308	2126.305760
327.282561	2126.305760
327.676750	2092.950966
328.070874	2096.109249
328.464933	2097.205700
328.858929	2104.797677
329.252859	2111.527618
329.646726	2122.482045
330.040528	2137.164406
330.434265	2153.454894
330.827938	2171.192194
331.221547	2188.362364
331.615091	2209.210056
332.008571	2227.632953
332.401986	2247.346385
332.795338	2266.989241
333.188625	2284.323248
333.581847	2307.051290
333.975006	2320.826243
334.368100	2342.193174
334.761129	2357.989629
335.154095	2373.725591
335.546996	2391.369629
335.939833	2407.670200
336.332606	2421.979516
336.725315	2439.338729
337.117960	2443.202773
337.510540	2455.500668
337.903056	2466.719756
338.295508	2469.948615
338.687896	2482.110399
339.080220	2489.906543
339.472480	2495.444251
339.864676	2500.805518
340.256807	2508.760458
340.648875	2508.271467
341.040879	2512.261540
341.432818	2509.786333
341.824694	2516.894360
342.216506	2515.175327
342.608253	2515.059380
342.999937	2511.565861
343.391557	2512.332116
343.783113	2512.614421
344.174605	2512.097702
344.566033	2511.134842
344.957397	2509.849348
345.348697	2505.365241
345.739934	2503.883142
346.131106	2502.945487
346.522215	2504.210817
346.913260	2500.218223
347.304241	2500.797956
347.695159	2496.800321
348.086012	2496.759992
348.476802	2493.458036
348.867528	2491.625577
349.258191	2493.629435
349.648789	2490.776142
350.039324	2485.855976
350.429796	2487.746409
350.820203	2486.902015
351.210548	2486.302118
351.600828	2485.979484
351.991045	2484.280615
352.381198	2486.705410
352.771288	2482.740543
353.161314	2482.942189
353.551276	2483.980667
353.941175	2482.740543
354.331010	2482.317086
354.720782	2484.706593
355.110490	2483.257261
355.500135	2482.314565
355.889717	2484.850266
356.279235	2483.413537
356.668689	2484.396562
357.058080	2484.583085
357.447408	2479.801550
357.836672	2480.671149
358.225873	2485.026706
358.615010	2483.284987
359.004084	2486.937303
359.393095	2486.728096
359.782043	2489.203302
360.170927	2488.064001
360.559748	2491.197078
360.948505	2490.955103
361.337199	2489.964516
361.725830	2488.840339
362.114398	2491.739003
362.502903	2490.899650
362.891344	2492.401914
363.279722	2492.341420
363.668037	2493.886534
364.056289	2492.601040
364.444478	2495.212358
364.832603	2495.839981
365.220665	2496.843171
365.608665	2497.614467
365.996601	2499.285610
366.384474	2497.548932
366.772284	2499.081443
367.160031	2501.168481
367.547715	2504.838441
367.935336	2505.939933
368.322893	2511.467558
368.710388	2513.531911
369.097820	2519.162879
369.485189	2521.607839
369.872495	2524.781245
370.259738	2533.641073
370.646918	2541.837989
371.034035	2547.201777
371.421090	2558.851884
371.808081	2569.372772
372.195010	2577.579770
372.581875	2591.206009
372.968678	2606.752927
373.355418	2613.931531
373.742096	2633.667648
374.128710	2649.229690
374.515262	2662.377019
374.901751	2676.817404
375.288177	2689.642100
375.674540	2713.968187
376.060841	2731.433265
376.447079	2752.744743
376.833254	2770.482043
377.219367	2782.376645
377.605417	2822.441215
377.991404	2832.006805
378.377329	2852.594877
378.763191	2871.526930
379.148991	2910.641243
379.534727	2929.548091
379.920402	2961.476238
380.306013	2972.516365
380.691563	3021.662574
381.077049	3045.643343
381.462474	3063.267217
381.847835	3102.890686
382.233134	3122.183182
382.618371	3124.058491
383.003545	3190.430323
383.388657	3196.472146
383.773706	3230.918350
384.158693	3245.973756
384.543618	3276.225720
384.928480	3309.313333
385.313280	3352.727750
385.698017	3354.093903
386.082692	3408.745052
386.467305	3414.159251
386.851856	3446.304168
387.236344	3466.741006
387.620770	3497.368536
388.005133	3524.305942
388.389435	3548.236299
388.773674	3564.216757
389.157851	3604.830813
389.541965	3617.889922
389.926018	3584.724171
390.310008	3656.152280
390.693936	3675.570804
391.077802	3716.182340
391.461606	3705.968962
391.845348	3768.350720
392.229027	3768.451543
392.612645	3781.112401
392.996200	3858.168958
393.379694	3897.018610
393.763125	3963.145946
394.146494	3933.085546
394.529801	3989.806088
394.913047	4039.461453
395.296230	4005.889889
395.679351	4062.149166
396.062410	4082.739759
396.445408	4062.796955
396.828343	4098.881534
397.211217	4123.096716
397.594028	4042.982699
397.976778	4108.036269
398.359466	4134.537615
398.742092	4166.087676
399.124656	4085.003237
399.507158	4165.112213
399.889598	4193.493909
400.271977	4252.719905
400.654294	4223.511460
401.036549	4233.147625
401.418742	4201.736196
401.800874	4302.864263
402.182944	4325.448632
402.564952	4388.702510
402.946898	4377.309502
403.328783	4375.003174
403.710606	4288.343219
404.092367	4481.865553
404.474067	4440.560859
404.855705	4454.310606
405.237282	4377.982496
405.618797	4487.597345
406.000250	4523.823077
406.381642	4600.501547
406.762972	4564.308583
407.144240	4574.847115
407.525447	4576.586313
407.906593	4633.768122
408.287677	4677.850491
408.668700	4606.321559
409.049661	4655.392151
409.430560	4697.049726
409.811399	4626.158500
410.192176	4783.077016
410.572891	4726.215321
410.953545	4826.995548
411.334138	4705.783525
411.714669	4775.419503
412.095139	4670.724820
412.475547	4811.577179
412.855894	4797.376249
413.236180	4800.753822
413.616405	4756.817646
413.996568	4843.432231
414.376670	4789.912821
414.756711	4741.338783
415.136691	4773.781128
415.516609	4845.897355
415.896466	4890.665322
416.276262	4919.609106
416.655997	4901.718051
417.035670	5085.589097
417.415283	5171.268548
417.794834	5115.397439
418.174324	5072.897992
418.553753	4978.625894
418.933121	5164.891488
419.312428	5229.196446
419.691674	5170.068753
420.070859	5292.770438
420.449983	5207.849680
420.829045	5325.056507
421.208047	5230.839862
421.586988	5301.320234
421.965867	5311.765505
422.344686	5444.995640
422.723444	5300.145646
423.102141	5119.077482
423.480777	5417.806176
423.859352	5184.753634
424.237866	5447.559066
424.616319	5436.876861
424.994712	5542.259662
425.373044	5421.496301
425.751314	5563.568619
426.129524	5365.975553
426.507673	5561.161468
426.885762	5644.751361
427.263789	5573.756791
427.641756	5457.429646
428.019662	5580.491773
428.397508	5584.781795
428.775292	5531.917735
429.153016	5632.750894
429.530679	5556.289193
429.908282	5644.204396
430.285824	5515.392832
430.663305	5787.947856
431.040726	5520.285272
431.418086	5520.028173
431.795385	5628.385255
432.172624	5636.877078
432.549802	5630.666377
432.926920	5641.101565
433.303977	5648.312936
433.680974	5689.733577
434.057910	5709.900712
434.434786	5712.827102
434.811601	5675.391494
435.188355	5916.010808
435.565050	5784.139265
435.941683	5770.392038
436.318257	5982.337269
436.694770	5960.352797
437.071222	5994.047870
437.447614	5929.700061
437.823946	5837.938458
438.200218	5992.540565
438.576429	5850.682495
438.952580	5943.845539
439.328670	5986.871787
439.704700	5893.368466
440.080670	5872.334251
440.456580	6138.214787
440.832429	6016.385222
441.208218	5859.239854
441.583947	6007.258213
441.959616	6004.593963
442.335224	5931.913128
442.710773	6056.797632
443.086261	6074.368574
443.461689	5858.660121
443.837057	5998.176575
444.212365	6138.088758
444.587612	6020.821438
444.962800	6166.016751
445.337927	6131.232789
445.712995	5743.283233
446.088002	6285.870183
446.462949	6109.207988
446.837837	6023.526017
447.212664	6178.173493
447.587431	6293.988962
447.962139	6774.642816
448.336786	7609.901515
448.711374	7342.644744
449.085901	6479.931921
449.460369	6387.814917
449.834776	6302.906763
450.209124	6622.508355
450.583412	6726.154478
450.957640	6835.481982
451.331808	6596.385096
451.705917	6178.130643
452.079965	6082.310912
452.453954	6233.159879
452.827883	6098.755156
453.201752	6147.329193
453.575562	5945.390653
453.949311	6079.729841
454.323001	5956.299710
454.696632	5979.357947
455.070202	6047.670623
455.443713	6132.369569
455.817164	6171.362894
456.190556	6184.623650
456.563888	6197.130752
456.937160	6185.979720
457.310373	5882.416559
457.683526	5856.333629
458.056619	5730.990380
458.429653	5670.055433
458.802628	5578.104786
459.175542	5609.380105
459.548398	5799.353467
459.921194	5849.649059
460.293930	5801.135515
460.666607	6060.480195
461.039224	6198.086051
461.411782	6213.244801
461.784280	6160.683210
462.156719	6034.649323
462.529099	5886.227671
462.901419	5582.604016
463.273680	5464.139421
463.645882	5406.629938
464.018024	5261.767341
464.390106	5295.258247
464.762130	5427.661632
465.134094	5594.967446
465.505999	6033.358787
465.877845	6541.683535
466.249631	6772.956550
466.621358	6490.609085
466.993026	6095.780875
467.364634	5879.974120
467.736184	5630.346264
468.107674	5412.548253
468.479105	5326.866282
468.850477	5181.262635
469.221790	5005.515409
469.593043	4807.662723
469.964238	4675.503834
470.335373	4614.246253
470.706449	4564.706834
471.077467	4501.982278
471.448425	4842.933156
471.819324	5098.161734
472.190164	5035.253176
472.560945	4593.915280
472.931667	4294.916883
473.302330	4199.906257
473.672934	4052.896128
474.043479	4075.956887
474.413965	4008.203779
474.784393	3917.039553
475.154761	3899.909712
475.525070	3861.077704
475.895321	3781.213224
476.265513	3760.962909
476.635645	3747.596290
477.005719	3687.057073
477.375734	3662.630162
477.745691	3653.717402
478.115588	3624.473669
478.485427	3610.469343
478.855207	3646.163233
479.224928	3715.542113
479.594591	3756.113319
479.964194	3663.164525
480.333739	3596.185234
480.703226	3522.702855
481.072653	3492.140860
481.442022	3473.377685
481.811333	3451.877164
482.180584	3384.134139
482.549777	3308.355514
482.918912	3258.614449
483.287988	3223.102041
483.657005	3188.323120
484.025964	3128.461939
484.394864	3103.604009
484.763706	3064.739234
485.132489	3021.624766
485.501213	2994.223574
485.869879	2973.481746
486.238487	2936.121755
486.607036	2921.378901
486.975527	2890.932852
487.343959	2876.169833
487.712333	2859.957482
488.080648	2837.773885
488.448905	2823.194868
488.817104	2804.429173
489.185244	2798.009263
489.553326	2787.122892
489.921350	2792.448871
490.289315	2806.112918
490.657222	2804.464461
491.025070	2786.926287
491.392861	2774.235182
491.760593	2751.469331
492.128267	2733.278327
492.495883	2717.915411
492.863440	2704.226158
493.230939	2691.900537
493.598380	2685.959537
493.965763	2671.718277
494.333088	2666.846002
494.700354	2662.944149
495.067563	2660.166473
495.434713	2648.579381
495.801805	2652.715648
496.168839	2644.821201
496.535815	2644.949750
496.902733	2640.208545
497.269593	2637.879532
497.636395	2636.420118
498.003139	2632.104890
498.369825	2633.823924
498.736453	2630.045579
499.103023	2626.408386
499.469535	2623.106431
499.835989	2622.829167
500.202385	2620.568210
500.568723	2618.103085
500.935003	2619.149125
501.301226	2615.738784
501.667390	2616.873044
502.033497	2622.042747
502.399546	2614.705348
502.765537	2612.923300
503.131470	2609.843155
503.497345	2613.220728
503.863163	2612.305758
504.228923	2610.793412
504.594625	2609.397013
504.960269	2607.012547
505.325856	2609.986828
505.691385	2604.532299
506.056856	2608.214862
506.422270	2603.803852
506.787625	2603.491301
507.152924	2601.003492
507.518164	2602.480550
507.883347	2604.025663
508.248472	2599.886876
508.613540	2601.691609
508.978550	2601.366455
509.343503	2601.875611
509.708398	2602.888883
510.073236	2603.176229
510.438016	2603.413163
510.802738	2599.181114
511.167403	2600.297730
511.532010	2598.913933
511.896561	2601.742021
512.261053	2601.424428
512.625488	2596.660537
512.989866	2595.145671
513.354186	2598.351845
513.718449	2594.122317
514.082655	2596.821854
514.446803	2596.045517
514.810894	2598.813110
515.174927	2596.902513
515.538904	2598.218254
515.902822	2595.448140
516.266684	2598.898810
516.630488	2597.663727
516.994235	2598.510641
517.357925	2596.912595
517.721558	2599.468460
518.085133	2600.166660
518.448651	2600.000302
518.812112	2596.978130
519.175516	2596.148860
519.538863	2595.153232
519.902152	2598.568614
520.265385	2598.465271
520.628560	2597.338573
520.991678	2597.250352
521.354739	2599.206320
521.717743	2595.173397
522.080690	2600.063316
522.443580	2600.844695
522.806413	2593.656010
523.169189	2598.740013
523.531908	2597.903182
523.894569	2598.440065
524.257174	2598.921495
524.619722	2599.092894
524.982213	2599.554160
525.344647	2596.738675
525.707025	2598.341762
526.069345	2601.197576
526.431608	2597.981320
526.793815	2598.331680
527.155964	2597.756988
527.518057	2597.814962
527.880093	2596.766402
528.242072	2598.591299
528.603995	2595.405290
528.965860	2597.613316
529.327669	2597.641042
529.689421	2593.640886
530.051117	2597.772112
530.412755	2599.319746
530.774337	2596.405959
531.135862	2599.397884
531.497331	2595.823706
531.858743	2591.072418
532.220098	2594.202975
532.581396	2590.069229
532.942638	2595.009560
533.303824	2593.582913
533.664953	2595.478387
534.026025	2595.281782
534.387040	2597.562904
534.747999	2596.431165
535.108902	2596.337904
535.469748	2594.550815
535.830537	2595.914447
536.191270	2594.170207
536.551947	2596.905033
536.912567	2596.884869
537.273131	2594.598706
537.633638	2594.046699
537.994089	2595.410331
538.354483	2593.260279
538.714821	2595.687595
539.075103	2596.388315
539.435328	2595.052409
539.795497	2595.095259
540.155609	2593.030907
540.515665	2594.432347
540.875665	2596.360589
541.235609	2595.680033
541.595496	2595.170877
541.955328	2596.032914
542.315102	2595.541401
542.674821	2595.407811
543.034483	2594.749940
543.394090	2595.022162
543.753640	2596.171546
544.113134	2592.660382
544.472571	2595.569128
544.831953	2599.695312
545.191278	2597.636001
545.550548	2594.480238
545.909761	2597.260435
546.268918	2595.400249
546.628019	2594.860846
546.987064	2595.125506
547.346053	2594.901175
547.704986	2597.562904
548.063863	2595.700198
548.422684	2598.815631
548.781449	2594.041658
549.140158	2595.556525
549.498811	2596.161463
549.857408	2593.653489
550.215949	2591.422779
550.574434	2591.183324
550.932864	2592.839343
551.291237	2590.961513
551.649555	2595.964858
552.007817	2597.487287
552.366022	2596.448809
552.724173	2598.114910
553.082267	2595.211206
553.440305	2597.625918
553.798288	2594.001329
554.156215	2593.897985
554.514086	2598.203131
554.871902	2595.823706
555.229661	2596.254725
555.587365	2595.780856
555.945014	2595.624580
556.302606	2596.635332
556.660143	2596.922678
557.017625	2595.032245
557.375050	2595.622060
557.732421	2596.829416
558.089735	2596.143819
558.446994	2594.351689
558.804197	2595.370002
559.161345	2598.515682
559.518437	2596.277410
559.875474	2595.785897
560.232455	2596.327821
560.589381	2593.106524
560.946251	2597.633480
561.303065	2596.398397
561.659825	2595.271700
562.016528	2595.057451
562.373177	2595.904364
562.729770	2596.781525
563.086307	2593.731627
563.442789	2596.332862
563.799216	2595.566607
564.155587	2596.811772
564.511904	2597.618357
564.868164	2598.545929
565.224370	2596.844540
565.580520	2592.859507
565.936615	2597.401587
566.292654	2593.996288
566.648638	2593.726586
567.004567	2593.610639
567.360441	2596.824375
567.716260	2593.842533
568.072023	2596.501741
568.427732	2592.488983
568.783385	2592.526791
569.138982	2591.808427
569.494525	2592.642738
569.850013	2592.030238
570.205445	2593.769436
570.560823	2594.094590
570.916145	2592.645258
571.271412	2595.911926
571.626625	2596.637852
571.981782	2592.050402
572.336884	2592.584765
572.691931	2594.772625
573.046923	2591.886565
573.401860	2592.478900
573.756743	2589.630648
574.111570	2594.172728
574.466342	2591.631987
574.821059	2592.952769
575.175722	2591.546287
575.530330	2591.349682
575.884882	2591.987388
576.239380	2590.926225
576.593823	2592.060485
576.948211	2591.294229
577.302544	2590.283478
577.656823	2592.345310
578.011047	2593.572831
578.365216	2592.756164
578.719330	2590.870772
579.073389	2593.466967
579.427394	2590.676688
579.781344	2590.104517
580.135239	2589.716348
580.489080	2586.449680
580.842866	2587.203333
581.196597	2591.803386
581.550273	2587.956985
581.903895	2590.722058
582.257463	2590.149887
582.610975	2586.777355
582.964434	2590.129723
583.317837	2588.985381
583.671186	2594.427306
584.024481	2587.972109
584.377721	2588.072932
584.730906	2585.892633
585.084037	2587.808271
585.437113	2587.899012
585.790135	2589.847418
586.143103	2586.416913
586.496016	2588.161152
586.848874	2584.019844
587.201679	2585.257447
587.554428	2582.976325
587.907124	2585.658219
588.259765	2583.876171
588.612352	2588.796337
588.964884	2587.034454
589.317362	2587.039495
589.669786	2583.878692
590.022155	2588.486307
590.374470	2586.726944
590.726731	2586.270719
591.078937	2581.983218
591.431090	2585.978332
591.783188	2584.881882
592.135232	2585.466655
592.487222	2585.517067
592.839157	2585.086048
593.191038	2583.654361
593.542866	2583.951789
593.894639	2584.912128
594.246358	2583.641758
594.598022	2583.177972
594.949633	2582.341140
595.301190	2582.454566
595.652692	2582.073959
596.004141	2581.443815
596.355535	2586.190061
596.706876	2581.857189
597.058162	2581.587487
597.409395	2584.677715
597.760573	2582.573033
598.111698	2579.634040
598.462768	2582.862899
598.813785	2583.248548
599.164748	2582.046232
599.515657	2580.236458
599.866511	2581.710996
600.217312	2582.242837
600.568060	2584.339958
600.918753	2583.508167
601.269392	2582.610842
601.619978	2580.765779
601.970510	2581.486664
602.320988	2581.663105
602.671412	2581.237127
603.021783	2582.842735
603.372100	2580.929617
603.722363	2579.034143
604.072572	2584.060173
604.422728	2583.692169
604.772830	2580.024730
605.122878	2576.407702
605.472872	2580.148238
605.822813	2578.053639
606.172701	2579.865933
606.522534	2579.724781
606.872314	2581.542117
607.222041	2583.122519
607.571714	2581.045563
607.921333	2577.824266
608.270899	2582.406675
608.620411	2583.614031
608.969870	2583.445153
609.319276	2584.468507
609.668627	2582.699062
610.017926	2586.328693
610.367171	2588.161152
610.716362	2585.648137
611.065500	2585.428847
611.414585	2583.732498
611.763616	2584.203846
612.112594	2583.309042
612.461518	2585.030596
612.810389	2583.117478
613.159207	2583.974474
613.507971	2585.028075
613.856682	2581.564802
614.205340	2584.529001
614.553945	2582.769638
614.902496	2584.357602
615.250994	2583.046902
615.599439	2583.477920
615.947830	2584.145873
616.296169	2583.694690
616.644454	2580.117991
616.992686	2581.927765
617.340864	2579.344174
617.688990	2581.277457
618.037063	2585.897674
618.385082	2581.640420
618.733048	2583.316603
619.080961	2581.063207
619.428821	2581.355594
619.776628	2582.847776
620.124382	2582.464648
620.472083	2581.506829
620.819731	2583.792992
621.167326	2581.658064
621.514868	2583.520770
621.862357	2577.642785
622.209793	2582.815008
622.557176	2580.914493
622.904506	2579.472723
623.251783	2575.381827
623.599007	2578.308217
623.946179	2574.439131
624.293297	2578.618248
624.640363	2575.273442
624.987376	2579.371900
625.334336	2577.078175
625.681243	2578.542631
626.028097	2579.707137
626.374899	2577.645305
626.721647	2575.061714
627.068343	2578.033474
627.414987	2576.816035
627.761577	2573.544327
628.108115	2574.749162
628.454600	2574.958370
628.801032	2576.503484
629.147412	2575.412074
629.493739	2576.069945
629.840014	2574.479461
630.186236	2576.962229
630.532405	2574.870150
630.878521	2575.139852
631.224585	2576.493402
631.570597	2571.459809
631.916556	2576.609348
632.262462	2572.510890
632.608316	2574.237485
632.954117	2573.693041
633.299866	2573.249419
633.645562	2572.825962
633.991206	2570.844789
634.336797	2574.539954
634.682336	2572.299162
635.027823	2569.675241
635.373257	2575.933833
635.718639	2569.821434
636.063968	2572.493246
636.409245	2571.885787
636.754470	2567.033676
637.099642	2570.401167
637.444762	2570.537278
637.789829	2567.300857
638.134845	2571.265725
638.479808	2569.057700
638.824719	2568.835889
639.169577	2570.592731
639.514383	2568.661969
639.859137	2567.908317
640.203839	2570.252453
640.548489	2566.917730
640.893086	2566.559808
641.237632	2561.077553
641.582125	2565.165929
641.926566	2562.176525
642.270955	2568.752710
642.615292	2568.745148
642.959576	2565.808676
643.303809	2569.695406
643.647990	2566.395970
643.992118	2564.702143
644.336195	2566.688357
644.680219	2566.285065
645.024192	2566.479149
645.368112	2568.024263
645.711981	2568.934191
646.055797	2567.341187
646.399562	2568.571228
646.743274	2571.026270
647.086935	2570.285221
647.430544	2568.296485
647.774101	2570.355797
648.117606	2569.304716
648.461059	2573.415777
648.804460	2570.570046
649.147810	2569.544171
649.491108	2568.813204
649.834354	2567.653738
650.177548	2567.711712
650.520690	2568.445199
650.863781	2565.332287
651.206820	2568.936712
651.549807	2567.497462
651.892742	2568.016701
652.235626	2564.460167
652.578458	2568.203224
652.921238	2561.516133
653.263967	2568.132648
653.606644	2563.966134
653.949269	2566.731207
654.291843	2562.519323
654.634365	2564.581155
654.976836	2564.422359
655.319255	2567.162226
655.661622	2563.187276
656.003938	2564.044272
656.346203	2567.300857
656.688416	2566.574931
657.030577	2562.947821
657.372687	2563.313305
657.714746	2561.901782
658.056753	2563.426731
658.398708	2558.292316
658.740612	2562.806669
659.082465	2560.336503
659.424266	2561.075033
659.766016	2560.633932
660.107715	2562.599982
660.449362	2562.804148
660.790958	2565.405384
661.132503	2563.363716
661.473996	2566.494273
661.815438	2562.809189
662.156829	2564.404715
662.498168	2561.536298
662.839456	2564.666855
663.180693	2564.543346
663.521879	2565.397822
663.863013	2562.930177
664.204097	2564.122410
664.545129	2564.654252
664.886110	2561.783315
665.227040	2562.670558
665.567918	2564.591237
665.908746	2563.119220
666.249522	2564.361865
666.590248	2564.858418
666.930922	2562.887327
667.271545	2562.564693
667.612118	2566.078378
667.952639	2566.834551
668.293109	2563.550239
668.633528	2562.012687
668.973896	2565.276834
669.314213	2562.398335
669.654480	2564.215671
669.994695	2562.910012
670.334859	2563.106617
670.674973	2562.552091
671.015035	2563.784653
671.355047	2562.642831
671.695008	2561.851370
672.034918	2564.245918
672.374777	2564.145095
672.714585	2563.043603
673.054342	2563.857749
673.394049	2561.853891
673.733705	2565.516289
674.073310	2563.824982
674.412864	2567.358831
674.752368	2563.535116
675.091820	2562.100907
675.431223	2561.269117
675.770574	2559.471946
676.109875	2558.372974
676.449125	2560.003787
676.788324	2557.546225
677.127473	2557.664692
677.466571	2555.151677
677.805619	2559.880279
678.144616	2558.819116
678.483562	2559.154353
678.822458	2563.351113
679.161303	2563.300702
679.500098	2560.243242
679.838842	2562.080743
680.177535	2559.416493
680.516179	2557.589075
680.854771	2560.460012
681.193314	2562.703325
681.531805	2564.558470
681.870247	2562.625187
682.208638	2560.896072
682.546978	2564.233315
682.885268	2562.816751
683.223508	2563.250290
683.561697	2564.755075
683.899836	2564.964283
684.237925	2560.971689
684.575963	2562.834395
684.913951	2562.587379
685.251889	2562.549570
685.589776	2561.057388
685.927614	2563.109138
686.265401	2561.700136
686.603137	2560.104610
686.940824	2562.100907
687.278460	2564.566032
687.616046	2562.864642
687.953582	2562.839436
688.291068	2564.256001
688.628504	2564.303892
688.965889	2564.578634
689.303224	2564.850857
689.640510	2564.281206
689.977745	2560.611246
690.314930	2562.191648
690.652065	2559.061092
690.989150	2559.461863
691.326185	2561.067471
691.663170	2561.601833
692.000105	2557.669733
692.336990	2560.243242
692.673825	2559.464384
693.010610	2560.147460
693.347345	2555.156718
693.684030	2554.365257
694.020665	2551.907694
694.357251	2550.738147
694.693786	2554.335010
695.030272	2551.764021
695.366707	2553.599001
695.703093	2555.086142
696.039429	2556.265772
696.375716	2556.273333
696.711952	2555.844835
697.048139	2557.460525
697.384276	2553.183106
697.720363	2556.643858
698.056400	2553.835936
698.392388	2553.989691
698.728326	2551.811912
699.064214	2555.759136
699.400053	2554.617314
699.735842	2553.916594
700.071581	2553.893909
700.407270	2554.158569
700.742910	2553.470452
701.078501	2553.024310
701.414042	2552.232849
701.749533	2552.565565
702.084974	2553.046995
702.420366	2549.475338
702.755709	2552.585729
703.091002	2552.689073
703.426246	2553.137736
703.761440	2550.987684
704.096584	2552.464742
704.431679	2551.645554
704.766725	2552.981460
705.101721	2549.233362
705.436668	2551.816953
705.771565	2550.798640
706.106413	2553.911553
706.441212	2550.251675
706.775961	2553.175544
707.110661	2550.090358
707.445311	2553.233518
707.779913	2553.329300
708.114465	2553.871224
708.448967	2553.861141
708.783421	2551.242262
709.117825	2553.634289
709.452180	2553.538508
709.786485	2551.116233
710.120742	2552.462221
710.454949	2553.082283
710.789107	2551.471634
711.123216	2550.924669
711.457275	2554.471121
711.791286	2551.821995
712.125247	2553.432643
712.459159	2554.256872
712.793023	2557.301729
713.126837	2551.040616
713.460602	2556.404403
713.794318	2553.135215
714.127985	2555.025648
714.461602	2550.178578
714.795171	2556.845504
715.128691	2551.078424
715.462162	2553.576316
715.795584	2549.440049
716.128957	2552.280740
716.462281	2553.324258
716.795556	2551.937941
717.128782	2552.008517
717.461960	2550.337375
717.795088	2552.338713
718.128167	2549.873589
718.461198	2549.114895
718.794180	2551.355688
719.127113	2549.818136
719.459997	2550.488609
719.792833	2548.920811
720.125619	2549.114895
720.458357	2549.162786
720.791046	2548.328475
721.123686	2548.643547
721.456278	2548.421736
721.788821	2548.227652
722.121315	2549.089689
722.453761	2548.540203
722.786158	2545.999462
723.118506	2546.881664
723.450805	2549.329144
723.783056	2548.525080
724.115259	2547.141283
724.447412	2548.963660
724.779518	2546.632127
725.111574	2551.572457
725.443582	2549.455173
725.775542	2550.740667
726.107453	2549.286294
726.439315	2547.284956
726.771129	2552.560524
727.102895	2548.726726
727.434612	2549.092210
727.766281	2548.056253
728.097901	2547.690769
728.429473	2545.749925
728.760996	2548.449463
729.092471	2546.165820
729.423897	2548.769576
729.755276	2548.320913
730.086606	2551.312838
730.417887	2550.022303
730.749120	2552.031203
731.080305	2549.840821
731.411442	2550.266799
731.742530	2551.885009
732.073570	2550.317210
732.404562	2553.697304
732.735506	2551.058260
733.066401	2550.712941
733.397249	2550.715461
733.728048	2551.481717
734.058798	2551.030533
734.389501	2550.596994
734.720156	2547.670604
735.050762	2547.418547
735.381320	2550.312169
735.711831	2546.417878
736.042293	2549.346788
736.372707	2548.658671
736.703073	2547.441232
737.033391	2547.862168
737.363661	2546.685059
737.693883	2544.373690
738.024056	2549.346788
738.354182	2548.762014
738.684260	2547.589946
739.014290	2547.325285
739.344272	2548.719164
739.674207	2548.361242
740.004093	2550.667570
740.333931	2549.132539
740.663722	2549.465255
740.993464	2547.174051
741.323159	2546.584236
741.652806	2548.366284
741.982405	2549.366953
742.311956	2545.654143
742.641460	2548.184802
742.970915	2546.904349
743.300323	2546.349822
743.629683	2547.400903
743.958996	2544.552651
744.288260	2546.430481
744.617477	2543.874616
744.946647	2543.824204
745.275768	2541.681714
745.604842	2540.736497
745.933869	2541.003678
746.262847	2541.205325
746.591778	2545.023999
746.920662	2542.843700
747.249498	2546.256561
747.578286	2548.015923
747.907027	2545.757487
748.235720	2547.829401
748.564365	2545.336550
748.892963	2543.741025
749.221514	2546.700182
749.550017	2544.333361
749.878473	2546.332178
750.206881	2542.422763
750.535242	2546.927034
750.863555	2543.360418
751.191821	2545.034081
751.520039	2547.683207
751.848210	2544.358566
752.176334	2546.445604
752.504411	2545.087013
752.832440	2543.400747
753.160421	2545.603731
753.488356	2545.311344
753.816243	2545.049204
754.144082	2543.196580
754.471875	2543.932589
754.799620	2546.284287
755.127318	2543.771272
755.454969	2545.570964
755.782572	2542.629451
756.110129	2545.374359
756.437638	2545.031560
756.765100	2541.850592
757.092515	2543.645243
757.419882	2541.722043
757.747203	2542.125335
758.074477	2544.817311
758.401703	2545.848227
758.728882	2544.562733
759.056014	2542.561395
759.383099	2544.925696
759.710138	2549.704710
760.037129	2544.895449
760.364073	2542.011909
760.690970	2546.823691
761.017820	2544.567774
761.344623	2545.714637
761.671379	2546.057435
761.998088	2541.391847
762.324751	2544.204811
762.651366	2546.906870
762.977935	2553.919115
763.304456	2556.626214
763.630931	2561.127965
763.957359	2560.742316
764.283740	2555.517160
764.610074	2552.857952
764.936362	2548.613300
765.262602	2547.761345
765.588796	2545.321427
765.914943	2544.706406
766.241044	2544.908052
766.567097	2543.544420
766.893104	2541.522917
767.219064	2543.428473
767.544978	2544.295552
767.870845	2540.628112
768.196665	2543.428473
768.522438	2542.069882
768.848165	2540.045859
769.173846	2541.023843
769.499479	2540.688606
769.825066	2538.102494
770.150607	2542.269008
770.476101	2540.837320
770.801548	2540.307999
771.126949	2542.311858
771.452303	2541.951415
771.777611	2539.413194
772.102872	2539.995448
772.428087	2542.044677
772.753256	2542.470654
773.078378	2538.382278
773.403453	2540.625592
773.728482	2541.837989
774.053465	2538.435211
774.378401	2539.624923
774.703291	2540.786909
775.028135	2537.800025
775.352932	2536.471681
775.677683	2540.224820
776.002388	2538.783050
776.327046	2539.914789
776.651658	2538.846065
776.976224	2539.861857
777.300743	2541.049049
777.625216	2538.762886
777.949643	2536.438914
778.274024	2539.604758
778.598359	2537.328677
778.922647	2532.320291
779.246889	2534.054448
779.571086	2531.422966
779.895236	2538.001671
780.219339	2537.737011
780.543397	2539.261960
780.867409	2539.251877
781.191374	2539.009902
781.515294	2539.488812
781.839167	2536.575025
782.162995	2540.076106
782.486776	2538.662062
782.810511	2537.119469
783.134201	2540.766744
783.457844	2538.538554
783.781441	2540.013092
784.104993	2537.807587
784.428498	2538.447813
784.751958	2539.796322
785.075372	2536.854809
785.398739	2535.556712
785.722061	2537.457227
786.045337	2538.286497
786.368568	2539.728267
786.691752	2538.536034
787.014891	2538.629295
787.337983	2540.678524
787.661030	2539.839172
787.984031	2541.396888
788.306987	2537.794984
788.629897	2540.771785
788.952760	2540.701209
789.275579	2535.934798
789.598351	2541.094419
789.921078	2538.417567
790.243759	2538.972093
790.566395	2536.595189
790.888984	2538.533513
791.211529	2537.031249
791.534027	2539.687937
791.856480	2537.943698
792.178888	2537.358924
792.501249	2539.519059
792.823566	2538.704912
793.145836	2536.854809
793.468062	2537.875642
793.790241	2533.154602
794.112375	2535.836496
794.434464	2537.089222
794.756507	2539.297248
795.078505	2537.721887
795.400457	2536.577545
795.722364	2533.245343
796.044226	2536.280117
796.366042	2536.864891
796.687812	2537.752134
797.009538	2540.040818
797.331218	2538.692309
797.652852	2536.338091
797.974442	2539.491332
798.295986	2537.111908
798.617484	2537.467309
798.938938	2535.463450
799.260346	2539.476209
799.581709	2541.278421
799.903026	2535.957483
800.224299	2537.011085
800.545526	2536.345652
800.866708	2539.088040
801.187845	2536.360776
801.508936	2539.012423
801.829983	2537.391692
802.150984	2541.013761
802.471940	2537.366486
802.792851	2539.362783
803.113717	2538.815818
803.434538	2536.582587
803.755314	2536.234747
804.076045	2538.392361
804.396731	2538.601569
804.717372	2534.331711
805.037967	2536.920344
805.358518	2536.504449
805.679024	2541.099460
805.999485	2535.569315
806.319901	2538.019315
806.640272	2534.127545
806.960598	2539.577032
807.280879	2535.231557
807.601115	2535.304654
807.921306	2537.187525
808.241453	2535.816331
808.561554	2538.604089
808.881611	2537.124511
809.201623	2537.227854
809.521590	2534.992103
809.841513	2539.773637
810.161390	2533.658717
810.481223	2535.667617
810.801011	2536.645601
811.120755	2538.316743
811.440453	2539.806404
811.760107	2533.762061
812.079716	2534.808100
812.399281	2532.479087
812.718801	2536.141486
813.038276	2532.907585
813.357707	2535.844058
813.677093	2536.814480
813.996434	2536.345652
814.315731	2534.097298
814.634983	2536.534696
814.954191	2538.417567
815.273354	2536.295241
815.592473	2536.529654
815.911547	2537.704243
816.230577	2537.484953
816.549562	2536.353214
816.868502	2538.026877
817.187399	2535.720549
817.506250	2536.985879
817.825058	2540.582742
818.143821	2537.580735
818.462539	2538.871270
818.781213	2538.946888
819.099843	2540.373534
819.418429	2542.236241
819.736970	2539.919830
820.055466	2539.214069
820.373919	2546.259081
820.692327	2550.130687
821.010691	2554.937428
821.329011	2564.210630
821.647286	2586.880699
821.965517	2611.489092
822.283704	2626.259672
822.601847	2633.846609
822.919945	2621.044599
823.237999	2604.441558
823.556010	2592.604929
823.873976	2580.138156
824.191897	2571.275807
824.509775	2568.425035
824.827609	2558.113355
825.145398	2559.328273
825.463144	2556.918601
825.780845	2558.246945
826.098502	2559.222408
826.416116	2564.901268
826.733685	2572.752865
827.051210	2577.178998
827.368692	2571.013667
827.686129	2567.079047
828.003522	2557.795762
828.320872	2548.792261
828.638177	2549.286294
828.955439	2543.393185
829.272656	2539.856816
829.589830	2538.006713
829.906960	2542.009389
830.224046	2540.277752
830.541088	2539.607279
830.858086	2542.256405
831.175041	2539.950077
831.491952	2539.382947
831.808819	2540.242464
832.125642	2540.126518
832.442421	2540.643236
832.759157	2543.410829
833.075849	2548.560368
833.392497	2551.290153
833.709101	2554.884496
834.025662	2556.222922
834.342179	2552.459701
834.658653	2548.351160
834.975083	2544.855120
835.291469	2549.825698
835.607811	2539.337577
835.924110	2542.092568
836.240366	2539.932433
836.556578	2533.746938
836.872746	2537.220293
837.188871	2536.706095
837.504952	2536.630478
837.820990	2536.300282
838.136984	2533.522606
838.452935	2533.641073
838.768842	2535.425642
839.084706	2535.312216
839.400526	2536.355735
839.716303	2539.579553
840.032037	2542.662218
840.347727	2540.731456
840.663373	2541.054090
840.978977	2539.420756
841.294537	2538.069727
841.610054	2536.002854
841.925527	2538.689789
842.240957	2535.269366
842.556344	2533.068902
842.871687	2531.183511
843.186987	2533.711649
843.502244	2531.748120
843.817458	2532.879859
844.132629	2530.825589
844.447756	2535.649973
844.762840	2528.262162
845.077881	2529.184693
845.392879	2530.432379
845.707833	2534.452699
846.022745	2526.646472
846.337613	2531.417924
846.652438	2534.450178
846.967221	2531.606968
847.281960	2535.604603
847.596656	2532.572349
847.911309	2533.431865
848.225919	2534.142668
848.540485	2530.634025
848.855009	2529.807276
849.169490	2529.875331
849.483928	2534.520755
849.798323	2535.690302
850.112675	2533.260466
850.426984	2531.380116
850.741251	2532.567307
851.055474	2533.242822
851.369654	2533.729293
851.683792	2527.836185
851.997887	2534.407329
852.311938	2532.035466
852.625947	2529.771988
852.939914	2531.866587
853.253837	2533.141999
853.567718	2533.071423
853.881555	2530.452543
854.195350	2532.900024
854.509103	2533.439427
854.822812	2532.620240
855.136479	2532.847092
855.450103	2531.886752
855.763685	2531.385157
856.077224	2530.984385
856.390720	2533.270548
856.704173	2531.007070
857.017584	2534.684592
857.330953	2529.817358
857.644278	2535.743234
857.957561	2536.454037
858.270802	2533.653676
858.584000	2532.315250
858.897155	2534.465302
859.210268	2532.811803
859.523339	2534.067051
859.836367	2530.019004
860.149352	2534.815662
860.462295	2534.634181
860.775195	2528.433561
861.088054	2529.832482
861.400869	2531.324663
861.713642	2528.763757
862.026373	2533.807431
862.339062	2530.492873
862.651708	2530.941535
862.964312	2531.332225
863.276873	2531.609488
863.589392	2532.227030
863.901869	2531.188552
864.214303	2531.995137
864.526696	2531.891793
864.839045	2535.433203
865.151353	2532.015301
865.463619	2532.615198
865.775842	2535.738193
866.088023	2535.347504
866.400162	2533.177287
866.712258	2532.358100
867.024313	2532.940353
867.336325	2533.913296
867.648296	2533.318439
867.960224	2531.851464
868.272110	2531.256608
868.583954	2534.689633
868.895755	2533.968748
869.207515	2532.010260
869.519233	2534.631660
869.830909	2531.536392
870.142542	2531.659900
870.454134	2532.206865
870.765684	2532.879859
871.077191	2533.923378
871.388657	2535.581917
871.700081	2530.785260
872.011463	2533.179808
872.322803	2530.177801
872.634101	2531.957328
872.945357	2532.716022
873.256571	2531.947246
873.567744	2534.004036
873.878874	2534.014119
874.189963	2533.764582
874.501010	2536.902700
874.812015	2535.085364
875.122979	2534.540919
875.433900	2535.544109
875.744780	2536.627957
876.055618	2536.161650
876.366415	2535.133255
876.677169	2536.217103
876.987882	2532.607637
877.298554	2531.722914
877.609183	2531.428007
877.919771	2529.318284
878.230317	2534.558563
878.540822	2538.369676
878.851285	2538.188194
879.161707	2539.990407
879.472087	2541.485109
879.782425	2543.478885
880.092722	2545.772610
880.402977	2553.909032
880.713191	2565.203737
881.023363	2580.075141
881.333494	2588.955134
881.643583	2586.709300
881.953631	2588.299784
882.263637	2587.031934
882.573602	2582.618403
882.883526	2573.415777
883.193408	2568.172977
883.503248	2560.192831
883.813048	2556.898437
884.122806	2553.891388
884.432522	2553.339382
884.742197	2544.182126
885.051831	2545.336550
885.361424	2544.850079
885.670975	2541.162475
885.980485	2539.176260
886.289954	2540.570139
886.599382	2539.604758
886.908768	2539.687937
887.218113	2538.127700
887.527417	2537.578214
887.836680	2534.583769
888.145901	2536.159130
888.455082	2531.808614
888.764221	2536.963194
889.073319	2535.284489
889.382376	2534.296423
889.691392	2535.380271
890.000366	2533.875487
890.309300	2534.346835
890.618193	2536.887576
890.927044	2537.237937
891.235855	2531.589324
891.544625	2534.714839
891.853353	2532.171577
892.162041	2534.424973
892.470687	2538.982176
892.779293	2534.949253
893.087858	2534.551002
893.396381	2534.369520
893.704864	2538.001671
894.013306	2539.670293
894.321707	2551.005328
894.630068	2547.448794
894.938387	2555.358364
895.246665	2551.073383
895.554903	2550.385266
895.863100	2548.094061
896.171256	2543.914945
896.479371	2543.186498
896.787446	2542.392516
897.095480	2538.936805
897.403473	2538.619213
897.711425	2538.402443
898.019336	2536.779192
898.327207	2537.661393
898.635038	2536.632998
898.942827	2536.474202
899.250576	2538.712474
899.558284	2535.191228
899.865952	2536.391023
900.173579	2534.626619
900.481165	2532.133768
900.788711	2534.039324
901.096216	2534.021680
901.403681	2532.504293
901.711105	2535.544109
902.018489	2534.165353
902.325832	2534.452699
902.633135	2535.473533
902.940397	2536.703574
903.247619	2533.941022
903.554800	2538.402443
903.861941	2547.347971
904.169041	2555.859959
904.476101	2557.546225
904.783121	2561.309446
905.090100	2553.036913
905.397039	2549.356870
905.703938	2544.287990
906.010796	2543.970398
906.317614	2540.696168
906.624391	2540.008051
906.931129	2538.147865
907.237826	2534.336753
907.544483	2534.729962
907.851099	2534.435055
908.157675	2533.005888
908.464211	2533.414221
908.770707	2526.674199
909.077163	2531.201155
909.383578	2526.414579
909.689954	2528.589837
909.996289	2524.859383
910.302584	2534.349355
910.608839	2533.993954
910.915054	2531.959848
911.221229	2533.721732
911.527363	2530.999509
911.833458	2532.539581
912.139513	2533.983872
912.445527	2533.646114
912.751502	2530.394570
913.057436	2533.275590
913.363331	2534.248532
913.669186	2533.411701
913.975000	2534.155271
914.280775	2536.073430
914.586510	2537.699202
914.892205	2539.173740
915.197859	2544.129194
915.503475	2545.356715
915.809050	2554.418189
916.114585	2555.907850
916.420081	2556.908519
916.725536	2557.785680
917.030952	2553.621687
917.336328	2547.274874
917.641665	2548.567930
917.946961	2543.279759
918.252218	2542.364790
918.557435	2543.055428
918.862612	2538.528472
919.167750	2536.733821
919.472848	2538.626774
919.777906	2535.465971
920.082925	2537.119469
920.387904	2532.864736
920.692843	2535.350024
920.997743	2533.593182
921.302603	2531.982534
921.607423	2531.604447
921.912204	2534.087215
922.216946	2532.252235
922.521647	2533.184849
922.826310	2531.574200
923.130932	2532.048069
923.435516	2532.221988
923.740059	2532.486649
924.044564	2532.121165
924.349028	2532.496731
924.653454	2526.280989
924.957840	2526.394415
925.262186	2526.679240
925.566493	2526.840557
925.870761	2525.003056
926.174989	2531.755682
926.479178	2527.601771
926.783328	2531.846422
927.087438	2528.395753
927.391509	2531.985054
927.695541	2529.910619
927.999533	2529.459436
928.303486	2526.807789
928.607400	2528.909950
928.911275	2527.591689
929.215110	2529.260311
929.518906	2529.698891
929.822663	2528.549508
930.126381	2528.446164
930.430060	2529.378778
930.733699	2529.658562
931.037299	2529.351051
931.340861	2527.735362
931.644383	2528.662934
931.947866	2529.721576
932.251309	2528.804086
932.554714	2529.383819
932.858080	2531.828778
933.161407	2528.471370
933.464694	2529.406504
933.767943	2527.616894
934.071153	2528.589837
934.374323	2528.536905
934.677455	2528.758716
934.980548	2528.360465
935.283602	2529.406504
935.586617	2527.400125
935.889593	2528.131092
936.192530	2528.408356
936.495428	2530.573531
936.798287	2530.535723
937.101108	2529.204858
937.403890	2529.081350
937.706632	2534.533357
938.009336	2528.642769
938.312002	2532.078316
938.614628	2529.406504
938.917216	2531.470857
939.219765	2530.019004
939.522275	2531.395239
939.824747	2531.884231
940.127179	2527.929446
940.429573	2526.689322
940.731929	2529.703932
941.034246	2523.856194
941.336524	2528.478932
941.638763	2527.556401
941.940964	2529.295599
942.243126	2530.807945
942.545250	2531.821217
942.847335	2528.607481
943.149381	2526.790145
943.451389	2529.484642
943.753359	2529.792152
944.055290	2528.869621
944.357182	2529.726617
944.659036	2529.119158
944.960851	2531.599406
945.262628	2527.800897
945.564367	2531.254087
945.866067	2526.018849
946.167729	2529.845084
946.469352	2529.025897
946.770937	2530.656710
947.072484	2527.601771
947.373992	2528.534384
947.675462	2529.222502
947.976893	2530.260980
948.278286	2531.370033
948.579641	2530.679395
948.880958	2527.937008
949.182236	2530.266021
949.483476	2526.432223
949.784678	2529.963552
950.085841	2525.958355
950.386967	2529.993798
950.688054	2525.923067
950.989103	2527.740403
951.290114	2528.851977
951.591087	2530.354241
951.892021	2529.751823
952.192917	2529.386339
952.493776	2528.637728
952.794596	2528.710825
953.095378	2526.293592
953.396122	2528.557070
953.696828	2527.750485
953.997496	2529.184693
954.298126	2529.426669
954.598718	2530.732328
954.899272	2528.433561
955.199788	2526.913653
955.500266	2526.661596
955.800706	2525.839888
956.101108	2523.210926
956.401472	2526.480114
956.701798	2522.333765
957.002087	2526.467511
957.302337	2525.050947
957.602550	2527.601771
957.902724	2525.580268
958.202861	2526.822913
958.502960	2525.234949
958.803022	2526.127233
959.103045	2527.132944
959.403031	2530.087060
959.702979	2526.296112
960.002889	2527.574045
960.302762	2525.928108
960.602596	2526.880886
960.902393	2527.037162
961.202153	2525.539939
961.501875	2527.720238
961.801559	2526.422141
962.101205	2526.623787
962.400814	2526.976668
962.700385	2527.505989
962.999918	2528.980527
963.299414	2524.793848
963.598873	2524.766122
963.898293	2523.841070
964.197677	2526.298633
964.497022	2525.522295
964.796331	2528.993129
965.095601	2525.948273
965.394835	2527.208561
965.694030	2527.294261
965.993189	2525.897861
966.292309	2527.637059
966.591393	2526.265865
966.890439	2525.517254
967.189447	2525.471883
967.488419	2527.889117
967.787353	2527.493386
968.086249	2523.362161
968.385108	2526.888448
968.683930	2525.663447
968.982714	2525.161853
969.281462	2525.875176
969.580172	2526.407017
969.878844	2528.577234
970.177480	2526.946421
970.476078	2527.717718
970.774639	2527.480783
971.073162	2524.927439
971.371649	2527.059847
971.670098	2522.091790
971.968510	2523.740247
972.266885	2519.997190
972.565223	2523.581451
972.863524	2524.750998
973.161788	2526.026410
973.460014	2527.329549
973.758204	2526.991791
974.056356	2527.619415
974.354471	2527.261493
974.652550	2526.714528
974.950591	2528.640249
975.248595	2529.378778
975.546563	2527.594209
975.844493	2526.651513
976.142386	2528.388191
976.440243	2527.299302
976.738062	2528.030269
977.035845	2527.463139
977.333590	2525.973478
977.631299	2525.474404
977.928971	2526.487676
978.226606	2525.789476
978.524204	2525.348375
978.821765	2524.675381
979.119290	2528.136133
979.416777	2525.126564
979.714228	2526.434744
980.011642	2526.366688
980.309020	2529.628315
980.606360	2526.142357
980.903664	2526.124713
981.200931	2527.085053
981.498162	2527.349713
981.795356	2525.970958
982.092513	2526.306194
982.389633	2527.087573
982.686717	2530.218130
982.983764	2528.851977
983.280775	2528.751154
983.577749	2526.502799
983.874686	2529.217461
984.171587	2530.180321
984.468451	2522.918539
984.765279	2527.818541
985.062070	2527.024559
985.358824	2526.296112
985.655543	2524.970289
985.952224	2526.938859
986.248869	2526.908612
986.545478	2522.013652
986.842050	2524.045237
987.138586	2524.493900
987.435086	2521.287726
987.731549	2521.880061
988.027975	2525.045906
988.324366	2526.543129
988.620719	2523.841070
988.917037	2527.876514
989.213318	2528.166380
989.509563	2525.360978
989.805772	2525.285361
990.101944	2522.890813
990.398080	2524.420803
990.694180	2525.514733
990.990244	2523.727644
991.286271	2523.825947
991.582262	2524.680422
991.878217	2526.621267
992.174136	2524.302336
992.470019	2525.774353
992.765865	2523.392408
993.061676	2525.655886
993.357450	2525.789476
993.653188	2527.271575
993.948890	2525.270237
994.244556	2525.494569
994.540186	2525.998684
994.835780	2525.096318
995.131337	2525.512213
995.426859	2526.921215
995.722345	2526.258303
996.017795	2523.175638
996.313208	2525.880217
996.608586	2525.308046
996.903928	2525.429034
997.199234	2521.446522
997.494504	2524.594723
997.789738	2526.253262
998.084936	2526.810310
998.380099	2526.767460
998.675225	2527.672347
998.970316	2526.752337
999.265371	2523.029444
999.560390	2525.524816
999.855373	2525.865093
1000.150320	2526.457429
1000.445232	2526.286030
1000.740108	2523.982222
1001.034948	2522.384177
1001.329752	2524.798889
1001.624521	2527.616894
1001.919254	2520.617252
1002.213951	2523.871317
1002.508613	2520.055164
1002.803239	2523.518436
1003.097829	2521.406193
1003.392384	2527.140505
1003.686903	2524.098169
1003.981386	2527.823582
1004.275834	2524.919877
1004.570246	2527.407687
1004.864623	2525.940711
1005.158964	2522.454753
1005.453270	2525.091276
1005.747540	2524.708149
1006.041775	2525.371060
1006.335974	2525.265196
1006.630138	2525.713859
1006.924266	2526.127233
1007.218359	2525.817202
1007.512416	2525.068591
1007.806438	2523.823426
1008.100425	2526.419620
1008.394376	2525.923067
1008.688292	2523.495751
1008.982172	2522.739578
1009.276017	2524.274609
1009.569827	2524.564476
1009.863602	2525.918026
1010.157341	2524.725793
1010.451045	2525.562624
1010.744714	2525.923067
1011.038347	2524.950124
1011.331945	2523.624301
1011.625508	2528.451205
1011.919036	2525.963396
1012.212528	2524.380474
1012.505986	2524.148581
1012.799408	2525.313087
1013.092795	2524.763601
1013.386147	2521.232273
1013.679464	2524.289733
1013.972745	2523.858714
1014.265992	2525.376102
1014.559204	2526.023890
1014.852380	2525.650844
1015.145521	2525.678571
1015.438628	2525.290402
1015.731699	2525.431554
1016.024736	2524.393077
1016.317737	2524.768643
1016.610703	2525.736544
1016.903635	2520.788652
1017.196531	2520.955010
1017.489393	2523.669671
1017.782219	2520.191275
1018.075011	2521.265041
1018.367768	2523.253776
1018.660490	2522.139681
1018.953177	2522.139681
1019.245829	2522.139681
