Dividing Wavelength (nm)	Counts (n)	Blue Motor Position (mm): 0.000000	Red Motor Position (mm): 10.000000	
326.493990	2130.469753
326.888308	2130.469753
327.282561	2130.469753
327.676750	2097.183014
328.070874	2093.944073
328.464933	2098.859198
328.858929	2103.345825
329.252859	2111.300766
329.646726	2124.362395
330.040528	2135.437810
330.434265	2155.569658
330.827938	2169.644560
331.221547	2188.987467
331.615091	2209.663760
332.008571	2228.759650
332.401986	2247.477455
332.795338	2267.195928
333.188625	2285.671757
333.581847	2304.003913
333.975006	2321.879844
334.368100	2342.515808
334.761129	2356.888137
335.154095	2375.701723
335.546996	2393.635628
335.939833	2407.009809
336.332606	2422.113106
336.725315	2437.778492
337.117960	2443.800150
337.510540	2452.659978
337.903056	2463.304374
338.295508	2469.222689
338.687896	2480.555203
339.080220	2486.440750
339.472480	2491.411328
339.864676	2496.714621
340.256807	2504.074706
340.648875	2503.484891
341.040879	2510.335819
341.432818	2509.730881
341.824694	2512.831190
342.216506	2512.969822
342.608253	2512.306910
342.999937	2512.380007
343.391557	2512.750532
343.783113	2509.100736
344.174605	2509.367918
344.566033	2509.877074
344.957397	2507.790036
345.348697	2504.084788
345.739934	2503.472288
346.131106	2497.753099
346.522215	2499.784684
346.913260	2497.886690
347.304241	2500.278717
347.695159	2494.758654
348.086012	2494.466267
348.476802	2491.184476
348.867528	2488.621049
349.258191	2487.028044
349.648789	2491.287819
350.039324	2483.544607
350.429796	2486.357571
350.820203	2481.661736
351.210548	2481.835656
351.600828	2482.175934
351.991045	2481.197950
352.381198	2480.923207
352.771288	2481.208032
353.161314	2479.294914
353.551276	2477.706951
353.941175	2479.103350
354.331010	2481.273567
354.720782	2479.647795
355.110490	2480.792137
355.500135	2479.783906
355.889717	2478.558906
356.279235	2480.524956
356.668689	2484.081490
357.058080	2481.513022
357.447408	2480.648464
357.836672	2479.262147
358.225873	2479.015130
358.615010	2478.100161
359.004084	2480.973618
359.393095	2483.779021
359.782043	2486.024855
360.170927	2486.158445
360.559748	2483.232055
360.948505	2484.704072
361.337199	2486.402941
361.725830	2488.482417
362.114398	2486.977633
362.502903	2487.907726
362.891344	2488.300936
363.279722	2488.595843
363.668037	2490.491317
364.056289	2492.444764
364.444478	2491.872593
364.832603	2489.523415
365.220665	2489.404948
365.608665	2493.727738
365.996601	2494.768736
366.384474	2494.236894
366.772284	2492.263282
367.160031	2497.223778
367.547715	2496.991885
367.935336	2500.069509
368.322893	2500.669407
368.710388	2506.171826
369.097820	2513.889832
369.485189	2514.356139
369.872495	2518.447036
370.259738	2523.362161
370.646918	2535.019829
371.034035	2539.655170
371.421090	2552.719320
371.808081	2562.756257
372.195010	2571.636250
372.581875	2584.433219
372.968678	2598.311515
373.355418	2607.350304
373.742096	2625.145577
374.128710	2640.107722
374.515262	2653.832263
374.901751	2671.400684
375.288177	2682.783610
375.674540	2704.296734
376.060841	2725.643500
376.447079	2743.489184
376.833254	2766.164294
377.219367	2772.090171
377.605417	2811.685914
377.991404	2821.034733
378.377329	2841.184225
378.763191	2858.238449
379.148991	2893.244221
379.534727	2914.018816
379.920402	2938.949843
380.306013	2948.192798
380.691563	2991.415651
381.077049	3004.905779
381.462474	3017.680063
381.847835	3045.872716
382.233134	3057.268244
382.618371	3054.707338
383.003545	3105.242384
383.388657	3098.613267
383.773706	3118.031792
384.158693	3120.023048
384.543618	3124.149232
384.928480	3145.070020
385.313280	3168.493742
385.698017	3149.080258
386.082692	3174.908610
386.467305	3161.335303
386.851856	3164.528874
387.236344	3163.074501
387.620770	3163.631549
388.005133	3157.360353
388.389435	3152.800630
388.773674	3138.965183
389.157851	3138.239257
389.541965	3126.011938
389.926018	3081.395206
390.310008	3094.257710
390.693936	3077.614341
391.077802	3072.769792
391.461606	3039.765358
391.845348	3036.838968
392.229027	3014.930113
392.612645	2989.762153
392.996200	2992.144098
393.379694	2983.110350
393.763125	2976.060297
394.146494	2934.453133
394.529801	2928.517175
394.913047	2910.268198
395.296230	2874.251674
395.679351	2857.681401
396.062410	2837.451251
396.445408	2810.584422
396.828343	2791.543983
397.211217	2767.170005
397.594028	2738.047259
397.976778	2724.577296
398.359466	2710.275542
398.742092	2690.153777
399.124656	2673.815397
399.507158	2663.221412
399.889598	2649.239772
400.271977	2639.278452
400.654294	2627.698922
401.036549	2612.663680
401.418742	2601.381578
401.800874	2593.507296
402.182944	2585.824577
402.564952	2576.669842
402.946898	2572.563822
403.328783	2563.996381
403.710606	2552.341233
404.092367	2553.437684
404.474067	2546.843855
404.855705	2544.585418
405.237282	2538.147865
405.618797	2536.373379
406.000250	2534.263656
406.381642	2530.049251
406.762972	2528.133613
407.144240	2531.422966
407.525447	2528.559590
407.906593	2526.026410
408.287677	2524.478776
408.668700	2524.398118
409.049661	2524.072963
409.430560	2523.221008
409.811399	2522.842922
410.192176	2522.797551
410.572891	2518.101717
410.953545	2523.117665
411.334138	2519.576254
411.714669	2521.696059
412.095139	2520.445853
412.475547	2521.444002
412.855894	2520.987777
413.236180	2519.283867
413.616405	2521.499454
413.996568	2518.358815
414.376670	2519.561131
414.756711	2520.034999
415.136691	2522.641276
415.516609	2519.218332
415.896466	2519.077180
416.276262	2522.346368
416.655997	2516.274298
417.035670	2515.825636
417.415283	2519.142715
417.794834	2516.002076
418.174324	2520.166069
418.553753	2522.326203
418.933121	2519.530884
419.312428	2520.090452
419.691674	2521.191944
420.070859	2523.258817
420.449983	2522.225380
420.829045	2522.036337
421.208047	2522.873169
421.586988	2521.159176
421.965867	2523.425175
422.344686	2521.869979
422.723444	2522.119516
423.102141	2523.740247
423.480777	2524.824095
423.859352	2523.218488
424.237866	2522.406862
424.616319	2524.259486
424.994712	2524.206554
425.373044	2523.198323
425.751314	2527.546318
426.129524	2524.408200
426.507673	2524.766122
426.885762	2519.999711
427.263789	2526.061698
427.641756	2523.344517
428.019662	2525.839888
428.397508	2525.313087
428.775292	2526.573376
429.153016	2522.061543
429.530679	2525.076153
429.908282	2525.963396
430.285824	2525.373581
430.663305	2527.604292
431.040726	2524.869466
431.418086	2525.429034
431.795385	2527.427851
432.172624	2526.434744
432.549802	2524.808972
432.926920	2527.574045
433.303977	2525.335772
433.680974	2526.898530
434.057910	2526.379291
434.434786	2526.424662
434.811601	2528.032790
435.188355	2526.964065
435.565050	2528.022707
435.941683	2528.027748
436.318257	2526.175124
436.694770	2521.985926
437.071222	2523.679753
437.447614	2521.335617
437.823946	2523.707480
438.200218	2526.752337
438.576429	2525.794517
438.952580	2526.911133
439.328670	2529.217461
439.704700	2526.268386
440.080670	2528.899868
440.456580	2528.786442
440.832429	2528.662934
441.208218	2528.511699
441.583947	2530.679395
441.959616	2528.231915
442.335224	2528.879703
442.710773	2526.258303
443.086261	2528.592358
443.461689	2528.068078
443.837057	2527.916843
444.212365	2528.461288
444.587612	2529.129241
444.962800	2530.248377
445.337927	2530.994468
445.712995	2527.841226
446.088002	2528.927594
446.462949	2531.241484
446.837837	2529.230064
447.212664	2529.053623
447.587431	2532.030425
447.962139	2529.782070
448.336786	2535.410518
448.711374	2532.456402
449.085901	2533.154602
449.460369	2529.025897
449.834776	2531.024714
450.209124	2530.560928
450.583412	2533.613347
450.957640	2534.087215
451.331808	2533.676361
451.705917	2530.387008
452.079965	2531.440610
452.453954	2534.692154
452.827883	2531.710311
453.201752	2535.864222
453.575562	2532.456402
453.949311	2530.984385
454.323001	2531.617050
454.696632	2532.458923
455.070202	2532.587472
455.443713	2531.581762
455.817164	2529.356093
456.190556	2527.001874
456.563888	2531.420445
456.937160	2529.603109
457.310373	2532.438758
457.683526	2533.444468
458.056619	2533.941022
458.429653	2535.052596
458.802628	2532.877338
459.175542	2535.793646
459.548398	2533.860363
459.921194	2535.912113
460.293930	2537.379089
460.666607	2534.180477
461.039224	2539.554347
461.411782	2539.201466
461.784280	2538.047042
462.156719	2533.643594
462.529099	2535.929757
462.901419	2533.570497
463.273680	2535.665097
463.645882	2533.381454
464.018024	2535.899510
464.390106	2535.332380
464.762130	2536.295241
465.134094	2538.276414
465.505999	2538.677186
465.877845	2543.572146
466.249631	2542.805891
466.621358	2537.396733
466.993026	2542.977290
467.364634	2542.316899
467.736184	2541.071734
468.107674	2538.871270
468.479105	2537.522762
468.850477	2538.258770
469.221790	2539.483771
469.593043	2535.874304
469.964238	2539.425797
470.335373	2539.241795
470.706449	2540.307999
471.077467	2539.375386
471.448425	2540.292876
471.819324	2542.397558
472.190164	2542.727753
472.560945	2540.393699
472.931667	2539.703061
473.302330	2535.879346
473.672934	2539.186343
474.043479	2538.979655
474.413965	2540.406302
474.784393	2532.761392
475.154761	2534.712318
475.525070	2532.378264
475.895321	2536.910262
476.265513	2531.433048
476.635645	2541.255736
477.005719	2539.415715
477.375734	2535.193749
477.745691	2538.034439
478.115588	2537.623585
478.485427	2537.827752
478.855207	2540.688606
479.224928	2542.737835
479.594591	2541.656508
479.964194	2540.446631
480.333739	2541.391847
480.703226	2541.477547
481.072653	2540.164326
481.442022	2541.898483
481.811333	2541.016281
482.180584	2541.323792
482.549777	2541.598535
482.918912	2542.735315
483.287988	2544.101468
483.657005	2540.678524
484.025964	2543.519214
484.394864	2540.592824
484.763706	2541.986703
485.132489	2542.062321
485.501213	2544.073741
485.869879	2541.275901
486.238487	2539.670293
486.607036	2541.001158
486.975527	2543.032743
487.343959	2542.584080
487.712333	2541.122146
488.080648	2539.798843
488.448905	2541.588452
488.817104	2544.575336
489.185244	2540.928061
489.553326	2543.183977
489.921350	2544.897970
490.289315	2543.836807
490.657222	2545.886036
491.025070	2545.404606
491.392861	2543.413350
491.760593	2543.234389
492.128267	2543.647764
492.495883	2545.817980
492.863440	2541.268339
493.230939	2541.311189
493.598380	2543.647764
493.965763	2538.709953
494.333088	2540.713812
494.700354	2539.302289
495.067563	2540.396219
495.434713	2538.074768
495.801805	2543.962836
496.168839	2542.896632
496.535815	2542.412681
496.902733	2542.445448
497.269593	2543.972918
497.636395	2542.775644
498.003139	2543.055428
498.369825	2542.460572
498.736453	2541.270860
499.103023	2542.594163
499.469535	2542.001827
499.835989	2542.581560
500.202385	2543.557023
500.568723	2539.219110
500.935003	2541.296065
501.301226	2542.841179
501.667390	2540.083668
502.033497	2544.545089
502.399546	2542.629451
502.765537	2543.277239
503.131470	2544.151879
503.497345	2544.923176
503.863163	2545.891077
504.228923	2543.695655
504.594625	2543.415871
504.960269	2542.752959
505.325856	2545.830583
505.691385	2542.818494
506.056856	2544.033412
506.422270	2542.243802
506.787625	2544.161961
507.152924	2545.512991
507.518164	2545.026519
507.883347	2542.778165
508.248472	2544.940820
508.613540	2546.488454
508.978550	2543.388144
509.343503	2546.216232
509.708398	2546.798485
510.073236	2543.264636
510.438016	2543.988042
510.802738	2544.519883
511.167403	2545.238248
511.532010	2542.833617
511.896561	2547.721016
512.261053	2547.055584
512.625488	2541.613658
512.989866	2542.856303
513.354186	2540.532331
513.718449	2540.965870
514.082655	2545.389482
514.446803	2544.091385
514.810894	2547.927703
515.174927	2543.647764
515.538904	2545.540717
515.902822	2548.033568
516.266684	2541.762372
516.630488	2544.517363
516.994235	2545.863351
517.357925	2545.475182
517.721558	2545.502908
518.085133	2544.650953
518.448651	2546.503577
518.812112	2545.853268
519.175516	2546.687579
519.538863	2546.165820
519.902152	2547.315203
520.265385	2545.931406
520.628560	2546.019627
520.991678	2543.579708
521.354739	2544.850079
521.717743	2545.114739
522.080690	2545.114739
522.443580	2546.286808
522.806413	2544.451828
523.169189	2545.482744
523.531908	2546.541386
523.894569	2546.150697
524.257174	2546.322096
524.619722	2544.391334
524.982213	2547.055584
525.344647	2545.618855
525.707025	2544.570295
526.069345	2544.126673
526.431608	2544.204811
526.793815	2544.600542
527.155964	2545.691952
527.518057	2546.674977
527.880093	2546.473330
528.242072	2547.758825
528.603995	2546.306972
528.965860	2547.794113
529.327669	2548.774617
529.689421	2545.331509
530.051117	2547.453835
530.412755	2546.397713
530.774337	2547.196736
531.135862	2548.136911
531.497331	2543.269677
531.858743	2541.512835
532.220098	2545.422250
532.581396	2542.458051
532.942638	2545.013916
533.303824	2545.402085
533.664953	2547.166489
534.026025	2547.163968
534.387040	2545.250851
534.747999	2548.333516
535.108902	2544.741694
535.469748	2548.388969
535.830537	2547.741181
536.191270	2545.167672
536.551947	2545.480223
536.912567	2545.913762
537.273131	2545.452497
537.633638	2546.238917
537.994089	2546.218752
538.354483	2544.635830
538.714821	2543.993083
539.075103	2546.581715
539.435328	2548.119267
539.795497	2546.153217
540.155609	2547.292518
540.515665	2547.743701
540.875665	2544.328319
541.235609	2545.944009
541.595496	2545.883515
541.955328	2547.569781
542.315102	2546.826211
542.674821	2545.523073
543.034483	2547.000131
543.394090	2548.083979
543.753640	2546.556509
544.113134	2547.519370
544.472571	2548.212528
544.831953	2548.260419
545.191278	2546.198588
545.550548	2546.571633
545.909761	2548.336037
546.268918	2546.594318
546.628019	2546.319575
546.987064	2547.199257
547.346053	2548.061294
547.704986	2548.008362
548.063863	2546.246478
548.422684	2545.780172
548.781449	2546.851417
549.140158	2547.685728
549.498811	2549.311500
549.857408	2546.367466
550.215949	2544.991231
550.574434	2545.321427
550.932864	2544.134235
551.291237	2541.918648
551.649555	2545.177754
552.007817	2544.829914
552.366022	2546.566592
552.724173	2546.740512
553.082267	2548.207487
553.440305	2545.331509
553.798288	2548.706562
554.156215	2546.924514
554.514086	2548.469627
554.871902	2547.741181
555.229661	2548.096582
555.587365	2548.010882
555.945014	2546.448125
556.302606	2546.959802
556.660143	2549.137580
557.017625	2546.939637
557.375050	2546.793444
557.732421	2546.221273
558.089735	2546.133053
558.446994	2546.869061
558.804197	2546.392672
559.161345	2548.502395
559.518437	2548.043650
559.875474	2548.293187
560.232455	2547.421067
560.589381	2548.862837
560.946251	2551.166645
561.303065	2548.888043
561.659825	2548.767055
562.016528	2542.528628
562.373177	2546.007024
562.729770	2546.642209
563.086307	2548.668753
563.442789	2549.130018
563.799216	2548.779658
564.155587	2547.090872
564.511904	2544.787064
564.868164	2543.809081
565.224370	2550.319731
565.580520	2546.586756
565.936615	2546.145655
566.292654	2547.572302
566.648638	2545.908721
567.004567	2548.968702
567.360441	2548.711603
567.716260	2547.794113
568.072023	2545.588608
568.427732	2540.678524
568.783385	2543.393185
569.138982	2545.747404
569.494525	2544.013247
569.850013	2544.504760
570.205445	2548.330996
570.560823	2546.480892
570.916145	2546.201108
571.271412	2546.475851
571.626625	2548.187323
571.981782	2545.812939
572.336884	2548.199926
572.691931	2544.325799
573.046923	2547.186654
573.401860	2545.349153
573.756743	2546.334699
574.111570	2547.244627
574.466342	2548.643547
574.821059	2546.901828
575.175722	2547.688248
575.530330	2545.107178
575.884882	2549.772766
576.239380	2545.593649
576.593823	2549.346788
576.948211	2546.874102
577.302544	2547.337888
577.656823	2546.576674
578.011047	2546.052394
578.365216	2548.078938
578.719330	2545.870913
579.073389	2546.916952
579.427394	2545.971736
579.781344	2547.375697
580.135239	2546.589277
580.489080	2545.021478
580.842866	2547.418547
581.196597	2548.492312
581.550273	2546.692621
581.903895	2546.128011
582.257463	2545.447456
582.610975	2545.906201
582.964434	2545.545758
583.317837	2546.707744
583.671186	2546.501057
584.024481	2545.351674
584.377721	2546.816129
584.730906	2546.312013
585.084037	2549.205636
585.437113	2547.630275
585.790135	2545.898639
586.143103	2545.918803
586.496016	2548.036088
586.848874	2540.890253
587.201679	2546.801005
587.554428	2544.363607
587.907124	2544.083823
588.259765	2544.106509
588.612352	2549.117416
588.964884	2546.924514
589.317362	2546.319575
589.669786	2547.889895
590.022155	2547.431150
590.374470	2545.817980
590.726731	2548.401572
591.078937	2545.081972
591.431090	2546.286808
591.783188	2545.502908
592.135232	2546.208670
592.487222	2544.237579
592.839157	2544.887887
593.191038	2544.731612
593.542866	2545.051725
593.894639	2544.119112
594.246358	2546.758156
594.598022	2544.807229
594.949633	2546.715306
595.301190	2543.027702
595.652692	2545.034081
596.004141	2544.787064
596.355535	2546.952240
596.706876	2541.273380
597.058162	2547.577343
597.409395	2545.013916
597.760573	2543.919986
598.111698	2544.555171
598.462768	2545.976777
598.813785	2544.577857
599.164748	2544.739173
599.515657	2546.488454
599.866511	2546.511139
600.217312	2544.514842
600.568060	2545.313865
600.918753	2547.446273
601.269392	2546.773279
601.619978	2545.886036
601.970510	2545.480223
602.320988	2545.795295
602.671412	2543.826725
603.021783	2543.705737
603.372100	2544.204811
603.722363	2543.516694
604.072572	2545.896118
604.422728	2545.364277
604.772830	2543.778834
605.122878	2540.270191
605.472872	2540.887732
605.822813	2541.197763
606.172701	2541.916127
606.522534	2545.729760
606.872314	2546.884184
607.222041	2544.091385
607.571714	2545.210521
607.921333	2545.361756
608.270899	2545.802857
608.620411	2547.872251
608.969870	2545.792775
609.319276	2545.689431
609.668627	2550.259237
610.017926	2553.470452
610.367171	2553.684701
610.716362	2555.073539
611.065500	2551.028013
611.414585	2548.502395
611.763616	2549.162786
612.112594	2546.906870
612.461518	2548.837632
612.810389	2548.091541
613.159207	2545.565923
613.507971	2547.526932
613.856682	2547.882333
614.205340	2545.276056
614.553945	2546.780841
614.902496	2546.037271
615.250994	2545.298742
615.599439	2547.990718
615.947830	2544.827394
616.296169	2543.998124
616.644454	2544.136756
616.992686	2546.496016
617.340864	2544.948381
617.688990	2547.118598
618.037063	2544.154400
618.385082	2545.626417
618.733048	2544.051056
619.080961	2543.141128
619.428821	2543.945192
619.776628	2545.724719
620.124382	2548.794782
620.472083	2544.005686
620.819731	2547.673125
621.167326	2546.291849
621.514868	2546.289328
621.862357	2543.859492
622.209793	2544.068700
622.557176	2546.695141
622.904506	2543.143648
623.251783	2538.594007
623.599007	2541.008720
623.946179	2539.420756
624.293297	2539.307330
624.640363	2545.702034
624.987376	2545.215563
625.334336	2544.020809
625.681243	2544.827394
626.028097	2543.919986
626.374899	2542.866385
626.721647	2544.779503
627.068343	2545.880995
627.414987	2544.492157
627.761577	2544.555171
628.108115	2542.803370
628.454600	2546.485933
628.801032	2542.493339
629.147412	2543.670449
629.493739	2543.642722
629.840014	2545.954092
630.186236	2545.407126
630.532405	2545.500388
630.878521	2541.285983
631.224585	2544.502239
631.570597	2544.797147
631.916556	2544.323278
632.262462	2540.776827
632.608316	2540.744059
632.954117	2544.043494
633.299866	2543.350336
633.645562	2543.584749
633.991206	2543.458720
634.336797	2542.205994
634.682336	2541.769934
635.027823	2542.417722
635.373257	2540.683565
635.718639	2540.355890
636.063968	2543.284801
636.409245	2540.681045
636.754470	2541.895963
637.099642	2542.304296
637.444762	2543.325130
637.789829	2540.426466
638.134845	2543.768751
638.479808	2540.292876
638.824719	2542.543751
639.169577	2543.214224
639.514383	2545.044163
639.859137	2542.521066
640.203839	2542.379913
640.548489	2540.849923
640.893086	2538.253729
641.237632	2535.052596
641.582125	2540.514687
641.926566	2534.525796
642.270955	2542.793288
642.615292	2545.921324
642.959576	2541.865716
643.303809	2539.483771
643.647990	2541.190201
643.992118	2537.447144
644.336195	2539.897145
644.680219	2541.157434
645.024192	2540.582742
645.368112	2539.251878
645.711981	2541.727084
646.055797	2542.205994
646.399562	2543.604914
646.743274	2539.808925
647.086935	2542.674821
647.430544	2541.853113
647.774101	2541.540561
648.117606	2543.312527
648.461059	2540.360931
648.804460	2542.584080
649.147810	2543.163813
649.491108	2541.717002
649.834354	2540.728936
650.177548	2542.236241
650.520690	2541.003678
650.863781	2543.012578
651.206820	2546.430481
651.549807	2540.083668
651.892742	2543.897301
652.235626	2540.829759
652.578458	2540.111394
652.921238	2540.650798
653.263967	2540.005530
653.606644	2541.341436
653.949269	2541.328833
654.291843	2541.086857
654.634365	2541.870757
654.976836	2540.522248
655.319255	2542.432846
655.661622	2540.224820
656.003938	2540.766744
656.346203	2542.011909
656.688416	2542.760521
657.030577	2539.778678
657.372687	2538.145344
657.714746	2539.113246
658.056753	2541.863195
658.398708	2537.086702
658.740612	2539.415715
659.082465	2536.297761
659.424266	2539.065355
659.766016	2535.982689
660.107715	2541.071734
660.449362	2542.117773
660.790958	2538.102494
661.132503	2541.709440
661.473996	2543.496529
661.815438	2540.416384
662.156829	2538.084850
662.498168	2538.437731
662.839456	2539.279604
663.180693	2538.596527
663.521879	2541.016281
663.863013	2539.493853
664.204097	2541.598535
664.545129	2541.986703
664.886110	2538.835982
665.227040	2539.503935
665.567918	2539.332536
665.908746	2538.533513
666.249522	2541.069213
666.590248	2540.595345
666.930922	2537.316074
667.271545	2540.181970
667.612118	2540.020653
667.952639	2539.912269
668.293109	2540.754141
668.633528	2538.803215
668.973896	2537.386651
669.314213	2539.380427
669.654480	2539.294727
669.994695	2538.641898
670.334859	2540.381096
670.674973	2540.945705
671.015035	2538.893956
671.355047	2537.850437
671.695008	2540.547454
672.034918	2538.788091
672.374777	2539.675334
672.714585	2538.319264
673.054342	2540.360931
673.394049	2538.699871
673.733705	2542.347146
674.073310	2540.023174
674.412864	2541.122146
674.752368	2538.714995
675.091820	2542.027033
675.431223	2540.504604
675.770574	2541.797660
676.109875	2537.124511
676.449125	2538.024357
676.788324	2537.805066
677.127473	2536.590148
677.466571	2533.346166
677.805619	2540.900335
678.144616	2538.616692
678.483562	2538.195756
678.822458	2540.897814
679.161303	2538.795653
679.500098	2536.990920
679.838842	2538.261291
680.177535	2538.805735
680.516179	2537.863040
680.854771	2541.273380
681.193314	2537.096784
681.531805	2537.278266
681.870247	2538.667104
682.208638	2536.267514
682.546978	2540.008051
682.885268	2538.410005
683.223508	2538.657021
683.561697	2538.838503
683.899836	2539.491332
684.237925	2537.989068
684.575963	2537.631147
684.913951	2540.423946
685.251889	2538.699871
685.589776	2538.493184
685.927614	2538.039480
686.265401	2538.657021
686.603137	2541.112063
686.940824	2540.131559
687.278460	2540.091230
687.616046	2541.669111
687.953582	2541.291024
688.291068	2538.198276
688.628504	2541.089378
688.965889	2539.919830
689.303224	2539.556867
689.640510	2539.256919
689.977745	2537.835313
690.314930	2541.558205
690.652065	2538.256250
690.989150	2541.119625
691.326185	2538.672145
691.663170	2537.316074
692.000105	2539.549306
692.336990	2538.765406
692.673825	2541.553164
693.010610	2540.413863
693.347345	2535.276928
693.684030	2533.681403
694.020665	2535.415559
694.357251	2534.339273
694.693786	2540.300437
695.030272	2539.297248
695.366707	2539.924872
695.703093	2539.443441
696.039429	2538.427649
696.375716	2539.345139
696.711952	2538.218441
697.048139	2536.912782
697.384276	2535.516383
697.720363	2537.459747
698.056400	2539.075437
698.392388	2540.108874
698.728326	2538.510828
699.064214	2539.272042
699.400053	2539.781199
699.735842	2536.756506
700.071581	2538.062165
700.407270	2536.756506
700.742910	2538.180632
701.078501	2536.827082
701.414042	2538.011754
701.749533	2537.348842
702.084974	2539.254398
702.420366	2538.851106
702.755709	2538.926723
703.091002	2537.706764
703.426246	2536.963194
703.761440	2534.551002
704.096584	2537.706764
704.431679	2535.889428
704.766725	2537.033770
705.101721	2537.290869
705.436668	2539.420756
705.771565	2534.677030
706.106413	2537.946219
706.441212	2538.246167
706.775961	2538.417567
707.110661	2538.765406
707.445311	2539.314892
707.779913	2536.249870
708.114465	2540.239944
708.448967	2538.407484
708.783421	2536.249870
709.117825	2537.132072
709.452180	2538.359593
709.786485	2535.793646
710.120742	2537.777340
710.454949	2540.050900
710.789107	2535.849099
711.123216	2535.196269
711.457275	2538.992258
711.791286	2532.922709
712.125247	2537.134593
712.459159	2534.588810
712.793023	2538.974614
713.126837	2537.109387
713.460602	2539.435880
713.794318	2534.435055
714.127985	2537.933616
714.461602	2537.986548
714.795171	2535.413039
715.128691	2538.352032
715.462162	2539.821528
715.795584	2539.672814
716.128957	2537.227854
716.462281	2538.465457
716.795556	2536.549819
717.128782	2539.151054
717.461960	2536.627957
717.795088	2534.679551
718.128167	2535.231557
718.461198	2538.195756
718.794180	2537.021167
719.127113	2537.265663
719.459997	2536.171732
719.792833	2537.336239
720.125619	2538.036959
720.458357	2535.574356
720.791046	2539.035108
721.123686	2535.677699
721.456278	2536.040663
721.788821	2537.961342
722.121315	2536.854809
722.453761	2535.776002
722.786158	2537.343801
723.118506	2538.745242
723.450805	2535.957483
723.783056	2537.560570
724.115259	2536.509490
724.447412	2535.808769
724.779518	2534.024201
725.111574	2537.021167
725.443582	2539.735828
725.775542	2535.816331
726.107453	2537.124511
726.439315	2536.776671
726.771129	2541.132228
727.102895	2538.752803
727.434612	2536.476722
727.766281	2536.433872
728.097901	2532.211906
728.429473	2529.630835
728.760996	2535.057638
729.092471	2532.957997
729.423897	2536.176774
729.755276	2533.711649
730.086606	2536.398584
730.417887	2534.656866
730.749120	2536.607792
731.080305	2536.295241
731.411442	2535.914634
731.742530	2535.526465
732.073570	2537.018646
732.404562	2537.205169
732.735506	2538.523431
733.066401	2538.384799
733.397249	2535.975128
733.728048	2536.481763
734.058798	2535.491177
734.389501	2535.513862
734.720156	2532.708460
735.050762	2537.686599
735.381320	2536.242309
735.711831	2536.990920
736.042293	2537.036290
736.372707	2537.101825
736.703073	2535.022349
737.033391	2534.934129
737.363661	2535.087884
737.693883	2539.503935
738.024056	2537.432021
738.354182	2535.465971
738.684260	2535.854140
739.014290	2535.728111
739.344272	2537.472350
739.674207	2537.812628
740.004093	2538.551157
740.333931	2536.214582
740.663722	2537.197607
740.993464	2538.226003
741.323159	2535.387833
741.652806	2535.828934
741.982405	2533.545291
742.311956	2536.075951
742.641460	2537.558050
742.970915	2537.210210
743.300323	2536.002854
743.629683	2532.249715
743.958996	2535.481094
744.288260	2534.026722
744.617477	2536.030580
744.946647	2529.474560
745.275768	2532.476567
745.604842	2531.687626
745.933869	2529.726617
746.262847	2530.346679
746.591778	2534.908923
746.920662	2536.786753
747.249498	2535.760878
747.578286	2534.069571
747.907027	2537.439583
748.235720	2532.819365
748.564365	2535.549150
748.892963	2536.282638
749.221514	2535.244160
749.550017	2533.474715
749.878473	2534.737524
750.206881	2534.944212
750.535242	2536.590148
750.863555	2534.747607
751.191821	2535.781043
751.520039	2535.125693
751.848210	2534.697195
752.176334	2535.879346
752.504411	2536.806918
752.832440	2535.344983
753.160421	2536.925385
753.488356	2533.232740
753.816243	2537.106867
754.144082	2533.530168
754.471875	2534.838347
754.799620	2535.839016
755.127318	2532.627801
755.454969	2535.551671
755.782572	2537.421939
756.110129	2533.832637
756.437638	2533.210055
756.765100	2532.058151
757.092515	2534.850950
757.419882	2534.286341
757.747203	2537.878163
758.074477	2535.690302
758.401703	2536.098636
758.728882	2534.296423
759.056014	2535.438245
759.383099	2533.923378
759.710138	2536.151568
760.037129	2537.880684
760.364073	2534.150230
760.690970	2534.359438
761.017820	2536.575025
761.344623	2537.532844
761.671379	2534.487987
761.998088	2531.584283
762.324751	2533.497400
762.651366	2532.073274
762.977935	2536.028060
763.304456	2532.146371
763.630931	2534.976979
763.957359	2541.134748
764.283740	2534.152750
764.610074	2538.147865
764.936362	2538.510828
765.262602	2535.350024
765.588796	2535.304654
765.914943	2532.385826
766.241044	2532.726104
766.567097	2535.385313
766.893104	2534.621578
767.219064	2534.800539
767.544978	2533.981351
767.870845	2533.172246
768.196665	2532.963038
768.522438	2531.536392
768.848165	2534.185518
769.173846	2533.552853
769.499479	2535.476053
769.825066	2534.157792
770.150607	2534.437576
770.476101	2532.998326
770.801548	2534.117462
771.126949	2532.252235
771.452303	2532.020342
771.777611	2533.028573
772.102872	2535.274407
772.428087	2534.800539
772.753256	2533.144520
773.078378	2532.141330
773.403453	2532.456402
773.728482	2536.214582
774.053465	2532.320291
774.378401	2533.273069
774.703291	2532.143851
775.028135	2534.578728
775.352932	2534.296423
775.677683	2532.932791
776.002388	2536.320447
776.327046	2534.354397
776.651658	2534.220806
776.976224	2533.338604
777.300743	2532.915147
777.625216	2533.021011
777.949643	2533.769623
778.274024	2534.800539
778.598359	2531.123017
778.922647	2529.933305
779.246889	2529.910619
779.571086	2532.022863
779.895236	2532.877338
780.219339	2530.893644
780.543397	2534.006557
780.867409	2532.983203
781.191374	2535.128214
781.515294	2532.166536
781.839167	2533.268028
782.162995	2532.922709
782.486776	2534.848430
782.810511	2533.237781
783.134201	2533.620909
783.457844	2533.515044
783.781441	2532.138809
784.104993	2533.494880
784.428498	2532.728624
784.751958	2531.692667
785.075372	2533.278110
785.398739	2530.013963
785.722061	2533.419262
786.045337	2529.651000
786.368568	2532.721063
786.691752	2534.331711
787.014891	2532.408511
787.337983	2531.289375
787.661030	2532.970600
787.984031	2535.302133
788.306987	2532.821886
788.629897	2532.126207
788.952760	2534.941691
789.275579	2534.941691
789.598351	2534.067051
789.921078	2532.867256
790.243759	2533.071423
790.566395	2534.669469
790.888984	2532.156453
791.211529	2531.173428
791.534027	2534.772812
791.856480	2534.326670
792.178888	2533.089067
792.501249	2535.208872
792.823566	2535.627288
793.145836	2531.967410
793.468062	2530.981865
793.790241	2532.317770
794.112375	2531.667462
794.434464	2532.307688
794.756507	2532.524458
795.078505	2534.687113
795.400457	2529.076308
795.722364	2528.554549
796.044226	2532.083357
796.366042	2531.347348
796.687812	2530.533202
797.009538	2532.990764
797.331218	2534.661907
797.652852	2533.293234
797.974442	2531.934643
798.295986	2531.725435
798.617484	2534.709798
798.938938	2532.779036
799.260346	2532.529499
799.581709	2531.821217
799.903026	2533.754499
800.224299	2533.903213
800.545526	2534.054448
800.866708	2531.216278
801.187845	2531.125537
801.508936	2532.337935
801.829983	2531.314581
802.150984	2532.700898
802.471940	2533.184849
802.792851	2531.911958
803.113717	2530.707122
803.434538	2534.956814
803.755314	2533.656197
804.076045	2530.790301
804.396731	2530.732328
804.717372	2533.026052
805.037967	2529.633356
805.358518	2530.797863
805.679024	2534.621578
805.999485	2530.470188
806.319901	2532.148892
806.640272	2529.908099
806.960598	2532.456402
807.280879	2533.913296
807.601115	2531.178470
807.921306	2531.685106
808.241453	2535.564273
808.561554	2527.813499
808.881611	2532.325332
809.201623	2531.831299
809.521590	2533.124355
809.841513	2530.495393
810.161390	2531.438089
810.481223	2530.293747
810.801011	2532.322812
811.120755	2532.219468
811.440453	2534.551002
811.760107	2531.259128
812.079716	2532.083357
812.399281	2529.499765
812.718801	2528.020187
813.038276	2530.331556
813.357707	2530.815507
813.677093	2533.562935
813.996434	2533.502442
814.315731	2535.186187
814.634983	2531.803573
814.954191	2532.796680
815.273354	2532.990764
815.592473	2531.276772
815.911547	2532.705939
816.230577	2531.715352
816.549562	2533.318439
816.868502	2531.652338
817.187399	2532.539581
817.506250	2532.632842
817.825058	2530.535723
818.143821	2534.465302
818.462539	2531.110414
818.781213	2532.998326
819.099843	2532.327853
819.418429	2530.820548
819.736970	2533.883049
820.055466	2531.730476
820.373919	2533.774664
820.692327	2532.148892
821.010691	2534.651825
821.329011	2535.962525
821.647286	2541.079296
821.965517	2544.083823
822.283704	2549.021634
822.601847	2547.176571
822.919945	2545.480223
823.237999	2541.724563
823.556010	2541.724563
823.873976	2536.416228
824.191897	2536.348173
824.509775	2534.414890
824.827609	2534.533358
825.145398	2534.979500
825.463144	2536.809438
825.780845	2536.549819
826.098502	2535.166022
826.416116	2538.344470
826.733685	2537.578214
827.051210	2538.122659
827.368692	2534.818183
827.686129	2535.902031
828.003522	2535.239119
828.320872	2529.918181
828.638177	2531.589324
828.955439	2529.711494
829.272656	2531.987575
829.589830	2528.161339
829.906960	2532.101001
830.224046	2531.296937
830.541088	2531.105373
830.858086	2530.381967
831.175041	2533.560415
831.491952	2533.406660
831.808819	2531.856505
832.125642	2534.094777
832.442421	2530.780218
832.759157	2533.038655
833.075849	2535.105528
833.392497	2533.903213
833.709101	2535.765920
834.025662	2534.261135
834.342179	2533.837678
834.658653	2534.341794
834.975083	2532.317770
835.291469	2538.518390
835.607811	2533.857843
835.924110	2531.044879
836.240366	2532.002698
836.556578	2530.598737
836.872746	2531.727955
837.188871	2531.314581
837.504952	2534.062010
837.820990	2529.867770
838.136984	2527.579086
838.452935	2529.809796
838.768842	2531.836340
839.084706	2531.793490
839.400526	2533.169725
839.716303	2531.307019
840.032037	2531.891793
840.347727	2533.036135
840.663373	2530.639066
840.978977	2529.542615
841.294537	2530.361803
841.610054	2529.230064
841.925527	2529.577903
842.240957	2531.942204
842.556344	2533.613347
842.871687	2530.641587
843.186987	2532.894983
843.502244	2531.362472
843.817458	2532.310209
844.132629	2529.880373
844.447756	2531.052441
844.762840	2525.723941
845.077881	2529.565300
845.392879	2527.843746
845.707833	2527.788294
846.022745	2527.750485
846.337613	2530.238294
846.652438	2532.111083
846.967221	2529.845084
847.281960	2530.777698
847.596656	2535.627288
847.911309	2529.777029
848.225919	2530.389529
848.540485	2529.441792
848.855009	2529.988757
849.169490	2531.039838
849.483928	2530.112266
849.798323	2531.349869
850.112675	2531.188552
850.426984	2531.584282
850.741251	2529.590506
851.055474	2529.479601
851.369654	2529.189734
851.683792	2532.955476
851.997887	2529.683767
852.311938	2530.339117
852.625947	2529.063706
852.939914	2530.230733
853.253837	2533.845240
853.567718	2530.626463
853.881555	2529.582944
854.195350	2532.831968
854.509103	2529.250228
854.822812	2530.671834
855.136479	2529.787111
855.450103	2529.802235
855.763685	2529.817358
856.077224	2527.629497
856.390720	2530.119827
856.704173	2529.691329
857.017584	2531.790970
857.330953	2531.173428
857.644278	2527.805938
857.957561	2535.539068
858.270802	2532.771474
858.584000	2530.177801
858.897155	2531.916999
859.210268	2532.161495
859.523339	2529.378778
859.836367	2531.246525
860.149352	2531.876669
860.462295	2528.481452
860.775195	2529.719056
861.088054	2524.594723
861.400869	2527.458098
861.713642	2524.624970
862.026373	2527.538757
862.339062	2528.978006
862.651708	2532.738707
862.964312	2529.439272
863.276873	2530.412214
863.589392	2529.580424
863.901869	2530.903727
864.214303	2528.184024
864.526696	2529.414066
864.839045	2530.515558
865.151353	2530.225692
865.463619	2531.881711
865.775842	2530.434899
866.088023	2530.553367
866.400162	2532.370703
866.712258	2530.538243
867.024313	2532.965559
867.336325	2529.867770
867.648296	2532.302647
867.960224	2530.777698
868.272110	2529.293078
868.583954	2529.850126
868.895755	2529.514889
869.207515	2528.897348
869.519233	2529.023376
869.830909	2529.898017
870.142542	2529.910619
870.454134	2530.802904
870.765684	2531.866587
871.077191	2530.840712
871.388657	2532.670651
871.700081	2530.941535
872.011463	2527.831143
872.322803	2530.046731
872.634101	2528.834333
872.945357	2530.775177
873.256571	2532.403470
873.567744	2530.107224
873.878874	2530.364323
874.189963	2529.900537
874.501010	2532.973120
874.812015	2529.076308
875.122979	2529.015815
875.433900	2529.401463
875.744780	2534.477905
876.055618	2530.545805
876.366415	2532.106042
876.677169	2531.551515
876.987882	2528.541946
877.298554	2529.071267
877.609183	2526.185207
877.919771	2527.974816
878.230317	2525.570186
878.540822	2533.061341
878.851285	2532.045548
879.161707	2529.557739
879.472087	2531.410363
879.782425	2530.114786
880.092722	2531.952287
880.402977	2532.123686
880.713191	2535.148378
881.023363	2535.007226
881.333494	2540.224820
881.643583	2537.805066
881.953631	2539.483771
882.263637	2534.795498
882.573602	2536.161650
882.883526	2533.928419
883.193408	2534.780374
883.503248	2531.841381
883.813048	2534.220806
884.122806	2533.784746
884.432522	2536.368338
884.742197	2533.903213
885.051831	2530.228212
885.361424	2532.574869
885.670975	2533.338604
885.980485	2529.993798
886.289954	2533.832637
886.599382	2530.074457
886.908768	2532.428676
887.218113	2530.762574
887.527417	2529.845084
887.836680	2530.684437
888.145901	2531.949766
888.455082	2529.494724
888.764221	2529.454395
889.073319	2528.350382
889.382376	2528.420958
889.691392	2528.017666
890.000366	2533.552853
890.309300	2529.061185
890.618193	2528.299971
890.927044	2528.287368
891.235855	2530.492873
891.544625	2530.558408
891.853353	2528.357944
892.162041	2527.269055
892.470687	2528.083201
892.779293	2530.616381
893.087858	2528.468849
893.396381	2528.115969
893.704864	2528.279806
894.013306	2526.893489
894.321707	2534.039324
894.630068	2530.306350
894.938387	2529.542615
895.246665	2533.499921
895.554903	2532.443799
895.863100	2532.312729
896.171256	2532.514375
896.479371	2531.440610
896.787446	2531.440610
897.095480	2530.593696
897.403473	2527.896678
897.711425	2531.629653
898.019336	2530.714683
898.327207	2527.543798
898.635038	2530.926412
898.942827	2530.812986
899.250576	2528.788963
899.558284	2528.758716
899.865952	2528.516740
900.173579	2531.291896
900.481165	2530.954138
900.788711	2528.806607
901.096216	2528.052954
901.403681	2526.379291
901.711105	2531.110414
902.018489	2528.511699
902.325832	2530.976823
902.633135	2529.976154
902.940397	2528.781401
903.247619	2532.665610
903.554800	2529.545136
903.861941	2532.080836
904.169041	2533.578059
904.476101	2535.718029
904.783121	2532.534540
905.090100	2529.267872
905.397039	2532.864736
905.703938	2529.562780
906.010796	2531.395239
906.317614	2531.919519
906.624391	2528.277286
906.931129	2532.068233
907.237826	2530.772657
907.544483	2530.233253
907.851099	2528.418438
908.157675	2527.954652
908.464211	2528.400794
908.770707	2527.256452
909.077163	2526.510361
909.383578	2524.393077
909.689954	2527.758047
909.996289	2523.026924
910.302584	2526.422141
910.608839	2527.697553
910.915054	2525.723941
911.221229	2530.384488
911.527363	2528.375588
911.833458	2528.930115
912.139513	2531.934643
912.445527	2528.826771
912.751502	2526.233098
913.057436	2530.918850
913.363331	2528.536905
913.669186	2528.791483
913.975000	2527.561442
914.280775	2531.188552
914.586510	2531.697708
914.892205	2530.568490
915.197859	2530.515558
915.503475	2530.071936
915.809050	2531.004550
916.114585	2533.043697
916.420081	2531.196114
916.725536	2531.395239
917.030952	2532.390867
917.336328	2530.628984
917.641665	2529.010773
917.946961	2528.536905
918.252218	2527.863911
918.557435	2528.733510
918.862612	2532.733666
919.167750	2529.769467
919.472848	2529.182173
919.777906	2530.540764
920.082925	2530.535723
920.387904	2527.037162
920.692843	2532.479087
920.997743	2528.728469
921.302603	2529.875331
921.607423	2531.730476
921.912204	2529.275434
922.216946	2529.376257
922.521647	2528.887265
922.826310	2531.906916
923.130932	2529.232584
923.435516	2530.097142
923.740059	2531.135620
924.044564	2528.776360
924.349028	2529.419107
924.653454	2526.296112
924.957840	2525.212264
925.262186	2527.059847
925.566493	2529.935825
925.870761	2523.646986
926.174989	2529.459436
926.479178	2527.654703
926.783328	2530.034128
927.087438	2526.613705
927.391509	2528.927594
927.695541	2527.511030
927.999533	2527.745444
928.303486	2527.364837
928.607400	2529.512368
928.911275	2527.407687
929.215110	2530.442461
929.518906	2528.229395
929.822663	2526.790145
930.126381	2525.986081
930.430060	2525.552542
930.733699	2526.296112
931.037299	2528.282327
931.340861	2528.562111
931.644383	2527.800897
931.947866	2526.671678
932.251309	2528.980527
932.554714	2527.984899
932.858080	2528.647810
933.161407	2525.938190
933.464694	2528.662934
933.767943	2527.662265
934.071153	2527.606812
934.374323	2525.948273
934.677455	2527.929446
934.980548	2528.647810
935.283602	2527.372398
935.586617	2526.182686
935.889593	2529.542615
936.192530	2526.921215
936.495428	2525.514733
936.798287	2526.570855
937.101108	2526.762419
937.403890	2528.138654
937.706632	2530.933974
938.009336	2527.589168
938.312002	2528.872142
938.614628	2527.102697
938.917216	2530.613860
939.219765	2530.933974
939.522275	2528.017666
939.824747	2526.759898
940.127179	2524.274609
940.429573	2522.328724
940.731929	2524.362830
941.034246	2523.699918
941.336524	2524.090607
941.638763	2526.749816
941.940964	2526.583458
942.243126	2527.511030
942.545250	2525.928108
942.847335	2528.095804
943.149381	2526.744775
943.451389	2527.082532
943.753359	2527.258972
944.055290	2528.907430
944.357182	2528.211751
944.659036	2524.927439
944.960851	2526.835516
945.262628	2527.518592
945.564367	2526.369209
945.866067	2527.664785
946.167729	2528.983047
946.469352	2525.983561
946.770937	2527.705115
947.072484	2527.087573
947.373992	2528.947759
947.675462	2528.063037
947.976893	2526.417100
948.278286	2527.349713
948.579641	2528.698222
948.880958	2527.112779
949.182236	2530.124868
949.483476	2525.446678
949.784678	2528.047913
950.085841	2525.129085
950.386967	2528.315094
950.688054	2525.965917
950.989103	2526.943900
951.290114	2528.615043
951.591087	2524.897192
951.892021	2526.291071
952.192917	2526.994312
952.493776	2527.374919
952.794596	2529.628315
953.095378	2526.709487
953.396122	2528.108407
953.696828	2528.531864
953.997496	2526.651513
954.298126	2526.419620
954.598718	2530.321473
954.899272	2524.231760
955.199788	2527.720238
955.500266	2528.284847
955.800706	2526.880886
956.101108	2522.764784
956.401472	2523.583971
956.701798	2524.816533
957.002087	2523.894002
957.302337	2523.581451
957.602550	2530.336597
957.902724	2526.528005
958.202861	2526.046575
958.502960	2526.870804
958.803022	2530.036648
959.103045	2526.134795
959.403031	2527.851308
959.702979	2526.583458
960.002889	2529.724097
960.302762	2525.252593
960.602596	2527.838705
960.902393	2528.617563
961.202153	2527.558921
961.501875	2528.748633
961.801559	2527.135464
962.101205	2522.331245
962.400814	2525.711338
962.700385	2527.266534
962.999918	2528.030269
963.299414	2525.615556
963.598873	2528.647810
963.898293	2525.610515
964.197677	2529.484642
964.497022	2529.134282
964.796331	2528.461288
965.095601	2530.540764
965.394835	2525.683612
965.694030	2525.650844
965.993189	2527.994981
966.292309	2525.381143
966.591393	2523.117665
966.890439	2526.109589
967.189447	2527.816020
967.488419	2525.756709
967.787353	2526.028931
968.086249	2525.388704
968.385108	2528.128572
968.683930	2528.516740
968.982714	2528.544467
969.281462	2525.839888
969.580172	2526.931298
969.878844	2527.478263
970.177480	2525.940711
970.476078	2526.540608
970.774639	2530.233253
971.073162	2528.035310
971.371649	2523.508354
971.670098	2523.508354
971.968510	2524.264527
972.266885	2523.921729
972.565223	2527.886596
972.863524	2526.530526
973.161788	2525.131606
973.460014	2524.982892
973.758204	2527.760567
974.056356	2523.951976
974.354471	2524.952645
974.652550	2529.542615
974.950591	2527.964734
975.248595	2527.470701
975.546563	2528.259642
975.844493	2525.860052
976.142386	2526.684281
976.440243	2527.420289
976.738062	2525.471883
977.035845	2527.521113
977.333590	2527.763088
977.631299	2525.318128
977.928971	2523.286543
978.226606	2526.782583
978.524204	2525.794517
978.821765	2524.262007
979.119290	2526.709487
979.416777	2525.665968
979.714228	2525.300484
980.011642	2525.809641
980.309020	2527.836185
980.606360	2526.853160
980.903664	2529.414066
981.200931	2528.201668
981.498162	2526.454908
981.795356	2523.740247
982.092513	2527.032121
982.389633	2526.921215
982.686717	2526.701925
982.983764	2526.341483
983.280775	2527.024559
983.577749	2525.567665
983.874686	2524.398118
984.171587	2527.294261
984.468451	2528.783922
984.765279	2529.305681
985.062070	2527.289219
985.358824	2523.841070
985.655543	2524.476256
985.952224	2525.408869
986.248869	2525.164373
986.545478	2520.317304
986.842050	2524.319980
987.138586	2524.135978
987.435086	2523.324352
987.731549	2521.149094
988.027975	2526.777542
988.324366	2527.500948
988.620719	2525.602953
988.917037	2522.404341
989.213318	2523.926770
989.509563	2527.700073
989.805772	2527.087573
990.101944	2526.802748
990.398080	2525.635721
990.694180	2525.807120
990.990244	2525.078673
991.286271	2524.390556
991.582262	2525.607995
991.878217	2528.146216
992.174136	2525.456760
992.470019	2527.226205
992.765865	2527.808458
993.061676	2527.427851
993.357450	2528.501617
993.653188	2524.115813
993.948890	2527.763088
994.244556	2523.904085
994.540186	2524.871986
994.835780	2525.998684
995.131337	2524.793848
995.426859	2524.108251
995.722345	2523.994825
996.017795	2525.784435
996.313208	2525.633200
996.608586	2526.845598
996.903928	2526.835516
997.199234	2522.800072
997.494504	2525.728982
997.789738	2524.035155
998.084936	2529.487162
998.380099	2523.417613
998.675225	2526.114631
998.970316	2525.829805
999.265371	2528.758716
999.560390	2523.168076
999.855373	2527.377440
1000.150320	2526.321318
1000.445232	2526.573376
1000.740108	2522.900895
1001.034948	2525.537418
1001.329752	2522.255627
1001.624521	2525.660927
1001.919254	2522.611029
1002.213951	2524.335103
1002.508613	2522.651358
1002.803239	2522.394259
1003.097829	2522.389218
1003.392384	2526.986750
1003.686903	2525.149250
1003.981386	2527.243849
1004.275834	2525.187058
1004.570246	2526.013807
1004.864623	2525.857532
1005.158964	2526.059178
1005.453270	2526.422141
1005.747540	2527.853829
1006.041775	2527.833664
1006.335974	2526.868283
1006.630138	2525.131606
1006.924266	2526.442306
1007.218359	2525.315608
1007.512416	2525.907943
1007.806438	2524.904754
1008.100425	2526.003725
1008.394376	2525.096317
1008.688292	2528.297450
1008.982172	2527.609333
1009.276017	2524.695546
1009.569827	2528.178983
1009.863602	2528.909950
1010.157341	2526.674199
1010.451045	2526.681760
1010.744714	2525.189579
1011.038347	2523.326872
1011.331945	2523.944414
1011.625508	2527.432892
1011.919036	2528.572193
1012.212528	2524.695546
1012.505986	2523.253776
1012.799408	2527.818541
1013.092795	2527.311905
1013.386147	2528.456247
1013.679464	2525.991122
1013.972745	2526.132275
1014.265992	2523.450381
1014.559204	2523.689836
1014.852380	2524.105731
1015.145521	2528.173942
1015.438628	2525.096317
1015.731699	2527.248890
1016.024736	2525.055988
1016.317737	2525.734023
1016.610703	2525.519774
1016.903635	2523.122706
1017.196531	2519.311593
1017.489393	2525.517254
1017.782219	2519.402334
1018.075011	2525.920546
1018.367768	2521.355781
1018.660490	2524.680422
1018.953177	2524.680422
1019.245829	2524.680422
