Dividing Wavelength (nm)	Counts (n)	Blue Motor Position (mm): 0.000000	Red Motor Position (mm): 44.900000	
326.493990	2127.911368
326.888308	2127.911368
327.282561	2127.911368
327.676750	2095.700915
328.070874	2093.437437
328.464933	2095.312746
328.858929	2103.391195
329.252859	2113.039964
329.646726	2124.553959
330.040528	2137.126597
330.434265	2152.272744
330.827938	2171.010713
331.221547	2186.988650
331.615091	2208.562268
332.008571	2229.157902
332.401986	2248.440315
332.795338	2266.648963
333.188625	2286.667385
333.581847	2304.482822
333.975006	2322.701552
334.368100	2339.012206
334.761129	2360.429548
335.154095	2375.769779
335.546996	2396.511606
335.939833	2418.949782
336.332606	2436.014088
336.725315	2445.874585
337.117960	2458.119547
337.510540	2464.652883
337.903056	2480.678711
338.295508	2483.017806
338.687896	2495.345948
339.080220	2501.564211
339.472480	2506.867505
339.864676	2511.971673
340.256807	2519.840915
340.648875	2519.414937
341.040879	2523.616739
341.432818	2523.226049
341.824694	2527.674868
342.216506	2527.347193
342.608253	2525.310567
342.999937	2523.810823
343.391557	2525.487007
343.783113	2523.001718
344.174605	2522.976512
344.566033	2521.486851
344.957397	2521.345699
345.348697	2519.437622
345.739934	2516.670029
346.131106	2516.604494
346.522215	2513.010151
346.913260	2513.554596
347.304241	2508.904131
347.695159	2507.480005
348.086012	2507.898421
348.476802	2505.947495
348.867528	2504.755262
349.258191	2502.963132
349.648789	2500.659324
350.039324	2500.369458
350.429796	2499.446927
350.820203	2498.552122
351.210548	2496.608757
351.600828	2494.950218
351.991045	2496.369302
352.381198	2495.073726
352.771288	2495.040958
353.161314	2497.748058
353.551276	2494.138592
353.941175	2495.139261
354.331010	2493.185814
354.720782	2492.999291
355.110490	2496.258397
355.500135	2493.284116
355.889717	2496.381905
356.279235	2496.081957
356.668689	2496.318891
357.058080	2491.693632
357.447408	2493.947028
357.836672	2492.275885
358.225873	2495.169508
358.615010	2491.020638
359.004084	2498.867194
359.393095	2497.992554
359.782043	2499.701505
360.170927	2499.706546
360.559748	2500.104797
360.948505	2500.717297
361.337199	2503.179901
361.725830	2501.044973
362.114398	2504.553616
362.502903	2503.288286
362.891344	2506.320540
363.279722	2503.905827
363.668037	2506.527227
364.056289	2503.545385
364.444478	2509.577125
364.832603	2506.396157
365.220665	2509.178874
365.608665	2507.772392
365.996601	2511.328926
366.384474	2510.146776
366.772284	2513.335306
367.160031	2512.488392
367.547715	2518.109278
367.935336	2519.684639
368.322893	2521.373425
368.710388	2523.745288
369.097820	2532.801721
369.485189	2530.213089
369.872495	2537.187525
370.259738	2546.879143
370.646918	2551.443908
371.034035	2562.158881
371.421090	2573.148596
371.808081	2580.191088
372.195010	2588.680391
372.581875	2601.983996
372.968678	2616.242900
373.355418	2626.148767
373.742096	2644.264153
374.128710	2662.525733
374.515262	2673.976714
374.901751	2690.988088
375.288177	2703.976621
375.674540	2726.266082
376.060841	2743.458937
376.447079	2765.670261
376.833254	2785.436626
377.219367	2794.331742
377.605417	2833.052844
377.991404	2843.803105
378.377329	2864.401259
378.763191	2881.783158
379.148991	2921.996442
379.534727	2942.851696
379.920402	2973.564925
380.306013	2984.284939
380.691563	3036.574307
381.077049	3056.093655
381.462474	3074.602251
381.847835	3114.276132
382.233134	3135.012918
382.618371	3134.342445
383.003545	3203.363403
383.388657	3212.135011
383.773706	3242.795308
384.158693	3259.778956
384.543618	3284.742749
384.928480	3321.475117
385.313280	3367.407590
385.698017	3365.386088
386.082692	3420.138059
386.467305	3423.624017
386.851856	3456.353709
387.236344	3480.944457
387.620770	3513.437214
388.005133	3539.550391
388.389435	3562.409503
388.773674	3577.716967
389.157851	3616.007051
389.541965	3630.008856
389.926018	3597.503496
390.310008	3669.105524
390.693936	3689.635623
391.077802	3726.448649
391.461606	3720.058987
391.845348	3783.474182
392.229027	3781.694654
392.612645	3793.861479
392.996200	3870.280330
393.379694	3911.544695
393.763125	3977.556084
394.146494	3942.898152
394.529801	4003.545753
394.913047	4053.034760
395.296230	4019.019575
395.679351	4073.579983
396.062410	4097.706945
396.445408	4076.864294
396.828343	4110.788739
397.211217	4135.757574
397.594028	4055.953588
397.976778	4119.109164
398.359466	4147.604286
398.742092	4176.727032
399.124656	4097.969085
399.507158	4177.405067
399.889598	4204.707956
400.271977	4265.670629
400.654294	4237.341865
401.036549	4244.107094
401.418742	4214.770099
401.800874	4318.338084
402.182944	4337.721321
402.564952	4400.171135
402.946898	4389.544382
403.328783	4386.320564
403.710606	4301.777894
404.092367	4492.572964
404.474067	4455.223055
404.855705	4463.808140
405.237282	4392.624527
405.618797	4501.604191
406.000250	4536.010066
406.381642	4619.766317
406.762972	4579.268207
407.144240	4589.963015
407.525447	4589.680711
407.906593	4646.504597
408.287677	4689.450186
408.668700	4619.973004
409.049661	4671.216333
409.430560	4715.376841
409.811399	4640.906395
410.192176	4799.465807
410.572891	4741.149740
410.953545	4844.526161
411.334138	4722.361359
411.714669	4793.923059
412.095139	4686.256615
412.475547	4827.184592
412.855894	4808.111386
413.236180	4821.709899
413.616405	4767.729223
413.996568	4858.389334
414.376670	4800.894974
414.756711	4755.201956
415.136691	4785.864774
415.516609	4865.416702
415.896466	4900.984563
416.276262	4936.915387
416.655997	4917.146503
417.035670	5099.111992
417.415283	5189.625909
417.794834	5135.282271
418.174324	5091.895580
418.553753	4994.757587
418.933121	5183.921844
419.312428	5250.782667
419.691674	5186.248336
420.070859	5314.855733
420.449983	5225.082865
420.829045	5341.508313
421.208047	5247.500876
421.586988	5319.680117
421.965867	5329.870809
422.344686	5460.908042
422.723444	5316.592410
423.102141	5134.571468
423.480777	5435.732519
423.859352	5205.228280
424.237866	5459.975428
424.616319	5453.573163
424.994712	5561.418567
425.373044	5436.960040
425.751314	5586.336991
426.129524	5385.993975
426.507673	5582.505714
426.885762	5662.342467
427.263789	5595.315286
427.641756	5472.671574
428.019662	5594.145738
428.397508	5598.034988
428.775292	5552.089912
429.153016	5652.194624
429.530679	5576.675619
429.908282	5659.537065
430.285824	5533.268764
430.663305	5810.489376
431.040726	5539.872676
431.418086	5543.827461
431.795385	5647.518954
432.172624	5662.067724
432.549802	5649.588348
432.926920	5669.170710
433.303977	5671.824878
433.680974	5710.803079
434.057910	5732.331327
434.434786	5737.001956
434.811601	5703.977357
435.188355	5941.564417
435.565050	5814.948276
435.941683	5793.447755
436.318257	6010.824830
436.694770	5994.751111
437.071222	6031.276791
437.447614	5959.974711
437.823946	5869.390217
438.200218	6024.980390
438.576429	5889.015429
438.952580	5990.967725
439.328670	6031.430546
439.704700	5942.736485
440.080670	5925.321819
440.456580	6200.657039
440.832429	6079.588689
441.208218	5929.369866
441.583947	6083.908958
441.959616	6088.090595
442.335224	6015.175345
442.710773	6150.923536
443.086261	6180.585685
443.461689	5971.861752
443.837057	6123.277848
444.212365	6276.377691
444.587612	6170.090003
444.962800	6318.839330
445.337927	6302.730322
445.712995	5916.419142
446.088002	6490.513303
446.462949	6320.754968
446.837837	6250.128403
447.212664	6431.463748
447.587431	6567.330406
447.962139	7112.158149
448.336786	8035.417749
448.711374	7775.097606
449.085901	6852.813468
449.460369	6769.442866
449.834776	6700.570622
450.209124	7092.981599
450.583412	7251.089828
450.957640	7395.329842
451.331808	7162.269738
451.705917	6719.873200
452.079965	6636.648792
452.453954	6849.521595
452.827883	6724.400157
453.201752	6817.167470
453.575562	6613.729186
453.949311	6824.920764
454.323001	6706.798968
454.696632	6777.612056
455.070202	6922.653614
455.443713	7077.606080
455.817164	7176.589136
456.190556	7260.514265
456.563888	7331.279462
456.937160	7375.820577
457.310373	7032.921293
457.683526	7060.856847
458.056619	6954.483459
458.429653	6941.353774
458.802628	6868.960284
459.175542	6982.938252
459.548398	7331.171077
459.921194	7496.432703
460.293930	7503.669280
460.666607	8032.090588
461.039224	8335.184922
461.411782	8462.181669
461.784280	8486.008683
462.156719	8377.641519
462.529099	8253.157787
462.901419	7842.210487
463.273680	7736.482367
463.645882	7753.274451
464.018024	7611.154242
464.390106	7780.347968
464.762130	8164.725866
465.134094	8636.686251
465.505999	9663.120627
465.877845	10889.461958
466.249631	11530.890812
466.621358	11140.813889
466.993026	10515.972952
467.364634	10256.769424
467.736184	9892.951872
468.107674	9560.492817
468.479105	9598.084701
468.850477	9361.349596
469.221790	9130.890727
469.593043	8802.038617
469.964238	8664.989809
470.335373	8682.500257
470.706449	8733.292403
471.077467	8718.118529
471.448425	10023.593373
471.819324	11098.929462
472.190164	11128.231169
472.560945	9878.037618
472.931667	9089.419675
473.302330	8949.565464
473.672934	8596.888862
474.043479	8955.748439
474.413965	8895.763750
474.784393	8777.223538
475.154761	8933.761447
475.525070	9022.087503
475.895321	8847.154424
476.265513	9021.280919
476.635645	9192.430613
477.005719	9193.917753
477.375734	9312.649529
477.745691	9546.067555
478.115588	9677.205610
478.485427	9919.821222
478.855207	10455.892480
479.224928	11276.945207
479.594591	11903.847976
479.964194	11715.616333
480.333739	11652.927064
480.703226	11568.875906
481.072653	11653.106025
481.442022	11897.959908
481.811333	12088.807911
482.180584	11893.322047
482.549777	11598.049063
482.918912	11423.443659
483.287988	11453.080602
483.657005	11457.864657
484.025964	11140.783642
484.394864	11267.684608
484.763706	11244.064281
485.132489	10997.501447
485.501213	10956.993255
485.869879	11039.400997
486.238487	10884.589683
486.607036	10987.779582
486.975527	10772.358475
487.343959	10961.071548
487.712333	11007.631645
488.080648	10941.582448
488.448905	10985.790846
488.817104	10922.317678
489.185244	11186.320385
489.553326	11337.653302
489.921350	11873.422092
490.289315	12940.203343
490.657222	13282.238069
491.025070	13197.304709
491.392861	13072.914238
491.760593	12690.237729
492.128267	12335.922752
492.495883	11999.007317
492.863440	11669.469610
493.230939	11338.021307
493.598380	11271.828436
493.965763	11140.861780
494.333088	11034.561489
494.700354	10952.859509
495.067563	11016.602379
495.434713	10850.566936
495.801805	10979.118879
496.168839	10901.709441
496.535815	10834.692342
496.902733	10836.779380
497.269593	10765.968812
497.636395	10873.778928
498.003139	10857.687565
498.369825	10727.706455
498.736453	10885.287883
499.103023	10808.400204
499.469535	10831.198823
499.835989	10823.314458
500.202385	10791.567792
500.568723	10640.686057
500.935003	10865.410613
501.301226	10664.787813
501.667390	10919.706361
502.033497	11024.002792
502.399546	10880.032480
502.765537	10789.581577
503.131470	10864.956909
503.497345	11039.690863
503.863163	10649.084619
504.228923	10962.961981
504.594625	11027.045129
504.960269	10781.321646
505.325856	10989.768317
505.691385	10791.348501
506.056856	10941.947931
506.422270	10966.531118
506.787625	10854.809067
507.152924	10980.439662
507.518164	10947.775505
507.883347	10874.678774
508.248472	10791.366145
508.613540	11026.639316
508.978550	10903.090718
509.343503	10884.975331
509.708398	11010.154743
510.073236	11114.778850
510.438016	11122.401074
510.802738	11068.329658
511.167403	11120.908893
511.532010	11015.142965
511.896561	11251.452092
512.261053	11324.407671
512.625488	11191.575788
512.989866	11174.546770
513.354186	11158.354584
513.718449	11064.785727
514.082655	11252.435117
514.446803	11148.458799
514.810894	11282.810590
515.174927	11136.793569
515.538904	11164.645944
515.902822	11318.239819
516.266684	11205.310411
516.630488	11143.611729
516.994235	11205.370905
517.357925	11265.043043
517.721558	11352.774243
518.085133	11371.784435
518.448651	11384.137782
518.812112	11263.107240
519.175516	11283.196238
519.538863	11400.173692
519.902152	11310.481483
520.265385	11476.264869
520.628560	11387.535520
520.991678	11366.392921
521.354739	11427.093454
521.717743	11362.841428
522.080690	11334.401758
522.443580	11476.030455
522.806413	11426.405337
523.169189	11464.448404
523.531908	11514.015549
523.894569	11334.857983
524.257174	11347.004643
524.619722	11457.380706
524.982213	11404.751060
525.344647	11460.957405
525.707025	11407.309446
526.069345	11506.403407
526.431608	11417.868142
526.793815	11528.161027
527.155964	11321.498925
527.518057	11369.520957
527.880093	11322.731487
528.242072	11390.923175
528.603995	11295.370625
528.965860	11221.064017
529.327669	11265.400965
529.689421	11219.493697
530.051117	11188.629233
530.412755	11290.684872
530.774337	11180.008860
531.135862	11167.204329
531.497331	11188.256188
531.858743	11036.204905
532.220098	11209.605474
532.581396	11075.311656
532.942638	11061.171220
533.303824	11024.834583
533.664953	11035.032837
534.026025	10947.493201
534.387040	11045.886441
534.747999	11053.349870
535.108902	11108.721903
535.469748	10861.455828
535.830537	10971.998249
536.191270	10945.658221
536.551947	10975.232150
536.912567	10969.886006
537.273131	10895.050077
537.633638	10869.395645
537.994089	10858.156393
538.354483	10814.275669
538.714821	10954.732298
539.075103	10966.334513
539.435328	10924.979408
539.795497	10754.434652
540.155609	10909.687067
540.515665	11004.644762
540.875665	10733.763401
541.235609	10803.049019
541.595496	10797.486106
541.955328	10958.137597
542.315102	10839.030255
542.674821	10786.670311
543.034483	10792.881012
543.394090	10794.970570
543.753640	10722.360311
544.113134	10953.492174
544.472571	10800.110027
544.831953	10946.825248
545.191278	10750.104301
545.550548	10775.327714
545.909761	10912.205124
546.268918	10881.169260
546.628019	10972.116717
546.987064	10828.721095
547.346053	10751.233520
547.704986	10854.292348
548.063863	10845.256080
548.422684	10829.915849
548.781449	10747.621533
549.140158	10851.555002
549.498811	10730.526980
549.857408	10587.605228
550.215949	10800.276385
550.574434	10662.335292
550.932864	10762.119891
551.291237	10820.115846
551.649555	10770.778073
552.007817	10782.191245
552.366022	10745.978117
552.724173	10737.282126
553.082267	10718.574404
553.440305	10859.910714
553.798288	10660.923769
554.156215	10811.823148
554.514086	10791.378748
554.871902	10643.456171
555.229661	10681.373210
555.587365	10654.087964
555.945014	10551.407222
556.302606	10679.467653
556.660143	10569.746940
557.017625	10721.205887
557.375050	10623.362132
557.732421	10758.099571
558.089735	10666.148925
558.446994	10671.169914
558.804197	10708.373630
559.161345	10705.900944
559.518437	10560.060363
559.875474	10647.302571
560.232455	10669.740747
560.589381	10624.924889
560.946251	10624.682914
561.303065	10732.770294
561.659825	10662.937710
562.016528	10592.056566
562.373177	10472.757661
562.729770	10591.741494
563.086307	10503.385191
563.442789	10597.690056
563.799216	10479.457354
564.155587	10523.958140
564.511904	10482.653446
564.868164	10468.477721
565.224370	10479.008691
565.580520	10402.194110
565.936615	10412.601572
566.292654	10278.431262
566.648638	10408.127548
567.004567	10366.449808
567.360441	10351.563281
567.716260	10263.156566
568.072023	10363.251196
568.427732	10303.200972
568.783385	10209.561539
569.138982	10287.593559
569.494525	10305.522423
569.850013	10181.714205
570.205445	10266.062791
570.560823	10152.813270
570.916145	10073.513399
571.271412	10150.128856
571.626625	10093.239434
571.981782	10068.263038
572.336884	10041.703719
572.691931	10046.354183
573.046923	9992.658333
573.401860	9951.532600
573.756743	9889.937262
574.111570	9939.224623
574.466342	9917.104040
574.821059	9950.763824
575.175722	9836.435496
575.530330	9847.750366
575.884882	9836.765691
576.239380	9763.996636
576.593823	9741.099715
576.948211	9762.567468
577.302544	9636.324373
577.656823	9656.042847
578.011047	9655.740377
578.365216	9630.063260
578.719330	9552.605931
579.073389	9561.296881
579.427394	9510.950877
579.781344	9486.607145
580.135239	9436.863560
580.489080	9446.106515
580.842866	9343.191359
581.196597	9354.914563
581.550273	9386.935972
581.903895	9361.304225
582.257463	9423.048278
582.610975	9300.898599
582.964434	9327.253752
583.317837	9253.726002
583.671186	9237.443075
584.024481	9224.860355
584.377721	9146.961925
584.730906	9127.011559
585.084037	9158.511209
585.437113	9095.116179
585.790135	9115.237944
586.143103	9011.788426
586.496016	8982.758942
586.848874	9042.688179
587.201679	9032.205099
587.554428	8913.823683
587.907124	8970.670255
588.259765	8938.142210
588.612352	8940.612375
588.964884	8820.960588
589.317362	8831.166404
589.669786	8832.530037
590.022155	8876.602324
590.374470	8899.985716
590.726731	8835.804266
591.078937	8682.959002
591.431090	8800.879152
591.783188	8672.017177
592.135232	8662.010487
592.487222	8662.930498
592.839157	8711.751552
593.191038	8642.828897
593.542866	8593.355013
593.894639	8493.819951
594.246358	8548.173672
594.598022	8560.370743
594.949633	8462.821896
595.301190	8430.238398
595.652692	8457.977347
596.004141	8569.669152
596.355535	8344.949637
596.706876	8329.682502
597.058162	8262.115917
597.409395	8340.331940
597.760573	8399.321001
598.111698	8303.826424
598.462768	8298.749982
598.813785	8263.860156
599.164748	8231.294302
599.515657	8220.947334
599.866511	8129.135320
600.217312	8254.982684
600.568060	8113.666539
600.918753	8215.543217
601.269392	8188.661264
601.619978	8100.279755
601.970510	8159.830906
602.320988	8155.684557
602.671412	8213.360398
603.021783	8155.182962
603.372100	8127.638097
603.722363	8132.989282
604.072572	8105.557843
604.422728	8114.732743
604.772830	8046.586426
605.122878	8049.543062
605.472872	8050.198412
605.822813	8080.828463
606.172701	8019.308742
606.522534	8095.997295
606.872314	8099.163140
607.222041	8066.695588
607.571714	8122.856563
607.921333	8080.233607
608.270899	8085.960358
608.620411	8175.937392
608.969870	8079.250582
609.319276	8071.525014
609.668627	8086.446829
610.017926	8125.954352
610.367171	8169.978748
610.716362	8142.194429
611.065500	8141.849110
611.414585	8168.317688
611.763616	8152.301942
612.112594	8136.079509
612.461518	8153.332858
612.810389	8210.655819
613.159207	8146.461766
613.507971	8102.835620
613.856682	8215.540697
614.205340	8169.376330
614.553945	8248.991273
614.902496	8149.559555
615.250994	8202.310188
615.599439	8180.739091
615.947830	8195.149229
616.296169	8166.359200
616.644454	8179.685490
616.992686	8180.650871
617.340864	8236.257318
617.688990	8143.169892
618.037063	8237.230261
618.385082	8183.141201
618.733048	8267.139427
619.080961	8208.654481
619.428821	8226.255669
619.776628	8231.773212
620.124382	8176.189450
620.472083	8160.934918
620.819731	8187.169083
621.167326	8081.801406
621.514868	8091.117458
621.862357	7978.984552
622.209793	7996.144640
622.557176	7931.733817
622.904506	7903.223572
623.251783	7834.270670
623.599007	7791.811551
623.946179	7791.771222
624.293297	7749.785972
624.640363	7664.212386
624.987376	7648.506671
625.334336	7598.558919
625.681243	7551.479583
626.028097	7540.172275
626.374899	7514.275868
626.721647	7502.812284
627.068343	7437.665453
627.414987	7409.087151
627.761577	7359.555294
628.108115	7401.081799
628.454600	7295.189842
628.801032	7344.499888
629.147412	7305.829197
629.493739	7293.440562
629.840014	7230.398412
630.186236	7281.828264
630.532405	7168.921541
630.878521	7217.724951
631.224585	7173.577047
631.570597	7097.301868
631.916556	7140.713765
632.262462	7128.758668
632.608316	7085.850887
632.954117	7069.595687
633.299866	7054.315949
633.645562	7044.548714
633.991206	6963.255067
634.336797	6903.779534
634.682336	6863.198245
635.027823	6834.075500
635.373257	6823.315157
635.718639	6754.364775
636.063968	6768.200222
636.409245	6660.929509
636.754470	6659.691906
637.099642	6619.836543
637.444762	6561.263377
637.789829	6571.577578
638.134845	6513.173290
638.479808	6498.874057
638.824719	6504.129460
639.169577	6429.406957
639.514383	6451.041069
639.859137	6381.463063
640.203839	6388.016563
640.548489	6371.768924
640.893086	6349.368557
641.237632	6319.701367
641.582125	6347.294122
641.926566	6309.737526
642.270955	6324.273693
642.615292	6321.561553
642.959576	6336.107802
643.303809	6325.286965
643.647990	6331.792574
643.992118	6323.320915
644.336195	6267.737153
644.680219	6292.395957
645.024192	6279.414986
645.368112	6384.233177
645.711981	6396.021916
646.055797	6476.733309
646.399562	6432.963491
646.743274	6554.651904
647.086935	6612.478979
647.430544	6604.133349
647.774101	6625.041535
648.117606	6633.417412
648.461059	6621.265711
648.804460	6581.859011
649.147810	6494.271483
649.491108	6462.187060
649.834354	6437.462721
650.177548	6351.211099
650.520690	6266.436535
650.863781	6246.302167
651.206820	6267.452328
651.549807	6185.856212
651.892742	6122.758610
652.235626	6132.155320
652.578458	6114.095387
652.921238	6025.282859
653.263967	6062.879784
653.606644	6001.062635
653.949269	6000.074569
654.291843	5945.002484
654.634365	5991.192056
654.976836	5944.445436
655.319255	5944.478204
655.661622	5919.481643
656.003938	5917.460140
656.346203	5880.334562
656.688416	5910.742802
657.030577	5863.189598
657.372687	5832.204146
657.714746	5819.409698
658.056753	5862.299834
658.398708	5797.982273
658.740612	5792.300893
659.082465	5837.164641
659.424266	5825.728784
659.766016	5829.587787
660.107715	5800.553262
660.449362	5817.990613
660.790958	5812.813348
661.132503	5796.394310
661.473996	5834.512994
661.815438	5819.654193
662.156829	5816.790818
662.498168	5805.594415
662.839456	5781.447288
663.180693	5813.423327
663.521879	5819.074461
663.863013	5807.177338
664.204097	5823.225851
664.545129	5860.081727
664.886110	5858.408064
665.227040	5888.705398
665.567918	5852.323391
665.908746	5875.250559
666.249522	5880.261466
666.590248	5865.201018
666.930922	5895.538682
667.271545	5903.274333
667.612118	5902.618983
667.952639	5877.839191
668.293109	5889.224637
668.633528	5854.816242
668.973896	5853.170305
669.314213	5846.573955
669.654480	5824.972611
669.994695	5814.454243
670.334859	5809.329910
670.674973	5797.609228
671.015035	5801.193488
671.355047	5790.531448
671.695008	5775.869252
672.034918	5752.422845
672.374777	5758.815028
672.714585	5741.849025
673.054342	5747.031331
673.394049	5738.829374
673.733705	5770.760042
674.073310	5749.146095
674.412864	5715.834151
674.752368	5700.582140
675.091820	5701.381162
675.431223	5645.704139
675.770574	5638.893540
676.109875	5586.644501
676.449125	5601.394917
676.788324	5562.880502
677.127473	5500.644937
677.466571	5495.316437
677.805619	5486.196990
678.144616	5468.936079
678.483562	5446.868428
678.822458	5414.552112
679.161303	5409.700001
679.500098	5398.967384
679.838842	5382.674375
680.177535	5381.540116
680.516179	5395.856992
680.854771	5405.601543
681.193314	5478.221885
681.531805	5584.073512
681.870247	5720.320777
682.208638	5809.707997
682.546978	5825.748948
682.885268	5798.342716
683.223508	5716.870108
683.561697	5662.168547
683.899836	5633.320544
684.237925	5589.286066
684.575963	5548.936670
684.913951	5511.203634
685.251889	5563.097271
685.589776	5531.809350
685.927614	5507.715155
686.265401	5562.348660
686.603137	5543.502306
686.940824	5612.230877
687.278460	5636.002438
687.616046	5633.065966
687.953582	5695.440163
688.291068	5677.705383
688.628504	5725.961829
688.965889	5690.429256
689.303224	5640.728520
689.640510	5591.829328
689.977745	5514.893758
690.314930	5423.232978
690.652065	5370.421851
690.989150	5287.383965
691.326185	5213.636925
691.663170	5159.260519
692.000105	5086.662863
692.336990	5010.039845
692.673825	4985.272656
693.010610	4919.417542
693.347345	4860.504098
693.684030	4836.742619
694.020665	4798.954130
694.357251	4713.143609
694.693786	4724.229107
695.030272	4689.888767
695.366707	4653.453827
695.703093	4623.244713
696.039429	4637.813647
696.375716	4614.304227
696.711952	4590.913273
697.048139	4586.424125
697.384276	4562.186258
697.720363	4569.553904
698.056400	4569.372422
698.392388	4527.886247
698.728326	4508.813041
699.064214	4486.982324
699.400053	4478.548474
699.735842	4439.356023
700.071581	4424.154424
700.407270	4398.215167
700.742910	4376.991909
701.078501	4329.239579
701.414042	4317.949915
701.749533	4290.120226
702.084974	4238.970158
702.420366	4282.873567
702.755709	4224.358374
703.091002	4178.718287
703.426246	4216.093402
703.761440	4182.438659
704.096584	4145.257629
704.431679	4153.845234
704.766725	4143.760406
705.101721	4131.109630
705.436668	4150.142507
705.771565	4109.397381
706.106413	4131.961585
706.441212	4151.458248
706.775961	4153.971263
707.110661	4146.061693
707.445311	4169.810568
707.779913	4176.381713
708.114465	4188.977035
708.448967	4210.689285
708.783421	4260.032099
709.117825	4292.383704
709.452180	4292.207263
709.786485	4335.810723
710.120742	4410.621447
710.454949	4394.726688
710.789107	4448.188125
711.123216	4504.490252
711.457275	4500.820292
711.791286	4555.615113
712.125247	4560.371442
712.459159	4492.512470
712.793023	4559.912697
713.126837	4502.534284
713.460602	4492.525073
713.794318	4432.560548
714.127985	4432.308490
714.461602	4354.205894
714.795171	4335.808203
715.128691	4275.027011
715.462162	4216.562229
715.795584	4171.942977
716.128957	4154.654339
716.462281	4120.606386
716.795556	4091.186212
717.128782	4048.787588
717.461960	3990.660564
717.795088	3996.563755
718.128167	3959.811223
718.461198	3913.646856
718.794180	3909.951691
719.127113	3882.384141
719.459997	3861.448229
719.792833	3827.864062
720.125619	3823.858865
720.458357	3786.672794
720.791046	3784.926034
721.123686	3760.436109
721.456278	3730.113568
721.788821	3740.687388
722.121315	3714.813666
722.453761	3695.889175
722.786158	3694.671736
723.118506	3712.771999
723.450805	3681.892411
723.783056	3697.139381
724.115259	3700.970658
724.447412	3702.447716
724.779518	3702.500648
725.111574	3700.932849
725.443582	3725.079976
725.775542	3709.013819
726.107453	3746.399016
726.439315	3744.926999
726.771129	3764.141357
727.102895	3794.075728
727.434612	3822.316272
727.766281	3831.952438
728.097901	3838.684899
728.429473	3838.979806
728.760996	3841.034076
729.092471	3838.160619
729.423897	3822.172599
729.755276	3820.241837
730.086606	3825.106551
730.417887	3858.332796
730.749120	3902.389960
731.080305	3942.925878
731.411442	3966.964620
731.742530	3948.340077
732.073570	3945.965694
732.404562	3983.607989
732.735506	3977.220847
733.066401	3941.063172
733.397249	3895.859145
733.728048	3829.653672
734.058798	3754.422012
734.389501	3697.698949
734.720156	3654.607166
735.050762	3615.386989
735.381320	3599.484669
735.711831	3564.274730
736.042293	3539.023591
736.372707	3550.625806
736.703073	3530.027652
737.033391	3526.239224
737.363661	3535.716594
737.693883	3550.736712
738.024056	3559.525963
738.354182	3560.332548
738.684260	3606.491873
739.014290	3622.537866
739.344272	3620.324799
739.674207	3646.500991
740.004093	3653.692197
740.333931	3649.621465
740.663722	3641.701812
740.993464	3635.576810
741.323159	3621.012917
741.652806	3594.567024
741.982405	3568.060637
742.311956	3541.405536
742.641460	3535.030997
742.970915	3512.630630
743.300323	3478.481853
743.629683	3454.884212
743.958996	3447.098150
744.288260	3420.654778
744.617477	3393.994636
744.946647	3384.146742
745.275768	3359.853421
745.604842	3350.123994
745.933869	3323.602484
746.262847	3314.087306
746.591778	3332.694205
746.920662	3312.726194
747.249498	3296.460912
747.578286	3320.660971
747.907027	3335.222343
748.235720	3345.080320
748.564365	3354.439222
748.892963	3343.585618
749.221514	3335.333249
749.550017	3322.727844
749.878473	3318.006803
750.206881	3293.968061
750.535242	3287.180147
750.863555	3291.034109
751.191821	3279.000875
751.520039	3272.928805
751.848210	3256.824839
752.176334	3272.165071
752.504411	3269.979730
752.832440	3246.409816
753.160421	3239.959659
753.488356	3238.283476
753.816243	3240.128538
754.144082	3219.515260
754.471875	3207.179556
754.799620	3216.261195
755.127318	3213.239023
755.454969	3208.369269
755.782572	3208.344063
756.110129	3198.869214
756.437638	3190.024510
756.765100	3194.551466
757.092515	3202.221582
757.419882	3200.132023
757.747203	3189.661547
758.074477	3192.151877
758.401703	3196.257897
758.728882	3210.877243
759.056014	3210.796584
759.383099	3218.423850
759.710138	3221.700600
760.037129	3233.819534
760.364073	3243.062489
760.690970	3230.802403
761.017820	3219.507698
761.344623	3234.442116
761.671379	3263.340531
761.998088	3289.007566
762.324751	3378.339332
762.651366	3562.825398
762.977935	3917.286569
763.304456	4223.839135
763.630931	4262.260289
763.957359	4013.968338
764.283740	3770.964558
764.610074	3621.953092
764.936362	3474.448930
765.262602	3370.200389
765.588796	3293.277423
765.914943	3228.609501
766.241044	3173.207221
766.567097	3145.836276
766.893104	3111.964763
767.219064	3090.620518
767.544978	3071.658218
767.870845	3036.349976
768.196665	3027.379243
768.522438	3022.161648
768.848165	3014.057994
769.173846	2992.854901
769.499479	2985.252841
769.825066	2974.245481
770.150607	2959.686629
770.476101	2963.943883
770.801548	2960.155456
771.126949	2935.380706
771.452303	2925.313521
771.777611	2922.094745
772.102872	2922.568613
772.428087	2907.210738
772.753256	2897.960221
773.078378	2896.750344
773.403453	2874.420553
773.728482	2864.794469
774.053465	2872.250336
774.378401	2867.194059
774.703291	2850.114629
775.028135	2847.931810
775.352932	2845.257478
775.677683	2835.601147
776.002388	2831.963955
776.327046	2832.112669
776.651658	2827.913388
776.976224	2816.177582
777.300743	2815.219762
777.625216	2812.071562
777.949643	2807.998310
778.274024	2813.904021
778.598359	2798.284006
778.922647	2804.161992
779.246889	2800.166877
779.571086	2790.666823
779.895236	2788.058026
780.219339	2795.186217
780.543397	2800.192083
780.867409	2801.142340
781.191374	2799.871970
781.515294	2794.747637
781.839167	2795.713018
782.162995	2792.199333
782.486776	2796.093625
782.810511	2793.343675
783.134201	2784.781276
783.457844	2785.492078
783.781441	2778.890687
784.104993	2769.662855
784.428498	2772.085130
784.751958	2776.055038
785.075372	2770.484563
785.398739	2761.695312
785.722061	2772.266611
786.045337	2774.051180
786.368568	2769.201590
786.691752	2764.674633
787.014891	2789.535084
787.337983	2808.623413
787.661030	2836.841271
787.984031	2878.824001
788.306987	2903.782753
788.629897	2898.547515
788.952760	2883.192160
789.275579	2868.734131
789.598351	2838.093998
789.921078	2805.502938
790.243759	2799.672844
790.566395	2785.504681
790.888984	2774.852723
791.211529	2761.609612
791.534027	2756.288674
791.856480	2746.967581
792.178888	2743.184195
792.501249	2740.280490
792.823566	2733.482494
793.145836	2731.531567
793.468062	2728.867318
793.790241	2730.152812
794.112375	2730.961917
794.434464	2737.563308
794.756507	2741.684451
795.078505	2747.585122
795.400457	2754.272213
795.722364	2775.999586
796.044226	2789.792182
796.366042	2795.982719
796.687812	2790.268572
797.009538	2792.673202
797.331218	2788.294960
797.652852	2777.413629
797.974442	2767.900972
798.295986	2763.946187
798.617484	2759.731782
798.938938	2749.185688
799.260346	2742.266705
799.581709	2737.984244
799.903026	2735.193966
800.224299	2730.901423
800.545526	2724.562172
800.866708	2716.599670
801.187845	2713.789227
801.508936	2711.969370
801.829983	2712.702858
802.150984	2706.290510
802.471940	2701.511496
802.792851	2698.726259
803.113717	2699.752134
803.434538	2699.941177
803.755314	2695.502441
804.076045	2691.353571
804.396731	2691.981195
804.717372	2692.676874
805.037967	2690.932635
805.358518	2693.639735
805.679024	2698.779191
805.999485	2696.268696
806.319901	2701.889583
806.640272	2697.309695
806.960598	2699.474870
807.280879	2701.456044
807.601115	2707.888556
807.921306	2702.635674
808.241453	2700.089891
808.561554	2703.112063
808.881611	2704.135417
809.201623	2699.757175
809.521590	2696.606454
809.841513	2695.210054
810.161390	2695.973789
810.481223	2691.207378
810.801011	2687.058508
811.120755	2686.990453
811.440453	2684.742098
811.760107	2682.960050
812.079716	2676.693896
812.399281	2670.969666
812.718801	2672.025787
813.038276	2667.776095
813.357707	2670.936898
813.677093	2671.032680
813.996434	2670.470592
814.315731	2668.479336
814.634983	2665.517658
814.954191	2664.562359
815.273354	2671.267094
815.592473	2673.296158
815.911547	2675.998217
816.230577	2680.169772
816.549562	2687.255113
816.868502	2687.461801
817.187399	2689.629497
817.506250	2693.317101
817.825058	2694.310208
818.143821	2697.748275
818.462539	2703.069213
818.781213	2718.013713
819.099843	2735.730849
819.418429	2767.996754
819.736970	2802.846250
820.055466	2842.257991
820.373919	2884.273488
820.692327	2950.894857
821.010691	3045.030843
821.329011	3312.806853
821.647286	3904.676123
821.965517	4784.231440
822.283704	5250.114714
822.601847	5212.638777
822.919945	4769.478504
823.237999	4356.202191
823.556010	3973.150116
823.873976	3655.824605
824.191897	3429.761622
824.509775	3261.296343
824.827609	3129.490334
825.145398	3066.334759
825.463144	3060.991136
825.780845	3101.080912
826.098502	3167.737569
826.416116	3332.674040
826.733685	3519.632792
827.051210	3557.907753
827.368692	3467.509782
827.686129	3295.528298
828.003522	3124.499592
828.320872	2994.062257
828.638177	2899.006260
828.955439	2835.016374
829.272656	2787.619445
829.589830	2758.237080
829.906960	2735.685478
830.224046	2714.852910
830.541088	2697.642411
830.858086	2691.439271
831.175041	2684.386697
831.491952	2680.061387
831.808819	2685.137829
832.125642	2693.690146
832.442421	2712.841490
832.759157	2759.368819
833.075849	2853.756863
833.392497	2992.257524
833.709101	3083.189857
834.025662	3060.202195
834.342179	2977.502067
834.658653	2885.536297
834.975083	2814.032571
835.291469	2765.387957
835.607811	2723.790876
835.924110	2699.048893
836.240366	2675.231961
836.556578	2657.857625
836.872746	2646.177271
837.188871	2636.904069
837.504952	2632.999695
837.820990	2626.073150
838.136984	2620.227932
838.452935	2614.390276
838.768842	2617.437653
839.084706	2623.252624
839.400526	2659.795948
839.716303	2727.728017
840.032037	2769.675458
840.347727	2756.694487
840.663373	2724.055536
840.978977	2684.611028
841.294537	2653.935607
841.610054	2633.685292
841.925527	2622.136008
842.240957	2608.784512
842.556344	2606.216045
842.871687	2594.999477
843.186987	2594.142481
843.502244	2587.276430
843.817458	2584.105544
844.132629	2581.121181
844.447756	2578.106571
844.762840	2572.944429
845.077881	2573.851837
845.392879	2568.954356
845.707833	2571.684141
846.022745	2568.109963
846.337613	2570.721280
846.652438	2570.655745
846.967221	2574.257650
847.281960	2568.621640
847.596656	2568.178018
847.911309	2568.356979
848.225919	2569.254305
848.540485	2564.422359
848.855009	2568.462843
849.169490	2567.668862
849.483928	2566.451423
849.798323	2566.395970
850.112675	2566.821948
850.426984	2564.036710
850.741251	2565.599468
851.055474	2563.794735
851.369654	2566.199365
851.683792	2566.063254
851.997887	2567.550395
852.311938	2563.681309
852.625947	2565.039900
852.939914	2565.412945
853.253837	2567.099211
853.567718	2563.961093
853.881555	2563.439334
854.195350	2564.618964
854.509103	2563.832544
854.822812	2564.376988
855.136479	2562.108469
855.450103	2565.740620
855.763685	2564.404715
856.077224	2563.383881
856.390720	2563.232646
856.704173	2565.110476
857.017584	2565.296999
857.330953	2563.683830
857.644278	2566.758933
857.957561	2569.312278
858.270802	2563.976217
858.584000	2565.176011
858.897155	2566.774057
859.210268	2566.640466
859.523339	2564.752554
859.836367	2561.183417
860.149352	2563.487225
860.462295	2563.199879
860.775195	2560.061761
861.088054	2559.459343
861.400869	2559.487069
861.713642	2557.276523
862.026373	2562.670558
862.339062	2563.948490
862.651708	2563.691391
862.964312	2564.077040
863.276873	2566.393450
863.589392	2567.091650
863.901869	2565.566701
864.214303	2569.690364
864.526696	2570.096177
864.839045	2570.481826
865.151353	2570.202042
865.463619	2570.867474
865.775842	2571.071641
866.088023	2570.703636
866.400162	2573.146075
866.712258	2568.588872
867.024313	2569.287072
867.336325	2568.115004
867.648296	2572.861250
867.960224	2568.427555
868.272110	2568.167936
868.583954	2567.129458
868.895755	2566.774057
869.207515	2569.904613
869.519233	2571.989131
869.830909	2569.985272
870.142542	2569.758420
870.454134	2570.053328
870.765684	2571.611044
871.077191	2573.564491
871.388657	2575.051632
871.700081	2571.270766
872.011463	2572.962073
872.322803	2575.767475
872.634101	2576.609348
872.945357	2579.913824
873.256571	2580.838876
873.567744	2581.012796
873.878874	2578.267888
874.189963	2579.664287
874.501010	2583.417426
874.812015	2581.451376
875.122979	2581.900039
875.433900	2580.359967
875.744780	2583.132601
876.055618	2579.379462
876.366415	2579.926427
876.677169	2579.810481
876.987882	2578.741756
877.298554	2578.293093
877.609183	2581.597570
877.919771	2581.902560
878.230317	2585.348188
878.540822	2588.100658
878.851285	2594.397059
879.161707	2602.772937
879.472087	2616.716768
879.782425	2633.886938
880.092722	2677.205573
880.402977	2752.739702
880.713191	2890.217008
881.023363	3070.224009
881.333494	3192.466949
881.643583	3250.659508
881.953631	3214.811863
882.263637	3118.465331
882.573602	3016.558406
882.883526	2938.256684
883.193408	2880.268291
883.503248	2827.225270
883.813048	2779.659463
884.122806	2732.875035
884.432522	2701.889583
884.742197	2676.237672
885.051831	2659.841319
885.361424	2642.587970
885.670975	2632.775364
885.980485	2618.271964
886.289954	2611.138731
886.599382	2605.643874
886.908768	2603.609768
887.218113	2597.285641
887.527417	2593.771956
887.836680	2586.439598
888.145901	2584.123188
888.455082	2582.250399
888.764221	2578.502301
889.073319	2573.567012
889.382376	2574.960891
889.691392	2574.338308
890.000366	2572.205900
890.309300	2573.269584
890.618193	2576.969791
890.927044	2580.657395
891.235855	2577.473906
891.544625	2577.302507
891.853353	2576.899214
892.162041	2581.027919
892.470687	2586.598394
892.779293	2592.952769
893.087858	2593.787080
893.396381	2604.123966
893.704864	2621.397479
894.013306	2644.574184
894.321707	2684.464835
894.630068	2704.982331
894.938387	2710.477188
895.246665	2705.433514
895.554903	2684.618590
895.863100	2666.200734
896.171256	2646.177271
896.479371	2627.973665
896.787446	2613.555965
897.095480	2603.274531
897.403473	2601.225302
897.711425	2592.481421
898.019336	2589.781883
898.327207	2587.115113
898.635038	2582.822570
898.942827	2584.372725
899.250576	2580.289390
899.558284	2574.605489
899.865952	2575.953998
900.173579	2574.570201
900.481165	2572.321847
900.788711	2569.861764
901.096216	2566.103583
901.403681	2563.651062
901.711105	2567.545353
902.018489	2565.027297
902.325832	2567.895714
902.633135	2566.360682
902.940397	2574.071127
903.247619	2585.857345
903.554800	2618.541666
903.861941	2667.534119
904.169041	2718.628734
904.476101	2746.392889
904.783121	2739.950294
905.090100	2712.811243
905.397039	2681.102385
905.703938	2651.737664
906.010796	2628.462657
906.317614	2611.489092
906.624391	2596.174066
906.931129	2586.275761
907.237826	2577.985583
907.544483	2572.594069
907.851099	2566.806824
908.157675	2566.088460
908.464211	2560.081925
908.770707	2554.093034
909.077163	2553.656975
909.383578	2550.753270
909.689954	2553.394835
909.996289	2549.966850
910.302584	2554.776111
910.608839	2551.529608
910.915054	2551.905174
911.221229	2552.000956
911.527363	2550.975081
911.833458	2554.398024
912.139513	2553.281409
912.445527	2552.610935
912.751502	2556.676626
913.057436	2558.264589
913.363331	2560.069322
913.669186	2563.126782
913.975000	2570.242371
914.280775	2577.050449
914.586510	2585.179310
914.892205	2602.283945
915.197859	2626.052985
915.503475	2653.718837
915.809050	2680.835204
916.114585	2692.926411
916.420081	2700.770447
916.725536	2697.168542
917.030952	2681.742612
917.336328	2663.574293
917.641665	2648.589463
917.946961	2629.191103
918.252218	2615.542179
918.557435	2605.205293
918.862612	2598.119952
919.167750	2587.707448
919.472848	2583.208218
919.777906	2579.419791
920.082925	2573.773699
920.387904	2570.713719
920.692843	2567.550395
920.997743	2564.387071
921.302603	2562.698284
921.607423	2560.941442
921.912204	2558.987995
922.216946	2559.741647
922.521647	2557.226112
922.826310	2555.121430
923.130932	2554.324927
923.435516	2551.045657
923.740059	2550.599515
924.044564	2551.738816
924.349028	2549.324103
924.653454	2541.807742
924.957840	2545.576005
925.262186	2543.494008
925.566493	2544.267826
925.870761	2539.892104
926.174989	2545.023999
926.479178	2541.747249
926.783328	2543.902342
927.087438	2541.071734
927.391509	2544.000644
927.695541	2539.869419
927.999533	2542.778165
928.303486	2542.052238
928.607400	2544.043494
928.911275	2540.552495
929.215110	2541.311189
929.518906	2540.212217
929.822663	2542.085006
930.126381	2541.457382
930.430060	2540.676003
930.733699	2542.223638
931.037299	2540.890253
931.340861	2541.643905
931.644383	2540.910417
931.947866	2541.636343
932.251309	2541.094419
932.554714	2542.185829
932.858080	2544.131714
933.161407	2542.284132
933.464694	2539.690458
933.767943	2541.144831
934.071153	2541.906045
934.374323	2539.420756
934.677455	2539.120808
934.980548	2536.317926
935.283602	2539.062834
935.586617	2539.917310
935.889593	2538.594007
936.192530	2539.335057
936.495428	2540.817156
936.798287	2537.686599
937.101108	2538.518390
937.403890	2541.031405
937.706632	2544.766900
938.009336	2542.853782
938.312002	2547.307641
938.614628	2544.789585
938.917216	2546.680018
939.219765	2545.409647
939.522275	2548.464586
939.824747	2549.220759
940.127179	2544.033412
940.429573	2543.551982
940.731929	2542.541230
941.034246	2542.216076
941.336524	2543.698175
941.638763	2543.526776
941.940964	2542.828576
942.243126	2545.127342
942.545250	2542.316899
942.847335	2544.582898
943.149381	2543.325130
943.451389	2541.280942
943.753359	2541.114584
944.055290	2540.860006
944.357182	2543.123484
944.659036	2541.623740
944.960851	2542.934440
945.262628	2540.391178
945.564367	2540.161806
945.866067	2540.597866
946.167729	2540.509645
946.469352	2540.403781
946.770937	2541.442259
947.072484	2542.609286
947.373992	2541.336395
947.675462	2538.324305
947.976893	2538.936805
948.278286	2541.570808
948.579641	2541.238092
948.880958	2541.464944
949.182236	2540.746580
949.483476	2540.539892
949.784678	2538.238606
950.085841	2541.500232
950.386967	2541.563247
950.688054	2537.994110
950.989103	2542.200953
951.290114	2538.619213
951.591087	2540.824718
951.892021	2539.400592
952.192917	2539.854295
952.493776	2540.623071
952.794596	2542.558874
953.095378	2541.144831
953.396122	2543.345294
953.696828	2541.424615
953.997496	2540.081147
954.298126	2540.935623
954.598718	2540.113915
954.899272	2540.174409
955.199788	2537.752134
955.500266	2540.088709
955.800706	2537.220292
956.101108	2531.796011
956.401472	2537.797505
956.701798	2531.387678
957.002087	2533.038655
957.302337	2536.015457
957.602550	2534.223327
957.902724	2536.033101
958.202861	2536.126362
958.502960	2538.031918
958.803022	2535.145858
959.103045	2532.559746
959.403031	2533.520086
959.702979	2531.964890
960.002889	2535.528985
960.302762	2534.339273
960.602596	2533.356248
960.902393	2536.638039
961.202153	2535.755837
961.501875	2533.973789
961.801559	2534.598893
962.101205	2533.310878
962.400814	2534.051927
962.700385	2531.473377
962.999918	2535.844057
963.299414	2532.509334
963.598873	2536.086033
963.898293	2531.750641
964.197677	2533.893131
964.497022	2532.292565
964.796331	2535.327339
965.095601	2530.888603
965.394835	2533.875487
965.694030	2531.609488
965.993189	2533.205013
966.292309	2534.046886
966.591393	2533.033614
966.890439	2533.978831
967.189447	2531.309540
967.488419	2531.203675
967.787353	2532.448840
968.086249	2531.412883
968.385108	2531.579241
968.683930	2532.761392
968.982714	2531.251566
969.281462	2533.008408
969.580172	2534.361958
969.878844	2532.277441
970.177480	2531.722914
970.476078	2531.985054
970.774639	2533.782226
971.073162	2533.676361
971.371649	2528.257121
971.670098	2527.448016
971.968510	2529.993798
972.266885	2526.376771
972.565223	2530.596216
972.863524	2530.654190
973.161788	2533.978831
973.460014	2531.952287
973.758204	2532.700898
974.056356	2528.703263
974.354471	2533.036135
974.652550	2534.074613
974.950591	2533.444468
975.248595	2533.406660
975.546563	2533.658717
975.844493	2532.370702
976.142386	2530.046731
976.440243	2531.498583
976.738062	2533.391536
977.035845	2535.556712
977.333590	2532.305167
977.631299	2530.450023
977.928971	2529.436751
978.226606	2532.693336
978.524204	2530.792821
978.821765	2532.438758
979.119290	2530.596216
979.416777	2530.543284
979.714228	2532.554705
980.011642	2530.639066
980.309020	2533.764582
980.606360	2532.234591
980.903664	2529.046062
981.200931	2530.258459
981.498162	2532.637884
981.795356	2533.101670
982.092513	2536.050745
982.389633	2532.287523
982.686717	2536.086033
982.983764	2538.490663
983.280775	2538.162988
983.577749	2538.820859
983.874686	2539.289686
984.171587	2535.097967
984.468451	2534.702236
984.765279	2537.389171
985.062070	2535.710467
985.358824	2529.104035
985.655543	2533.068902
985.952224	2534.508152
986.248869	2533.688964
986.545478	2526.603623
986.842050	2529.000691
987.138586	2526.437264
987.435086	2525.860052
987.731549	2525.045906
988.027975	2531.082688
988.324366	2529.774508
988.620719	2530.518078
988.917037	2530.102183
989.213318	2531.102852
989.509563	2530.311391
989.805772	2529.401463
990.101944	2527.435413
990.398080	2531.735517
990.694180	2529.514889
990.990244	2529.620753
991.286271	2531.228881
991.582262	2529.860208
991.878217	2527.011956
992.174136	2530.376926
992.470019	2528.509179
992.765865	2530.681916
993.061676	2528.534384
993.357450	2530.434899
993.653188	2529.855167
993.948890	2530.812986
994.244556	2531.080167
994.540186	2531.886752
994.835780	2529.749303
995.131337	2532.295085
995.426859	2527.879034
995.722345	2533.026053
996.017795	2529.630835
996.313208	2530.931453
996.608586	2529.930784
996.903928	2531.816176
997.199234	2530.364323
997.494504	2529.250228
997.789738	2528.161339
998.084936	2533.696526
998.380099	2528.494055
998.675225	2531.218799
998.970316	2531.501103
999.265371	2530.155115
999.560390	2530.071936
999.855373	2528.768798
1000.150320	2530.613860
1000.445232	2532.912627
1000.740108	2528.526823
1001.034948	2529.096473
1001.329752	2529.353572
1001.624521	2529.378778
1001.919254	2525.401307
1002.213951	2525.960875
1002.508613	2526.386853
1002.803239	2527.521113
1003.097829	2524.831657
1003.392384	2527.485824
1003.686903	2525.807120
1003.981386	2530.684437
1004.275834	2527.790814
1004.570246	2530.941535
1004.864623	2528.456247
1005.158964	2528.070598
1005.453270	2529.330887
1005.747540	2528.257121
1006.041775	2530.530681
1006.335974	2528.108407
1006.630138	2526.772501
1006.924266	2525.938190
1007.218359	2526.752337
1007.512416	2528.436082
1007.806438	2526.424662
1008.100425	2527.790814
1008.394376	2529.237625
1008.688292	2527.498427
1008.982172	2526.583458
1009.276017	2527.626977
1009.569827	2527.982378
1009.863602	2529.212420
1010.157341	2524.831657
1010.451045	2524.287212
1010.744714	2527.485824
1011.038347	2527.722759
1011.331945	2529.091432
1011.625508	2529.920702
1011.919036	2526.205371
1012.212528	2527.989940
1012.505986	2525.008097
1012.799408	2527.032121
1013.092795	2526.381812
1013.386147	2529.600588
1013.679464	2525.789476
1013.972745	2530.669313
1014.265992	2530.026566
1014.559204	2527.332069
1014.852380	2526.999353
1015.145521	2531.012112
1015.438628	2528.267203
1015.731699	2528.947759
1016.024736	2529.156967
1016.317737	2528.307532
1016.610703	2528.045392
1016.903635	2524.241842
1017.196531	2524.340144
1017.489393	2523.200844
1017.782219	2521.181862
1018.075011	2526.212933
1018.367768	2529.968593
1018.660490	2528.509179
1018.953177	2528.509179
1019.245829	2528.509179
