Dividing Wavelength (nm)	Counts (n)	Blue Motor Position (mm): 0.000000	Red Motor Position (mm): 30.000000	
326.493990	2126.709053
326.888308	2126.709053
327.282561	2126.709053
327.676750	2095.814341
328.070874	2092.046079
328.464933	2094.788466
328.858929	2103.272728
329.252859	2110.317741
329.646726	2124.138064
330.040528	2136.967801
330.434265	2154.798362
330.827938	2170.229334
331.221547	2187.608712
331.615091	2208.411033
332.008571	2227.539691
332.401986	2246.650705
332.795338	2264.982861
333.188625	2285.086983
333.581847	2306.529531
333.975006	2321.819350
334.368100	2343.531600
334.761129	2357.644310
335.154095	2375.729450
335.546996	2392.340052
335.939833	2411.743453
336.332606	2427.363468
336.725315	2440.483071
337.117960	2448.629575
337.510540	2458.260700
337.903056	2469.179839
338.295508	2475.398102
338.687896	2481.906232
339.080220	2494.809065
339.472480	2499.273007
339.864676	2502.879952
340.256807	2509.400685
340.648875	2509.675428
341.040879	2514.114164
341.432818	2514.875378
341.824694	2518.174813
342.216506	2518.278157
342.608253	2519.500637
342.999937	2516.299504
343.391557	2517.620286
343.783113	2517.653054
344.174605	2514.603156
344.566033	2512.765655
344.957397	2509.826662
345.348697	2509.718278
345.739934	2507.666528
346.131106	2506.849861
346.522215	2506.610406
346.913260	2505.992865
347.304241	2500.480363
347.695159	2500.780312
348.086012	2499.656135
348.476802	2497.017091
348.867528	2493.311843
349.258191	2495.393839
349.648789	2491.940649
350.039324	2491.081132
350.429796	2492.487614
350.820203	2489.896461
351.210548	2485.437560
351.600828	2486.957468
351.991045	2487.610297
352.381198	2483.779021
352.771288	2487.675832
353.161314	2485.157776
353.551276	2487.237252
353.941175	2486.055102
354.331010	2484.540235
354.720782	2486.067704
355.110490	2485.578713
355.500135	2484.210039
355.889717	2486.788589
356.279235	2483.264823
356.668689	2489.740185
357.058080	2487.007880
357.447408	2482.438074
357.836672	2484.399083
358.225873	2487.496872
358.615010	2485.568630
359.004084	2487.776656
359.393095	2487.811944
359.782043	2491.436533
360.170927	2490.088025
360.559748	2491.376039
360.948505	2492.563231
361.337199	2491.970896
361.725830	2494.506596
362.114398	2495.270331
362.502903	2495.136740
362.891344	2495.731596
363.279722	2496.081957
363.668037	2492.994250
364.056289	2498.796618
364.444478	2499.242760
364.832603	2496.717142
365.220665	2500.815600
365.608665	2500.712256
365.996601	2500.160250
366.384474	2501.665034
366.772284	2500.921464
367.160031	2502.978255
367.547715	2504.833400
367.935336	2510.240037
368.322893	2509.803977
368.710388	2510.799605
369.097820	2523.944414
369.485189	2523.473066
369.872495	2533.141999
370.259738	2537.817669
370.646918	2545.359235
371.034035	2551.060780
371.421090	2561.047306
371.808081	2570.529717
372.195010	2579.467682
372.581875	2594.097111
372.968678	2606.710078
373.355418	2617.767849
373.742096	2635.316105
374.128710	2650.535349
374.515262	2665.983965
374.901751	2680.076510
375.288177	2693.652337
375.674540	2716.632437
376.060841	2735.559449
376.447079	2752.870772
376.833254	2775.785337
377.219367	2785.033333
377.605417	2822.756287
377.991404	2834.870180
378.377329	2857.900692
378.763191	2872.005840
379.148991	2908.899524
379.534727	2935.022784
379.920402	2964.717700
380.306013	2979.664722
380.691563	3028.513502
381.077049	3045.890360
381.462474	3063.171435
381.847835	3103.997219
382.233134	3128.961013
382.618371	3124.343316
383.003545	3195.680684
383.388657	3201.989688
383.773706	3234.051427
384.158693	3248.433839
384.543618	3277.380144
384.928480	3314.725012
385.313280	3357.620190
385.698017	3354.595498
386.082692	3411.530289
386.467305	3416.377359
386.851856	3447.657718
387.236344	3472.450113
387.620770	3501.837519
388.005133	3527.292826
388.389435	3557.270047
388.773674	3568.600040
389.157851	3609.216617
389.541965	3623.853607
389.926018	3588.520160
390.310008	3661.503464
390.693936	3675.774971
391.077802	3720.515211
391.461606	3706.795711
391.845348	3769.384157
392.229027	3769.066564
392.612645	3784.190026
392.996200	3860.923949
393.379694	3900.048344
393.763125	3964.166780
394.146494	3930.461625
394.529801	3994.025534
394.913047	4044.182494
395.296230	4010.366434
395.679351	4060.329310
396.062410	4086.719750
396.445408	4070.303233
396.828343	4104.857822
397.211217	4125.077890
397.594028	4044.865570
397.976778	4111.025673
398.359466	4138.467194
398.742092	4168.767050
399.124656	4088.796706
399.507158	4171.925333
399.889598	4195.890978
400.271977	4258.207201
400.654294	4228.867686
401.036549	4237.344386
401.418742	4203.044375
401.800874	4310.098318
402.182944	4329.128674
402.564952	4391.550762
402.946898	4382.083475
403.328783	4381.148341
403.710606	4291.370432
404.092367	4483.327488
404.474067	4449.594607
404.855705	4456.130463
405.237282	4382.380903
405.618797	4492.086493
406.000250	4526.835166
406.381642	4613.243064
406.762972	4570.360488
407.144240	4582.302982
407.525447	4580.586469
407.906593	4639.262979
408.287677	4679.801418
408.668700	4613.580821
409.049661	4661.698634
409.430560	4703.290674
409.811399	4635.887927
410.192176	4792.854334
410.572891	4727.422678
410.953545	4837.357640
411.334138	4710.552456
411.714669	4783.586173
412.095139	4674.195655
412.475547	4818.508766
412.855894	4800.068225
413.236180	4811.942663
413.616405	4760.868213
413.996568	4850.804918
414.376670	4791.326864
414.756711	4747.156274
415.136691	4777.123413
415.516609	4858.240620
415.896466	4894.330240
416.276262	4924.289818
416.655997	4908.921860
417.035670	5085.818469
417.415283	5179.505793
417.794834	5121.174602
418.174324	5080.454682
418.553753	4983.533458
418.933121	5170.913146
419.312428	5235.828084
419.691674	5173.963044
420.070859	5299.991890
420.449983	5213.505855
420.829045	5328.797043
421.208047	5233.189040
421.586988	5307.732582
421.965867	5317.893028
422.344686	5451.294561
422.723444	5306.910874
423.102141	5124.534531
423.480777	5419.336167
423.859352	5190.949212
424.237866	5448.814314
424.616319	5441.048416
424.994712	5552.399943
425.373044	5429.973001
425.751314	5570.013734
426.129524	5373.229773
426.507673	5570.843004
426.885762	5652.976003
427.263789	5582.097380
427.641756	5463.703362
428.019662	5585.689202
428.397508	5594.092806
428.775292	5540.344023
429.153016	5640.189117
429.530679	5564.649947
429.908282	5651.272093
430.285824	5521.696795
430.663305	5794.977745
431.040726	5533.694742
431.418086	5530.377662
431.795385	5638.311287
432.172624	5652.948277
432.549802	5644.234642
432.926920	5654.324512
433.303977	5659.965563
433.680974	5701.643303
434.057910	5717.412032
434.434786	5724.827569
434.811601	5694.230286
435.188355	5923.779226
435.565050	5802.400844
435.941683	5783.221775
436.318257	5993.722715
436.694770	5981.518082
437.071222	6013.168966
437.447614	5947.613802
437.823946	5859.265060
438.200218	6008.478172
438.576429	5882.678699
438.952580	5976.497093
439.328670	6024.357807
439.704700	5931.446821
440.080670	5914.112814
440.456580	6190.985586
440.832429	6071.527884
441.208218	5918.291930
441.583947	6073.945117
441.959616	6072.397483
442.335224	6003.936093
442.710773	6134.895188
443.086261	6166.155383
443.461689	5960.073013
443.837057	6107.110868
444.212365	6264.389827
444.587612	6160.922665
444.962800	6307.491692
445.337927	6288.441172
445.712995	5904.504374
446.088002	6477.585264
446.462949	6309.213246
446.837837	6237.323872
447.212664	6410.754688
447.587431	6555.486215
447.962139	7096.386899
448.336786	8018.953341
448.711374	7757.713187
449.085901	6840.243351
449.460369	6759.274859
449.834776	6690.412697
450.209124	7079.375525
450.583412	7233.521407
450.957640	7382.767287
451.331808	7143.821636
451.705917	6695.963008
452.079965	6618.982068
452.453954	6832.444686
452.827883	6705.541200
453.201752	6805.633310
453.575562	6599.671928
453.949311	6804.549462
454.323001	6693.578542
454.696632	6768.386744
455.070202	6902.829276
455.443713	7058.593368
455.817164	7157.014336
456.190556	7239.681697
456.563888	7313.832029
456.937160	7361.387754
457.310373	7012.786924
457.683526	7035.958588
458.056619	6926.678975
458.429653	6917.022645
458.802628	6850.681060
459.175542	6956.406659
459.548398	7312.627193
459.921194	7469.396995
460.293930	7476.696586
460.666607	8004.258377
461.039224	8309.681724
461.411782	8434.190663
461.784280	8448.452087
462.156719	8336.183070
462.529099	8214.701345
462.901419	7801.102398
463.273680	7689.198865
463.645882	7703.049435
464.018024	7559.018628
464.390106	7727.491469
464.762130	8113.212835
465.134094	8566.901558
465.505999	9567.235360
465.877845	10760.438667
466.249631	11397.005327
466.621358	11015.831082
466.993026	10391.179188
467.364634	10134.690322
467.736184	9759.119319
468.107674	9426.801417
468.479105	9443.802708
468.850477	9213.570691
469.221790	8977.352304
469.593043	8648.056573
469.964238	8498.964448
470.335373	8503.589707
470.706449	8547.248620
471.077467	8519.302983
471.448425	9758.673177
471.819324	10771.236818
472.190164	10795.477206
472.560945	9576.654756
472.931667	8795.477556
473.302330	8648.835432
473.672934	8303.768451
474.043479	8623.044888
474.413965	8545.542189
474.784393	8409.698217
475.154761	8542.825007
475.525070	8601.579655
475.895321	8422.303622
476.265513	8561.159684
476.635645	8698.735293
477.005719	8662.839757
477.375734	8744.209021
477.745691	8931.921426
478.115588	9021.354016
478.485427	9208.993323
478.855207	9656.103340
479.224928	10319.264608
479.594591	10842.974958
479.964194	10640.885183
480.333739	10555.649353
480.703226	10427.805692
481.072653	10460.585795
481.442022	10589.964488
481.811333	10696.935252
482.180584	10483.018929
482.549777	10176.768833
482.918912	9978.107042
483.287988	9940.399212
483.657005	9892.851048
484.025964	9567.850381
484.394864	9618.022464
484.763706	9535.899547
485.132489	9287.698338
485.501213	9192.644862
485.869879	9208.118683
486.238487	8986.948141
486.607036	9025.772587
486.975527	8782.118498
487.343959	8865.413483
487.712333	8824.325559
488.080648	8717.009476
488.448905	8660.994695
488.817104	8555.256493
489.185244	8676.206376
489.553326	8701.127320
489.921350	8989.675405
490.289315	9597.499927
490.657222	9750.506508
491.025070	9590.790151
491.392861	9423.675901
491.760593	9107.066234
492.128267	8803.193042
492.495883	8511.988269
492.863440	8211.538021
493.230939	7915.337465
493.598380	7795.736090
493.965763	7625.813917
494.333088	7497.627457
494.700354	7359.091508
495.067563	7327.884245
495.434713	7141.613611
495.801805	7143.993035
496.168839	7018.695156
496.535815	6898.471199
496.902733	6833.140366
497.269593	6702.703030
497.636395	6692.459406
498.003139	6592.516010
498.369825	6462.555064
498.736453	6448.086952
499.103023	6349.058526
499.469535	6280.960100
499.835989	6205.113419
500.202385	6102.904025
500.568723	5967.365042
500.935003	5996.928889
501.301226	5818.275438
501.667390	5864.701944
502.033497	5825.978321
502.399546	5700.955185
502.765537	5591.078196
503.131470	5538.320000
503.497345	5527.163927
503.863163	5329.510367
504.228923	5349.193552
504.594625	5307.404907
504.960269	5159.126928
505.325856	5156.392102
505.691385	5028.530797
506.056856	5008.724103
506.422270	4947.905103
506.787625	4861.817319
507.152924	4821.667049
507.518164	4759.577677
507.883347	4671.314635
508.248472	4595.672122
508.613540	4593.297738
508.978550	4506.584851
509.343503	4443.373823
509.708398	4411.967435
510.073236	4375.701374
510.438016	4323.568281
510.802738	4258.328189
511.167403	4217.449472
511.532010	4140.730673
511.896561	4141.002895
512.261053	4096.802058
512.625488	4020.693238
512.989866	3964.239876
513.354186	3913.404881
513.718449	3849.765355
514.082655	3839.337728
514.446803	3778.924540
514.810894	3755.183226
515.174927	3692.206612
515.538904	3657.397445
515.902822	3633.278044
516.266684	3579.879622
516.630488	3532.283568
516.994235	3506.656862
517.357925	3475.406750
517.721558	3450.140487
518.085133	3414.867533
518.448651	3387.173954
518.812112	3343.041173
519.175516	3308.857109
519.538863	3289.453708
519.902152	3257.475148
520.265385	3236.070409
520.628560	3206.246943
520.991678	3173.940708
521.354739	3153.871875
521.717743	3130.216261
522.080690	3101.078391
522.443580	3084.639189
522.806413	3058.740261
523.169189	3042.477498
523.531908	3024.178110
523.894569	2993.255672
524.257174	2976.171202
524.619722	2961.347689
524.982213	2945.664659
525.344647	2927.922318
525.707025	2909.282652
526.069345	2897.130951
526.431608	2878.138404
526.793815	2868.865201
527.155964	2849.018178
527.518057	2841.307734
527.880093	2825.629745
528.242072	2814.524083
528.603995	2802.722742
528.965860	2791.743109
529.327669	2783.218518
529.689421	2770.063627
530.051117	2764.520878
530.412755	2754.841863
530.774337	2748.288363
531.135862	2738.004409
531.497331	2730.563666
531.858743	2721.603015
532.220098	2719.788200
532.581396	2708.438042
532.942638	2707.490305
533.303824	2702.673482
533.664953	2699.527802
534.026025	2692.170238
534.387040	2688.328879
534.747999	2686.206553
535.108902	2681.445183
535.469748	2676.015861
535.830537	2674.682476
536.191270	2667.811383
536.551947	2670.299192
536.912567	2664.259890
537.273131	2662.495486
537.633638	2657.517347
537.994089	2656.355361
538.354483	2652.191368
538.714821	2654.038951
539.075103	2650.920997
539.435328	2649.569968
539.795497	2645.287507
540.155609	2646.709113
540.515665	2645.995790
540.875665	2640.190901
541.235609	2640.561426
541.595496	2640.417753
541.955328	2638.005561
542.315102	2636.006743
542.674821	2635.830303
543.034483	2634.766619
543.394090	2632.906434
543.753640	2635.752165
544.113134	2631.701598
544.472571	2632.369551
544.831953	2633.072792
545.191278	2628.797893
545.550548	2627.265382
545.909761	2625.926956
546.268918	2625.347223
546.628019	2626.547018
546.987064	2624.979219
547.346053	2623.850001
547.704986	2623.245062
548.063863	2623.716410
548.422684	2621.757922
548.781449	2623.940742
549.140158	2621.604167
549.498811	2621.810854
549.857408	2619.224742
550.215949	2618.438322
550.574434	2614.176027
550.932864	2617.041922
551.291237	2613.092178
551.649555	2617.440174
552.007817	2619.917901
552.366022	2616.658795
552.724173	2617.052005
553.082267	2616.237858
553.440305	2616.910852
553.798288	2615.736264
554.156215	2615.872375
554.514086	2617.777931
554.871902	2615.017899
555.229661	2616.414299
555.587365	2616.822632
555.945014	2613.271139
556.302606	2614.181068
556.660143	2612.482199
557.017625	2612.189812
557.375050	2614.672580
557.732421	2613.336674
558.089735	2612.714092
558.446994	2613.145111
558.804197	2615.451438
559.161345	2612.479678
559.518437	2612.837600
559.875474	2613.553444
560.232455	2611.400871
560.589381	2611.816767
560.946251	2614.619648
561.303065	2612.462034
561.659825	2609.109667
562.016528	2611.118567
562.373177	2608.797115
562.729770	2612.998917
563.086307	2611.446242
563.442789	2614.843979
563.799216	2607.796446
564.155587	2609.775099
564.511904	2610.788371
564.868164	2610.498505
565.224370	2608.839965
565.580520	2608.436673
565.936615	2607.632609
566.292654	2605.893411
566.648638	2606.843668
567.004567	2608.708895
567.360441	2610.622013
567.716260	2605.936261
568.072023	2607.607403
568.427732	2605.517845
568.783385	2601.540374
569.138982	2605.724532
569.494525	2606.463061
569.850013	2602.604058
570.205445	2607.612444
570.560823	2607.050356
570.916145	2605.369131
571.271412	2607.201590
571.626625	2604.930550
571.981782	2605.986672
572.336884	2604.590272
572.691931	2606.251333
573.046923	2602.427618
573.401860	2606.072372
573.756743	2605.522886
574.111570	2601.868049
574.466342	2605.253184
574.821059	2601.545416
575.175722	2602.944336
575.530330	2602.041969
575.884882	2605.285952
576.239380	2604.030704
576.593823	2606.226127
576.948211	2603.733276
577.302544	2603.254367
577.656823	2604.784357
578.011047	2606.984821
578.365216	2602.503235
578.719330	2602.145313
579.073389	2600.360744
579.427394	2599.871752
579.781344	2600.416197
580.135239	2597.575507
580.489080	2599.042483
580.842866	2598.069540
581.196597	2599.889397
581.550273	2601.555498
581.903895	2598.876125
582.257463	2598.485435
582.610975	2599.148347
582.964434	2596.801690
583.317837	2601.300920
583.671186	2600.101125
584.024481	2598.636670
584.377721	2599.128182
584.730906	2597.267997
585.084037	2597.303285
585.437113	2596.315218
585.790135	2595.685074
586.143103	2597.822523
586.496016	2597.104159
586.848874	2596.350507
587.201679	2595.619539
587.554428	2594.182810
587.907124	2596.877307
588.259765	2591.669795
588.612352	2593.908067
588.964884	2593.436720
589.317362	2596.181628
589.669786	2594.802872
590.022155	2597.688933
590.374470	2595.370002
590.726731	2594.281113
591.078937	2592.778849
591.431090	2594.954107
591.783188	2592.746082
592.135232	2594.999477
592.487222	2595.180959
592.839157	2591.488314
593.191038	2593.809765
593.542866	2594.505444
593.894639	2591.107707
594.246358	2595.783377
594.598022	2594.223140
594.949633	2591.863880
595.301190	2590.666606
595.652692	2592.985536
596.004141	2591.891606
596.355535	2594.205496
596.706876	2591.074939
597.058162	2588.345154
597.409395	2591.473190
597.760573	2594.185331
598.111698	2590.220463
598.462768	2592.219281
598.813785	2590.028900
599.164748	2591.427820
599.515657	2590.349013
599.866511	2590.061667
600.217312	2590.835484
600.568060	2590.152408
600.918753	2591.334558
601.269392	2587.765422
601.619978	2587.833477
601.970510	2590.601071
602.320988	2590.533015
602.671412	2589.489496
603.021783	2591.596698
603.372100	2593.434199
603.722363	2589.854980
604.072572	2592.599888
604.422728	2593.028386
604.772830	2587.682242
605.122878	2583.238465
605.472872	2588.304825
605.822813	2586.132088
606.172701	2586.469845
606.522534	2590.298601
606.872314	2589.663416
607.222041	2590.774990
607.571714	2588.574527
607.921333	2588.756008
608.270899	2591.208530
608.620411	2589.940679
608.969870	2587.387335
609.319276	2592.035279
609.668627	2593.792121
610.017926	2594.540732
610.367171	2594.684405
610.716362	2596.111052
611.065500	2597.174735
611.414585	2593.771956
611.763616	2591.873962
612.112594	2593.832450
612.461518	2594.268510
612.810389	2592.247007
613.159207	2591.717686
613.507971	2589.461770
613.856682	2590.996801
614.205340	2590.570824
614.553945	2591.790783
614.902496	2591.269023
615.250994	2589.504620
615.599439	2591.364805
615.947830	2591.652151
616.296169	2591.909250
616.644454	2589.492017
616.992686	2591.495875
617.340864	2590.583427
617.688990	2589.993612
618.037063	2592.012594
618.385082	2591.642069
618.733048	2591.740371
619.080961	2589.287850
619.428821	2589.441605
619.776628	2590.165011
620.124382	2592.138623
620.472083	2591.727768
620.819731	2590.888416
621.167326	2591.921853
621.514868	2590.986719
621.862357	2587.334403
622.209793	2590.129723
622.557176	2587.241142
622.904506	2587.853642
623.251783	2584.314752
623.599007	2583.787951
623.946179	2583.041860
624.293297	2583.432550
624.640363	2585.506985
624.987376	2585.794330
625.334336	2584.244176
625.681243	2583.921542
626.028097	2585.799372
626.374899	2585.781727
626.721647	2581.995821
627.068343	2582.948599
627.414987	2584.904567
627.761577	2583.084710
628.108115	2582.671336
628.454600	2582.217632
628.801032	2584.231573
629.147412	2585.144022
629.493739	2584.100503
629.840014	2584.158476
630.186236	2582.280646
630.532405	2582.537745
630.878521	2580.256623
631.224585	2581.312745
631.570597	2582.706624
631.916556	2579.699575
632.262462	2581.892477
632.608316	2581.186716
632.954117	2578.777044
633.299866	2581.658064
633.645562	2578.131777
633.991206	2581.237127
634.336797	2579.563464
634.682336	2581.894998
635.027823	2577.380645
635.373257	2577.859554
635.718639	2575.182702
636.063968	2577.622620
636.409245	2576.712692
636.754470	2576.329564
637.099642	2575.795202
637.444762	2578.794688
637.789829	2574.950808
638.134845	2574.315623
638.479808	2574.234965
638.824719	2576.442990
639.169577	2572.856209
639.514383	2574.544996
639.859137	2573.836713
640.203839	2574.056004
640.548489	2575.127249
640.893086	2569.004767
641.237632	2567.373954
641.582125	2570.691033
641.926566	2569.382854
642.270955	2573.682958
642.615292	2573.715726
642.959576	2574.970973
643.303809	2574.323185
643.647990	2574.502146
643.992118	2575.684296
644.336195	2573.289748
644.680219	2572.916703
645.024192	2572.586507
645.368112	2573.758576
645.711981	2573.345201
646.055797	2574.429049
646.399562	2574.290417
646.743274	2575.124728
647.086935	2574.807136
647.430544	2576.805953
647.774101	2576.604307
648.117606	2577.181519
648.461059	2577.720922
648.804460	2578.164544
649.147810	2575.328895
649.491108	2575.767475
649.834354	2575.134811
650.177548	2574.310582
650.520690	2572.241188
650.863781	2572.828483
651.206820	2574.245047
651.549807	2572.926785
651.892742	2571.759758
652.235626	2573.728329
652.578458	2573.698082
652.921238	2569.314798
653.263967	2573.327557
653.606644	2570.617937
653.949269	2570.249933
654.291843	2572.959553
654.634365	2571.779923
654.976836	2570.065930
655.319255	2571.777402
655.661622	2570.393605
656.003938	2569.458471
656.346203	2572.135324
656.688416	2571.041394
657.030577	2571.147258
657.372687	2569.178687
657.714746	2570.232288
658.056753	2570.023081
658.398708	2564.261042
658.740612	2568.402350
659.082465	2568.382185
659.424266	2566.632905
659.766016	2565.753223
660.107715	2571.805128
660.449362	2567.797411
660.790958	2570.159192
661.132503	2570.030642
661.473996	2569.745817
661.815438	2568.765313
662.156829	2568.445199
662.498168	2571.227916
662.839456	2569.186249
663.180693	2566.723645
663.521879	2570.386044
663.863013	2571.134655
664.204097	2569.261866
664.545129	2568.891342
664.886110	2570.053327
665.227040	2569.720611
665.567918	2571.290931
665.908746	2569.065261
666.249522	2572.218503
666.590248	2568.445199
666.930922	2571.424521
667.271545	2571.253122
667.612118	2571.679100
667.952639	2569.793708
668.293109	2571.124573
668.633528	2571.174984
668.973896	2569.826476
669.314213	2571.555591
669.654480	2568.908986
669.994695	2571.200190
670.334859	2571.132134
670.674973	2570.834706
671.015035	2570.015519
671.355047	2567.890673
671.695008	2572.105077
672.034918	2567.663821
672.374777	2567.124417
672.714585	2570.484346
673.054342	2570.464182
673.394049	2569.319840
673.733705	2569.604665
674.073310	2569.851681
674.412864	2569.279510
674.752368	2569.110632
675.091820	2568.167936
675.431223	2571.016188
675.770574	2570.083574
676.109875	2563.734241
676.449125	2563.519992
676.788324	2565.672565
677.127473	2565.481001
677.466571	2563.061247
677.805619	2567.610888
678.144616	2569.219017
678.483562	2566.264900
678.822458	2566.763975
679.161303	2568.483008
679.500098	2567.910837
679.838842	2568.498132
680.177535	2565.909499
680.516179	2565.007133
680.854771	2565.521330
681.193314	2566.206927
681.531805	2566.040569
681.870247	2571.527865
682.208638	2568.029304
682.546978	2572.268915
682.885268	2567.774726
683.223508	2568.593913
683.561697	2570.118863
683.899836	2570.176836
684.237925	2570.050807
684.575963	2569.549212
684.913951	2567.913358
685.251889	2570.068451
685.589776	2565.400343
685.927614	2568.777916
686.265401	2568.568708
686.603137	2568.639284
686.940824	2571.056517
687.278460	2570.565005
687.616046	2569.266907
687.953582	2574.340829
688.291068	2573.163719
688.628504	2571.986610
688.965889	2572.087433
689.303224	2568.546022
689.640510	2569.357648
689.977745	2569.448389
690.314930	2569.614747
690.652065	2568.034345
690.989150	2566.857236
691.326185	2568.157854
691.663170	2564.979406
692.000105	2562.947821
692.336990	2563.754406
692.673825	2565.556618
693.010610	2563.769529
693.347345	2561.110321
693.684030	2556.205278
694.020665	2558.635114
694.357251	2557.034548
694.693786	2560.835578
695.030272	2561.306926
695.366707	2558.937583
695.703093	2559.925649
696.039429	2559.482028
696.375716	2559.534960
696.711952	2561.092677
697.048139	2557.853735
697.384276	2562.728531
697.720363	2558.743499
698.056400	2560.248283
698.392388	2559.202244
698.728326	2560.946483
699.064214	2558.839281
699.400053	2561.397666
699.735842	2558.060422
700.071581	2560.349106
700.407270	2559.570248
700.742910	2559.955896
701.078501	2558.214178
701.414042	2556.608570
701.749533	2560.031514
702.084974	2556.270813
702.420366	2558.809034
702.755709	2560.278530
703.091002	2555.978426
703.426246	2556.086811
703.761440	2555.494475
704.096584	2554.708055
704.431679	2555.355843
704.766725	2555.857438
705.101721	2556.096893
705.436668	2556.530432
705.771565	2555.771739
706.106413	2557.079918
706.441212	2556.986657
706.775961	2556.865669
707.110661	2558.897254
707.445311	2557.057233
707.779913	2556.356512
708.114465	2559.877758
708.448967	2557.667213
708.783421	2556.406924
709.117825	2556.963972
709.452180	2556.719476
709.786485	2556.104455
710.120742	2561.531257
710.454949	2559.787018
710.789107	2559.232491
711.123216	2555.980947
711.457275	2560.250804
711.791286	2560.422203
712.125247	2559.751730
712.459159	2560.157543
712.793023	2562.277348
713.126837	2560.830537
713.460602	2561.798438
713.794318	2561.715259
714.127985	2561.012018
714.461602	2559.693756
714.795171	2562.494117
715.128691	2557.483210
715.462162	2559.764332
715.795584	2553.994732
716.128957	2558.844322
716.462281	2557.110165
716.795556	2558.486400
717.128782	2560.412121
717.461960	2554.332489
717.795088	2554.647561
718.128167	2554.990360
718.461198	2554.589588
718.794180	2555.048333
719.127113	2553.576316
719.459997	2552.326110
719.792833	2554.214022
720.125619	2553.873744
720.458357	2554.115720
720.791046	2555.176882
721.123686	2550.841490
721.456278	2554.418189
721.788821	2548.860317
722.121315	2553.246121
722.453761	2550.380225
722.786158	2553.470452
723.118506	2552.326110
723.450805	2553.273847
723.783056	2550.775955
724.115259	2552.512633
724.447412	2549.069525
724.779518	2555.431461
725.111574	2554.304763
725.443582	2552.777293
725.775542	2552.472303
726.107453	2554.244269
726.439315	2551.028013
726.771129	2555.940617
727.102895	2554.692932
727.434612	2555.885165
727.766281	2551.726213
728.097901	2552.689073
728.429473	2552.338713
728.760996	2552.558003
729.092471	2551.020451
729.423897	2554.171172
729.755276	2551.852242
730.086606	2552.489948
730.417887	2555.922973
730.749120	2557.689898
731.080305	2557.531101
731.411442	2557.876420
731.742530	2556.364074
732.073570	2559.708880
732.404562	2556.830381
732.735506	2557.006821
733.066401	2555.638148
733.397249	2559.902964
733.728048	2555.365926
734.058798	2555.355843
734.389501	2551.252344
734.720156	2553.422561
735.050762	2552.527756
735.381320	2553.195709
735.711831	2554.501368
736.042293	2553.989691
736.372707	2551.363250
736.703073	2548.910728
737.033391	2551.837118
737.363661	2552.192519
737.693883	2551.239741
738.024056	2554.730740
738.354182	2552.981460
738.684260	2555.822150
739.014290	2551.564896
739.344272	2553.354505
739.674207	2553.644372
740.004093	2556.285936
740.333931	2554.955072
740.663722	2552.681511
740.993464	2554.713096
741.323159	2553.535987
741.652806	2552.915925
741.982405	2555.595298
742.311956	2553.334341
742.641460	2552.772252
742.970915	2550.163455
743.300323	2555.184444
743.629683	2553.588919
743.958996	2552.174875
744.288260	2551.847200
744.617477	2551.733774
744.946647	2545.460058
745.275768	2549.281253
745.604842	2542.221117
745.933869	2544.673638
746.262847	2545.041643
746.591778	2552.240410
746.920662	2547.763866
747.249498	2551.849721
747.578286	2549.041798
747.907027	2549.059442
748.235720	2548.509957
748.564365	2552.293343
748.892963	2547.050542
749.221514	2551.242262
749.550017	2548.504915
749.878473	2552.041285
750.206881	2547.070707
750.535242	2547.048022
750.863555	2546.886705
751.191821	2549.170348
751.520039	2549.593805
751.848210	2549.684545
752.176334	2551.005328
752.504411	2548.661191
752.832440	2549.225800
753.160421	2547.128680
753.488356	2549.508105
753.816243	2548.522559
754.144082	2547.027857
754.471875	2548.920811
754.799620	2547.131201
755.127318	2545.691952
755.454969	2550.105482
755.782572	2548.696479
756.110129	2548.043650
756.437638	2550.798640
756.765100	2548.225131
757.092515	2548.550286
757.419882	2547.463917
757.747203	2548.288146
758.074477	2546.369987
758.401703	2548.003321
758.728882	2548.358722
759.056014	2547.552137
759.383099	2547.975594
759.710138	2550.506253
760.037129	2550.672612
760.364073	2550.168496
760.690970	2552.114382
761.017820	2550.942313
761.344623	2548.726726
761.671379	2552.706717
761.998088	2549.235883
762.324751	2548.908208
762.651366	2552.235369
762.977935	2564.921433
763.304456	2567.552915
763.630931	2571.041394
763.957359	2566.065775
764.283740	2560.964127
764.610074	2559.461863
764.936362	2558.267110
765.262602	2553.009186
765.588796	2552.986501
765.914943	2551.811912
766.241044	2548.557848
766.567097	2546.985008
766.893104	2547.315203
767.219064	2547.945347
767.544978	2543.761190
767.870845	2544.517363
768.196665	2544.595501
768.522438	2544.875285
768.848165	2545.981818
769.173846	2544.287990
769.499479	2545.671787
769.825066	2545.351674
770.150607	2546.536345
770.476101	2542.064841
770.801548	2542.710109
771.126949	2542.425284
771.452303	2541.195242
771.777611	2543.252033
772.102872	2543.438556
772.428087	2541.507794
772.753256	2543.945192
773.078378	2545.407126
773.403453	2543.025181
773.728482	2542.629451
774.053465	2540.620551
774.378401	2539.594676
774.703291	2541.863195
775.028135	2543.519214
775.352932	2542.276570
775.677683	2542.198432
776.002388	2541.086857
776.327046	2539.294727
776.651658	2541.351518
776.976224	2543.962836
777.300743	2539.471168
777.625216	2537.467309
777.949643	2545.389482
778.274024	2540.547454
778.598359	2539.690458
778.922647	2534.508152
779.246889	2537.827752
779.571086	2536.587628
779.895236	2540.769265
780.219339	2540.275232
780.543397	2542.198432
780.867409	2542.072403
781.191374	2541.258257
781.515294	2542.785726
781.839167	2541.976621
782.162995	2540.741538
782.486776	2540.504604
782.810511	2543.062990
783.134201	2540.643236
783.457844	2541.550644
783.781441	2541.154913
784.104993	2543.103319
784.428498	2539.375386
784.751958	2541.913607
785.075372	2540.736497
785.398739	2540.542413
785.722061	2540.428987
786.045337	2538.369676
786.368568	2539.327495
786.691752	2539.705581
787.014891	2540.655839
787.337983	2540.265149
787.661030	2543.383103
787.984031	2543.052907
788.306987	2542.702547
788.629897	2545.230686
788.952760	2545.676828
789.275579	2544.383772
789.598351	2543.259595
789.921078	2542.064841
790.243759	2542.437887
790.566395	2537.694161
790.888984	2543.415871
791.211529	2540.212217
791.534027	2540.159285
791.856480	2538.793133
792.178888	2541.107022
792.501249	2542.100129
792.823566	2541.873278
793.145836	2539.191384
793.468062	2541.099460
793.790241	2540.567619
794.112375	2541.117104
794.434464	2540.413863
794.756507	2539.045190
795.078505	2541.187681
795.400457	2540.819676
795.722364	2536.902700
796.044226	2536.721218
796.366042	2539.685417
796.687812	2539.879501
797.009538	2542.291693
797.331218	2542.672300
797.652852	2541.936292
797.974442	2542.536189
798.295986	2540.456713
798.617484	2540.232382
798.938938	2538.856147
799.260346	2541.122146
799.581709	2541.013761
799.903026	2541.522917
800.224299	2538.997299
800.545526	2541.026364
800.866708	2542.989893
801.187845	2540.161806
801.508936	2538.165509
801.829983	2541.598535
802.150984	2539.128369
802.471940	2539.488812
802.792851	2536.849768
803.113717	2540.832279
803.434538	2539.435880
803.755314	2540.718853
804.076045	2539.728267
804.396731	2539.745911
804.717372	2541.522917
805.037967	2540.497043
805.358518	2539.130890
805.679024	2538.977135
805.999485	2536.552340
806.319901	2541.911086
806.640272	2540.378575
806.960598	2538.064686
807.280879	2541.333874
807.601115	2540.088709
807.921306	2539.571991
808.241453	2539.602238
808.561554	2539.251877
808.881611	2536.748945
809.201623	2542.364790
809.521590	2541.742207
809.841513	2540.217258
810.161390	2538.341949
810.481223	2538.082330
810.801011	2539.680376
811.120755	2540.363452
811.440453	2535.143337
811.760107	2539.745911
812.079716	2537.492515
812.399281	2532.821886
812.718801	2537.701723
813.038276	2535.299613
813.357707	2537.578214
813.677093	2541.558205
813.996434	2538.573842
814.315731	2540.638195
814.634983	2540.396219
814.954191	2539.340098
815.273354	2539.997968
815.592473	2538.780530
815.911547	2540.328164
816.230577	2537.656352
816.549562	2539.733308
816.868502	2538.614172
817.187399	2542.788247
817.506250	2540.555016
817.825058	2541.888401
818.143821	2539.435880
818.462539	2542.702547
818.781213	2541.417053
819.099843	2543.597352
819.418429	2544.182126
819.736970	2545.830583
820.055466	2553.052036
820.373919	2550.544062
820.692327	2555.678477
821.010691	2563.368757
821.329011	2578.151941
821.647286	2605.835437
821.965517	2637.279635
822.283704	2657.827378
822.601847	2661.877945
822.919945	2648.929741
823.237999	2630.007770
823.556010	2612.406582
823.873976	2596.088367
824.191897	2584.947417
824.509775	2575.490212
824.827609	2569.619788
825.145398	2565.402863
825.463144	2563.835064
825.780845	2564.936556
826.098502	2568.777916
826.416116	2577.398289
826.733685	2586.018662
827.051210	2591.246338
827.368692	2586.963878
827.686129	2574.918041
828.003522	2566.837071
828.320872	2557.858776
828.638177	2554.879454
828.955439	2549.727395
829.272656	2545.581046
829.589830	2545.752445
829.906960	2544.446787
830.224046	2547.368135
830.541088	2543.501570
830.858086	2544.219935
831.175041	2545.744884
831.491952	2543.625078
831.808819	2541.091899
832.125642	2544.189688
832.442421	2543.695655
832.759157	2549.119936
833.075849	2553.956923
833.392497	2558.987995
833.709101	2566.884962
834.025662	2565.483522
834.342179	2558.569579
834.658653	2556.555638
834.975083	2550.828887
835.291469	2556.875751
835.607811	2547.098433
835.924110	2543.841848
836.240366	2543.627599
836.556578	2540.013092
836.872746	2541.621220
837.188871	2538.283976
837.504952	2536.953111
837.820990	2538.614172
838.136984	2536.285158
838.452935	2536.781712
838.768842	2538.339429
839.084706	2538.304141
839.400526	2539.118287
839.716303	2544.908052
840.032037	2547.685728
840.347727	2547.862168
840.663373	2546.402754
840.978977	2540.461754
841.294537	2540.539892
841.610054	2537.656352
841.925527	2538.523431
842.240957	2537.928575
842.556344	2536.869932
842.871687	2534.586290
843.186987	2535.579397
843.502244	2535.465971
843.817458	2534.457740
844.132629	2533.774664
844.447756	2536.517052
844.762840	2532.708460
845.077881	2533.938501
845.392879	2529.993798
845.707833	2531.705270
846.022745	2531.175949
846.337613	2533.510003
846.652438	2531.087729
846.967221	2534.177956
847.281960	2534.679551
847.596656	2534.079654
847.911309	2531.753161
848.225919	2535.934798
848.540485	2535.045035
848.855009	2534.165353
849.169490	2536.224665
849.483928	2531.753161
849.798323	2534.288862
850.112675	2534.077133
850.426984	2534.538399
850.741251	2532.985723
851.055474	2535.549150
851.369654	2535.849099
851.683792	2531.067564
851.997887	2535.097967
852.311938	2534.999664
852.625947	2532.806762
852.939914	2531.919519
853.253837	2534.331711
853.567718	2530.883562
853.881555	2533.706608
854.195350	2532.887421
854.509103	2532.678213
854.822812	2532.156453
855.136479	2534.747607
855.450103	2533.293234
855.763685	2533.343645
856.077224	2533.867925
856.390720	2533.774664
856.704173	2534.871115
857.017584	2537.333718
857.330953	2533.943543
857.644278	2534.044366
857.957561	2539.314892
858.270802	2532.569828
858.584000	2534.971938
858.897155	2533.479756
859.210268	2532.673172
859.523339	2532.952956
859.836367	2532.653007
860.149352	2535.728111
860.462295	2535.576876
860.775195	2529.300640
861.088054	2529.547656
861.400869	2530.593696
861.713642	2529.214940
862.026373	2533.648635
862.339062	2533.265507
862.651708	2532.814324
862.964312	2532.632843
863.276873	2532.043027
863.589392	2532.388347
863.901869	2533.429345
864.214303	2533.036135
864.526696	2535.745755
864.839045	2534.293903
865.151353	2534.961856
865.463619	2536.350693
865.775842	2535.828934
866.088023	2534.326670
866.400162	2534.528316
866.712258	2535.418080
867.024313	2533.754499
867.336325	2535.677699
867.648296	2537.051414
867.960224	2534.056968
868.272110	2536.675848
868.583954	2532.710980
868.895755	2534.412370
869.207515	2534.369520
869.519233	2533.628470
869.830909	2536.464119
870.142542	2534.608975
870.454134	2535.748276
870.765684	2534.787936
871.077191	2535.317257
871.388657	2537.731970
871.700081	2533.308357
872.011463	2535.423121
872.322803	2535.145858
872.634101	2536.171732
872.945357	2536.325488
873.256571	2537.487474
873.567744	2537.079140
873.878874	2533.883049
874.189963	2536.214582
874.501010	2538.392361
874.812015	2537.313554
875.122979	2535.599562
875.433900	2534.913965
875.744780	2535.309695
876.055618	2535.390354
876.366415	2535.760878
876.677169	2536.451517
876.987882	2535.067720
877.298554	2533.888090
877.609183	2534.548481
877.919771	2532.335414
878.230317	2535.304654
878.540822	2540.749100
878.851285	2540.529810
879.161707	2539.597197
879.472087	2545.243289
879.782425	2546.468289
880.092722	2550.090358
880.402977	2562.564693
880.713191	2575.528021
881.023363	2596.610126
881.333494	2605.638832
881.643583	2607.337701
881.953631	2604.708740
882.263637	2603.655138
882.573602	2597.361258
882.883526	2589.673498
883.193408	2581.242168
883.503248	2570.819583
883.813048	2564.061916
884.122806	2562.073181
884.432522	2559.678633
884.742197	2554.125802
885.051831	2552.275698
885.361424	2546.080120
885.670975	2546.556509
885.980485	2543.622558
886.289954	2543.597352
886.599382	2542.304296
886.908768	2543.451159
887.218113	2538.755324
887.527417	2539.559388
887.836680	2537.893287
888.145901	2537.769778
888.455082	2538.795653
888.764221	2538.470499
889.073319	2537.008564
889.382376	2538.029398
889.691392	2535.823893
890.000366	2536.048224
890.309300	2537.857998
890.618193	2534.306506
890.927044	2538.480581
891.235855	2538.568801
891.544625	2536.063348
891.853353	2536.151568
892.162041	2535.496218
892.470687	2540.849923
892.779293	2538.898997
893.087858	2537.709284
893.396381	2538.465458
893.704864	2543.675490
894.013306	2543.410829
894.321707	2554.153528
894.630068	2555.716286
894.938387	2560.969168
895.246665	2556.220401
895.554903	2556.406924
895.863100	2551.338044
896.171256	2549.911397
896.479371	2547.395862
896.787446	2546.269164
897.095480	2542.838658
897.403473	2541.966539
897.711425	2541.767413
898.019336	2540.635674
898.327207	2542.195911
898.635038	2539.163657
898.942827	2541.394368
899.250576	2538.072247
899.558284	2536.587628
899.865952	2536.557381
900.173579	2538.644418
900.481165	2530.933974
900.788711	2535.070240
901.096216	2536.431352
901.403681	2534.548481
901.711105	2535.065199
902.018489	2532.589993
902.325832	2536.668286
902.633135	2533.943543
902.940397	2536.575025
903.247619	2539.534182
903.554800	2543.133566
903.861941	2551.973229
904.169041	2565.130641
904.476101	2569.415622
904.783121	2569.834037
905.090100	2565.143244
905.397039	2556.633776
905.703938	2552.903322
906.010796	2547.854607
906.317614	2543.665408
906.624391	2541.969059
906.931129	2539.307330
907.237826	2537.472350
907.544483	2538.866229
907.851099	2535.004705
908.157675	2538.518390
908.464211	2533.749458
908.770707	2531.773326
909.077163	2532.279962
909.383578	2529.739220
909.689954	2530.485311
909.996289	2528.559590
910.302584	2534.601413
910.608839	2531.896834
910.915054	2532.829448
911.221229	2533.968748
911.527363	2532.887421
911.833458	2533.383974
912.139513	2532.390867
912.445527	2535.864222
912.751502	2533.610826
913.057436	2535.017308
913.363331	2536.028060
913.669186	2534.785415
913.975000	2534.997144
914.280775	2541.177598
914.586510	2542.352187
914.892205	2545.160110
915.197859	2547.017775
915.503475	2553.566234
915.809050	2559.784497
916.114585	2565.838923
916.420081	2568.893862
916.725536	2567.384037
917.030952	2560.817934
917.336328	2556.036399
917.641665	2554.745864
917.946961	2553.654454
918.252218	2548.522559
918.557435	2548.121788
918.862612	2541.850592
919.167750	2541.338915
919.472848	2541.099460
919.777906	2538.014274
920.082925	2538.571322
920.387904	2535.342463
920.692843	2538.321785
920.997743	2536.983358
921.302603	2533.184849
921.607423	2535.392874
921.912204	2536.953111
922.216946	2534.820703
922.521647	2532.474046
922.826310	2533.757020
923.130932	2536.267514
923.435516	2533.691485
923.740059	2533.492359
924.044564	2531.932122
924.349028	2533.210055
924.653454	2525.875176
924.957840	2528.811648
925.262186	2525.900382
925.566493	2526.880886
925.870761	2527.468180
926.174989	2532.247194
926.479178	2531.496062
926.783328	2530.492873
927.087438	2530.185362
927.391509	2529.010773
927.695541	2530.659231
927.999533	2529.595547
928.303486	2531.375075
928.607400	2532.111083
928.911275	2529.159487
929.215110	2531.133099
929.518906	2530.392050
929.822663	2531.707791
930.126381	2528.947759
930.430060	2529.930784
930.733699	2529.706453
931.037299	2532.622760
931.340861	2529.968593
931.644383	2530.381967
931.947866	2530.422297
932.251309	2528.589837
932.554714	2528.841895
932.858080	2531.949766
933.161407	2527.304343
933.464694	2528.920033
933.767943	2531.128058
934.071153	2528.143695
934.374323	2528.834333
934.677455	2531.974972
934.980548	2529.005732
935.283602	2531.244005
935.586617	2530.384488
935.889593	2529.913140
936.192530	2529.388860
936.495428	2532.164015
936.798287	2528.342821
937.101108	2527.480783
937.403890	2531.324663
937.706632	2528.592358
938.009336	2529.789632
938.312002	2530.568490
938.614628	2531.952287
938.917216	2533.177287
939.219765	2533.383974
939.522275	2532.206865
939.824747	2534.349355
940.127179	2528.514220
940.429573	2528.768798
940.731929	2528.332738
941.034246	2527.730320
941.336524	2530.215609
941.638763	2532.443799
941.940964	2530.865918
942.243126	2531.231402
942.545250	2529.656041
942.847335	2532.297606
943.149381	2529.429189
943.451389	2530.470188
943.753359	2531.428007
944.055290	2531.801052
944.357182	2531.175949
944.659036	2531.425486
944.960851	2530.457585
945.262628	2528.645290
945.564367	2530.457585
945.866067	2529.875331
946.167729	2529.683767
946.469352	2530.147554
946.770937	2529.020856
947.072484	2529.545136
947.373992	2529.875331
947.675462	2530.974303
947.976893	2527.271575
948.278286	2530.087060
948.579641	2529.041020
948.880958	2528.736031
949.182236	2533.053779
949.483476	2528.027748
949.784678	2532.804242
950.085841	2528.771319
950.386967	2532.441279
950.688054	2532.037986
950.989103	2529.509848
951.290114	2530.011443
951.591087	2531.866587
951.892021	2530.230733
952.192917	2530.644107
952.493776	2531.226361
952.794596	2530.896165
953.095378	2532.411032
953.396122	2529.819879
953.696828	2528.554549
953.997496	2528.758716
954.298126	2530.082019
954.598718	2531.425486
954.899272	2529.151926
955.199788	2527.576565
955.500266	2527.369878
955.800706	2528.645290
956.101108	2527.372398
956.401472	2527.921884
956.701798	2525.519774
957.002087	2526.764939
957.302337	2525.986081
957.602550	2527.455578
957.902724	2528.647810
958.202861	2529.550177
958.502960	2529.817358
958.803022	2526.850639
959.103045	2527.458098
959.403031	2527.241328
959.702979	2529.577903
960.002889	2526.863242
960.302762	2529.628315
960.602596	2529.749303
960.902393	2527.957172
961.202153	2528.846936
961.501875	2529.167049
961.801559	2528.032790
962.101205	2529.633356
962.400814	2528.131092
962.700385	2529.532533
962.999918	2527.979858
963.299414	2528.864580
963.598873	2528.236956
963.898293	2526.338962
964.197677	2527.206040
964.497022	2526.608664
964.796331	2528.173942
965.095601	2527.168232
965.394835	2527.652182
965.694030	2528.864580
965.993189	2525.764270
966.292309	2525.229908
966.591393	2526.091945
966.890439	2525.202182
967.189447	2527.392563
967.488419	2526.464991
967.787353	2528.118489
968.086249	2526.296112
968.385108	2528.521782
968.683930	2527.740403
968.982714	2525.776873
969.281462	2525.756709
969.580172	2528.204189
969.878844	2527.223684
970.177480	2527.604292
970.476078	2527.551359
970.774639	2526.928777
971.073162	2527.352234
971.371649	2524.277130
971.670098	2524.178828
971.968510	2526.066740
972.266885	2523.420134
972.565223	2527.410207
972.863524	2527.364837
973.161788	2527.619415
973.460014	2526.991791
973.758204	2528.642769
974.056356	2525.920546
974.354471	2528.741072
974.652550	2524.854342
974.950591	2528.426000
975.248595	2528.209230
975.546563	2527.412728
975.844493	2526.669158
976.142386	2527.569003
976.440243	2525.860052
976.738062	2525.358457
977.035845	2526.558252
977.333590	2529.966072
977.631299	2527.125382
977.928971	2526.064219
978.226606	2528.156298
978.524204	2526.470032
978.821765	2525.149250
979.119290	2527.115300
979.416777	2526.835516
979.714228	2525.174455
980.011642	2525.305525
980.309020	2531.811134
980.606360	2528.536905
980.903664	2526.091945
981.200931	2527.016997
981.498162	2527.851308
981.795356	2529.058664
982.092513	2527.339631
982.389633	2527.178314
982.686717	2527.841226
982.983764	2526.495238
983.280775	2527.503468
983.577749	2529.673685
983.874686	2529.890455
984.171587	2526.386853
984.468451	2526.207892
984.765279	2528.158818
985.062070	2528.935156
985.358824	2524.022552
985.655543	2527.556401
985.952224	2528.504137
986.248869	2527.493386
986.545478	2523.762932
986.842050	2524.992974
987.138586	2522.709331
987.435086	2522.053981
987.731549	2521.524660
988.027975	2525.214785
988.324366	2526.890968
988.620719	2526.338962
988.917037	2523.750329
989.213318	2526.190248
989.509563	2525.171935
989.805772	2526.840557
990.101944	2525.383663
990.398080	2525.928108
990.694180	2528.665454
990.990244	2525.045906
991.286271	2527.591689
991.582262	2527.067409
991.878217	2525.625639
992.174136	2526.941380
992.470019	2527.077491
992.765865	2527.763088
993.061676	2523.760412
993.357450	2525.902902
993.653188	2524.947603
993.948890	2524.549352
994.244556	2526.238139
994.540186	2528.294930
994.835780	2527.102697
995.131337	2527.901720
995.426859	2527.208561
995.722345	2525.739065
996.017795	2526.956503
996.313208	2528.219312
996.608586	2525.875176
996.903928	2527.342152
997.199234	2525.834847
997.494504	2525.335772
997.789738	2527.039682
998.084936	2526.102028
998.380099	2528.153777
998.675225	2526.001205
998.970316	2526.162522
999.265371	2527.059847
999.560390	2526.555732
999.855373	2525.290402
1000.150320	2525.156811
1000.445232	2526.033972
1000.740108	2523.599095
1001.034948	2525.285361
1001.329752	2523.079856
1001.624521	2528.673016
1001.919254	2519.984588
1002.213951	2521.507016
1002.508613	2520.483662
1002.803239	2523.609177
1003.097829	2518.757067
1003.392384	2526.936339
1003.686903	2526.434744
1003.981386	2525.839888
1004.275834	2524.715710
1004.570246	2527.962213
1004.864623	2525.880217
1005.158964	2524.478776
1005.453270	2525.204702
1005.747540	2526.752337
1006.041775	2524.725793
1006.335974	2525.602953
1006.630138	2523.135309
1006.924266	2525.751667
1007.218359	2527.329549
1007.512416	2526.528005
1007.806438	2525.300484
1008.100425	2526.160001
1008.394376	2523.503313
1008.688292	2524.166225
1008.982172	2527.425331
1009.276017	2523.168076
1009.569827	2524.526667
1009.863602	2523.284023
1010.157341	2524.214116
1010.451045	2525.683612
1010.744714	2526.437264
1011.038347	2529.046062
1011.331945	2525.245032
1011.625508	2525.542460
1011.919036	2524.816533
1012.212528	2527.125382
1012.505986	2524.998015
1012.799408	2525.103879
1013.092795	2528.010104
1013.386147	2525.197141
1013.679464	2525.050947
1013.972745	2526.182686
1014.265992	2527.168232
1014.559204	2529.025897
1014.852380	2528.063037
1015.145521	2526.500279
1015.438628	2523.042047
1015.731699	2527.198479
1016.024736	2525.499610
1016.317737	2524.748478
1016.610703	2525.202182
1016.903635	2522.122037
1017.196531	2517.947961
1017.489393	2522.737057
1017.782219	2522.074146
1018.075011	2525.731503
1018.367768	2523.536080
1018.660490	2526.041534
1018.953177	2526.041534
1019.245829	2526.041534
