Dividing Wavelength (nm)	Counts (n)	Blue Motor Position (mm): 0.000000	Red Motor Position (mm): 49.100000	
326.493990	2128.750720
326.888308	2128.750720
327.282561	2128.750720
327.676750	2096.255442
328.070874	2095.693353
328.464933	2097.538416
328.858929	2104.903542
329.252859	2114.383431
329.646726	2125.849536
330.040528	2140.300003
330.434265	2154.332055
330.827938	2171.701351
331.221547	2189.466377
331.615091	2210.845910
332.008571	2227.937942
332.401986	2247.442167
332.795338	2267.465630
333.188625	2285.399534
333.581847	2305.609520
333.975006	2323.213229
334.368100	2342.314161
334.761129	2360.419465
335.154095	2376.893956
335.546996	2396.569580
335.939833	2425.054619
336.332606	2437.549119
336.725315	2451.984463
337.117960	2460.171297
337.510540	2467.637246
337.903056	2481.213073
338.295508	2484.915801
338.687896	2497.979951
339.080220	2503.741990
339.472480	2511.752383
339.864676	2517.335461
340.256807	2520.650020
340.648875	2522.116996
341.040879	2524.617408
341.432818	2526.028931
341.824694	2530.802904
342.216506	2531.448171
342.608253	2527.415248
342.999937	2528.415917
343.391557	2530.591175
343.783113	2524.935001
344.174605	2527.637059
344.566033	2525.605474
344.957397	2524.176307
345.348697	2524.022552
345.739934	2522.341327
346.131106	2517.126253
346.522215	2518.434433
346.913260	2513.809174
347.304241	2513.388238
347.695159	2511.896056
348.086012	2510.613082
348.476802	2510.487054
348.867528	2505.902124
349.258191	2506.249964
349.648789	2504.719974
350.039324	2502.862308
350.429796	2502.181753
350.820203	2501.244098
351.210548	2500.402225
351.600828	2495.776967
351.991045	2498.214365
352.381198	2496.792759
352.771288	2497.606906
353.161314	2494.584734
353.551276	2495.827378
353.941175	2496.011380
354.331010	2499.078923
354.720782	2497.385095
355.110490	2499.608244
355.500135	2498.892400
355.889717	2495.126658
356.279235	2497.286792
356.668689	2500.739983
357.058080	2499.164622
357.447408	2494.645228
357.836672	2496.029024
358.225873	2498.652945
358.615010	2496.258397
359.004084	2501.012205
359.393095	2500.278717
359.782043	2499.106649
360.170927	2501.811228
360.559748	2501.743172
360.948505	2507.348935
361.337199	2505.559326
361.725830	2504.364572
362.114398	2504.331805
362.502903	2507.386744
362.891344	2507.366579
363.279722	2507.399347
363.668037	2508.894049
364.056289	2511.185253
364.444478	2509.294821
364.832603	2509.564522
365.220665	2512.735408
365.608665	2512.979904
365.996601	2512.334637
366.384474	2513.194153
366.772284	2513.012672
367.160031	2517.204391
367.547715	2516.334792
367.935336	2519.661954
368.322893	2524.357788
368.710388	2526.941380
369.097820	2534.286341
369.485189	2536.779192
369.872495	2543.688093
370.259738	2551.796789
370.646918	2556.815257
371.034035	2562.521844
371.421090	2575.916189
371.808081	2583.361974
372.195010	2592.272213
372.581875	2605.139758
372.968678	2615.794237
373.355418	2628.281175
373.742096	2644.496046
374.128710	2661.290650
374.515262	2675.221879
374.901751	2691.098993
375.288177	2702.917978
375.674540	2726.699622
376.060841	2747.005389
376.447079	2763.333687
376.833254	2788.368057
377.219367	2798.410035
377.605417	2836.899245
377.991404	2845.610358
378.377329	2868.018287
378.763191	2884.853221
379.148991	2920.544590
379.534727	2946.635082
379.920402	2979.379896
380.306013	2986.802995
380.691563	3037.877446
381.077049	3059.567010
381.462474	3076.326326
381.847835	3116.779065
382.233134	3135.295223
382.618371	3138.128352
383.003545	3206.751058
383.388657	3212.684496
383.773706	3246.157758
384.158693	3262.128133
384.543618	3287.013789
384.928480	3322.818584
385.313280	3371.175853
385.698017	3365.716283
386.082692	3418.446752
386.467305	3428.680295
386.851856	3462.476190
387.236344	3482.658449
387.620770	3513.631299
388.005133	3541.622305
388.389435	3565.119123
388.773674	3579.756114
389.157851	3620.927217
389.541965	3637.356337
389.926018	3604.180504
390.310008	3670.663241
390.693936	3689.882640
391.077802	3732.961820
391.461606	3722.471179
391.845348	3783.998462
392.229027	3784.547948
392.612645	3792.797796
392.996200	3875.061865
393.379694	3914.163575
393.763125	3980.452227
394.146494	3947.052062
394.529801	4009.010364
394.913047	4056.843352
395.296230	4021.998897
395.679351	4075.165426
396.062410	4099.725927
396.445408	4082.306220
396.828343	4118.448773
397.211217	4140.768481
397.594028	4059.341244
397.976778	4130.497130
398.359466	4155.221469
398.742092	4178.773740
399.124656	4103.063171
399.507158	4184.621478
399.889598	4210.346487
400.271977	4271.190693
400.654294	4239.706167
401.036549	4251.560440
401.418742	4221.069021
401.800874	4326.164476
402.182944	4341.282896
402.564952	4408.899892
402.946898	4394.295670
403.328783	4389.587232
403.710606	4306.062875
404.092367	4497.853573
404.474067	4460.435608
404.855705	4471.296774
405.237282	4396.460845
405.618797	4508.573586
406.000250	4541.784708
406.381642	4624.472234
406.762972	4584.374896
407.144240	4594.535342
407.525447	4589.773972
407.906593	4652.334691
408.287677	4695.597873
408.668700	4624.336123
409.049661	4679.919885
409.430560	4719.107294
409.811399	4648.606758
410.192176	4809.908557
410.572891	4744.391202
410.953545	4849.466492
411.334138	4726.893357
411.714669	4797.903050
412.095139	4692.414385
412.475547	4830.930169
412.855894	4814.261594
413.236180	4820.931040
413.616405	4776.069812
413.996568	4865.489799
414.376670	4805.956293
414.756711	4761.969705
415.136691	4788.014826
415.516609	4870.732599
415.896466	4906.328187
416.276262	4943.668013
416.655997	4922.164971
417.035670	5104.758084
417.415283	5197.792578
417.794834	5140.799814
418.174324	5093.786013
418.553753	5003.861911
418.933121	5182.853119
419.312428	5250.376854
419.691674	5195.017423
420.070859	5317.106608
420.449983	5231.235593
420.829045	5347.204817
421.208047	5250.754941
421.586988	5324.479295
421.965867	5333.165203
422.344686	5468.497499
422.723444	5321.167257
423.102141	5138.644720
423.480777	5440.995484
423.859352	5209.067119
424.237866	5467.277540
424.616319	5458.957115
424.994712	5571.768056
425.373044	5445.227533
425.751314	5591.814204
426.129524	5393.081837
426.507673	5586.941929
426.885762	5667.388662
427.263789	5600.212767
427.641756	5485.191280
428.019662	5601.720072
428.397508	5612.848419
428.775292	5555.417073
429.153016	5658.821221
429.530679	5584.121403
429.908282	5667.660884
430.285824	5538.962747
430.663305	5813.246887
431.040726	5546.907606
431.418086	5546.557246
431.795385	5658.117980
432.172624	5668.217932
432.549802	5658.806098
432.926920	5674.030382
433.303977	5681.158574
433.680974	5722.158278
434.057910	5741.765846
434.434786	5746.726341
434.811601	5708.721083
435.188355	5948.493483
435.565050	5820.067568
435.941683	5804.399662
436.318257	6017.738772
436.694770	5999.096585
437.071222	6031.828797
437.447614	5971.009797
437.823946	5878.915478
438.200218	6032.191760
438.576429	5901.310803
438.952580	5997.974928
439.328670	6041.084356
439.704700	5947.999450
440.080670	5932.341626
440.456580	6202.650816
440.832429	6083.646817
441.208218	5940.896464
441.583947	6091.649649
441.959616	6095.062510
442.335224	6021.978383
442.710773	6160.015257
443.086261	6185.710018
443.461689	5978.339634
443.837057	6130.837059
444.212365	6285.050996
444.587612	6180.192475
444.962800	6331.338871
445.337927	6310.302136
445.712995	5922.949956
446.088002	6503.305231
446.462949	6327.731925
446.837837	6262.292707
447.212664	6433.381907
447.587431	6575.086221
447.962139	7117.290043
448.336786	8048.834780
448.711374	7786.296529
449.085901	6856.624581
449.460369	6777.110461
449.834776	6713.717952
450.209124	7105.730677
450.583412	7260.688185
450.957640	7400.386120
451.331808	7165.836355
451.705917	6722.431586
452.079965	6644.502909
452.453954	6853.902358
452.827883	6732.602114
453.201752	6827.748852
453.575562	6620.496935
453.949311	6827.579973
454.323001	6716.921605
454.696632	6785.072964
455.070202	6928.292144
455.443713	7081.391987
455.817164	7186.552977
456.190556	7268.645646
456.563888	7343.993252
456.937160	7385.570169
457.310373	7039.389093
457.683526	7068.486633
458.056619	6955.186700
458.429653	6946.152953
458.802628	6879.612242
459.175542	6990.600806
459.548398	7340.968560
459.921194	7501.249526
460.293930	7506.860330
460.666607	8032.592182
461.039224	8347.664298
461.411782	8473.443607
461.784280	8495.549067
462.156719	8385.598981
462.529099	8266.390816
462.901419	7848.307762
463.273680	7745.279181
463.645882	7754.711180
464.018024	7619.242773
464.390106	7789.822816
464.762130	8173.784819
465.134094	8644.401737
465.505999	9664.869907
465.877845	10884.020033
466.249631	11536.221832
466.621358	11161.502784
466.993026	10532.530622
467.364634	10273.584193
467.736184	9905.642976
468.107674	9578.648532
468.479105	9614.982648
468.850477	9378.519766
469.221790	9147.345053
469.593043	8815.785844
469.964238	8679.185698
470.335373	8688.332872
470.706449	8746.984176
471.077467	8728.891475
471.448425	10036.879334
471.819324	11117.914447
472.190164	11136.866665
472.560945	9888.697138
472.931667	9102.062889
473.302330	8962.445612
473.672934	8613.441490
474.043479	8969.714956
474.413965	8906.652642
474.784393	8790.007904
475.154761	8948.794168
475.525070	9030.531436
475.895321	8856.639355
476.265513	9032.215182
476.635645	9209.068941
477.005719	9198.185090
477.375734	9318.252771
477.745691	9551.370849
478.115588	9690.055512
478.485427	9936.250342
478.855207	10466.226846
479.224928	11294.165789
479.594591	11918.510172
479.964194	11727.886501
480.333739	11666.210504
480.703226	11583.898544
481.072653	11676.330621
481.442022	11909.877196
481.811333	12103.034047
482.180584	11907.283523
482.549777	11620.930861
482.918912	11439.804723
483.287988	11461.663167
483.657005	11473.678757
484.025964	11152.854685
484.394864	11290.223607
484.763706	11253.060220
485.132489	11017.192194
485.501213	10973.369443
485.869879	11048.326360
486.238487	10891.740560
486.607036	11002.860193
486.975527	10781.215782
487.343959	10974.697787
487.712333	11027.087979
488.080648	10952.259612
488.448905	10992.974491
488.817104	10935.245717
489.185244	11195.379338
489.553326	11360.005779
489.921350	11893.097716
490.289315	12957.446609
490.657222	13298.561326
491.025070	13205.579763
491.392861	13082.668871
491.760593	12704.917569
492.128267	12357.266997
492.495883	12023.943384
492.863440	11687.428721
493.230939	11354.296672
493.598380	11288.839810
493.965763	11155.445838
494.333088	11059.220293
494.700354	10974.304577
495.067563	11033.724658
495.434713	10865.113185
495.801805	10992.059521
496.168839	10913.374671
496.535815	10853.067348
496.902733	10853.999961
497.269593	10781.036821
497.636395	10884.072965
498.003139	10871.649041
498.369825	10741.304967
498.736453	10895.082845
499.103023	10832.559934
499.469535	10849.783036
499.835989	10843.615184
500.202385	10805.226798
500.568723	10648.961111
500.935003	10876.559125
501.301226	10685.408653
501.667390	10941.363157
502.033497	11037.455112
502.399546	10895.498740
502.765537	10808.533795
503.131470	10878.847809
503.497345	11058.448997
503.863163	10665.891826
504.228923	10978.254321
504.594625	11043.123889
504.960269	10791.076279
505.325856	11014.142296
505.691385	10802.423916
506.056856	10956.393358
506.422270	10981.389919
506.787625	10869.866993
507.152924	10989.866619
507.518164	10959.521394
507.883347	10879.185566
508.248472	10802.935593
508.613540	11042.050123
508.978550	10922.007647
509.343503	10903.960317
509.708398	11015.929385
510.073236	11133.738629
510.438016	11138.615946
510.802738	11086.959242
511.167403	11138.830195
511.532010	11039.153980
511.896561	11263.674370
512.261053	11337.111378
512.625488	11208.773684
512.989866	11189.897083
513.354186	11178.309991
513.718449	11082.749879
514.082655	11273.434044
514.446803	11167.915132
514.810894	11292.847527
515.174927	11158.649491
515.538904	11183.351145
515.902822	11334.482417
516.266684	11221.371527
516.630488	11163.887250
516.994235	11217.542771
517.357925	11285.777309
517.721558	11371.010618
518.085133	11386.280273
518.448651	11398.744525
518.812112	11281.487287
519.175516	11293.994390
519.538863	11419.292268
519.902152	11333.907725
520.265385	11490.521252
520.628560	11405.771894
520.991678	11381.236598
521.354739	11445.934767
521.717743	11377.808613
522.080690	11354.089985
522.443580	11491.194246
522.806413	11443.905702
523.169189	11471.939559
523.531908	11533.822243
523.894569	11349.074037
524.257174	11355.032680
524.619722	11473.172121
524.982213	11418.379820
525.344647	11477.835188
525.707025	11428.489854
526.069345	11518.542505
526.431608	11436.769949
526.793815	11552.058617
527.155964	11336.524084
527.518057	11392.669935
527.880093	11336.680360
528.242072	11403.001780
528.603995	11320.379789
528.965860	11234.536501
529.327669	11286.127669
529.689421	11235.517005
530.051117	11205.794362
530.412755	11315.252935
530.774337	11202.131964
531.135862	11181.286793
531.497331	11207.125227
531.858743	11057.067721
532.220098	11226.838659
532.581396	11091.279511
532.942638	11081.555125
533.303824	11035.357992
533.664953	11051.557739
534.026025	10965.694287
534.387040	11066.996273
534.747999	11067.288660
535.108902	11124.266301
535.469748	10883.609178
535.830537	10985.667338
536.191270	10963.859307
536.551947	10996.808288
536.912567	10997.045222
537.273131	10910.685216
537.633638	10896.151569
537.994089	10881.010464
538.354483	10834.525984
538.714821	10982.191463
539.075103	10979.474281
539.435328	10946.255597
539.795497	10775.431058
540.155609	10940.196130
540.515665	11020.118583
540.875665	10765.003431
541.235609	10832.247382
541.595496	10818.263222
541.955328	10981.967131
542.315102	10860.424912
542.674821	10808.669906
543.034483	10813.176698
543.394090	10817.534775
543.753640	10743.485266
544.113134	10960.948040
544.472571	10823.770682
544.831953	10965.749739
545.191278	10772.814699
545.550548	10795.419233
545.909761	10938.288054
546.268918	10910.339897
546.628019	10990.085909
546.987064	10857.067503
547.346053	10777.470205
547.704986	10885.497091
548.063863	10863.739471
548.422684	10859.709068
548.781449	10778.065061
549.140158	10879.603982
549.498811	10749.622871
549.857408	10610.144226
550.215949	10839.239463
550.574434	10686.303458
550.932864	10787.587801
551.291237	10842.861532
551.649555	10792.265991
552.007817	10805.814092
552.366022	10770.722620
552.724173	10759.637123
553.082267	10750.454661
553.440305	10886.149920
553.798288	10685.111225
554.156215	10837.530512
554.514086	10812.798611
554.871902	10665.733030
555.229661	10701.689060
555.587365	10679.896152
555.945014	10574.609133
556.302606	10700.965654
556.660143	10589.170506
557.017625	10749.695968
557.375050	10642.624381
557.732421	10781.666965
558.089735	10696.894922
558.446994	10691.175733
558.804197	10725.432894
559.161345	10730.985725
559.518437	10580.522406
559.875474	10672.775522
560.232455	10701.406755
560.589381	10654.188788
560.946251	10641.303598
561.303065	10752.176215
561.659825	10691.478202
562.016528	10620.637388
562.373177	10501.209933
562.729770	10609.546850
563.086307	10527.040805
563.442789	10621.995979
563.799216	10500.768832
564.155587	10541.720645
564.511904	10504.887455
564.868164	10492.786165
565.224370	10508.794349
565.580520	10430.323748
565.936615	10430.858110
566.292654	10304.859511
566.648638	10430.631258
567.004567	10388.318334
567.360441	10378.480522
567.716260	10286.799578
568.072023	10375.463391
568.427732	10326.869189
568.783385	10239.248894
569.138982	10310.772785
569.494525	10328.124436
569.850013	10201.599036
570.205445	10284.405029
570.560823	10182.311582
570.916145	10096.148180
571.271412	10170.295992
571.626625	10112.272311
571.981782	10094.426626
572.336884	10061.429754
572.691931	10066.133150
573.046923	10020.656901
573.401860	9977.769285
573.756743	9906.923429
574.111570	9955.094175
574.466342	9937.203120
574.821059	9969.781577
575.175722	9856.847128
575.530330	9864.018169
575.884882	9858.258651
576.239380	9787.067476
576.593823	9761.748281
576.948211	9776.801166
577.302544	9651.692331
577.656823	9675.635291
578.011047	9680.126959
578.365216	9642.222523
578.719330	9568.906502
579.073389	9578.285569
579.427394	9524.561993
579.781344	9503.363941
580.135239	9452.483575
580.489080	9459.878948
580.842866	9363.718938
581.196597	9370.842088
581.550273	9410.886494
581.903895	9377.501453
582.257463	9447.828069
582.610975	9319.258482
582.964434	9346.153037
583.317837	9270.815514
583.671186	9249.688038
584.024481	9246.076051
584.377721	9165.528495
584.730906	9138.757448
585.084037	9171.436727
585.437113	9110.559753
585.790135	9133.991037
586.143103	9029.848360
586.496016	9006.780040
586.848874	9063.823216
587.201679	9054.431547
587.554428	8934.373947
587.907124	8983.260537
588.259765	8953.789951
588.612352	8951.128222
588.964884	8831.501641
589.317362	8845.271553
589.669786	8844.094443
590.022155	8896.277947
590.374470	8909.856295
590.726731	8849.601904
591.078937	8696.169346
591.431090	8814.782654
591.783188	8685.262809
592.135232	8675.803084
592.487222	8680.776182
592.839157	8732.619408
593.191038	8663.091815
593.542866	8609.143907
593.894639	8508.582970
594.246358	8563.536588
594.598022	8569.084378
594.949633	8473.189029
595.301190	8450.894526
595.652692	8476.801015
596.004141	8587.499713
596.355535	8370.853606
596.706876	8344.178340
597.058162	8276.548741
597.409395	8351.785441
597.760573	8415.619052
598.111698	8325.175711
598.462768	8310.994945
598.813785	8275.351467
599.164748	8247.788958
599.515657	8233.542657
599.866511	8146.071076
600.217312	8270.857278
600.568060	8129.808314
600.918753	8235.821259
601.269392	8205.150879
601.619978	8114.309286
601.970510	8176.577619
602.320988	8170.926485
602.671412	8235.359993
603.021783	8166.056731
603.372100	8139.295765
603.722363	8141.360118
604.072572	8116.431612
604.422728	8132.354097
604.772830	8056.724186
605.122878	8065.329436
605.472872	8061.321718
605.822813	8093.239784
606.172701	8038.177781
606.522534	8111.103112
606.872314	8106.059438
607.222041	8083.187723
607.571714	8137.516238
607.921333	8095.911595
608.270899	8097.118952
608.620411	8189.911471
608.969870	8095.231040
609.319276	8088.206192
609.668627	8104.153882
610.017926	8137.198645
610.367171	8186.670009
610.716362	8156.869228
611.065500	8151.170203
611.414585	8179.486364
611.763616	8174.503184
612.112594	8145.012434
612.461518	8163.684868
612.810389	8228.327583
613.159207	8167.327101
613.507971	8117.137374
613.856682	8229.169456
614.205340	8186.717900
614.553945	8266.121114
614.902496	8170.835744
615.250994	8226.762305
615.599439	8202.693316
615.947830	8211.931231
616.296169	8186.221346
616.644454	8198.085702
616.992686	8195.983540
617.340864	8257.271368
617.688990	8158.210175
618.037063	8245.573371
618.385082	8198.630146
618.733048	8278.792054
619.080961	8216.899288
619.428821	8241.419460
619.776628	8248.640913
620.124382	8191.943056
620.472083	8179.947630
620.819731	8207.747073
621.167326	8100.960311
621.514868	8112.149152
621.862357	8000.217892
622.209793	8014.716251
622.557176	7945.077752
622.904506	7923.592354
623.251783	7854.843618
623.599007	7807.270250
623.946179	7812.140004
624.293297	7766.210052
624.640363	7685.786004
624.987376	7671.965680
625.334336	7612.631300
625.681243	7565.446100
626.028097	7556.596354
626.374899	7532.313116
626.721647	7524.148967
627.068343	7456.642876
627.414987	7428.382168
627.761577	7381.955661
628.108115	7415.386073
628.454600	7304.697458
628.801032	7363.910851
629.147412	7320.955179
629.493739	7306.507232
629.840014	7249.189313
630.186236	7302.078579
630.532405	7183.240938
630.878521	7236.775472
631.224585	7190.679161
631.570597	7115.117306
631.916556	7154.576938
632.262462	7147.128633
632.608316	7105.415605
632.954117	7086.269303
633.299866	7071.334885
633.645562	7061.182001
633.991206	6982.923129
634.336797	6924.090343
634.682336	6882.578961
635.027823	6851.217943
635.373257	6841.967426
635.718639	6774.030316
636.063968	6787.737213
636.409245	6681.300812
636.754470	6682.135123
637.099642	6634.259285
637.444762	6581.675009
637.789829	6591.018787
638.134845	6527.865733
638.479808	6518.980699
638.824719	6515.923239
639.169577	6449.821109
639.514383	6469.567309
639.859137	6407.155304
640.203839	6407.843421
640.548489	6395.469909
640.893086	6368.000662
641.237632	6341.804306
641.582125	6363.662749
641.926566	6331.041442
642.270955	6346.464853
642.615292	6338.761970
642.959576	6358.480443
643.303809	6348.887127
643.647990	6346.174986
643.992118	6343.006621
644.336195	6291.365041
644.680219	6317.216078
645.024192	6306.324665
645.368112	6402.963584
645.711981	6420.106028
646.055797	6502.405385
646.399562	6453.637263
646.743274	6582.282468
647.086935	6635.811960
647.430544	6626.833665
647.774101	6654.938098
648.117606	6656.256359
648.461059	6649.231512
648.804460	6611.069977
649.147810	6524.324322
649.491108	6488.219578
649.834354	6465.478933
650.177548	6377.949379
650.520690	6298.150434
650.863781	6271.515498
651.206820	6293.953674
651.549807	6214.807558
651.892742	6158.044166
652.235626	6162.591287
652.578458	6147.079656
652.921238	6055.330656
653.263967	6093.575370
653.606644	6031.065062
653.949269	6038.742740
654.291843	5978.977340
654.634365	6027.810997
654.976836	5982.163349
655.319255	5980.172094
655.661622	5955.788033
656.003938	5952.705367
656.346203	5910.077370
656.688416	5945.441064
657.030577	5900.627727
657.372687	5869.231421
657.714746	5856.726839
658.056753	5896.176388
658.398708	5837.585578
658.740612	5828.037632
659.082465	5873.738213
659.424266	5871.779724
659.766016	5868.392069
660.107715	5845.827864
660.449362	5864.036512
660.790958	5854.798598
661.132503	5841.842832
661.473996	5879.273399
661.815438	5862.330081
662.156829	5861.402509
662.498168	5855.353124
662.839456	5831.279094
663.180693	5868.528180
663.521879	5867.018354
663.863013	5855.191808
664.204097	5876.354571
664.545129	5917.172794
664.886110	5906.354478
665.227040	5946.363595
665.567918	5913.510396
665.908746	5944.425272
666.249522	5939.023675
666.590248	5928.124701
666.930922	5958.028825
667.271545	5968.892512
667.612118	5972.948120
667.952639	5943.974088
668.293109	5966.823118
668.633528	5926.675369
668.973896	5925.682262
669.314213	5916.968627
669.654480	5900.559672
669.994695	5891.480553
670.334859	5882.242639
670.674973	5873.350044
671.015035	5880.818513
671.355047	5877.806424
671.695008	5867.477099
672.034918	5837.625907
672.374777	5848.509758
672.714585	5830.500236
673.054342	5836.272357
673.394049	5828.335060
673.733705	5862.020050
674.073310	5849.885993
674.412864	5804.346730
674.752368	5796.096882
675.091820	5802.300021
675.431223	5738.743674
675.770574	5742.269961
676.109875	5690.338515
676.449125	5694.021078
676.788324	5666.939999
677.127473	5606.511688
677.466571	5592.956026
677.805619	5584.002936
678.144616	5571.752932
678.483562	5553.093102
678.822458	5521.943812
679.161303	5519.251836
679.500098	5505.464280
679.838842	5488.009285
680.177535	5494.066231
680.516179	5509.469477
680.854771	5522.861302
681.193314	5600.674032
681.531805	5707.848963
681.870247	5857.697261
682.208638	5963.080062
682.546978	5976.446681
682.885268	5956.413136
683.223508	5868.238314
683.561697	5815.321322
683.899836	5787.700840
684.237925	5736.213015
684.575963	5708.257296
684.913951	5662.833980
685.251889	5723.857147
685.589776	5695.112488
685.927614	5669.021996
686.265401	5736.346606
686.603137	5723.441252
686.940824	5795.723836
687.278460	5824.607127
687.616046	5831.047201
687.953582	5897.512294
688.291068	5879.081836
688.628504	5948.306960
688.965889	5907.370270
689.303224	5845.916084
689.640510	5803.923273
689.977745	5726.362600
690.314930	5629.663187
690.652065	5571.697480
690.989150	5476.407069
691.326185	5402.024844
691.663170	5351.182287
692.000105	5268.877889
692.336990	5194.624213
692.673825	5169.128578
693.010610	5099.341364
693.347345	5027.429305
693.684030	5018.340104
694.020665	4976.125482
694.357251	4884.396647
694.693786	4897.788472
695.030272	4861.721537
695.366707	4822.329961
695.703093	4792.962719
696.039429	4814.324608
696.375716	4795.127894
696.711952	4772.299029
697.048139	4757.044498
697.384276	4737.837702
697.720363	4751.249691
698.056400	4760.865692
698.392388	4706.885017
698.728326	4690.234086
699.064214	4669.081404
699.400053	4664.105785
699.735842	4625.477944
700.071581	4604.002629
700.407270	4574.078339
700.742910	4556.648550
701.078501	4506.985623
701.414042	4504.603678
701.749533	4473.000684
702.084974	4407.327053
702.420366	4464.390393
702.755709	4407.379985
703.091002	4346.805480
703.426246	4402.575765
703.761440	4355.567005
704.096584	4320.440245
704.431679	4338.338862
704.766725	4325.993076
705.101721	4314.882373
705.436668	4340.156198
705.771565	4291.393117
706.106413	4315.789781
706.441212	4347.193649
706.775961	4353.117005
707.110661	4334.699149
707.445311	4365.500599
707.779913	4388.639495
708.114465	4397.874889
708.448967	4422.079989
708.783421	4483.529134
709.117825	4525.237120
709.452180	4529.900188
709.786485	4575.890634
710.120742	4666.485210
710.454949	4651.364269
710.789107	4714.703847
711.123216	4785.159013
711.457275	4780.390081
711.791286	4853.716184
712.125247	4873.583372
712.459159	4772.770377
712.793023	4847.923899
713.126837	4803.854132
713.460602	4798.664264
713.794318	4720.027305
714.127985	4730.235642
714.461602	4644.168022
714.795171	4613.394298
715.128691	4547.022467
715.462162	4493.850897
715.795584	4441.904327
716.128957	4425.991925
716.462281	4373.132906
716.795556	4342.999409
717.128782	4305.047082
717.461960	4238.017380
717.795088	4248.223196
718.128167	4207.740210
718.461198	4148.163854
718.794180	4144.647649
719.127113	4119.270481
719.459997	4098.737861
719.792833	4060.137746
720.125619	4047.527300
720.458357	4011.694778
720.791046	4017.711395
721.123686	3992.828260
721.456278	3947.851085
721.788821	3964.549907
722.121315	3942.210034
722.453761	3915.633071
722.786158	3927.119340
723.118506	3948.740849
723.450805	3904.194693
723.783056	3923.552724
724.115259	3938.771967
724.447412	3945.224644
724.779518	3936.664765
725.111574	3942.976289
725.443582	3971.010146
725.775542	3959.251655
726.107453	4008.710415
726.439315	4009.585055
726.771129	4023.165924
727.102895	4061.037592
727.434612	4106.339921
727.766281	4121.740646
728.097901	4120.170327
728.429473	4123.868013
728.760996	4131.197851
729.092471	4125.219042
729.423897	4111.852423
729.755276	4115.174543
730.086606	4117.185963
730.417887	4155.985204
730.749120	4218.876119
731.080305	4281.928351
731.411442	4310.052948
731.742530	4279.657311
732.073570	4282.969349
732.404562	4339.384902
732.735506	4328.717820
733.066401	4294.536276
733.397249	4230.190989
733.728048	4152.418588
734.058798	4067.770053
734.389501	3994.459073
734.720156	3936.243828
735.050762	3889.129205
735.381320	3884.415726
735.711831	3831.327335
736.042293	3802.759116
736.372707	3826.868434
736.703073	3797.034886
737.033391	3788.016261
737.363661	3805.539312
737.693883	3831.239114
738.024056	3838.581555
738.354182	3834.062161
738.684260	3895.813775
739.014290	3919.809667
739.344272	3915.602824
739.674207	3955.795944
740.004093	3963.123261
740.333931	3957.025985
740.663722	3955.720326
740.993464	3955.213690
741.323159	3929.322324
741.652806	3902.475659
741.982405	3876.193604
742.311956	3841.719673
742.641460	3833.147191
742.970915	3810.477122
743.300323	3768.086060
743.629683	3736.546081
743.958996	3723.711303
744.288260	3695.405224
744.617477	3664.656706
744.946647	3651.705982
745.275768	3625.706231
745.604842	3623.510808
745.933869	3574.099939
746.262847	3569.152047
746.591778	3604.913992
746.920662	3579.161257
747.249498	3545.786298
747.578286	3587.007813
747.907027	3609.723253
748.235720	3604.873663
748.564365	3630.666726
748.892963	3630.860811
749.221514	3612.732822
749.550017	3591.940582
749.878473	3591.249944
750.206881	3558.248031
750.535242	3557.272567
750.863555	3556.980181
751.191821	3551.238306
751.520039	3531.174514
751.848210	3510.778006
752.176334	3542.980896
752.504411	3551.553378
752.832440	3510.599045
753.160421	3494.243021
753.488356	3503.261645
753.816243	3513.472502
754.144082	3471.983806
754.471875	3456.557875
754.799620	3476.193170
755.127318	3467.187148
755.454969	3470.400884
755.782572	3473.357521
756.110129	3452.126701
756.437638	3440.733693
756.765100	3454.168368
757.092515	3461.097434
757.419882	3472.971872
757.747203	3443.445834
758.074477	3443.314764
758.401703	3459.822022
758.728882	3483.815394
759.056014	3487.339161
759.383099	3492.657578
759.710138	3491.188082
760.037129	3506.351873
760.364073	3536.687016
760.690970	3523.159079
761.017820	3499.972292
761.344623	3520.462062
761.671379	3566.417221
761.998088	3614.668625
762.324751	3745.206783
762.651366	3989.901870
762.977935	4465.093634
763.304456	4915.006533
763.630931	5013.619064
763.957359	4650.829907
764.283740	4303.721259
764.610074	4107.305302
764.936362	3914.304727
765.262602	3753.933020
765.588796	3641.469919
765.914943	3550.988769
766.241044	3464.220429
766.567097	3433.431582
766.893104	3385.515415
767.219064	3352.793285
767.544978	3329.999708
767.870845	3271.597941
768.196665	3252.343254
768.522438	3257.898605
768.848165	3257.054212
769.173846	3221.403172
769.499479	3203.562528
769.825066	3185.653829
770.150607	3165.600119
770.476101	3184.622913
770.801548	3180.907583
771.126949	3134.039976
771.452303	3116.597583
771.777611	3122.576392
772.102872	3128.053606
772.428087	3102.477312
772.753256	3094.318204
773.078378	3085.745722
773.403453	3052.622821
773.728482	3038.752086
774.053465	3060.154304
774.378401	3048.731050
774.703291	3016.734846
775.028135	3017.657378
775.352932	3014.594877
775.677683	2997.749861
776.002388	2996.103924
776.327046	2999.267248
776.651658	2988.292656
776.976224	2975.669607
777.300743	2977.025678
777.625216	2967.863380
777.949643	2962.381126
778.274024	2964.755509
778.598359	2952.699590
778.922647	2959.535394
779.246889	2958.388532
779.571086	2944.815225
779.895236	2938.203752
780.219339	2947.177006
780.543397	2959.754684
780.867409	2966.167032
781.191374	2955.288222
781.515294	2951.676235
781.839167	2952.782769
782.162995	2944.543003
782.486776	2951.915690
782.810511	2952.447532
783.134201	2939.953032
783.457844	2944.570729
783.781441	2938.256684
784.104993	2917.383786
784.428498	2917.219949
784.751958	2928.620518
785.075372	2924.978285
785.398739	2906.744431
785.722061	2921.031061
786.045337	2938.934719
786.368568	2917.517377
786.691752	2912.471182
787.014891	2962.265179
787.337983	2989.656288
787.661030	3018.363139
787.984031	3083.199939
788.306987	3132.008391
788.629897	3126.379942
788.952760	3111.667335
789.275579	3094.469439
789.598351	3037.711087
789.921078	2989.865496
790.243759	2982.717140
790.566395	2963.432206
790.888984	2940.227775
791.211529	2924.549787
791.534027	2910.931109
791.856480	2902.512383
792.178888	2887.020917
792.501249	2878.569422
792.823566	2876.686551
793.145836	2875.103629
793.468062	2868.416538
793.790241	2868.139275
794.112375	2873.654297
794.434464	2885.737943
794.756507	2891.366391
795.078505	2892.919067
795.400457	2908.226530
795.722364	2948.540638
796.044226	2974.472333
796.366042	2972.917137
796.687812	2965.176445
797.009538	2982.419712
797.331218	2971.402270
797.652852	2955.530198
797.974442	2937.074533
798.295986	2934.659821
798.617484	2929.154881
798.938938	2916.864548
799.260346	2899.265879
799.581709	2892.016700
799.903026	2885.990001
800.224299	2882.647716
800.545526	2869.268493
800.866708	2855.342306
801.187845	2844.670183
801.508936	2849.532376
801.829983	2852.887264
802.150984	2839.618947
802.471940	2829.382884
802.792851	2825.826350
803.113717	2823.860300
803.434538	2833.700632
803.755314	2822.995742
804.076045	2817.886533
804.396731	2819.368632
804.717372	2820.422233
805.037967	2812.852941
805.358518	2817.261430
805.679024	2831.253152
805.999485	2827.149653
806.319901	2833.446054
806.640272	2823.857780
806.960598	2828.830878
807.280879	2838.025942
807.601115	2846.948785
807.921306	2832.011846
808.241453	2828.679643
808.561554	2837.242043
808.881611	2838.386385
809.201623	2829.816423
809.521590	2830.723831
809.841513	2828.178048
810.161390	2830.255004
810.481223	2824.535815
810.801011	2817.316882
811.120755	2812.333702
811.440453	2815.907880
811.760107	2812.971408
812.079716	2815.320586
812.399281	2803.955304
812.718801	2796.491876
813.038276	2789.603139
813.357707	2798.462967
813.677093	2805.422280
813.996434	2802.279121
814.315731	2795.967596
814.634983	2789.792182
814.954191	2791.140691
815.273354	2804.645942
815.592473	2811.201963
815.911547	2815.396203
816.230577	2824.984477
816.549562	2832.815910
816.868502	2831.404387
817.187399	2842.056345
817.506250	2858.926566
817.825058	2853.613190
818.143821	2862.699870
818.462539	2878.854247
818.781213	2908.145872
819.099843	2941.213321
819.418429	3001.351765
819.736970	3064.426682
820.055466	3137.657004
820.373919	3242.906214
820.692327	3385.560785
821.010691	3554.605797
821.329011	3999.112058
821.647286	4906.744082
821.965517	6308.749460
822.283704	7069.681386
822.601847	7063.044707
822.919945	6419.100318
823.237999	5906.823305
823.556010	5314.462523
823.873976	4753.160289
824.191897	4336.997915
824.509775	4032.103889
824.827609	3761.036006
825.145398	3635.549084
825.463144	3625.446612
825.780845	3712.590518
826.098502	3821.045901
826.416116	4106.536526
826.733685	4426.516205
827.051210	4495.474148
827.368692	4378.446282
827.686129	4107.776650
828.003522	3775.995630
828.320872	3514.614324
828.638177	3320.900425
828.955439	3177.015812
829.272656	3093.940117
829.589830	3026.232380
829.906960	2972.864205
830.224046	2929.061619
830.541088	2895.933677
830.858086	2878.256871
831.175041	2862.493183
831.491952	2863.355220
831.808819	2872.560367
832.125642	2895.595919
832.442421	2944.908486
832.759157	3027.691794
833.075849	3203.494473
833.392497	3488.531394
833.709101	3697.008311
834.025662	3649.218172
834.342179	3488.327227
834.658653	3310.119918
834.975083	3155.570744
835.291469	3060.948286
835.607811	2971.732466
835.924110	2911.488157
836.240366	2861.883203
836.556578	2818.602377
836.872746	2795.173614
837.188871	2772.374996
837.504952	2755.378746
837.820990	2745.291397
838.136984	2732.698595
838.452935	2724.378170
838.768842	2723.468242
839.084706	2743.302662
839.400526	2820.160093
839.716303	2954.085907
840.032037	3037.632950
840.347727	3025.776156
840.663373	2961.619911
840.978977	2886.912532
841.294537	2811.484267
841.610054	2763.313522
841.925527	2737.051631
842.240957	2717.403734
842.556344	2696.382122
842.871687	2681.248578
843.186987	2671.670386
843.502244	2666.417504
843.817458	2659.248983
844.132629	2649.078455
844.447756	2639.802732
844.762840	2632.581279
845.077881	2636.934316
845.392879	2635.835344
845.707833	2630.897534
846.022745	2623.247583
846.337613	2627.761936
846.652438	2624.913684
846.967221	2625.062398
847.281960	2621.326903
847.596656	2621.316821
847.911309	2620.038888
848.225919	2619.002931
848.540485	2614.173506
848.855009	2614.022271
849.169490	2611.920110
849.483928	2613.530759
849.798323	2614.763321
850.112675	2611.489092
850.426984	2611.932713
850.741251	2613.001438
851.055474	2614.914556
851.369654	2615.947992
851.683792	2613.757611
851.997887	2610.652260
852.311938	2611.841972
852.625947	2616.021089
852.939914	2617.069649
853.253837	2616.925976
853.567718	2611.252157
853.881555	2611.186622
854.195350	2615.882457
854.509103	2614.223917
854.822812	2611.269801
855.136479	2611.378186
855.450103	2610.768207
855.763685	2613.064452
856.077224	2612.401540
856.390720	2607.070520
856.704173	2611.685697
857.017584	2613.906325
857.330953	2617.523353
857.644278	2620.071656
857.957561	2618.912191
858.270802	2614.602004
858.584000	2615.360698
858.897155	2620.278343
859.210268	2619.658281
859.523339	2614.780965
859.836367	2610.233844
860.149352	2610.705192
860.462295	2613.591253
860.775195	2607.330140
861.088054	2609.215531
861.400869	2606.289141
861.713642	2602.911568
862.026373	2606.233689
862.339062	2607.609924
862.651708	2614.029833
862.964312	2615.401027
863.276873	2616.134515
863.589392	2616.598301
863.901869	2621.906636
864.214303	2627.456946
864.526696	2629.004581
864.839045	2631.003398
865.151353	2634.670838
865.463619	2632.805611
865.775842	2634.128913
866.088023	2632.450209
866.400162	2633.307205
866.712258	2632.125055
867.024313	2631.900723
867.336325	2626.582306
867.648296	2629.531381
867.960224	2636.163019
868.272110	2634.801907
868.583954	2627.043572
868.895755	2629.589354
869.207515	2633.014818
869.519233	2638.214769
869.830909	2636.732669
870.142542	2634.854840
870.454134	2634.242339
870.765684	2640.251395
871.077191	2642.487147
871.388657	2648.738177
871.700081	2643.598721
872.011463	2643.848258
872.322803	2646.268012
872.634101	2645.814308
872.945357	2654.679177
873.256571	2660.461381
873.567744	2659.216216
873.878874	2655.528612
874.189963	2657.857625
874.501010	2664.635456
874.812015	2670.730211
875.122979	2666.798111
875.433900	2660.708397
875.744780	2657.403921
876.055618	2661.862821
876.366415	2668.605365
876.677169	2666.079747
876.987882	2662.949190
877.298554	2659.561535
877.609183	2671.095695
877.919771	2679.832014
878.230317	2683.691017
878.540822	2696.155270
878.851285	2710.320913
879.161707	2734.347052
879.472087	2777.098557
879.782425	2823.653613
880.092722	2942.639967
880.402977	3130.896816
880.713191	3397.543608
881.023363	3700.592571
881.333494	3898.702356
881.643583	4075.483018
881.953631	4076.808842
882.263637	3896.469125
882.573602	3670.854805
882.883526	3536.762633
883.193408	3418.484561
883.503248	3314.568736
883.813048	3193.956610
884.122806	3077.584094
884.432522	2988.557317
884.742197	2925.270672
885.051831	2883.214846
885.361424	2846.774865
885.670975	2810.886891
885.980485	2779.477982
886.289954	2759.550301
886.599382	2747.325502
886.908768	2734.238667
887.218113	2717.005483
887.527417	2698.564942
887.836680	2692.928932
888.145901	2687.527336
888.455082	2678.667508
888.764221	2670.858760
889.073319	2657.973571
889.382376	2658.981802
889.691392	2658.878458
890.000366	2660.612615
890.309300	2658.943993
890.618193	2658.449960
890.927044	2662.618994
891.235855	2660.408448
891.544625	2659.886689
891.853353	2662.654282
892.162041	2669.553102
892.470687	2691.638397
892.779293	2703.817824
893.087858	2712.118084
893.396381	2736.265211
893.704864	2779.072169
894.013306	2850.800226
894.321707	2946.274639
894.630068	3000.522496
894.938387	3021.962523
895.246665	3014.408354
895.554903	2968.911940
895.863100	2922.787903
896.171256	2866.137937
896.479371	2802.586631
896.787446	2759.938469
897.095480	2742.249061
897.403473	2733.782443
897.711425	2719.097562
898.019336	2699.283306
898.327207	2686.395597
898.635038	2685.820905
898.942827	2681.293949
899.250576	2671.118380
899.558284	2658.031544
899.865952	2655.178251
900.173579	2652.093065
900.481165	2650.058960
900.788711	2643.465130
901.096216	2635.777371
901.403681	2634.060858
901.711105	2636.861219
902.018489	2628.031638
902.325832	2633.818882
902.633135	2632.813172
902.940397	2651.641882
903.247619	2690.370546
903.554800	2760.581217
903.861941	2892.667009
904.169041	3023.802544
904.476101	3087.704210
904.783121	3085.045002
905.090100	3024.944365
905.397039	2947.371090
905.703938	2869.351672
906.010796	2802.884059
906.317614	2751.328179
906.624391	2715.112529
906.931129	2684.822757
907.237826	2662.054385
907.544483	2644.309524
907.851099	2628.707153
908.157675	2615.877416
908.464211	2612.784668
908.770707	2602.946856
909.077163	2598.442585
909.383578	2594.581062
909.689954	2592.284816
909.996289	2587.437747
910.302584	2589.050916
910.608839	2587.223498
910.915054	2586.610997
911.221229	2589.930597
911.527363	2592.874631
911.833458	2589.088724
912.139513	2592.869590
912.445527	2594.225660
912.751502	2599.937287
913.057436	2606.213524
913.363331	2609.689400
913.669186	2620.979064
913.975000	2636.009264
914.280775	2653.663385
914.586510	2672.938236
914.892205	2710.774617
915.197859	2778.494957
915.503475	2864.691126
915.809050	2935.829368
916.114585	2949.710185
916.420081	2967.641570
916.725536	2977.940647
917.030952	2949.206070
917.336328	2900.684964
917.641665	2853.046060
917.946961	2798.397432
918.252218	2765.501383
918.557435	2736.103894
918.862612	2712.513815
919.167750	2692.510516
919.472848	2675.763803
919.777906	2656.889723
920.082925	2647.460245
920.387904	2633.644963
920.692843	2630.920219
920.997743	2624.379322
921.302603	2618.491254
921.607423	2613.782817
921.912204	2606.344594
922.216946	2602.745210
922.521647	2598.712287
922.826310	2596.468974
923.130932	2593.482090
923.435516	2584.385328
923.740059	2583.349371
924.044564	2583.989597
924.349028	2581.620255
924.653454	2572.594069
924.957840	2571.542988
925.262186	2567.704150
925.566493	2569.952504
925.870761	2566.244736
926.174989	2565.299519
926.479178	2560.759960
926.783328	2561.004456
927.087438	2561.571586
927.391509	2559.703839
927.695541	2559.108982
927.999533	2555.451625
928.303486	2554.803837
928.607400	2554.274516
928.911275	2555.358364
929.215110	2556.311142
929.518906	2553.147818
929.822663	2555.156718
930.126381	2556.338868
930.430060	2555.847356
930.733699	2554.362736
931.037299	2554.526574
931.340861	2557.021945
931.644383	2556.106975
931.947866	2555.252500
932.251309	2555.875082
932.554714	2553.268806
932.858080	2555.683518
933.161407	2553.699824
933.464694	2551.885009
933.767943	2555.343241
934.071153	2551.048178
934.374323	2550.586912
934.677455	2553.974567
934.980548	2551.806871
935.283602	2550.395348
935.586617	2551.143959
935.889593	2551.343085
936.192530	2549.762683
936.495428	2552.774773
936.798287	2554.279557
937.101108	2555.686039
937.403890	2555.277706
937.706632	2559.068653
938.009336	2564.127451
938.312002	2568.099880
938.614628	2570.907803
938.917216	2575.235634
939.219765	2574.930644
939.522275	2575.951478
939.824747	2577.201684
940.127179	2570.895200
940.429573	2566.075857
940.731929	2568.689695
941.034246	2563.620815
941.336524	2565.501166
941.638763	2566.867318
941.940964	2566.673234
942.243126	2561.972358
942.545250	2564.419838
942.847335	2559.149312
943.149381	2560.041596
943.451389	2560.429765
943.753359	2558.778787
944.055290	2557.642007
944.357182	2557.276523
944.659036	2555.318035
944.960851	2556.134702
945.262628	2556.134702
945.564367	2553.805689
945.866067	2555.305432
946.167729	2557.021945
946.469352	2556.293498
946.770937	2556.411965
947.072484	2553.777962
947.373992	2556.301060
947.675462	2554.398024
947.976893	2552.870555
948.278286	2552.419371
948.579641	2552.923487
948.880958	2553.440205
949.182236	2552.575647
949.483476	2551.300235
949.784678	2552.991542
950.085841	2550.609597
950.386967	2551.869886
950.688054	2551.222097
950.989103	2553.740154
951.290114	2555.519681
951.591087	2555.960782
951.892021	2557.551266
952.192917	2557.120247
952.493776	2558.272151
952.794596	2561.314487
953.095378	2562.153839
953.396122	2561.795918
953.696828	2558.004970
953.997496	2553.407437
954.298126	2555.030689
954.598718	2553.662016
954.899272	2554.251831
955.199788	2553.392314
955.500266	2551.731254
955.800706	2546.785882
956.101108	2543.499050
956.401472	2544.114070
956.701798	2543.201622
957.002087	2542.309337
957.302337	2541.800181
957.602550	2543.307486
957.902724	2541.316230
958.202861	2541.734646
958.502960	2539.934954
958.803022	2541.107022
959.103045	2541.263298
959.403031	2539.372865
959.702979	2539.146013
960.002889	2538.740200
960.302762	2538.218441
960.602596	2539.541744
960.902393	2535.987730
961.202153	2535.455889
961.501875	2538.601569
961.801559	2537.792463
962.101205	2538.246167
962.400814	2535.387833
962.700385	2537.684079
962.999918	2535.705426
963.299414	2536.133924
963.598873	2538.911600
963.898293	2537.726928
964.197677	2536.441434
964.497022	2536.149047
964.796331	2537.121990
965.095601	2535.276928
965.394835	2537.895807
965.694030	2536.328008
965.993189	2534.866074
966.292309	2534.268697
966.591393	2534.538399
966.890439	2533.749458
967.189447	2533.812473
967.488419	2537.515200
967.787353	2534.293903
968.086249	2533.469674
968.385108	2534.934129
968.683930	2535.471012
968.982714	2536.338091
969.281462	2536.328008
969.580172	2534.803059
969.878844	2533.900693
970.177480	2536.559901
970.476078	2538.019315
970.774639	2536.421270
971.073162	2537.610982
971.371649	2532.695857
971.670098	2531.506145
971.968510	2533.721732
972.266885	2531.175949
972.565223	2537.391692
972.863524	2537.351363
973.161788	2537.968904
973.460014	2537.502597
973.758204	2537.724408
974.056356	2537.462268
974.354471	2540.686086
974.652550	2538.785571
974.950591	2536.038142
975.248595	2539.347659
975.546563	2538.745242
975.844493	2538.868750
976.142386	2537.371527
976.440243	2537.235416
976.738062	2535.322298
977.035845	2535.947401
977.333590	2537.147196
977.631299	2536.620395
977.928971	2537.394212
978.226606	2535.498738
978.524204	2536.791794
978.821765	2534.417411
979.119290	2535.753317
979.416777	2533.789787
979.714228	2536.756506
980.011642	2536.194418
980.309020	2536.028060
980.606360	2535.990251
980.903664	2536.373379
981.200931	2535.692823
981.498162	2536.610313
981.795356	2539.645088
982.092513	2542.405119
982.389633	2541.475026
982.686717	2548.807385
982.983764	2551.219577
983.280775	2552.293342
983.577749	2552.111861
983.874686	2549.218239
984.171587	2544.388813
984.468451	2545.283618
984.765279	2542.657177
985.062070	2540.302958
985.358824	2539.377906
985.655543	2538.505787
985.952224	2533.857843
986.248869	2536.441434
986.545478	2533.116793
986.842050	2530.810465
987.138586	2532.030425
987.435086	2528.730989
987.731549	2527.974816
988.027975	2534.097298
988.324366	2531.259128
988.620719	2531.422966
988.917037	2532.297606
989.213318	2532.804242
989.509563	2532.027904
989.805772	2531.803573
990.101944	2530.444982
990.398080	2530.613860
990.694180	2530.497914
990.990244	2535.047555
991.286271	2531.518747
991.582262	2532.385826
991.878217	2531.145702
992.174136	2534.417411
992.470019	2529.593027
992.765865	2532.506814
993.061676	2531.627132
993.357450	2532.617719
993.653188	2531.798532
993.948890	2533.719211
994.244556	2532.582431
994.540186	2529.978675
994.835780	2531.317101
995.131337	2533.129396
995.426859	2533.774664
995.722345	2533.726773
996.017795	2538.674665
996.313208	2535.024870
996.608586	2537.454706
996.903928	2536.075951
997.199234	2535.765920
997.494504	2536.436393
997.789738	2536.932947
998.084936	2535.854140
998.380099	2534.530837
998.675225	2536.033101
998.970316	2531.929602
999.265371	2534.278779
999.560390	2532.809283
999.855373	2530.699560
1000.150320	2532.224509
1000.445232	2530.271062
1000.740108	2532.474046
1001.034948	2529.056144
1001.329752	2533.247863
1001.624521	2531.226361
1001.919254	2525.391225
1002.213951	2529.146885
1002.508613	2527.518592
1002.803239	2526.076822
1003.097829	2525.928108
1003.392384	2531.468336
1003.686903	2530.674354
1003.981386	2532.504293
1004.275834	2529.600588
1004.570246	2528.836854
1004.864623	2530.649148
1005.158964	2528.952800
1005.453270	2531.024714
1005.747540	2531.894313
1006.041775	2530.626463
1006.335974	2531.092770
1006.630138	2529.572862
1006.924266	2530.717204
1007.218359	2529.126720
1007.512416	2529.663603
1007.806438	2526.896009
1008.100425	2531.014632
1008.394376	2529.943387
1008.688292	2529.225023
1008.982172	2527.742923
1009.276017	2529.076308
1009.569827	2526.528005
1009.863602	2535.410518
1010.157341	2528.763757
1010.451045	2530.681916
1010.744714	2530.157636
1011.038347	2528.640249
1011.331945	2530.266021
1011.625508	2530.949097
1011.919036	2528.289888
1012.212528	2529.509848
1012.505986	2528.879703
1012.799408	2529.497245
1013.092795	2529.587986
1013.386147	2526.585978
1013.679464	2527.372398
1013.972745	2528.572193
1014.265992	2531.027235
1014.559204	2532.900024
1014.852380	2532.683254
1015.145521	2531.077647
1015.438628	2529.041020
1015.731699	2530.139992
1016.024736	2529.741741
1016.317737	2530.603778
1016.610703	2527.619415
1016.903635	2524.957686
1017.196531	2524.166225
1017.489393	2526.679240
1017.782219	2525.499610
1018.075011	2528.279806
1018.367768	2529.033459
1018.660490	2529.167049
1018.953177	2529.167049
1019.245829	2529.167049
