Dividing Wavelength (nm)	Counts (n)	Blue Motor Position (mm): 0.000000	Red Motor Position (mm): 23.800000	
326.493990	2130.724332
326.888308	2130.724332
327.282561	2130.724332
327.676750	2093.704618
328.070874	2095.895000
328.464933	2096.918354
328.858929	2104.323809
329.252859	2111.799840
329.646726	2124.304422
330.040528	2139.203552
330.434265	2155.448671
330.827938	2171.230003
331.221547	2191.129958
331.615091	2209.608307
332.008571	2226.884341
332.401986	2248.256313
332.795338	2266.349014
333.188625	2285.777621
333.581847	2304.495425
333.975006	2322.255410
334.368100	2339.604541
334.761129	2358.571883
335.154095	2375.976466
335.546996	2393.524723
335.939833	2409.825294
336.332606	2426.572007
336.725315	2438.184305
337.117960	2445.493978
337.510540	2456.345061
337.903056	2468.083388
338.295508	2471.100519
338.687896	2478.518577
339.080220	2489.974599
339.472480	2496.341576
339.864676	2499.603202
340.256807	2506.741476
340.648875	2508.261384
341.040879	2512.027126
341.432818	2511.964112
341.824694	2513.794051
342.216506	2514.154493
342.608253	2513.055522
342.999937	2514.751870
343.391557	2514.235152
343.783113	2514.197343
344.174605	2514.971160
344.566033	2510.555109
344.957397	2511.707013
345.348697	2506.965808
345.739934	2508.420181
346.131106	2503.578152
346.522215	2502.595127
346.913260	2499.431803
347.304241	2500.182935
347.695159	2498.781494
348.086012	2496.757471
348.476802	2493.352172
348.867528	2495.169508
349.258191	2490.009887
349.648789	2492.606081
350.039324	2488.237921
350.429796	2489.561224
350.820203	2484.421768
351.210548	2487.015441
351.600828	2484.517550
351.991045	2484.734319
352.381198	2485.845894
352.771288	2483.552169
353.161314	2485.309011
353.551276	2484.578043
353.941175	2483.645430
354.331010	2482.876654
354.720782	2483.400934
355.110490	2485.687097
355.500135	2483.751294
355.889717	2483.889926
356.279235	2481.460090
356.668689	2485.165338
357.058080	2486.221460
357.447408	2484.348671
357.836672	2481.016468
358.225873	2483.968064
358.615010	2481.255923
359.004084	2485.490492
359.393095	2483.405975
359.782043	2487.837149
360.170927	2489.354537
360.559748	2488.111892
360.948505	2487.295225
361.337199	2491.068529
361.725830	2489.473004
362.114398	2490.398056
362.502903	2491.290340
362.891344	2493.074908
363.279722	2493.694970
363.668037	2495.290495
364.056289	2496.165136
364.444478	2494.378047
364.832603	2494.410814
365.220665	2495.726555
365.608665	2497.848881
365.996601	2497.911895
366.384474	2500.487925
366.772284	2500.639160
367.160031	2501.014726
367.547715	2506.408760
367.935336	2503.888183
368.322893	2510.275325
368.710388	2511.303721
369.097820	2522.565658
369.485189	2523.664630
369.872495	2529.197296
370.259738	2534.470343
370.646918	2540.920499
371.034035	2548.504915
371.421090	2561.049827
371.808081	2569.914696
372.195010	2579.248392
372.581875	2593.114086
372.968678	2604.292844
373.355418	2614.763321
373.742096	2631.426855
374.128710	2648.473517
374.515262	2663.360044
374.901751	2677.883608
375.288177	2690.874662
375.674540	2713.131356
376.060841	2733.860581
376.447079	2749.609145
376.833254	2772.745521
377.219367	2783.589043
377.605417	2821.987512
377.991404	2831.263235
378.377329	2852.983046
378.763191	2868.081302
379.148991	2908.352559
379.534727	2931.950200
379.920402	2962.638224
380.306013	2973.557364
380.691563	3023.101824
381.077049	3041.905328
381.462474	3059.524160
381.847835	3100.123093
382.233134	3124.456742
382.618371	3120.796865
383.003545	3192.391332
383.388657	3198.917105
383.773706	3230.023545
384.158693	3246.417377
384.543618	3273.382509
384.928480	3309.557829
385.313280	3359.175386
385.698017	3352.727750
386.082692	3404.359248
386.467305	3413.173705
386.851856	3443.876853
387.236344	3464.046509
387.620770	3496.256962
388.005133	3523.098586
388.389435	3551.765107
388.773674	3562.192734
389.157851	3600.833178
389.541965	3620.027371
389.926018	3585.107298
390.310008	3654.834018
390.693936	3673.400587
391.077802	3716.436918
391.461606	3704.290258
391.845348	3767.024897
392.229027	3765.479783
392.612645	3781.818163
392.996200	3856.807847
393.379694	3893.600708
393.763125	3961.028661
394.146494	3927.832663
394.529801	3988.089575
394.913047	4035.869631
395.296230	4004.072553
395.679351	4056.440060
396.062410	4082.190273
396.445408	4060.856110
396.828343	4099.090742
397.211217	4118.877271
397.594028	4041.150240
397.976778	4105.092235
398.359466	4131.792707
398.742092	4158.044515
399.124656	4081.658432
399.507158	4164.040968
399.889598	4189.019885
400.271977	4250.872322
400.654294	4220.945513
401.036549	4228.872727
401.418742	4197.844425
401.800874	4301.908964
402.182944	4323.860668
402.564952	4390.482037
402.946898	4374.146178
403.328783	4374.078122
403.710606	4285.179895
404.092367	4472.927588
404.474067	4438.854429
404.855705	4453.894711
405.237282	4376.167681
405.618797	4486.619361
406.000250	4519.661604
406.381642	4599.258903
406.762972	4561.447728
407.144240	4571.041044
407.525447	4574.496755
407.906593	4631.958347
408.287677	4671.705325
408.668700	4604.763843
409.049661	4656.024816
409.430560	4697.430333
409.811399	4621.820587
410.192176	4782.414104
410.572891	4726.280856
410.953545	4823.658305
411.334138	4706.635480
411.714669	4774.514616
412.095139	4668.156352
412.475547	4814.175894
412.855894	4791.513387
413.236180	4801.247855
413.616405	4752.315895
413.996568	4842.910471
414.376670	4780.748003
414.756711	4738.281323
415.136691	4766.831898
415.516609	4846.751830
415.896466	4884.741966
416.276262	4919.525927
416.655997	4900.039347
417.035670	5083.181946
417.415283	5169.002549
417.794834	5113.776708
418.174324	5067.677877
418.553753	4974.265296
418.933121	5156.011495
419.312428	5229.224173
419.691674	5167.243186
420.070859	5288.407319
420.449983	5202.952199
420.829045	5315.319519
421.208047	5220.689499
421.586988	5299.502898
421.965867	5308.571934
422.344686	5435.782931
422.723444	5292.861178
423.102141	5115.747800
423.480777	5410.083129
423.859352	5176.191234
424.237866	5437.675884
424.616319	5428.407723
424.994712	5534.060225
425.373044	5407.212192
425.751314	5552.195776
426.129524	5354.993399
426.507673	5544.238315
426.885762	5624.690089
427.263789	5553.758534
427.641756	5437.391059
428.019662	5551.880704
428.397508	5552.881373
428.775292	5498.237786
429.153016	5588.247588
429.530679	5512.471484
429.908282	5588.847485
430.285824	5455.272032
430.663305	5714.326846
431.040726	5451.254232
431.418086	5439.445329
431.795385	5533.614083
432.172624	5538.239342
432.549802	5514.261093
432.926920	5519.413153
433.303977	5517.994068
433.680974	5540.152460
434.057910	5542.524322
434.434786	5532.046284
434.811601	5485.947453
435.188355	5689.720974
435.565050	5559.069389
435.941683	5520.209655
436.318257	5697.053332
436.694770	5662.718033
437.071222	5667.507129
437.447614	5585.094346
437.823946	5488.646991
438.200218	5598.433239
438.576429	5457.033915
438.952580	5513.290671
439.328670	5522.664697
439.704700	5415.083953
440.080670	5379.019539
440.456580	5567.692283
440.832429	5435.901398
441.208218	5279.570176
441.583947	5371.898909
441.959616	5343.335731
442.335224	5250.202934
442.710773	5317.023429
443.086261	5298.789575
443.461689	5104.627014
443.837057	5169.988094
444.212365	5245.111369
444.587612	5121.567812
444.962800	5188.211866
445.337927	5132.398731
445.712995	4812.628260
446.088002	5155.754397
446.462949	4994.376980
446.837837	4896.523142
447.212664	4969.677846
447.587431	4994.432432
447.962139	5258.283904
448.336786	5741.193675
448.711374	5539.597933
449.085901	4950.551709
449.460369	4842.378629
449.834776	4749.719701
450.209124	4889.193305
450.583412	4903.542949
450.957640	4930.654274
451.331808	4743.879524
451.705917	4471.727793
452.079965	4379.073906
452.453954	4411.508690
452.827883	4309.276610
453.201752	4287.985297
453.575562	4154.719874
453.949311	4171.491793
454.323001	4087.274277
454.696632	4060.467942
455.070202	4055.462076
455.443713	4056.407292
455.817164	4035.010115
456.190556	4002.149353
456.563888	3969.860763
456.937160	3928.636727
457.310373	3780.462092
457.683526	3730.869741
458.056619	3654.196312
458.429653	3601.957355
458.802628	3544.984755
459.175542	3528.522867
459.548398	3561.996129
459.921194	3555.661919
460.293930	3521.782844
460.666607	3580.920620
461.039224	3600.538270
461.411782	3572.857295
461.784280	3520.114223
462.156719	3451.098306
462.529099	3378.311606
462.901419	3270.032662
463.273680	3213.521328
463.645882	3180.227027
464.018024	3125.505302
464.390106	3115.092799
464.762130	3126.009418
465.134094	3151.099240
465.505999	3246.495515
465.877845	3339.925740
466.249631	3348.667101
466.621358	3245.547778
466.993026	3143.817294
467.364634	3081.175916
467.736184	3017.594363
468.107674	2967.455047
468.479105	2937.525717
468.850477	2907.344328
469.221790	2867.090715
469.593043	2825.302070
469.964238	2801.248205
470.335373	2784.995525
470.706449	2770.298041
471.077467	2755.656009
471.448425	2786.616256
471.819324	2808.862867
472.190164	2792.942904
472.560945	2740.532548
472.931667	2705.259594
473.302330	2695.358768
473.672934	2679.842097
474.043479	2671.534275
474.413965	2665.061433
474.784393	2652.932417
475.154761	2652.148518
475.525070	2645.685759
475.895321	2637.529172
476.265513	2633.899541
476.635645	2636.057155
477.005719	2633.720580
477.375734	2630.519447
477.745691	2629.871659
478.115588	2630.469036
478.485427	2625.886627
478.855207	2631.270579
479.224928	2634.501959
479.594591	2641.743576
479.964194	2636.210910
480.333739	2636.969604
480.703226	2629.417955
481.072653	2632.044396
481.442022	2633.198821
481.811333	2629.254118
482.180584	2622.211626
482.549777	2622.887140
482.918912	2620.427057
483.287988	2617.606532
483.657005	2616.492437
484.025964	2611.481530
484.394864	2610.627054
484.763706	2612.068824
485.132489	2606.989862
485.501213	2606.551281
485.869879	2606.387444
486.238487	2601.386619
486.607036	2603.660180
486.975527	2602.488111
487.343959	2603.085488
487.712333	2605.432145
488.080648	2603.135900
488.448905	2599.463419
488.817104	2596.582400
489.185244	2602.452823
489.553326	2600.131372
489.921350	2606.238730
490.289315	2611.869699
490.657222	2612.676283
491.025070	2613.036726
491.392861	2612.888012
491.760593	2608.114039
492.128267	2607.095726
492.495883	2604.645725
492.863440	2600.113728
493.230939	2598.387133
493.598380	2599.639859
493.965763	2592.282295
494.333088	2592.965372
494.700354	2594.139961
495.067563	2593.827409
495.434713	2588.778693
495.801805	2594.628953
496.168839	2593.277923
496.535815	2591.826071
496.902733	2593.308170
497.269593	2593.232553
497.636395	2590.777511
498.003139	2592.965372
498.369825	2588.980340
498.736453	2591.367326
499.103023	2589.179465
499.469535	2591.233735
499.835989	2588.224167
500.202385	2589.532346
500.568723	2585.123857
500.935003	2590.023858
501.301226	2587.662078
501.667390	2589.373550
502.033497	2589.008066
502.399546	2590.979157
502.765537	2588.234249
503.131470	2586.114444
503.497345	2591.382449
503.863163	2586.540421
504.228923	2587.629310
504.594625	2591.029569
504.960269	2587.916656
505.325856	2587.074783
505.691385	2585.451532
506.056856	2588.012438
506.422270	2586.729464
506.787625	2588.798858
507.152924	2587.473035
507.518164	2586.303487
507.883347	2588.468662
508.248472	2583.848445
508.613540	2586.928590
508.978550	2586.278281
509.343503	2586.837849
509.708398	2587.871286
510.073236	2588.125864
510.438016	2588.128385
510.802738	2586.127047
511.167403	2589.101327
511.532010	2585.627972
511.896561	2589.842377
512.261053	2590.510330
512.625488	2584.680235
512.989866	2583.314083
513.354186	2586.923549
513.718449	2580.937179
514.082655	2588.914805
514.446803	2589.063519
514.810894	2586.878178
515.174927	2589.781883
515.538904	2589.527305
515.902822	2588.448498
516.266684	2588.975298
516.630488	2590.931266
516.994235	2588.377922
517.357925	2588.612335
517.721558	2591.057295
518.085133	2590.414548
518.448651	2591.561410
518.812112	2590.452357
519.175516	2588.352716
519.538863	2590.306163
519.902152	2585.799372
520.265385	2590.404466
520.628560	2589.791965
520.991678	2587.251224
521.354739	2591.059816
521.717743	2591.377408
522.080690	2589.827253
522.443580	2588.645103
522.806413	2589.381111
523.169189	2592.710793
523.531908	2589.212233
523.894569	2590.691811
524.257174	2589.726430
524.619722	2590.767429
524.982213	2588.330031
525.344647	2590.598550
525.707025	2588.723241
526.069345	2591.384970
526.431608	2590.381780
526.793815	2589.665937
527.155964	2591.954620
527.518057	2592.055443
527.880093	2590.079311
528.242072	2590.709455
528.603995	2591.364805
528.965860	2589.998653
529.327669	2591.359764
529.689421	2590.585947
530.051117	2591.873962
530.412755	2588.985381
530.774337	2593.340938
531.135862	2590.749785
531.497331	2589.461770
531.858743	2586.847932
532.220098	2587.861203
532.581396	2583.745101
532.942638	2587.082345
533.303824	2587.568817
533.664953	2589.804568
534.026025	2586.928590
534.387040	2592.867069
534.747999	2590.613673
535.108902	2588.975298
535.469748	2588.350195
535.830537	2591.611822
536.191270	2588.698035
536.551947	2589.353385
536.912567	2590.578385
537.273131	2590.709455
537.633638	2589.834815
537.994089	2592.070567
538.354483	2587.790627
538.714821	2589.602922
539.075103	2588.995463
539.435328	2590.021338
539.795497	2589.499578
540.155609	2589.751636
540.515665	2590.800196
540.875665	2591.437902
541.235609	2590.548138
541.595496	2589.010587
541.955328	2591.453026
542.315102	2589.711307
542.674821	2591.206009
543.034483	2591.137953
543.394090	2590.573344
543.753640	2589.499578
544.113134	2593.638366
544.472571	2590.512850
544.831953	2591.823550
545.191278	2590.911102
545.550548	2588.806420
545.909761	2591.672316
546.268918	2592.937645
546.628019	2591.153077
546.987064	2591.682398
547.346053	2589.804568
547.704986	2590.122161
548.063863	2589.086204
548.422684	2589.643251
548.781449	2588.665267
549.140158	2592.070567
549.498811	2592.191555
549.857408	2590.059147
550.215949	2589.580237
550.574434	2588.609815
550.932864	2591.392532
551.291237	2586.484968
551.649555	2590.807758
552.007817	2589.192068
552.366022	2591.717686
552.724173	2591.687439
553.082267	2591.954620
553.440305	2592.587285
553.798288	2588.990422
554.156215	2587.881368
554.514086	2591.538725
554.871902	2591.581575
555.229661	2590.596029
555.587365	2588.635021
555.945014	2589.711307
556.302606	2591.299270
556.660143	2589.066039
557.017625	2588.763570
557.375050	2589.542428
557.732421	2592.546956
558.089735	2591.828592
558.446994	2589.829774
558.804197	2591.326997
559.161345	2594.540732
559.518437	2593.270362
559.875474	2591.483272
560.232455	2591.536205
560.589381	2588.589650
560.946251	2591.566452
561.303065	2593.424117
561.659825	2590.351533
562.016528	2589.892788
562.373177	2589.968406
562.729770	2589.131574
563.086307	2590.510330
563.442789	2591.122830
563.799216	2591.395052
564.155587	2591.296750
564.511904	2591.261462
564.868164	2588.566965
565.224370	2590.641400
565.580520	2594.260948
565.936615	2592.161308
566.292654	2589.479414
566.648638	2591.354723
567.004567	2590.643920
567.360441	2589.940679
567.716260	2588.219125
568.072023	2588.829105
568.427732	2585.796851
568.783385	2586.371542
569.138982	2586.139649
569.494525	2588.579568
569.850013	2583.722416
570.205445	2589.103848
570.560823	2588.541759
570.916145	2590.384301
571.271412	2587.901533
571.626625	2588.965216
571.981782	2590.971595
572.336884	2589.789445
572.691931	2588.556883
573.046923	2586.389187
573.401860	2586.187540
573.756743	2588.914805
574.111570	2588.508992
574.466342	2586.729464
574.821059	2587.135277
575.175722	2587.571337
575.530330	2586.762232
575.884882	2587.432705
576.239380	2589.640731
576.593823	2585.348188
576.948211	2586.336254
577.302544	2587.588981
577.656823	2587.974629
578.011047	2588.088055
578.365216	2585.892633
578.719330	2586.658888
579.073389	2587.823395
579.427394	2587.699887
579.781344	2583.457756
580.135239	2585.660740
580.489080	2587.704928
580.842866	2584.886923
581.196597	2589.441605
581.550273	2587.548652
581.903895	2584.632344
582.257463	2584.571851
582.610975	2584.715523
582.964434	2587.427664
583.317837	2585.660740
583.671186	2584.594536
584.024481	2584.360122
584.377721	2581.824422
584.730906	2582.746953
585.084037	2587.367170
585.437113	2584.428178
585.790135	2583.992118
586.143103	2582.142014
586.496016	2583.934145
586.848874	2577.292424
587.201679	2583.160327
587.554428	2579.462641
587.907124	2580.309555
588.259765	2577.315110
588.612352	2580.221335
588.964884	2582.492375
589.317362	2583.051943
589.669786	2580.589339
590.022155	2584.604618
590.374470	2582.567992
590.726731	2580.700244
591.078937	2581.670667
591.431090	2580.949782
591.783188	2580.438104
592.135232	2581.877354
592.487222	2582.046232
592.839157	2581.572364
593.191038	2581.658064
593.542866	2580.470872
593.894639	2581.143866
594.246358	2582.462128
594.598022	2582.789803
594.949633	2581.756366
595.301190	2577.299986
595.652692	2581.199319
596.004141	2581.305183
596.355535	2582.762076
596.706876	2581.605132
597.058162	2576.563978
597.409395	2577.743608
597.760573	2576.175809
598.111698	2578.923238
598.462768	2578.454410
598.813785	2581.297621
599.164748	2578.973649
599.515657	2578.509863
599.866511	2579.437435
600.217312	2577.080696
600.568060	2578.131777
600.918753	2579.147569
601.269392	2580.100347
601.619978	2578.988773
601.970510	2578.431725
602.320988	2577.940213
602.671412	2580.735532
603.021783	2578.459452
603.372100	2577.720922
603.722363	2576.737897
604.072572	2575.916189
604.422728	2577.761252
604.772830	2573.138514
605.122878	2573.698082
605.472872	2572.672207
605.822813	2572.384861
606.172701	2575.666652
606.522534	2576.911817
606.872314	2576.720253
607.222041	2575.238154
607.571714	2575.853175
607.921333	2580.438104
608.270899	2575.706982
608.620411	2578.653536
608.969870	2575.364183
609.319276	2575.933833
609.668627	2580.738053
610.017926	2583.261151
610.367171	2586.563106
610.716362	2584.249217
611.065500	2584.728126
611.414585	2582.920873
611.763616	2582.898187
612.112594	2580.813670
612.461518	2580.838876
612.810389	2578.524987
613.159207	2579.197981
613.507971	2577.811663
613.856682	2578.235120
614.205340	2581.907601
614.553945	2581.045563
614.902496	2576.684965
615.250994	2577.778896
615.599439	2578.779565
615.947830	2580.455748
616.296169	2576.470716
616.644454	2578.315779
616.992686	2577.244533
617.340864	2578.492219
617.688990	2575.608679
618.037063	2577.226889
618.385082	2576.783268
618.733048	2579.664287
619.080961	2577.383165
619.428821	2577.688155
619.776628	2575.941395
620.124382	2575.827969
620.472083	2577.201684
620.819731	2576.092630
621.167326	2577.085737
621.514868	2576.667321
621.862357	2575.215469
622.209793	2578.809812
622.557176	2579.016499
622.904506	2573.085582
623.251783	2572.962073
623.599007	2572.278997
623.946179	2569.564336
624.293297	2571.220355
624.640363	2571.185067
624.987376	2573.630026
625.334336	2573.418298
625.681243	2573.561971
626.028097	2572.682289
626.374899	2573.672876
626.721647	2571.623647
627.068343	2572.699933
627.414987	2569.634912
627.761577	2573.148596
628.108115	2570.073492
628.454600	2573.287228
628.801032	2570.769171
629.147412	2572.077351
629.493739	2571.603482
629.840014	2569.667679
630.186236	2574.078689
630.532405	2572.493246
630.878521	2571.381672
631.224585	2572.866291
631.570597	2569.539130
631.916556	2570.859912
632.262462	2571.754717
632.608316	2572.518452
632.954117	2570.373441
633.299866	2569.433266
633.645562	2569.929819
633.991206	2568.258677
634.336797	2566.947977
634.682336	2569.473595
635.027823	2567.620971
635.373257	2566.383367
635.718639	2565.725497
636.063968	2564.140054
636.409245	2566.547205
636.754470	2563.610733
637.099642	2563.925805
637.444762	2566.519479
637.789829	2566.829510
638.134845	2565.254149
638.479808	2567.328584
638.824719	2564.235836
639.169577	2564.908830
639.514383	2564.467729
639.859137	2563.373799
640.203839	2567.661300
640.548489	2564.825651
640.893086	2564.800445
641.237632	2561.135526
641.582125	2561.306926
641.926566	2560.538150
642.270955	2564.376988
642.615292	2567.194993
642.959576	2564.208110
643.303809	2564.225754
643.647990	2564.593758
643.992118	2561.523695
644.336195	2562.496638
644.680219	2561.780794
645.024192	2560.293654
645.368112	2560.873386
645.711981	2565.087791
646.055797	2566.610219
646.399562	2562.647873
646.743274	2565.798594
647.086935	2564.513099
647.430544	2565.256670
647.774101	2565.155847
648.117606	2567.913358
648.461059	2565.145764
648.804460	2567.068964
649.147810	2563.900599
649.491108	2566.000240
649.834354	2563.678788
650.177548	2560.689384
650.520690	2562.680640
650.863781	2562.448747
651.206820	2563.880435
651.549807	2561.669889
651.892742	2558.683005
652.235626	2566.224571
652.578458	2561.138047
652.921238	2562.388253
653.263967	2562.736093
653.606644	2559.923129
653.949269	2560.276010
654.291843	2560.512944
654.634365	2561.828685
654.976836	2562.552091
655.319255	2558.640155
655.661622	2560.112172
656.003938	2561.763150
656.346203	2557.742830
656.688416	2560.674261
657.030577	2558.599826
657.372687	2559.698797
657.714746	2557.876420
658.056753	2558.130999
658.398708	2552.769732
658.740612	2557.195865
659.082465	2556.638817
659.424266	2559.101421
659.766016	2555.557490
660.107715	2561.448078
660.449362	2558.693087
660.790958	2560.155022
661.132503	2559.116544
661.473996	2561.808520
661.815438	2560.225598
662.156829	2558.672923
662.498168	2558.509085
662.839456	2557.914229
663.180693	2559.250135
663.521879	2560.369271
663.863013	2558.854404
664.204097	2558.443550
664.545129	2558.342727
664.886110	2560.089487
665.227040	2561.632080
665.567918	2560.396997
665.908746	2560.328942
666.249522	2558.708211
666.590248	2558.617470
666.930922	2559.867676
667.271545	2559.146791
667.612118	2562.085784
667.952639	2560.452450
668.293109	2559.171997
668.633528	2561.790876
668.973896	2558.995557
669.314213	2559.257697
669.654480	2560.467573
669.994695	2557.606719
670.334859	2560.933880
670.674973	2560.737275
671.015035	2561.012018
671.355047	2560.500341
671.695008	2557.750392
672.034918	2559.020762
672.374777	2558.773746
672.714585	2558.478838
673.054342	2560.046637
673.394049	2559.819785
673.733705	2562.307595
674.073310	2557.755433
674.412864	2561.059909
674.752368	2557.957079
675.091820	2558.098231
675.431223	2556.732078
675.770574	2557.861297
676.109875	2553.160421
676.449125	2555.234856
676.788324	2553.248641
677.127473	2557.858776
677.466571	2553.649413
677.805619	2557.218550
678.144616	2558.040258
678.483562	2559.754250
678.822458	2557.155535
679.161303	2559.512275
679.500098	2556.812737
679.838842	2555.978426
680.177535	2558.020093
680.516179	2558.640155
680.854771	2557.455484
681.193314	2558.735937
681.531805	2558.352809
681.870247	2560.472615
682.208638	2559.479507
682.546978	2561.233829
682.885268	2558.609908
683.223508	2558.254507
683.561697	2557.934394
683.899836	2559.741647
684.237925	2558.385577
684.575963	2559.439178
684.913951	2557.268961
685.251889	2559.502192
685.589776	2557.750392
685.927614	2557.236194
686.265401	2557.873900
686.603137	2559.529919
686.940824	2558.282233
687.278460	2558.171328
687.616046	2559.141750
687.953582	2559.476987
688.291068	2559.746688
688.628504	2561.501010
688.965889	2559.781977
689.303224	2560.807851
689.640510	2556.830381
689.977745	2559.396328
690.314930	2560.086966
690.652065	2557.447922
690.989150	2557.778118
691.326185	2558.720814
691.663170	2556.348951
692.000105	2557.142933
692.336990	2554.829043
692.673825	2554.526574
693.010610	2554.710576
693.347345	2551.885009
693.684030	2549.281253
694.020665	2552.563044
694.357251	2547.005172
694.693786	2551.307797
695.030272	2554.024979
695.366707	2551.554813
695.703093	2553.402396
696.039429	2551.867365
696.375716	2550.392827
696.711952	2552.696635
697.048139	2553.130174
697.384276	2553.291491
697.720363	2553.183106
698.056400	2554.254351
698.392388	2550.551624
698.728326	2552.825184
699.064214	2550.657488
699.400053	2550.506253
699.735842	2549.452652
700.071581	2552.787376
700.407270	2551.269988
700.742910	2553.878785
701.078501	2549.298897
701.414042	2549.407282
701.749533	2550.571788
702.084974	2550.077755
702.420366	2550.717982
702.755709	2547.408464
703.091002	2549.480379
703.426246	2550.198743
703.761440	2550.060111
704.096584	2551.953065
704.431679	2552.066491
704.766725	2549.437529
705.101721	2547.962991
705.436668	2549.714792
705.771565	2550.443239
706.106413	2548.721685
706.441212	2550.720502
706.775961	2548.525080
707.110661	2547.784030
707.445311	2550.246634
707.779913	2547.882333
708.114465	2551.433826
708.448967	2548.998948
708.783421	2549.162786
709.117825	2550.828887
709.452180	2551.365770
709.786485	2550.798640
710.120742	2551.038095
710.454949	2553.049516
710.789107	2551.368291
711.123216	2546.528783
711.457275	2550.901984
711.791286	2549.414844
712.125247	2549.107333
712.459159	2552.570606
712.793023	2553.508261
713.126837	2551.481717
713.460602	2551.779145
713.794318	2550.186140
714.127985	2551.592622
714.461602	2551.035575
714.795171	2552.542880
715.128691	2552.484906
715.462162	2551.247303
715.795584	2549.475338
716.128957	2552.235369
716.462281	2549.145142
716.795556	2552.656306
717.128782	2548.769576
717.461960	2549.399720
717.795088	2548.000800
718.128167	2546.876623
718.461198	2547.842004
718.794180	2548.303269
719.127113	2545.855789
719.459997	2547.156407
719.792833	2549.644216
720.125619	2548.101623
720.458357	2544.971067
720.791046	2549.336706
721.123686	2548.721685
721.456278	2546.962322
721.788821	2547.428629
722.121315	2547.312683
722.453761	2549.770245
722.786158	2544.446787
723.118506	2545.518032
723.450805	2546.858979
723.783056	2545.863351
724.115259	2547.189174
724.447412	2545.437373
724.779518	2546.657333
725.111574	2545.790254
725.443582	2548.381407
725.775542	2543.685572
726.107453	2545.455017
726.439315	2547.105995
726.771129	2548.883002
727.102895	2550.743188
727.434612	2548.013403
727.766281	2548.280584
728.097901	2546.433001
728.429473	2544.789585
728.760996	2545.087013
729.092471	2543.914945
729.423897	2547.710934
729.755276	2545.949050
730.086606	2545.805378
730.417887	2550.511295
730.749120	2546.455686
731.080305	2549.099772
731.411442	2548.401572
731.742530	2548.081458
732.073570	2549.520708
732.404562	2549.661860
732.735506	2550.697817
733.066401	2549.944165
733.397249	2551.592622
733.728048	2549.306459
734.058798	2547.642878
734.389501	2548.671273
734.720156	2549.896274
735.050762	2549.339226
735.381320	2545.349153
735.711831	2547.312682
736.042293	2545.694472
736.372707	2547.005172
736.703073	2545.956612
737.033391	2545.712116
737.363661	2545.419729
737.693883	2544.121632
738.024056	2549.994576
738.354182	2546.405275
738.684260	2543.748587
739.014290	2547.242106
739.344272	2548.210008
739.674207	2545.843186
740.004093	2548.328475
740.333931	2547.753783
740.663722	2546.992569
740.993464	2547.743701
741.323159	2548.910728
741.652806	2542.609286
741.982405	2548.454504
742.311956	2545.588608
742.641460	2545.888557
742.970915	2547.826880
743.300323	2546.301931
743.629683	2545.452497
743.958996	2545.555840
744.288260	2543.466282
744.617477	2546.208670
744.946647	2542.637012
745.275768	2545.114739
745.604842	2540.320602
745.933869	2539.687937
746.262847	2538.387320
746.591778	2544.532486
746.920662	2546.647250
747.249498	2544.298072
747.578286	2543.098278
747.907027	2543.529297
748.235720	2544.729091
748.564365	2547.443753
748.892963	2542.619368
749.221514	2545.218083
749.550017	2543.045346
749.878473	2544.182126
750.206881	2544.030891
750.535242	2542.538710
750.863555	2542.599204
751.191821	2543.143648
751.520039	2544.182126
751.848210	2544.023330
752.176334	2543.499050
752.504411	2545.530635
752.832440	2540.993596
753.160421	2541.255736
753.488356	2544.358566
753.816243	2543.390665
754.144082	2543.904862
754.471875	2546.158258
754.799620	2542.332022
755.127318	2543.678011
755.454969	2542.639533
755.782572	2541.664070
756.110129	2545.271015
756.437638	2544.779503
756.765100	2542.130376
757.092515	2542.783206
757.419882	2540.718853
757.747203	2543.909904
758.074477	2542.581560
758.401703	2541.648946
758.728882	2541.815304
759.056014	2545.225645
759.383099	2539.977804
759.710138	2545.507949
760.037129	2543.907383
760.364073	2543.317568
760.690970	2543.526776
761.017820	2543.088196
761.344623	2544.358566
761.671379	2546.891746
761.998088	2539.657690
762.324751	2544.406457
762.651366	2545.389482
762.977935	2553.165462
763.304456	2552.855431
763.630931	2558.443550
763.957359	2555.232335
764.283740	2553.331820
764.610074	2550.332334
764.936362	2548.716644
765.262602	2547.068187
765.588796	2545.951571
765.914943	2545.044163
766.241044	2543.078113
766.567097	2542.589121
766.893104	2544.187167
767.219064	2540.824717
767.544978	2540.890253
767.870845	2543.438556
768.196665	2541.727084
768.522438	2540.421425
768.848165	2542.311858
769.173846	2544.252702
769.499479	2542.604245
769.825066	2540.650798
770.150607	2537.416898
770.476101	2539.027546
770.801548	2541.888401
771.126949	2540.302958
771.452303	2539.307330
771.777611	2541.966539
772.102872	2538.808256
772.428087	2539.907227
772.753256	2538.241126
773.078378	2538.571322
773.403453	2538.979655
773.728482	2537.893287
774.053465	2539.118287
774.378401	2537.777340
774.703291	2537.540406
775.028135	2538.964532
775.352932	2539.687937
775.677683	2537.878163
776.002388	2539.337577
776.327046	2537.908410
776.651658	2540.958308
776.976224	2537.558050
777.300743	2539.057793
777.625216	2537.129552
777.949643	2539.599717
778.274024	2539.897145
778.598359	2535.521424
778.922647	2534.412370
779.246889	2538.304141
779.571086	2533.159643
779.895236	2535.740714
780.219339	2537.323636
780.543397	2537.248019
780.867409	2537.671476
781.191374	2539.337577
781.515294	2537.684079
781.839167	2535.781043
782.162995	2541.701878
782.486776	2538.447813
782.810511	2536.905220
783.134201	2537.999151
783.457844	2538.760365
783.781441	2537.545447
784.104993	2538.780530
784.428498	2534.823224
784.751958	2539.327495
785.075372	2535.972607
785.398739	2538.783050
785.722061	2536.985879
786.045337	2537.555529
786.368568	2539.440921
786.691752	2540.048380
787.014891	2536.393543
787.337983	2536.761548
787.661030	2539.289686
787.984031	2540.040818
788.306987	2541.369162
788.629897	2542.654656
788.952760	2541.966539
789.275579	2541.533000
789.598351	2540.255067
789.921078	2539.975283
790.243759	2538.621733
790.566395	2536.814480
790.888984	2537.994110
791.211529	2538.276414
791.534027	2536.501928
791.856480	2538.626774
792.178888	2539.451003
792.501249	2536.993441
792.823566	2540.300438
793.145836	2541.588452
793.468062	2539.423277
793.790241	2537.300951
794.112375	2536.121321
794.434464	2537.058976
794.756507	2539.902186
795.078505	2536.731301
795.400457	2536.627957
795.722364	2533.368851
796.044226	2538.573842
796.366042	2537.497556
796.687812	2535.806249
797.009538	2535.362627
797.331218	2538.848585
797.652852	2537.794984
797.974442	2539.521579
798.295986	2539.277083
798.617484	2541.003678
798.938938	2538.813297
799.260346	2537.772299
799.581709	2536.302802
799.903026	2539.319933
800.224299	2536.234747
800.545526	2538.523431
800.866708	2537.429500
801.187845	2537.316074
801.508936	2536.874973
801.829983	2535.171063
802.150984	2538.659542
802.471940	2534.709798
802.792851	2536.098636
803.113717	2540.038297
803.434538	2538.314223
803.755314	2534.830786
804.076045	2536.784233
804.396731	2538.296579
804.717372	2536.131403
805.037967	2537.142155
805.358518	2537.036290
805.679024	2537.250539
805.999485	2535.849099
806.319901	2538.001671
806.640272	2536.121321
806.960598	2539.907228
807.280879	2535.599562
807.601115	2538.072248
807.921306	2536.617875
808.241453	2538.117618
808.561554	2537.469830
808.881611	2534.919006
809.201623	2535.919675
809.521590	2538.157947
809.841513	2537.177443
810.161390	2538.939326
810.481223	2535.201310
810.801011	2537.880684
811.120755	2536.973276
811.440453	2539.151054
811.760107	2537.212731
812.079716	2537.832793
812.399281	2534.349355
812.718801	2534.898841
813.038276	2529.492204
813.357707	2536.035621
813.677093	2536.925385
813.996434	2537.545447
814.315731	2533.988913
814.634983	2537.374048
814.954191	2538.223482
815.273354	2537.316074
815.592473	2538.833462
815.911547	2539.209028
816.230577	2534.248532
816.549562	2538.117618
816.868502	2538.341949
817.187399	2539.067875
817.506250	2535.813811
817.825058	2537.416897
818.143821	2538.871270
818.462539	2539.120808
818.781213	2538.001671
819.099843	2537.230375
819.418429	2541.565767
819.736970	2542.137938
820.055466	2542.861344
820.373919	2547.791592
820.692327	2545.984338
821.010691	2553.160421
821.329011	2560.160063
821.647286	2584.513877
821.965517	2602.755293
822.283704	2614.801130
822.601847	2619.648199
822.919945	2610.120418
823.237999	2598.611464
823.556010	2583.591346
823.873976	2574.986097
824.191897	2566.900086
824.509775	2562.131154
824.827609	2554.849207
825.145398	2556.974054
825.463144	2554.493806
825.780845	2555.451625
826.098502	2555.091183
826.416116	2562.484035
826.733685	2567.200034
827.051210	2570.207083
827.368692	2568.820765
827.686129	2562.141237
828.003522	2557.306770
828.320872	2545.558361
828.638177	2548.883002
828.955439	2543.458720
829.272656	2540.953267
829.589830	2535.556712
829.906960	2540.988555
830.224046	2541.061652
830.541088	2539.191384
830.858086	2537.996630
831.175041	2540.618030
831.491952	2540.938143
831.808819	2539.246836
832.125642	2538.306661
832.442421	2539.420756
832.759157	2542.518545
833.075849	2546.254040
833.392497	2551.020451
833.709101	2552.691594
834.025662	2554.239228
834.342179	2551.706048
834.658653	2548.366284
834.975083	2545.601211
835.291469	2545.986859
835.607811	2542.354708
835.924110	2539.254398
836.240366	2539.544264
836.556578	2540.315561
836.872746	2536.809438
837.188871	2535.944881
837.504952	2538.992258
837.820990	2535.249201
838.136984	2534.581248
838.452935	2533.893131
838.768842	2534.530837
839.084706	2536.091074
839.400526	2534.712318
839.716303	2537.948739
840.032037	2543.672969
840.347727	2541.820345
840.663373	2540.040818
840.978977	2539.577032
841.294537	2536.365817
841.610054	2538.372196
841.925527	2533.953625
842.240957	2537.699202
842.556344	2538.132741
842.871687	2533.144520
843.186987	2536.920344
843.502244	2533.696526
843.817458	2535.776002
844.132629	2534.319108
844.447756	2535.123173
844.762840	2530.132430
845.077881	2529.759385
845.392879	2531.458254
845.707833	2531.750641
846.022745	2529.880373
846.337613	2532.723583
846.652438	2533.704088
846.967221	2532.907585
847.281960	2535.060158
847.596656	2536.396064
847.911309	2532.562266
848.225919	2530.502955
848.540485	2534.818183
848.855009	2533.394057
849.169490	2533.736855
849.483928	2533.590662
849.798323	2533.827596
850.112675	2531.831299
850.426984	2534.465302
850.741251	2533.941022
851.055474	2533.089067
851.369654	2531.304498
851.683792	2533.525127
851.997887	2535.128214
852.311938	2534.641742
852.625947	2531.964890
852.939914	2534.379602
853.253837	2533.809952
853.567718	2535.652494
853.881555	2531.226361
854.195350	2533.595703
854.509103	2533.981351
854.822812	2534.437576
855.136479	2532.484128
855.450103	2533.477236
855.763685	2534.974458
856.077224	2533.121834
856.390720	2532.632843
856.704173	2532.499252
857.017584	2534.440096
857.330953	2534.729962
857.644278	2533.086546
857.957561	2534.135106
858.270802	2532.146371
858.584000	2533.666279
858.897155	2533.147040
859.210268	2531.123017
859.523339	2533.610826
859.836367	2532.723583
860.149352	2536.280117
860.462295	2535.571835
860.775195	2531.075126
861.088054	2529.466998
861.400869	2526.795186
861.713642	2528.063037
862.026373	2531.448171
862.339062	2531.057482
862.651708	2533.751979
862.964312	2535.254243
863.276873	2532.975641
863.589392	2532.670651
863.901869	2533.983872
864.214303	2534.414890
864.526696	2532.728624
864.839045	2533.716691
865.151353	2530.576052
865.463619	2532.363141
865.775842	2532.312729
866.088023	2528.859539
866.400162	2534.182997
866.712258	2531.082688
867.024313	2533.794828
867.336325	2532.242153
867.648296	2533.799870
867.960224	2533.015970
868.272110	2534.127545
868.583954	2532.920188
868.895755	2532.524458
869.207515	2534.462781
869.519233	2536.968235
869.830909	2532.736186
870.142542	2533.777184
870.454134	2533.535209
870.765684	2532.252235
871.077191	2535.733152
871.388657	2534.286341
871.700081	2534.888759
872.011463	2532.612678
872.322803	2532.940353
872.634101	2534.543440
872.945357	2531.957328
873.256571	2534.147709
873.567744	2534.137627
873.878874	2532.458923
874.189963	2534.833306
874.501010	2538.064686
874.812015	2534.498069
875.122979	2535.589479
875.433900	2535.077802
875.744780	2535.244160
876.055618	2534.205682
876.366415	2535.695343
876.677169	2534.813142
876.987882	2532.635363
877.298554	2530.049251
877.609183	2532.322812
877.919771	2528.057995
878.230317	2534.823224
878.540822	2537.641229
878.851285	2538.372196
879.161707	2535.740714
879.472087	2539.357742
879.782425	2539.617361
880.092722	2542.886549
880.402977	2552.147149
880.713191	2559.597974
881.023363	2573.090623
881.333494	2581.373238
881.643583	2581.663105
881.953631	2583.001531
882.263637	2581.138825
882.573602	2576.034657
882.883526	2569.271949
883.193408	2565.077709
883.503248	2559.371122
883.813048	2554.869372
884.122806	2553.959444
884.432522	2549.533311
884.742197	2548.530121
885.051831	2544.845038
885.361424	2543.988042
885.670975	2542.994934
885.980485	2540.867567
886.289954	2539.987886
886.599382	2539.864378
886.908768	2536.716177
887.218113	2534.732483
887.527417	2541.051569
887.836680	2535.768440
888.145901	2535.904551
888.455082	2533.351207
888.764221	2533.789787
889.073319	2536.701054
889.382376	2537.623585
889.691392	2533.116793
890.000366	2535.735673
890.309300	2533.893131
890.618193	2535.448327
890.927044	2533.152081
891.235855	2537.547967
891.544625	2535.067720
891.853353	2538.452855
892.162041	2534.666948
892.470687	2538.110056
892.779293	2535.831455
893.087858	2533.323481
893.396381	2535.599562
893.704864	2538.636857
894.013306	2538.828421
894.321707	2548.643547
894.630068	2548.131870
894.938387	2550.090358
895.246665	2548.623383
895.554903	2548.658671
895.863100	2544.466951
896.171256	2540.764224
896.479371	2541.021323
896.787446	2542.352187
897.095480	2536.340611
897.403473	2538.626774
897.711425	2536.317926
898.019336	2537.928575
898.327207	2537.744572
898.635038	2532.441279
898.942827	2537.558050
899.250576	2533.590662
899.558284	2531.501103
899.865952	2536.474202
900.173579	2536.295241
900.481165	2535.430683
900.788711	2534.641742
901.096216	2534.044366
901.403681	2535.662576
901.711105	2534.056968
902.018489	2531.511186
902.325832	2535.168543
902.633135	2535.385312
902.940397	2538.135262
903.247619	2537.656352
903.554800	2539.267001
903.861941	2544.580377
904.169041	2553.903991
904.476101	2556.948848
904.783121	2556.006152
905.090100	2552.331151
905.397039	2548.464586
905.703938	2546.324616
906.010796	2545.334030
906.317614	2539.110725
906.624391	2537.348842
906.931129	2537.810108
907.237826	2535.702905
907.544483	2534.180477
907.851099	2533.968748
908.157675	2534.379602
908.464211	2533.104190
908.770707	2530.823068
909.077163	2531.218799
909.383578	2527.712676
909.689954	2528.839374
909.996289	2527.621936
910.302584	2534.440096
910.608839	2533.414221
910.915054	2532.136289
911.221229	2530.757533
911.527363	2534.009078
911.833458	2533.063861
912.139513	2534.208203
912.445527	2531.493542
912.751502	2534.011598
913.057436	2531.513706
913.363331	2533.278110
913.669186	2534.281300
913.975000	2535.135775
914.280775	2537.880684
914.586510	2538.105015
914.892205	2538.314223
915.197859	2543.042825
915.503475	2545.087013
915.809050	2549.548434
916.114585	2554.340051
916.420081	2556.527912
916.725536	2550.997766
917.030952	2549.863506
917.336328	2545.760007
917.641665	2548.089020
917.946961	2544.429143
918.252218	2541.366642
918.557435	2541.502753
918.862612	2541.333874
919.167750	2535.982689
919.472848	2536.391023
919.777906	2534.982020
920.082925	2536.043183
920.387904	2534.336753
920.692843	2537.295910
920.997743	2533.739376
921.302603	2534.437576
921.607423	2533.041176
921.912204	2535.100487
922.216946	2533.134437
922.521647	2535.355066
922.826310	2534.404808
923.130932	2534.361958
923.435516	2533.837678
923.740059	2532.403470
924.044564	2531.117976
924.349028	2530.603778
924.653454	2528.531864
924.957840	2530.238294
925.262186	2526.991791
925.566493	2529.474560
925.870761	2524.685463
926.174989	2533.497400
926.479178	2529.293078
926.783328	2532.101001
927.087438	2531.664941
927.391509	2533.446989
927.695541	2528.415917
927.999533	2528.410876
928.303486	2531.465815
928.607400	2526.505320
928.911275	2528.988088
929.215110	2530.034128
929.518906	2527.790814
929.822663	2531.266690
930.126381	2527.881555
930.430060	2530.452543
930.733699	2529.582944
931.037299	2529.920702
931.340861	2527.937008
931.644383	2531.493542
931.947866	2529.058664
932.251309	2530.538243
932.554714	2527.959693
932.858080	2531.175949
933.161407	2529.212420
933.464694	2527.281658
933.767943	2528.952800
934.071153	2527.942049
934.374323	2529.434230
934.677455	2530.097142
934.980548	2529.177132
935.283602	2531.123017
935.586617	2530.923891
935.889593	2530.694519
936.192530	2531.092770
936.495428	2529.071267
936.798287	2531.067564
937.101108	2530.235774
937.403890	2529.802235
937.706632	2528.105886
938.009336	2529.625794
938.312002	2530.089580
938.614628	2529.701412
938.917216	2531.304498
939.219765	2529.630835
939.522275	2528.320135
939.824747	2530.971782
940.127179	2527.606812
940.429573	2529.293078
940.731929	2530.835671
941.034246	2524.574558
941.336524	2531.354910
941.638763	2530.744930
941.940964	2531.057482
942.243126	2530.563449
942.545250	2533.608306
942.847335	2530.266021
943.149381	2529.290558
943.451389	2532.902544
943.753359	2530.134951
944.055290	2529.716535
944.357182	2530.475229
944.659036	2529.393901
944.960851	2528.199148
945.262628	2531.806093
945.564367	2529.600588
945.866067	2530.215609
946.167729	2532.675692
946.469352	2528.047913
946.770937	2530.555887
947.072484	2529.368695
947.373992	2531.264169
947.675462	2528.226874
947.976893	2529.983716
948.278286	2529.242667
948.579641	2530.124868
948.880958	2527.644621
949.182236	2530.820548
949.483476	2529.000691
949.784678	2526.991791
950.085841	2530.795342
950.386967	2533.104190
950.688054	2529.093953
950.989103	2529.497245
951.290114	2527.165711
951.591087	2529.479601
951.892021	2527.861390
952.192917	2530.225692
952.493776	2530.744930
952.794596	2528.725948
953.095378	2530.991947
953.396122	2530.596216
953.696828	2526.883407
953.997496	2531.264169
954.298126	2528.148736
954.598718	2530.729807
954.899272	2527.700073
955.199788	2528.730989
955.500266	2529.383819
955.800706	2526.338962
956.101108	2526.802748
956.401472	2527.521113
956.701798	2525.431554
957.002087	2525.935670
957.302337	2528.052954
957.602550	2529.058664
957.902724	2527.523633
958.202861	2528.957841
958.502960	2530.697039
958.803022	2528.279806
959.103045	2528.098325
959.403031	2525.605474
959.702979	2528.123530
960.002889	2530.308871
960.302762	2526.381812
960.602596	2528.073119
960.902393	2532.330373
961.202153	2527.947090
961.501875	2527.669827
961.801559	2527.954652
962.101205	2526.263345
962.400814	2525.360978
962.700385	2529.416586
962.999918	2530.762574
963.299414	2527.246370
963.598873	2529.736700
963.898293	2528.075639
964.197677	2524.793848
964.497022	2528.078160
964.796331	2527.798376
965.095601	2527.977337
965.394835	2529.187214
965.694030	2527.500948
965.993189	2528.637728
966.292309	2527.856349
966.591393	2526.129754
966.890439	2527.689991
967.189447	2528.390712
967.488419	2527.720238
967.787353	2525.711338
968.086249	2525.855011
968.385108	2528.269724
968.683930	2528.037831
968.982714	2527.589168
969.281462	2525.880217
969.580172	2529.789632
969.878844	2528.420958
970.177480	2528.226874
970.476078	2527.009435
970.774639	2527.314425
971.073162	2526.359127
971.371649	2523.833508
971.670098	2526.175124
971.968510	2523.883920
972.266885	2523.757891
972.565223	2525.602953
972.863524	2526.817872
973.161788	2527.684950
973.460014	2527.543798
973.758204	2528.068078
974.056356	2527.062367
974.354471	2527.188396
974.652550	2528.753675
974.950591	2526.016328
975.248595	2527.621936
975.546563	2526.046575
975.844493	2527.755526
976.142386	2526.674199
976.440243	2525.734023
976.738062	2529.814837
977.035845	2526.689322
977.333590	2528.468849
977.631299	2527.959693
977.928971	2529.187214
978.226606	2527.135464
978.524204	2529.771988
978.821765	2526.540608
979.119290	2527.541277
979.416777	2527.044723
979.714228	2525.517254
980.011642	2525.794517
980.309020	2531.612009
980.606360	2527.047244
980.903664	2528.761236
981.200931	2528.955321
981.498162	2529.497245
981.795356	2528.758716
982.092513	2528.839374
982.389633	2525.481966
982.686717	2527.856349
982.983764	2528.738551
983.280775	2529.668644
983.577749	2524.766122
983.874686	2531.009591
984.171587	2529.267872
984.468451	2528.448685
984.765279	2529.371216
985.062070	2527.193437
985.358824	2526.333921
985.655543	2526.447347
985.952224	2526.404497
986.248869	2527.569003
986.545478	2521.320493
986.842050	2524.821575
987.138586	2524.108251
987.435086	2526.785104
987.731549	2524.080525
988.027975	2528.678057
988.324366	2526.754857
988.620719	2527.831143
988.917037	2525.948272
989.213318	2527.352234
989.509563	2527.327028
989.805772	2526.467511
990.101944	2528.506658
990.398080	2524.990453
990.694180	2525.504651
990.990244	2524.693025
991.286271	2529.550177
991.582262	2530.036648
991.878217	2524.057840
992.174136	2527.286699
992.470019	2526.608664
992.765865	2525.900382
993.061676	2525.542460
993.357450	2526.384332
993.653188	2527.198479
993.948890	2528.088242
994.244556	2526.772501
994.540186	2527.894158
994.835780	2527.357275
995.131337	2526.268386
995.426859	2528.141174
995.722345	2528.267203
996.017795	2527.453057
996.313208	2527.785773
996.608586	2528.592358
996.903928	2528.655372
997.199234	2524.786287
997.494504	2527.758047
997.789738	2524.516585
998.084936	2526.585978
998.380099	2525.290402
998.675225	2525.814682
998.970316	2526.868283
999.265371	2526.754857
999.560390	2527.206040
999.855373	2526.870804
1000.150320	2526.654034
1000.445232	2529.509848
1000.740108	2525.809641
1001.034948	2526.570855
1001.329752	2527.891637
1001.624521	2525.673530
1001.919254	2523.354599
1002.213951	2525.726462
1002.508613	2521.938035
1002.803239	2523.674712
1003.097829	2523.553724
1003.392384	2527.863911
1003.686903	2526.202851
1003.981386	2526.049096
1004.275834	2523.767973
1004.570246	2527.069929
1004.864623	2526.492717
1005.158964	2526.714528
1005.453270	2525.376102
1005.747540	2525.731503
1006.041775	2524.967768
1006.335974	2526.407017
1006.630138	2527.276617
1006.924266	2526.313756
1007.218359	2526.719569
1007.512416	2526.522964
1007.806438	2526.505320
1008.100425	2526.177645
1008.394376	2524.176307
1008.688292	2526.245701
1008.982172	2524.927439
1009.276017	2526.028931
1009.569827	2526.792666
1009.863602	2528.065557
1010.157341	2525.121523
1010.451045	2524.665299
1010.744714	2526.966586
1011.038347	2524.438447
1011.331945	2524.589682
1011.625508	2526.039013
1011.919036	2527.705115
1012.212528	2526.152439
1012.505986	2525.494569
1012.799408	2525.998684
1013.092795	2525.595392
1013.386147	2523.833508
1013.679464	2528.063037
1013.972745	2524.304856
1014.265992	2524.730834
1014.559204	2528.564631
1014.852380	2527.914322
1015.145521	2526.830474
1015.438628	2525.834847
1015.731699	2527.581606
1016.024736	2524.158663
1016.317737	2526.528005
1016.610703	2526.893489
1016.903635	2523.616739
1017.196531	2520.576923
1017.489393	2527.011956
1017.782219	2523.268899
1018.075011	2524.100690
1018.367768	2524.635052
1018.660490	2524.680422
1018.953177	2524.680422
1019.245829	2524.680422
