Dividing Wavelength (nm)	Counts (n)	Blue Motor Position (mm): 0.000000	Red Motor Position (mm): 18.400000	
326.493990	2130.714249
326.888308	2130.714249
327.282561	2130.714249
327.676750	2096.885586
328.070874	2094.312077
328.464933	2100.414394
328.858929	2104.268356
329.252859	2113.299583
329.646726	2125.158898
330.040528	2139.274128
330.434265	2157.089566
330.827938	2169.505928
331.221547	2190.088959
331.615091	2207.445652
332.008571	2228.711759
332.401986	2248.067270
332.795338	2267.742893
333.188625	2288.399021
333.581847	2305.574232
333.975006	2326.479897
334.368100	2342.367093
334.761129	2360.621112
335.154095	2376.523431
335.546996	2393.703684
335.939833	2409.505180
336.332606	2422.866759
336.725315	2436.538368
337.117960	2446.605552
337.510540	2454.802468
337.903056	2468.106073
338.295508	2474.563791
338.687896	2482.546458
339.080220	2492.475011
339.472480	2498.405928
339.864676	2500.936588
340.256807	2506.058400
340.648875	2506.161744
341.040879	2510.499657
341.432818	2510.429080
341.824694	2515.969308
342.216506	2517.277488
342.608253	2513.461334
342.999937	2515.145080
343.391557	2515.699607
343.783113	2511.618793
344.174605	2510.663494
344.566033	2511.512928
344.957397	2508.100067
345.348697	2506.804491
345.739934	2507.432114
346.131106	2503.401712
346.522215	2504.747700
346.913260	2500.613954
347.304241	2496.699498
347.695159	2497.800990
348.086012	2497.279231
348.476802	2492.744713
348.867528	2491.048364
349.258191	2493.165649
349.648789	2491.378560
350.039324	2488.631131
350.429796	2487.433857
350.820203	2488.462253
351.210548	2484.061325
351.600828	2484.958651
351.991045	2484.325986
352.381198	2485.654330
352.771288	2481.497898
353.161314	2482.906901
353.551276	2480.943372
353.941175	2483.955461
354.331010	2484.051243
354.720782	2484.285657
355.110490	2481.603763
355.500135	2482.599391
355.889717	2482.659884
356.279235	2483.857158
356.668689	2483.103506
357.058080	2483.537045
357.447408	2483.043012
357.836672	2480.358598
358.225873	2482.249030
358.615010	2477.981694
359.004084	2486.508805
359.393095	2486.662561
359.782043	2486.758343
360.170927	2489.331852
360.559748	2487.620380
360.948505	2491.434013
361.337199	2489.979640
361.725830	2488.043837
362.114398	2492.026348
362.502903	2488.195071
362.891344	2494.781339
363.279722	2494.171359
363.668037	2493.442913
364.056289	2490.945021
364.444478	2495.182111
364.832603	2496.339055
365.220665	2497.034735
365.608665	2493.798314
365.996601	2496.951556
366.384474	2499.124293
366.772284	2500.455157
367.160031	2501.370127
367.547715	2502.050683
367.935336	2507.043946
368.322893	2508.029491
368.710388	2513.811695
369.097820	2518.137005
369.485189	2519.717406
369.872495	2524.632531
370.259738	2534.641742
370.646918	2542.085006
371.034035	2547.587425
371.421090	2557.183262
371.808081	2569.171126
372.195010	2575.843093
372.581875	2591.914291
372.968678	2603.214037
373.355418	2614.617127
373.742096	2631.719242
374.128710	2644.339771
374.515262	2662.820641
374.901751	2679.653053
375.288177	2691.081349
375.674540	2714.381562
376.060841	2731.919736
376.447079	2749.994793
376.833254	2768.440375
377.219367	2781.940585
377.605417	2818.834270
377.991404	2829.536639
378.377329	2850.437263
378.763191	2867.957793
379.148991	2907.596386
379.534727	2930.662186
379.920402	2959.437092
380.306013	2972.072744
380.691563	3022.408665
381.077049	3045.252654
381.462474	3060.106413
381.847835	3101.350614
382.233134	3120.091103
382.618371	3119.435753
383.003545	3191.645241
383.388657	3197.868545
383.773706	3229.947928
384.158693	3243.644743
384.543618	3271.708846
384.928480	3308.022798
385.313280	3352.021989
385.698017	3351.225486
386.082692	3402.428486
386.467305	3409.637336
386.851856	3442.984569
387.236344	3463.799493
387.620770	3499.868949
388.005133	3520.731764
388.389435	3549.236968
388.773674	3561.136612
389.157851	3599.038527
389.541965	3619.644243
389.926018	3582.541351
390.310008	3657.284019
390.693936	3669.639887
391.077802	3710.485836
391.461606	3699.690205
391.845348	3761.106582
392.229027	3764.038013
392.612645	3778.934623
392.996200	3853.309286
393.379694	3894.767735
393.763125	3955.891726
394.146494	3923.401489
394.529801	3988.964215
394.913047	4034.778222
395.296230	4001.960310
395.679351	4056.475348
396.062410	4082.442331
396.445408	4059.900812
396.828343	4096.023200
397.211217	4121.659988
397.594028	4034.407697
397.976778	4103.169035
398.359466	4129.284733
398.742092	4157.031243
399.124656	4081.361004
399.507158	4159.390503
399.889598	4181.979914
400.271977	4243.613061
400.654294	4210.538050
401.036549	4222.795616
401.418742	4195.238148
401.800874	4294.450577
402.182944	4315.930933
402.564952	4377.516189
402.946898	4367.567472
403.328783	4357.495247
403.710606	4271.457874
404.092367	4460.675063
404.474067	4424.691307
404.855705	4426.932100
405.237282	4352.517107
405.618797	4455.712047
406.000250	4485.906038
406.381642	4555.184095
406.762972	4512.369575
407.144240	4515.111963
407.525447	4507.214995
407.906593	4556.704003
408.287677	4583.492694
408.668700	4506.229450
409.049661	4543.405439
409.430560	4563.844797
409.811399	4477.865398
410.192176	4613.621150
410.572891	4541.686405
410.953545	4620.141883
411.334138	4492.091534
411.714669	4531.099982
412.095139	4420.045884
412.475547	4516.306716
412.855894	4477.227692
413.236180	4459.177840
413.616405	4396.062594
413.996568	4444.359369
414.376670	4367.532184
414.756711	4302.274448
415.136691	4300.875527
415.516609	4329.511802
415.896466	4326.885361
416.276262	4320.699865
416.655997	4263.896143
417.035670	4365.515723
417.415283	4392.070000
417.794834	4311.807269
418.174324	4241.226074
418.553753	4142.605982
418.933121	4223.879464
419.312428	4219.203794
419.691674	4133.970485
420.070859	4167.350485
420.449983	4070.522523
420.829045	4087.546499
421.208047	3991.426819
421.586988	3978.702947
421.965867	3940.314560
422.344686	3949.507104
422.723444	3833.311029
423.102141	3710.251422
423.480777	3796.213178
423.859352	3650.854027
424.237866	3707.289744
424.616319	3660.006242
424.994712	3655.012979
425.373044	3563.909247
425.751314	3563.135429
426.129524	3450.952112
426.507673	3467.265286
426.885762	3449.316258
427.263789	3382.896535
427.641756	3313.159734
428.019662	3300.554328
428.397508	3262.118051
428.775292	3206.816593
429.153016	3189.810261
429.530679	3139.330667
429.908282	3118.528345
430.285824	3066.453226
430.663305	3072.232909
431.040726	2996.204747
431.418086	2967.606282
431.795385	2956.165383
432.172624	2929.341403
432.549802	2898.539953
432.926920	2873.079606
433.303977	2851.604290
433.680974	2829.539160
434.057910	2810.055100
434.434786	2788.121040
434.811601	2766.433996
435.188355	2764.503234
435.565050	2735.814028
435.941683	2718.696790
436.318257	2713.181767
436.694770	2693.813654
437.071222	2681.672035
437.447614	2664.300219
437.823946	2649.857313
438.200218	2646.910759
438.576429	2634.774181
438.952580	2623.723972
439.328670	2615.844648
439.704700	2606.871395
440.080670	2600.998450
440.456580	2599.982658
440.832429	2588.120823
441.208218	2583.644278
441.583947	2579.959195
441.959616	2575.679255
442.335224	2571.301013
442.710773	2568.755230
443.086261	2565.831361
443.461689	2560.512944
443.837057	2565.135682
444.212365	2561.906823
444.587612	2555.902809
444.962800	2556.664023
445.337927	2559.940773
445.712995	2551.118754
446.088002	2552.983981
446.462949	2553.457849
446.837837	2554.428271
447.212664	2550.657488
447.587431	2551.532128
447.962139	2554.095555
448.336786	2557.866338
448.711374	2557.737789
449.085901	2551.582540
449.460369	2549.097251
449.834776	2549.911397
450.209124	2550.909546
450.583412	2552.116902
450.957640	2552.308466
451.331808	2554.980277
451.705917	2547.133722
452.079965	2547.491643
452.453954	2550.090358
452.827883	2547.721016
453.201752	2546.198587
453.575562	2546.508618
453.949311	2549.200595
454.323001	2546.463248
454.696632	2546.664894
455.070202	2546.228834
455.443713	2548.638506
455.817164	2546.170861
456.190556	2542.939482
456.563888	2544.492157
456.937160	2546.004503
457.310373	2546.627086
457.683526	2546.768238
458.056619	2549.112374
458.429653	2547.957950
458.802628	2547.032898
459.175542	2545.840666
459.548398	2548.693959
459.921194	2549.374514
460.293930	2550.377704
460.666607	2552.658826
461.039224	2554.889537
461.411782	2556.865669
461.784280	2554.854249
462.156719	2552.394166
462.529099	2556.154866
462.901419	2553.218394
463.273680	2552.857952
463.645882	2551.295194
464.018024	2550.314690
464.390106	2552.868034
464.762130	2555.076059
465.134094	2556.933725
465.505999	2562.950342
465.877845	2566.585014
466.249631	2569.367731
466.621358	2568.286403
466.993026	2567.048800
467.364634	2569.708008
467.736184	2566.527040
468.107674	2563.565362
468.479105	2560.669220
468.850477	2561.881617
469.221790	2562.428582
469.593043	2558.471277
469.964238	2561.417831
470.335373	2560.346586
470.706449	2560.412121
471.077467	2559.043447
471.448425	2569.788667
471.819324	2572.273956
472.190164	2571.250602
472.560945	2566.461505
472.931667	2563.920764
473.302330	2561.984961
473.672934	2559.605536
474.043479	2563.512430
474.413965	2561.558983
474.784393	2559.108983
475.154761	2556.747202
475.525070	2561.861453
475.895321	2561.112841
476.265513	2559.333314
476.635645	2566.385888
477.005719	2565.506207
477.375734	2567.759602
477.745691	2564.218192
478.115588	2568.775395
478.485427	2570.232288
478.855207	2574.224882
479.224928	2572.954512
479.594591	2578.565316
479.964194	2576.584142
480.333739	2575.870819
480.703226	2576.034657
481.072653	2577.975501
481.442022	2578.787127
481.811333	2578.197312
482.180584	2578.424163
482.549777	2574.877712
482.918912	2576.425346
483.287988	2576.417784
483.657005	2577.390727
484.025964	2574.544996
484.394864	2577.052970
484.763706	2575.729667
485.132489	2573.703123
485.501213	2575.028946
485.869879	2576.246385
486.238487	2570.890159
486.607036	2572.473081
486.975527	2573.458627
487.343959	2570.776733
487.712333	2572.601631
488.080648	2571.154820
488.448905	2572.064748
488.817104	2572.470561
489.185244	2574.154306
489.553326	2571.313616
489.921350	2573.070458
490.289315	2582.129412
490.657222	2579.354256
491.025070	2579.258474
491.392861	2581.090934
491.760593	2576.717733
492.128267	2576.896694
492.495883	2573.473750
492.863440	2572.815880
493.230939	2572.773030
493.598380	2571.485015
493.965763	2566.378326
494.333088	2567.686506
494.700354	2566.254818
495.067563	2569.768502
495.434713	2563.333469
495.801805	2569.705488
496.168839	2569.854202
496.535815	2570.280179
496.902733	2571.679100
497.269593	2569.516445
497.636395	2567.036197
498.003139	2569.692885
498.369825	2567.565518
498.736453	2571.159861
499.103023	2569.347566
499.469535	2567.620971
499.835989	2570.590210
500.202385	2570.607854
500.568723	2569.884449
500.935003	2571.205231
501.301226	2569.738255
501.667390	2571.847978
502.033497	2572.415108
502.399546	2567.827658
502.765537	2567.915878
503.131470	2567.411763
503.497345	2571.495097
503.863163	2570.804459
504.228923	2572.168092
504.594625	2569.178687
504.960269	2569.947463
505.325856	2571.129614
505.691385	2570.113821
506.056856	2569.576938
506.422270	2572.218503
506.787625	2569.758420
507.152924	2572.336970
507.518164	2572.415108
507.883347	2569.415622
508.248472	2572.016857
508.613540	2573.287228
508.978550	2569.360169
509.343503	2573.209090
509.708398	2573.567012
510.073236	2572.712536
510.438016	2572.732701
510.802738	2576.125397
511.167403	2573.093143
511.532010	2571.232957
511.896561	2574.476940
512.261053	2574.469378
512.625488	2571.111970
512.989866	2569.521486
513.354186	2570.912844
513.718449	2565.642318
514.082655	2572.301682
514.446803	2574.492063
514.810894	2572.473081
515.174927	2574.176991
515.538904	2574.028277
515.902822	2575.550706
516.266684	2575.109605
516.630488	2571.825293
516.994235	2575.454924
517.357925	2575.613720
517.721558	2575.775037
518.085133	2572.344532
518.448651	2575.820407
518.812112	2575.386868
519.175516	2574.010633
519.538863	2574.580284
519.902152	2573.609862
520.265385	2574.804615
520.628560	2576.649677
520.991678	2573.211610
521.354739	2577.428536
521.717743	2572.213462
522.080690	2573.970304
522.443580	2573.811508
522.806413	2574.366035
523.169189	2578.691345
523.531908	2576.755542
523.894569	2573.158678
524.257174	2575.580953
524.619722	2572.878894
524.982213	2574.129100
525.344647	2575.732187
525.707025	2572.468040
526.069345	2575.212948
526.431608	2577.486509
526.793815	2576.453072
527.155964	2576.425346
527.518057	2576.120356
527.880093	2577.100861
528.242072	2575.442321
528.603995	2578.199832
528.965860	2574.280335
529.327669	2577.494071
529.689421	2576.206056
530.051117	2574.938206
530.412755	2572.825962
530.774337	2576.367373
531.135862	2574.998699
531.497331	2572.188256
531.858743	2570.754048
532.220098	2574.608010
532.581396	2570.312947
532.942638	2571.817731
533.303824	2574.986097
533.664953	2571.086764
534.026025	2571.729511
534.387040	2576.624472
534.747999	2574.217321
535.108902	2572.866291
535.469748	2575.732187
535.830537	2572.906621
536.191270	2572.773030
536.551947	2573.188925
536.912567	2575.951477
537.273131	2574.824780
537.633638	2572.226065
537.994089	2573.204049
538.354483	2574.713874
538.714821	2575.263360
539.075103	2575.217990
539.435328	2573.410736
539.795497	2574.877712
540.155609	2573.713205
540.515665	2576.206056
540.875665	2573.357804
541.235609	2574.330747
541.595496	2572.876374
541.955328	2576.289235
542.315102	2576.942064
542.674821	2573.861919
543.034483	2575.729667
543.394090	2573.841755
543.753640	2575.449883
544.113134	2570.547361
544.472571	2575.235634
544.831953	2572.062227
545.191278	2573.055335
545.550548	2573.776220
545.909761	2573.347722
546.268918	2573.589697
546.628019	2574.605489
546.987064	2572.780592
547.346053	2575.144893
547.704986	2572.483164
548.063863	2575.633885
548.422684	2574.902917
548.781449	2570.935529
549.140158	2575.149934
549.498811	2574.076168
549.857408	2573.304872
550.215949	2569.874367
550.574434	2569.876887
550.932864	2569.662638
551.291237	2567.938563
551.649555	2573.831672
552.007817	2570.872515
552.366022	2575.896025
552.724173	2573.090623
553.082267	2573.682958
553.440305	2577.902404
553.798288	2573.201528
554.156215	2575.394430
554.514086	2572.704974
554.871902	2574.892835
555.229661	2574.837382
555.587365	2572.974676
555.945014	2574.527352
556.302606	2574.517269
556.660143	2572.344532
557.017625	2572.974676
557.375050	2574.940726
557.732421	2571.951322
558.089735	2573.365366
558.446994	2574.371076
558.804197	2571.858061
559.161345	2573.186405
559.518437	2574.837382
559.875474	2572.425190
560.232455	2573.017526
560.589381	2569.929819
560.946251	2575.522979
561.303065	2573.438462
561.659825	2574.678586
562.016528	2572.014336
562.373177	2570.489387
562.729770	2571.485015
563.086307	2575.190263
563.442789	2571.520303
563.799216	2575.260839
564.155587	2571.550550
564.511904	2571.558112
564.868164	2570.474264
565.224370	2572.974676
565.580520	2571.714388
565.936615	2569.912175
566.292654	2571.507700
566.648638	2574.308061
567.004567	2570.950653
567.360441	2572.730180
567.716260	2571.222875
568.072023	2569.745817
568.427732	2567.220199
568.783385	2568.742627
569.138982	2570.103739
569.494525	2571.109449
569.850013	2569.743297
570.205445	2568.614078
570.560823	2571.404357
570.916145	2570.882597
571.271412	2571.207752
571.626625	2572.873853
571.981782	2571.880746
572.336884	2572.447876
572.691931	2570.935529
573.046923	2570.270097
573.401860	2569.526527
573.756743	2569.856723
574.111570	2569.944943
574.466342	2571.167422
574.821059	2568.941753
575.175722	2570.885118
575.530330	2570.565005
575.884882	2567.570559
576.239380	2569.062741
576.593823	2570.176836
576.948211	2568.603996
577.302544	2571.137176
577.656823	2568.616599
578.011047	2569.927299
578.365216	2566.902606
578.719330	2570.106260
579.073389	2568.460323
579.427394	2567.290775
579.781344	2568.921588
580.135239	2568.195662
580.489080	2568.525858
580.842866	2567.079047
581.196597	2569.861764
581.550273	2567.626012
581.903895	2567.588203
582.257463	2569.337484
582.610975	2566.630384
582.964434	2569.675241
583.317837	2567.603327
583.671186	2570.005437
584.024481	2567.537792
584.377721	2571.089285
584.730906	2567.353790
585.084037	2568.480487
585.437113	2566.085939
585.790135	2565.798594
586.143103	2567.454613
586.496016	2566.136351
586.848874	2562.771381
587.201679	2563.855229
587.554428	2561.874055
587.907124	2563.136864
588.259765	2561.843808
588.612352	2568.455282
588.964884	2565.365054
589.317362	2566.998388
589.669786	2564.218192
590.022155	2567.711712
590.374470	2564.064437
590.726731	2566.890003
591.078937	2564.389591
591.431090	2565.985116
591.783188	2565.019735
592.135232	2566.363203
592.487222	2565.503686
592.839157	2567.147102
593.191038	2565.198696
593.542866	2565.244067
593.894639	2567.189952
594.246358	2564.470250
594.598022	2565.864129
594.949633	2564.853377
595.301190	2566.050651
595.652692	2566.050651
596.004141	2565.246587
596.355535	2565.380178
596.706876	2564.394632
597.058162	2565.118038
597.409395	2564.059396
597.760573	2562.224416
598.111698	2560.623849
598.462768	2562.741134
598.813785	2564.082081
599.164748	2562.771381
599.515657	2561.969837
599.866511	2563.656103
600.217312	2562.244580
600.568060	2562.393294
600.918753	2563.870352
601.269392	2562.748696
601.619978	2562.078222
601.970510	2562.718449
602.320988	2560.891030
602.671412	2564.361865
603.021783	2562.073181
603.372100	2561.929508
603.722363	2561.183417
604.072572	2563.386402
604.422728	2565.632236
604.772830	2558.352809
605.122878	2558.672923
605.472872	2560.631411
605.822813	2555.338199
606.172701	2558.700649
606.522534	2559.870197
606.872314	2562.428582
607.222041	2561.425393
607.571714	2563.514951
607.921333	2560.969168
608.270899	2559.373643
608.620411	2564.069478
608.969870	2562.685681
609.319276	2563.267934
609.668627	2565.904458
610.017926	2568.016701
610.367171	2571.290931
610.716362	2567.348748
611.065500	2566.239695
611.414585	2566.811866
611.763616	2564.855898
612.112594	2567.134499
612.461518	2564.704663
612.810389	2562.650393
613.159207	2564.802966
613.507971	2562.302553
613.856682	2563.630898
614.205340	2564.137533
614.553945	2564.387071
614.902496	2561.397666
615.250994	2565.569221
615.599439	2563.726679
615.947830	2562.816751
616.296169	2560.916236
616.644454	2562.168963
616.992686	2561.236349
617.340864	2564.727348
617.688990	2558.801472
618.037063	2562.158881
618.385082	2559.850032
618.733048	2565.188614
619.080961	2563.782132
619.428821	2565.733059
619.776628	2562.441185
620.124382	2563.341031
620.472083	2563.787173
620.819731	2562.088304
621.167326	2561.760629
621.514868	2560.258366
621.862357	2560.175187
622.209793	2561.417831
622.557176	2562.917574
622.904506	2559.217367
623.251783	2557.962120
623.599007	2556.729558
623.946179	2556.535473
624.293297	2556.953889
624.640363	2560.218036
624.987376	2561.243911
625.334336	2560.250804
625.681243	2559.489590
626.028097	2558.327604
626.374899	2560.402038
626.721647	2560.951524
627.068343	2555.844835
627.414987	2558.536812
627.761577	2557.122768
628.108115	2559.101421
628.454600	2557.906667
628.801032	2556.643858
629.147412	2561.112841
629.493739	2557.510937
629.840014	2560.412121
630.186236	2560.374312
630.532405	2557.100083
630.878521	2558.423386
631.224585	2557.999929
631.570597	2558.446071
631.916556	2557.911708
632.262462	2555.965823
632.608316	2557.140412
632.954117	2556.056564
633.299866	2558.045299
633.645562	2554.763508
633.991206	2558.990515
634.336797	2559.897923
634.682336	2558.806513
635.027823	2554.307283
635.373257	2556.664023
635.718639	2552.305945
636.063968	2555.612942
636.409245	2554.498847
636.754470	2554.619835
637.099642	2555.514640
637.444762	2557.037068
637.789829	2556.149825
638.134845	2556.482541
638.479808	2555.192006
638.824719	2553.344423
639.169577	2555.335679
639.514383	2552.560524
639.859137	2555.509599
640.203839	2553.142777
640.548489	2554.634958
640.893086	2553.014227
641.237632	2547.463917
641.582125	2550.889381
641.926566	2549.540872
642.270955	2554.957592
642.615292	2552.431974
642.959576	2551.743857
643.303809	2553.210832
643.647990	2553.616645
643.992118	2552.268137
644.336195	2554.030020
644.680219	2551.133877
645.024192	2552.172355
645.368112	2550.765873
645.711981	2555.723848
646.055797	2555.849877
646.399562	2553.493137
646.743274	2553.987170
647.086935	2554.942469
647.430544	2552.893240
647.774101	2555.678477
648.117606	2555.212171
648.461059	2555.890206
648.804460	2557.707542
649.147810	2553.193188
649.491108	2553.924156
649.834354	2555.716286
650.177548	2552.280740
650.520690	2555.799465
650.863781	2553.261244
651.206820	2555.633107
651.549807	2553.288970
651.892742	2554.032541
652.235626	2551.365770
652.578458	2554.942469
652.921238	2552.706717
653.263967	2555.181924
653.606644	2550.665050
653.949269	2554.060267
654.291843	2551.577499
654.634365	2553.475493
654.976836	2549.704710
655.319255	2553.004145
655.661622	2553.079763
656.003938	2550.675132
656.346203	2551.688404
656.688416	2552.797458
657.030577	2551.343085
657.372687	2549.709751
657.714746	2549.130018
658.056753	2553.752757
658.398708	2549.124977
658.740612	2550.460883
659.082465	2545.424770
659.424266	2547.395862
659.766016	2548.058773
660.107715	2549.503064
660.449362	2549.498023
660.790958	2552.129505
661.132503	2553.392314
661.473996	2553.372149
661.815438	2550.753270
662.156829	2555.257541
662.498168	2551.574978
662.839456	2551.343085
663.180693	2549.752601
663.521879	2554.264434
663.863013	2553.682180
664.204097	2549.205636
664.545129	2552.031202
664.886110	2552.847869
665.227040	2551.879968
665.567918	2553.420040
665.908746	2551.035575
666.249522	2553.379711
666.590248	2551.176727
666.930922	2550.405430
667.271545	2552.142108
667.612118	2551.882488
667.952639	2553.520863
668.293109	2551.547252
668.633528	2550.125646
668.973896	2551.688404
669.314213	2550.874258
669.654480	2553.646892
669.994695	2552.318548
670.334859	2552.563044
670.674973	2551.166645
671.015035	2551.098589
671.355047	2550.108002
671.695008	2550.589433
672.034918	2551.035575
672.374777	2549.515667
672.714585	2551.028013
673.054342	2553.472973
673.394049	2551.189330
673.733705	2551.103630
674.073310	2551.625390
674.412864	2553.803168
674.752368	2551.118754
675.091820	2549.835780
675.431223	2550.133208
675.770574	2550.319731
676.109875	2545.618855
676.449125	2548.018444
676.788324	2545.346632
677.127473	2552.691594
677.466571	2543.670449
677.805619	2548.792261
678.144616	2551.690925
678.483562	2551.282591
678.822458	2551.494320
679.161303	2549.969371
679.500098	2549.455173
679.838842	2547.443753
680.177535	2550.672612
680.516179	2549.419885
680.854771	2550.289484
681.193314	2551.484237
681.531805	2551.113712
681.870247	2552.918446
682.208638	2551.393497
682.546978	2550.264278
682.885268	2550.849052
683.223508	2551.935421
683.561697	2550.337375
683.899836	2553.130174
684.237925	2551.012889
684.575963	2550.249155
684.913951	2549.112374
685.251889	2550.292004
685.589776	2551.839639
685.927614	2548.948537
686.265401	2551.262427
686.603137	2549.339226
686.940824	2553.049516
687.278460	2549.308979
687.616046	2550.176058
687.953582	2551.126315
688.291068	2549.717313
688.628504	2552.527756
688.965889	2552.053888
689.303224	2553.704866
689.640510	2552.300904
689.977745	2553.467931
690.314930	2551.269988
690.652065	2550.907025
690.989150	2549.132539
691.326185	2548.749411
691.663170	2548.822508
692.000105	2547.252189
692.336990	2548.635985
692.673825	2548.651109
693.010610	2548.431819
693.347345	2546.203629
693.684030	2543.204142
694.020665	2546.619524
694.357251	2542.795809
694.693786	2545.785213
695.030272	2544.305634
695.366707	2547.726057
695.703093	2546.362425
696.039429	2547.232024
696.375716	2547.632796
696.711952	2545.555840
697.048139	2547.179092
697.384276	2548.144473
697.720363	2546.422919
698.056400	2544.832435
698.392388	2546.881664
698.728326	2546.291849
699.064214	2544.116591
699.400053	2547.471479
699.735842	2547.131201
700.071581	2544.734132
700.407270	2544.401416
700.742910	2546.435522
701.078501	2547.035419
701.414042	2545.250851
701.749533	2541.764893
702.084974	2545.560882
702.420366	2547.295038
702.755709	2545.192877
703.091002	2543.375541
703.426246	2546.722868
703.761440	2544.076262
704.096584	2543.448638
704.431679	2543.960315
704.766725	2546.259081
705.101721	2544.199770
705.436668	2544.751776
705.771565	2545.628937
706.106413	2544.850079
706.441212	2545.041643
706.775961	2543.766231
707.110661	2546.823691
707.445311	2545.724719
707.779913	2544.290511
708.114465	2546.589277
708.448967	2545.321427
708.783421	2541.984183
709.117825	2545.316386
709.452180	2545.397044
709.786485	2546.460727
710.120742	2546.508618
710.454949	2548.986346
710.789107	2544.161961
711.123216	2543.113401
711.457275	2545.775131
711.791286	2544.129194
712.125247	2543.614996
712.459159	2549.165307
712.793023	2549.079607
713.126837	2548.963660
713.460602	2546.720347
713.794318	2548.210008
714.127985	2549.394679
714.461602	2545.921324
714.795171	2545.956612
715.128691	2546.332178
715.462162	2547.494164
715.795584	2547.345450
716.128957	2546.243958
716.462281	2544.766900
716.795556	2545.802857
717.128782	2546.397713
717.461960	2545.195398
717.795088	2545.046684
718.128167	2545.036602
718.461198	2545.376879
718.794180	2544.759338
719.127113	2544.313196
719.459997	2543.783875
719.792833	2545.220604
720.125619	2544.517363
720.458357	2545.132383
720.791046	2545.913762
721.123686	2543.592311
721.456278	2543.970397
721.788821	2543.476364
722.121315	2543.620037
722.453761	2542.453010
722.786158	2543.105840
723.118506	2542.105171
723.450805	2542.316899
723.783056	2543.685572
724.115259	2543.337733
724.447412	2543.083154
724.779518	2544.230017
725.111574	2542.521066
725.443582	2541.149872
725.775542	2542.339584
726.107453	2544.149358
726.439315	2543.975439
726.771129	2545.485264
727.102895	2545.613814
727.434612	2542.205994
727.766281	2544.403937
728.097901	2545.099616
728.429473	2540.285314
728.760996	2542.639533
729.092471	2538.228523
729.423897	2544.892929
729.755276	2541.810263
730.086606	2543.783875
730.417887	2544.499719
730.749120	2542.586601
731.080305	2542.818494
731.411442	2545.099616
731.742530	2547.158927
732.073570	2545.631458
732.404562	2543.030222
732.735506	2544.267826
733.066401	2544.739173
733.397249	2542.843700
733.728048	2543.047866
734.058798	2541.099460
734.389501	2541.575849
734.720156	2542.909235
735.050762	2541.938812
735.381320	2540.383617
735.711831	2542.092568
736.042293	2543.352856
736.372707	2540.701209
736.703073	2540.544933
737.033391	2541.313709
737.363661	2543.882177
737.693883	2541.911086
738.024056	2544.940820
738.354182	2543.057949
738.684260	2545.419729
739.014290	2541.684234
739.344272	2543.317568
739.674207	2542.342105
740.004093	2544.963505
740.333931	2541.522917
740.663722	2544.562733
740.993464	2541.084337
741.323159	2543.403268
741.652806	2541.596014
741.982405	2543.103319
742.311956	2544.146838
742.641460	2543.652805
742.970915	2542.838658
743.300323	2540.376055
743.629683	2542.067362
743.958996	2542.001827
744.288260	2543.083154
744.617477	2545.076931
744.946647	2536.658204
745.275768	2538.052083
745.604842	2536.968235
745.933869	2539.440921
746.262847	2535.559232
746.591778	2543.138607
746.920662	2540.416384
747.249498	2544.444266
747.578286	2543.589790
747.907027	2541.212886
748.235720	2541.228010
748.564365	2544.870243
748.892963	2541.046528
749.221514	2541.394368
749.550017	2543.264636
749.878473	2541.689275
750.206881	2540.078627
750.535242	2537.958822
750.863555	2543.541899
751.191821	2540.998637
751.520039	2539.350180
751.848210	2539.607279
752.176334	2542.747918
752.504411	2542.006868
752.832440	2543.773793
753.160421	2541.356559
753.488356	2543.022661
753.816243	2541.139790
754.144082	2538.994779
754.471875	2539.352701
754.799620	2541.701878
755.127318	2538.835982
755.454969	2540.620551
755.782572	2544.376210
756.110129	2540.428987
756.437638	2539.632485
756.765100	2541.837989
757.092515	2541.409491
757.419882	2539.698020
757.747203	2538.571322
758.074477	2538.631816
758.401703	2541.389327
758.728882	2541.084337
759.056014	2540.048380
759.383099	2543.146169
759.710138	2543.131045
760.037129	2539.277083
760.364073	2542.435366
760.690970	2541.157434
761.017820	2541.298586
761.344623	2540.970911
761.671379	2538.402443
761.998088	2537.316074
762.324751	2541.439738
762.651366	2540.809594
762.977935	2548.391489
763.304456	2545.596170
763.630931	2550.138249
763.957359	2547.897456
764.283740	2546.964843
764.610074	2547.113557
764.936362	2543.362938
765.262602	2542.011909
765.588796	2541.444779
765.914943	2538.682227
766.241044	2542.621889
766.567097	2541.036446
766.893104	2541.911086
767.219064	2541.059131
767.544978	2539.002340
767.870845	2540.834800
768.196665	2538.185673
768.522438	2540.970911
768.848165	2538.415046
769.173846	2540.423946
769.499479	2538.175591
769.825066	2539.146013
770.150607	2538.614172
770.476101	2536.892618
770.801548	2538.339429
771.126949	2538.074768
771.452303	2541.273380
771.777611	2539.239275
772.102872	2538.999820
772.428087	2536.963194
772.753256	2539.166178
773.078378	2538.450334
773.403453	2536.869932
773.728482	2537.111908
774.053465	2537.396733
774.378401	2538.851106
774.703291	2537.593338
775.028135	2536.736342
775.352932	2537.424459
775.677683	2536.660724
776.002388	2536.224665
776.327046	2535.589479
776.651658	2539.342618
776.976224	2537.111908
777.300743	2540.050900
777.625216	2538.349511
777.949643	2538.951929
778.274024	2538.493184
778.598359	2535.826413
778.922647	2532.940353
779.246889	2536.529654
779.571086	2528.844415
779.895236	2537.658873
780.219339	2537.011085
780.543397	2537.235416
780.867409	2534.916485
781.191374	2536.138965
781.515294	2538.432690
781.839167	2539.050231
782.162995	2536.350693
782.486776	2536.234747
782.810511	2534.263656
783.134201	2536.912782
783.457844	2538.583925
783.781441	2536.002854
784.104993	2536.915303
784.428498	2536.925385
784.751958	2536.733821
785.075372	2535.473533
785.398739	2537.777340
785.722061	2537.013605
786.045337	2535.637370
786.368568	2540.915458
786.691752	2534.641742
787.014891	2538.583925
787.337983	2537.527803
787.661030	2537.623585
787.984031	2537.792463
788.306987	2539.476209
788.629897	2540.219779
788.952760	2537.056455
789.275579	2542.021992
789.598351	2540.504604
789.921078	2538.107536
790.243759	2538.425128
790.566395	2538.200797
790.888984	2537.318595
791.211529	2537.336239
791.534027	2539.098122
791.856480	2538.493184
792.178888	2538.790612
792.501249	2537.737011
792.823566	2535.975127
793.145836	2537.336239
793.468062	2534.382123
793.790241	2535.556712
794.112375	2535.692823
794.434464	2537.726928
794.756507	2539.156096
795.078505	2536.053265
795.400457	2535.778523
795.722364	2532.327853
796.044226	2536.819521
796.366042	2533.789787
796.687812	2535.455889
797.009538	2536.660724
797.331218	2537.542926
797.652852	2537.429500
797.974442	2537.573173
798.295986	2537.938657
798.617484	2537.484953
798.938938	2539.340098
799.260346	2537.971424
799.581709	2537.096784
799.903026	2538.001671
800.224299	2537.759696
800.545526	2536.932947
800.866708	2536.138965
801.187845	2538.034439
801.508936	2537.583256
801.829983	2538.246167
802.150984	2535.395395
802.471940	2539.004861
802.792851	2535.899510
803.113717	2537.369007
803.434538	2537.008564
803.755314	2536.267514
804.076045	2536.761547
804.396731	2539.398071
804.717372	2534.109901
805.037967	2537.051414
805.358518	2536.811959
805.679024	2538.825900
805.999485	2534.946732
806.319901	2537.684079
806.640272	2534.172915
806.960598	2535.355066
807.280879	2536.275076
807.601115	2535.985210
807.921306	2540.008051
808.241453	2536.141486
808.561554	2536.451517
808.881611	2538.382278
809.201623	2533.479756
809.521590	2537.121990
809.841513	2538.031918
810.161390	2535.970086
810.481223	2536.748945
810.801011	2536.436393
811.120755	2535.823893
811.440453	2536.945550
811.760107	2538.130221
812.079716	2534.462781
812.399281	2534.551002
812.718801	2532.789118
813.038276	2532.784077
813.357707	2535.609644
813.677093	2535.281969
813.996434	2536.416228
814.315731	2536.620395
814.634983	2538.470499
814.954191	2538.226003
815.273354	2537.426980
815.592473	2534.382123
815.911547	2536.383461
816.230577	2536.179294
816.549562	2538.256250
816.868502	2536.272556
817.187399	2536.194418
817.506250	2535.297092
817.825058	2536.600231
818.143821	2535.317257
818.462539	2537.348842
818.781213	2536.542257
819.099843	2538.236085
819.418429	2537.827752
819.736970	2540.098791
820.055466	2540.015612
820.373919	2542.626930
820.692327	2539.882022
821.010691	2545.155069
821.329011	2552.565565
821.647286	2565.818758
821.965517	2580.279308
822.283704	2591.082501
822.601847	2592.756164
822.919945	2587.571337
823.237999	2578.769483
823.556010	2568.404870
823.873976	2562.110990
824.191897	2555.401214
824.509775	2552.124464
824.827609	2551.484237
825.145398	2546.921993
825.463144	2547.481561
825.780845	2547.196736
826.098502	2550.501212
826.416116	2553.178065
826.733685	2556.885834
827.051210	2558.758622
827.368692	2557.377346
827.686129	2550.097920
828.003522	2548.542724
828.320872	2538.566281
828.638177	2540.096271
828.955439	2539.322454
829.272656	2537.956301
829.589830	2536.086033
829.906960	2539.065355
830.224046	2538.042001
830.541088	2538.798174
830.858086	2537.553009
831.175041	2536.832124
831.491952	2536.358255
831.808819	2536.234747
832.125642	2535.539068
832.442421	2539.239275
832.759157	2540.507125
833.075849	2542.803370
833.392497	2546.115408
833.709101	2548.288146
834.025662	2548.918290
834.342179	2542.889070
834.658653	2541.026364
834.975083	2541.495191
835.291469	2544.716488
835.607811	2539.360262
835.924110	2537.474871
836.240366	2535.423121
836.556578	2536.413708
836.872746	2536.869932
837.188871	2536.713657
837.504952	2536.547298
837.820990	2536.476722
838.136984	2531.304498
838.452935	2535.806249
838.768842	2538.147865
839.084706	2535.506300
839.400526	2537.658873
839.716303	2538.737680
840.032037	2539.622402
840.347727	2538.236085
840.663373	2537.331198
840.978977	2538.644418
841.294537	2536.567463
841.610054	2536.736342
841.925527	2536.302802
842.240957	2535.571835
842.556344	2534.931609
842.871687	2534.593851
843.186987	2535.496218
843.502244	2532.879859
843.817458	2535.186187
844.132629	2533.492359
844.447756	2534.936650
844.762840	2528.627646
845.077881	2532.771474
845.392879	2529.358613
845.707833	2531.659900
846.022745	2528.998171
846.337613	2533.661238
846.652438	2533.446989
846.967221	2533.262987
847.281960	2532.426155
847.596656	2534.107380
847.911309	2533.320960
848.225919	2533.714170
848.540485	2534.666948
848.855009	2532.940353
849.169490	2530.208048
849.483928	2533.688964
849.798323	2531.571680
850.112675	2534.984541
850.426984	2533.265507
850.741251	2534.679551
851.055474	2534.729962
851.369654	2532.675692
851.683792	2533.547812
851.997887	2535.720549
852.311938	2530.576052
852.625947	2534.230888
852.939914	2534.603934
853.253837	2535.556712
853.567718	2535.314736
853.881555	2532.952956
854.195350	2532.973120
854.509103	2532.378264
854.822812	2530.369364
855.136479	2532.138809
855.450103	2533.008408
855.763685	2531.982534
856.077224	2533.625950
856.390720	2533.653676
856.704173	2532.582431
857.017584	2530.354241
857.330953	2532.095960
857.644278	2531.458254
857.957561	2534.649304
858.270802	2533.149561
858.584000	2531.624612
858.897155	2532.249715
859.210268	2531.654859
859.523339	2533.288192
859.836367	2531.846422
860.149352	2532.816845
860.462295	2533.411701
860.775195	2529.204858
861.088054	2529.129241
861.400869	2529.648479
861.713642	2530.137471
862.026373	2533.036135
862.339062	2533.023532
862.651708	2531.682585
862.964312	2533.789787
863.276873	2530.840712
863.589392	2532.322812
863.901869	2531.496062
864.214303	2531.022194
864.526696	2534.843388
864.839045	2533.709129
865.151353	2532.756351
865.463619	2533.653676
865.775842	2532.070754
866.088023	2530.999509
866.400162	2533.401618
866.712258	2532.469005
867.024313	2534.079654
867.336325	2533.837678
867.648296	2532.131248
867.960224	2532.148892
868.272110	2531.720394
868.583954	2534.097298
868.895755	2534.792977
869.207515	2531.589324
869.519233	2533.983872
869.830909	2532.779036
870.142542	2532.156453
870.454134	2530.926412
870.765684	2534.566125
871.077191	2533.023532
871.388657	2536.638039
871.700081	2531.874149
872.011463	2532.080836
872.322803	2534.243491
872.634101	2532.388347
872.945357	2533.988913
873.256571	2535.196269
873.567744	2530.976823
873.878874	2533.240302
874.189963	2534.815662
874.501010	2534.893800
874.812015	2535.418080
875.122979	2534.273738
875.433900	2533.305837
875.744780	2534.835827
876.055618	2533.890610
876.366415	2533.973789
876.677169	2533.817514
876.987882	2530.651669
877.298554	2527.994981
877.609183	2532.043028
877.919771	2531.667462
878.230317	2532.746268
878.540822	2536.995961
878.851285	2534.218285
879.161707	2537.792463
879.472087	2538.432690
879.782425	2535.355066
880.092722	2542.218597
880.402977	2544.935778
880.713191	2553.014227
881.023363	2561.327090
881.333494	2567.636094
881.643583	2570.333112
881.953631	2567.855384
882.263637	2564.868501
882.573602	2561.458160
882.883526	2557.100083
883.193408	2555.464228
883.503248	2551.766542
883.813048	2547.922662
884.122806	2545.208001
884.432522	2545.344112
884.742197	2540.940664
885.051831	2540.255067
885.361424	2536.771630
885.670975	2538.699871
885.980485	2536.668286
886.289954	2540.318082
886.599382	2536.801877
886.908768	2537.837834
887.218113	2536.194418
887.527417	2536.491846
887.836680	2534.341794
888.145901	2535.413039
888.455082	2534.855991
888.764221	2536.083512
889.073319	2532.055630
889.382376	2535.082843
889.691392	2532.249715
890.000366	2535.430683
890.309300	2535.430683
890.618193	2533.197452
890.927044	2532.829448
891.235855	2533.522606
891.544625	2534.263656
891.853353	2532.829448
892.162041	2536.025539
892.470687	2534.361958
892.779293	2535.511341
893.087858	2533.530168
893.396381	2532.269879
893.704864	2539.062834
894.013306	2533.512524
894.321707	2542.387475
894.630068	2544.414019
894.938387	2544.023330
895.246665	2543.854451
895.554903	2542.815973
895.863100	2542.687424
896.171256	2540.096271
896.479371	2538.223482
896.787446	2536.368338
897.095480	2536.149047
897.403473	2536.663245
897.711425	2536.774150
898.019336	2535.350024
898.327207	2535.249201
898.635038	2538.357073
898.942827	2534.326670
899.250576	2534.493028
899.558284	2533.446989
899.865952	2535.034952
900.173579	2534.475384
900.481165	2533.278110
900.788711	2531.957328
901.096216	2533.149561
901.403681	2533.570497
901.711105	2532.842050
902.018489	2532.635363
902.325832	2536.179294
902.633135	2534.823224
902.940397	2532.784077
903.247619	2534.692154
903.554800	2536.711136
903.861941	2542.531148
904.169041	2547.952909
904.476101	2549.198074
904.783121	2549.863506
905.090100	2545.412168
905.397039	2541.124666
905.703938	2541.134748
906.010796	2537.369007
906.317614	2533.875487
906.624391	2537.895807
906.931129	2536.988399
907.237826	2533.807431
907.544483	2532.768954
907.851099	2534.853471
908.157675	2533.668800
908.464211	2530.233253
908.770707	2526.626308
909.077163	2528.604961
909.383578	2528.743592
909.689954	2528.776360
909.996289	2527.216123
910.302584	2531.559077
910.608839	2530.686957
910.915054	2531.806093
911.221229	2529.398942
911.527363	2529.648479
911.833458	2531.506145
912.139513	2532.264838
912.445527	2533.046217
912.751502	2531.700229
913.057436	2532.726104
913.363331	2533.787267
913.669186	2532.819365
913.975000	2534.588810
914.280775	2534.465302
914.586510	2535.566794
914.892205	2535.168543
915.197859	2537.605941
915.503475	2544.608103
915.809050	2547.131201
916.114585	2547.932744
916.420081	2544.988711
916.725536	2545.129863
917.030952	2544.439225
917.336328	2541.926210
917.641665	2542.755479
917.946961	2542.049718
918.252218	2536.421270
918.557435	2537.210210
918.862612	2536.529654
919.167750	2535.125693
919.472848	2535.244160
919.777906	2532.537061
920.082925	2533.230219
920.387904	2532.423635
920.692843	2532.547143
920.997743	2533.076464
921.302603	2530.719725
921.607423	2533.941022
921.912204	2533.946063
922.216946	2530.182842
922.521647	2530.901206
922.826310	2531.634694
923.130932	2533.162164
923.435516	2530.533202
923.740059	2529.782070
924.044564	2530.480270
924.349028	2532.595034
924.653454	2525.970958
924.957840	2527.463139
925.262186	2526.953983
925.566493	2528.607481
925.870761	2527.795855
926.174989	2530.946577
926.479178	2530.160157
926.783328	2526.767460
927.087438	2532.239633
927.391509	2530.870959
927.695541	2530.949097
927.999533	2529.353572
928.303486	2529.663603
928.607400	2529.905578
928.911275	2528.983047
929.215110	2531.596885
929.518906	2530.732328
929.822663	2531.107893
930.126381	2528.032790
930.430060	2530.147554
930.733699	2528.385670
931.037299	2530.200486
931.340861	2532.413552
931.644383	2530.132430
931.947866	2529.247708
932.251309	2532.383305
932.554714	2528.667975
932.858080	2529.620753
933.161407	2529.474560
933.464694	2531.531350
933.767943	2528.110927
934.071153	2530.049251
934.374323	2529.285516
934.677455	2531.533871
934.980548	2529.335928
935.283602	2531.959848
935.586617	2528.453726
935.889593	2529.608150
936.192530	2529.514889
936.495428	2531.417924
936.798287	2529.988757
937.101108	2531.551515
937.403890	2533.134437
937.706632	2529.756864
938.009336	2531.397760
938.312002	2529.784591
938.614628	2529.832482
938.917216	2527.821061
939.219765	2530.903727
939.522275	2530.165198
939.824747	2530.054292
940.127179	2527.669827
940.429573	2526.633869
940.731929	2529.822399
941.034246	2525.459281
941.336524	2529.988757
941.638763	2528.136133
941.940964	2529.542615
942.243126	2532.015301
942.545250	2534.107380
942.847335	2532.317770
943.149381	2530.886083
943.451389	2529.794673
943.753359	2530.276103
944.055290	2531.765764
944.357182	2529.398942
944.659036	2528.211751
944.960851	2529.835002
945.262628	2530.563449
945.564367	2530.455064
945.866067	2531.995137
946.167729	2530.482790
946.469352	2528.940197
946.770937	2530.878521
947.072484	2530.389529
947.373992	2531.793490
947.675462	2527.369878
947.976893	2530.097142
948.278286	2528.635208
948.579641	2531.017153
948.880958	2529.071267
949.182236	2529.779549
949.483476	2528.519261
949.784678	2529.898017
950.085841	2526.588499
950.386967	2530.145033
950.688054	2528.236956
950.989103	2528.166380
951.290114	2529.371216
951.591087	2530.417255
951.892021	2528.113448
952.192917	2531.002029
952.493776	2527.344672
952.794596	2530.578572
953.095378	2528.539426
953.396122	2530.444982
953.696828	2530.243336
953.997496	2529.630835
954.298126	2529.701412
954.598718	2531.188552
954.899272	2529.386339
955.199788	2530.717204
955.500266	2531.251566
955.800706	2528.829292
956.101108	2523.664630
956.401472	2525.537418
956.701798	2526.959024
957.002087	2525.348375
957.302337	2526.341482
957.602550	2531.249046
957.902724	2527.707635
958.202861	2530.334076
958.502960	2529.678726
958.803022	2527.178314
959.103045	2528.846936
959.403031	2529.071267
959.702979	2531.054961
960.002889	2531.662420
960.302762	2527.949611
960.602596	2530.591175
960.902393	2528.514220
961.202153	2528.720907
961.501875	2530.172759
961.801559	2527.732841
962.101205	2527.642100
962.400814	2529.260311
962.700385	2527.911802
962.999918	2529.109076
963.299414	2528.315094
963.598873	2529.605630
963.898293	2526.785104
964.197677	2528.108407
964.497022	2526.096987
964.796331	2528.920033
965.095601	2527.006915
965.394835	2528.496576
965.694030	2527.160670
965.993189	2529.124199
966.292309	2526.817872
966.591393	2527.425331
966.890439	2526.210412
967.189447	2528.103366
967.488419	2525.590351
967.787353	2527.775691
968.086249	2529.983716
968.385108	2531.213758
968.683930	2529.857687
968.982714	2530.462626
969.281462	2527.873993
969.580172	2527.695032
969.878844	2527.445495
970.177480	2526.822913
970.476078	2526.706966
970.774639	2527.468180
971.073162	2527.614374
971.371649	2525.857532
971.670098	2526.533046
971.968510	2524.635052
972.266885	2523.112623
972.565223	2529.555218
972.863524	2528.738551
973.161788	2527.868952
973.460014	2529.217461
973.758204	2526.444826
974.056356	2530.427338
974.354471	2529.552697
974.652550	2529.318284
974.950591	2528.564631
975.248595	2527.569003
975.546563	2528.854498
975.844493	2527.410207
976.142386	2528.531864
976.440243	2528.574714
976.738062	2527.677388
977.035845	2526.838036
977.333590	2528.645290
977.631299	2526.112110
977.928971	2527.863911
978.226606	2526.301153
978.524204	2528.894827
978.821765	2527.289219
979.119290	2529.739220
979.416777	2523.042047
979.714228	2528.156298
980.011642	2529.802235
980.309020	2532.126207
980.606360	2524.703107
980.903664	2528.836854
981.200931	2528.481452
981.498162	2529.109076
981.795356	2531.382636
982.092513	2525.683612
982.389633	2526.812830
982.686717	2528.955321
982.983764	2527.763088
983.280775	2528.012625
983.577749	2529.162008
983.874686	2527.901720
984.171587	2527.117820
984.468451	2531.261649
984.765279	2527.926925
985.062070	2528.925074
985.358824	2526.802748
985.655543	2528.083201
985.952224	2526.369209
986.248869	2525.255114
986.545478	2522.923580
986.842050	2526.394415
987.138586	2522.361492
987.435086	2524.178828
987.731549	2522.699249
988.027975	2526.792666
988.324366	2528.617563
988.620719	2527.765608
988.917037	2528.478932
989.213318	2528.720907
989.509563	2525.136647
989.805772	2528.481452
990.101944	2525.734023
990.398080	2526.245701
990.694180	2526.084384
990.990244	2530.394570
991.286271	2527.478263
991.582262	2526.896009
991.878217	2526.754857
992.174136	2525.517254
992.470019	2528.673016
992.765865	2526.757378
993.061676	2526.149919
993.357450	2525.376102
993.653188	2530.755013
993.948890	2525.391225
994.244556	2524.065402
994.540186	2526.434744
994.835780	2527.531195
995.131337	2526.127233
995.426859	2527.591689
995.722345	2526.578417
996.017795	2527.516071
996.313208	2525.983561
996.608586	2527.652182
996.903928	2525.774353
997.199234	2528.801566
997.494504	2525.797038
997.789738	2525.262676
998.084936	2527.926925
998.380099	2527.130423
998.675225	2523.677233
998.970316	2527.919364
999.265371	2526.613705
999.560390	2528.967924
999.855373	2527.715197
1000.150320	2529.091432
1000.445232	2528.010104
1000.740108	2526.354085
1001.034948	2526.807789
1001.329752	2526.432223
1001.624521	2530.326515
1001.919254	2524.098169
1002.213951	2522.916018
1002.508613	2523.473066
1002.803239	2524.503982
1003.097829	2522.714372
1003.392384	2527.516071
1003.686903	2523.314270
1003.981386	2526.212933
1004.275834	2527.450536
1004.570246	2529.512368
1004.864623	2525.701256
1005.158964	2527.132944
1005.453270	2527.420289
1005.747540	2527.369878
1006.041775	2528.005063
1006.335974	2527.697553
1006.630138	2525.958355
1006.924266	2527.417769
1007.218359	2527.619415
1007.512416	2530.099663
1007.806438	2527.074970
1008.100425	2529.388860
1008.394376	2525.323169
1008.688292	2524.728313
1008.982172	2525.953314
1009.276017	2524.582120
1009.569827	2525.749147
1009.863602	2530.432379
1010.157341	2527.911802
1010.451045	2526.177645
1010.744714	2528.264683
1011.038347	2525.827285
1011.331945	2525.348375
1011.625508	2525.234949
1011.919036	2525.865093
1012.212528	2525.855011
1012.505986	2527.085053
1012.799408	2527.826102
1013.092795	2524.428365
1013.386147	2528.443644
1013.679464	2525.423992
1013.972745	2529.285516
1014.265992	2525.492048
1014.559204	2527.518592
1014.852380	2526.870804
1015.145521	2524.123375
1015.438628	2525.882737
1015.731699	2527.584127
1016.024736	2525.918026
1016.317737	2526.160001
1016.610703	2528.443644
1016.903635	2521.650689
1017.196531	2525.633200
1017.489393	2524.380474
1017.782219	2522.041378
1018.075011	2525.507172
1018.367768	2527.228726
1018.660490	2527.193438
1018.953177	2527.193438
1019.245829	2527.193438
