Dividing Wavelength (nm)	Counts (n)	Blue Motor Position (mm): 0.000000	Red Motor Position (mm): 20.500000	
326.493990	2127.550925
326.888308	2127.550925
327.282561	2127.550925
327.676750	2095.935329
328.070874	2094.319639
328.464933	2096.812490
328.858929	2104.694334
329.252859	2114.143977
329.646726	2125.060595
330.040528	2136.665331
330.434265	2154.997487
330.827938	2171.862668
331.221547	2190.635924
331.615091	2210.896322
332.008571	2229.367109
332.401986	2247.979049
332.795338	2266.848088
333.188625	2286.372477
333.581847	2305.498615
333.975006	2324.055102
334.368100	2341.890704
334.761129	2361.132789
335.154095	2377.012423
335.546996	2393.701163
335.939833	2408.963256
336.332606	2420.986408
336.725315	2437.344952
337.117960	2446.900460
337.510540	2454.686522
337.903056	2464.254632
338.295508	2473.777371
338.687896	2483.781541
339.080220	2490.178765
339.472480	2499.499859
339.864676	2498.915085
340.256807	2504.503204
340.648875	2507.888339
341.040879	2511.810357
341.432818	2512.944616
341.824694	2514.850172
342.216506	2516.312107
342.608253	2512.778258
342.999937	2514.204905
343.391557	2516.181037
343.783113	2512.712723
344.174605	2511.233144
344.566033	2508.372290
344.957397	2508.851199
345.348697	2508.122752
345.739934	2506.827176
346.131106	2505.019922
346.522215	2502.590086
346.913260	2500.016577
347.304241	2499.094046
347.695159	2496.775115
348.086012	2495.902996
348.476802	2494.131030
348.867528	2492.469970
349.258191	2492.376708
349.648789	2487.844711
350.039324	2490.166163
350.429796	2489.231028
350.820203	2488.116933
351.210548	2484.431850
351.600828	2485.263640
351.991045	2483.232055
352.381198	2483.393372
352.771288	2484.893116
353.161314	2481.472693
353.551276	2483.842035
353.941175	2481.724750
354.331010	2482.554020
354.720782	2483.670636
355.110490	2480.966057
355.500135	2483.055615
355.889717	2482.427991
356.279235	2484.081490
356.668689	2485.298928
357.058080	2482.841366
357.447408	2478.231231
357.836672	2480.900522
358.225873	2483.484113
358.615010	2481.180306
359.004084	2485.707262
359.393095	2486.443270
359.782043	2487.726244
360.170927	2487.748929
360.559748	2489.089876
360.948505	2491.302943
361.337199	2487.847232
361.725830	2490.813951
362.114398	2492.038951
362.502903	2490.619866
362.891344	2493.836123
363.279722	2492.139774
363.668037	2493.326966
364.056289	2492.732110
364.444478	2493.629435
364.832603	2493.299240
365.220665	2497.251504
365.608665	2497.785867
365.996601	2496.639004
366.384474	2497.092708
366.772284	2499.134375
367.160031	2498.340393
367.547715	2503.691578
367.935336	2505.266939
368.322893	2505.647546
368.710388	2512.727847
369.097820	2519.427540
369.485189	2521.602798
369.872495	2526.109589
370.259738	2531.677544
370.646918	2541.265818
371.034035	2547.632796
371.421090	2558.751061
371.808081	2569.617268
372.195010	2576.069945
372.581875	2589.484455
372.968678	2605.326281
373.355418	2612.333485
373.742096	2631.746968
374.128710	2647.208187
374.515262	2661.666216
374.901751	2673.946467
375.288177	2690.612522
375.674540	2713.771582
376.060841	2731.559294
376.447079	2750.022520
376.833254	2770.696292
377.219367	2782.381686
377.605417	2820.702017
377.991404	2827.986485
378.377329	2854.601256
378.763191	2868.330839
379.148991	2906.126890
379.534727	2931.947680
379.920402	2963.026393
380.306013	2974.311016
380.691563	3022.620393
381.077049	3041.703681
381.462474	3061.908626
381.847835	3098.411621
382.233134	3123.173769
382.618371	3120.217132
383.003545	3192.159438
383.388657	3195.239583
383.773706	3230.815006
384.158693	3249.850403
384.543618	3271.570214
384.928480	3305.867705
385.313280	3354.882843
385.698017	3352.722709
386.082692	3410.277563
386.467305	3411.326123
386.851856	3443.884415
387.236344	3465.475677
387.620770	3496.975326
388.005133	3525.858617
388.389435	3552.458266
388.773674	3563.034606
389.157851	3598.786469
389.541965	3618.177268
389.926018	3587.625355
390.310008	3654.445849
390.693936	3673.876977
391.077802	3711.577246
391.461606	3705.835371
391.845348	3766.858539
392.229027	3766.674537
392.612645	3780.462092
392.996200	3857.397662
393.379694	3895.314700
393.763125	3959.937252
394.146494	3927.936007
394.529801	3991.522601
394.913047	4042.423131
395.296230	4005.284951
395.679351	4060.157911
396.062410	4081.605500
396.445408	4062.776790
396.828343	4095.158642
397.211217	4116.485243
397.594028	4039.045558
397.976778	4103.426134
398.359466	4133.191627
398.742092	4159.869413
399.124656	4081.575253
399.507158	4166.286802
399.889598	4186.567364
400.271977	4247.013319
400.654294	4221.056418
401.036549	4231.476483
401.418742	4200.299467
401.800874	4299.348058
402.182944	4320.314217
402.564952	4385.161099
402.946898	4370.970251
403.328783	4370.854304
403.710606	4284.721150
404.092367	4474.800376
404.474067	4439.676137
404.855705	4446.229637
405.237282	4377.344790
405.618797	4483.934947
406.000250	4518.363507
406.381642	4595.762863
406.762972	4559.209456
407.144240	4570.050458
407.525447	4570.443667
407.906593	4628.979025
408.287677	4672.005273
408.668700	4601.456846
409.049661	4654.913241
409.430560	4690.024878
409.811399	4616.111480
410.192176	4777.710708
410.572891	4713.758630
410.953545	4820.454651
411.334138	4697.319427
411.714669	4759.270167
412.095139	4655.056914
412.475547	4793.660919
412.855894	4768.659316
413.236180	4776.543681
413.616405	4724.171133
413.996568	4803.697856
414.376670	4743.483794
414.756711	4690.425650
415.136691	4716.216193
415.516609	4781.252118
415.896466	4810.735307
416.276262	4839.154812
416.655997	4808.023166
417.035670	4967.058967
417.415283	5041.675606
417.794834	4976.155729
418.174324	4922.878295
418.553753	4818.097912
418.933121	4972.442919
419.312428	5021.074930
419.691674	4947.791677
420.070859	5043.256007
420.449983	4938.165594
420.829045	5023.731618
421.208047	4918.636164
421.586988	4959.608142
421.965867	4940.580306
422.344686	5024.253378
422.723444	4875.814082
423.102141	4697.563923
423.480777	4917.022994
423.859352	4698.441084
424.237866	4876.698805
424.616319	4836.014173
424.994712	4888.137183
425.373044	4757.465434
425.751314	4826.166279
426.129524	4642.978310
426.507673	4741.522785
426.885762	4766.887351
427.263789	4669.310777
427.641756	4553.921286
428.019662	4588.221297
428.397508	4549.802663
428.775292	4462.210094
429.153016	4481.217765
429.530679	4385.816449
429.908282	4395.818098
430.285824	4273.232360
430.663305	4380.737487
431.040726	4178.143596
431.418086	4133.390753
431.795385	4140.899551
432.172624	4097.711986
432.549802	4045.916651
432.926920	4002.981144
433.303977	3957.620841
433.680974	3925.712858
434.057910	3881.348184
434.434786	3837.706915
434.811601	3777.450003
435.188355	3821.960871
435.565050	3721.442784
435.941683	3669.516378
436.318257	3693.645861
436.694770	3634.432468
437.071222	3597.803444
437.447614	3528.147301
437.823946	3461.833443
438.200218	3462.314873
438.576429	3383.801423
438.952580	3360.309646
439.328670	3332.104390
439.704700	3274.451234
440.080670	3233.385995
440.456580	3243.397726
440.832429	3186.896474
441.208218	3123.002369
441.583947	3117.472224
441.959616	3083.267995
442.335224	3038.797456
442.710773	3028.216074
443.086261	2998.551404
443.461689	2948.699434
443.837057	2934.889193
444.212365	2925.197575
444.587612	2888.387069
444.962800	2877.359545
445.337927	2852.241996
445.712995	2798.074798
446.088002	2818.574650
446.462949	2787.831174
446.837837	2763.043820
447.212664	2759.583068
447.587431	2747.713671
447.962139	2757.483427
448.336786	2787.377470
448.711374	2757.039806
449.085901	2703.878318
449.460369	2685.314269
449.834776	2669.661486
450.209124	2670.059737
450.583412	2665.638646
450.957640	2661.222595
451.331808	2642.199801
451.705917	2626.841926
452.079965	2618.098044
452.453954	2611.146293
452.827883	2607.138576
453.201752	2603.382916
453.575562	2594.742378
453.949311	2593.224991
454.323001	2587.921697
454.696632	2584.362643
455.070202	2584.841552
455.443713	2582.401634
455.817164	2580.828794
456.190556	2575.843093
456.563888	2575.709502
456.937160	2573.297310
457.310373	2569.801270
457.683526	2567.852864
458.056619	2566.879921
458.429653	2566.761454
458.802628	2564.177863
459.175542	2560.376833
459.548398	2563.514951
459.921194	2564.792883
460.293930	2566.161557
460.666607	2569.460992
461.039224	2569.221537
461.411782	2567.878070
461.784280	2568.694737
462.156719	2565.927143
462.529099	2568.301527
462.901419	2562.453788
463.273680	2563.608212
463.645882	2560.749878
464.018024	2562.252142
464.390106	2561.319528
464.762130	2566.096022
465.134094	2569.934860
465.505999	2574.882753
465.877845	2579.318968
466.249631	2579.891139
466.621358	2579.533217
466.993026	2577.269739
467.364634	2580.647312
467.736184	2575.555747
468.107674	2570.711198
468.479105	2572.634398
468.850477	2572.745304
469.221790	2570.678431
469.593043	2569.140879
469.964238	2566.229612
470.335373	2567.401681
470.706449	2568.982082
471.077467	2566.839592
471.448425	2574.890315
471.819324	2576.684965
472.190164	2581.332909
472.560945	2575.233113
472.931667	2571.575756
473.302330	2567.384037
473.672934	2567.719273
474.043479	2570.338153
474.413965	2566.718604
474.784393	2564.256001
475.154761	2567.346228
475.525070	2563.819941
475.895321	2565.276834
476.265513	2566.022925
476.635645	2569.816393
477.005719	2570.723801
477.375734	2571.963925
477.745691	2572.667166
478.115588	2573.093143
478.485427	2575.560788
478.855207	2580.594380
479.224928	2582.648650
479.594591	2585.479258
479.964194	2583.157807
480.333739	2585.053281
480.703226	2583.218301
481.072653	2584.481110
481.442022	2588.647623
481.811333	2589.552511
482.180584	2586.048909
482.549777	2583.999680
482.918912	2583.520770
483.287988	2584.097982
483.657005	2583.349371
484.025964	2582.318455
484.394864	2583.074628
484.763706	2585.181830
485.132489	2581.411047
485.501213	2582.605801
485.869879	2581.325348
486.238487	2580.924576
486.607036	2581.794175
486.975527	2582.515060
487.343959	2579.520614
487.712333	2580.296952
488.080648	2578.603124
488.448905	2581.085893
488.817104	2579.409709
489.185244	2582.378949
489.553326	2581.655543
489.921350	2582.615883
490.289315	2588.365319
490.657222	2590.038982
491.025070	2590.071749
491.392861	2589.227356
491.760593	2589.716348
492.128267	2585.232242
492.495883	2581.721078
492.863440	2582.999011
493.230939	2578.887950
493.598380	2578.928279
493.965763	2574.078689
494.333088	2574.812177
494.700354	2575.833010
495.067563	2577.552044
495.434713	2573.299831
495.801805	2576.664801
496.168839	2576.120356
496.535815	2575.412074
496.902733	2574.199677
497.269593	2576.770665
497.636395	2579.583629
498.003139	2574.204718
498.369825	2577.564647
498.736453	2573.912331
499.103023	2575.706982
499.469535	2577.834348
499.835989	2574.592887
500.202385	2576.155644
500.568723	2573.922413
500.935003	2575.205387
501.301226	2574.328226
501.667390	2578.146900
502.033497	2575.583473
502.399546	2575.583473
502.765537	2574.330747
503.131470	2575.580953
503.497345	2576.619430
503.863163	2574.048442
504.228923	2578.676221
504.594625	2575.565829
504.960269	2575.288566
505.325856	2576.342167
505.691385	2574.050962
506.056856	2577.541962
506.422270	2575.744790
506.787625	2574.809656
507.152924	2576.458113
507.518164	2574.988617
507.883347	2577.178998
508.248472	2578.247723
508.613540	2578.020871
508.978550	2575.966601
509.343503	2577.912486
509.708398	2580.178485
510.073236	2576.957188
510.438016	2579.084555
510.802738	2577.975501
511.167403	2576.294276
511.532010	2580.034812
511.896561	2580.365008
512.261053	2580.974987
512.625488	2572.460478
512.989866	2573.095664
513.354186	2576.337126
513.718449	2574.313102
514.082655	2577.068093
514.446803	2582.288208
514.810894	2581.229566
515.174927	2580.571695
515.538904	2578.010789
515.902822	2580.289390
516.266684	2578.968608
516.630488	2577.378124
516.994235	2579.132446
517.357925	2580.861561
517.721558	2581.242168
518.085133	2581.421129
518.448651	2580.175964
518.812112	2580.526325
519.175516	2579.807960
519.538863	2581.320306
519.902152	2579.835687
520.265385	2582.283167
520.628560	2580.498598
520.991678	2581.902560
521.354739	2583.223342
521.717743	2581.189236
522.080690	2581.584967
522.443580	2581.960533
522.806413	2581.378280
523.169189	2582.971284
523.531908	2581.930286
523.894569	2582.993969
524.257174	2581.574885
524.619722	2583.377097
524.982213	2583.578743
525.344647	2580.301993
525.707025	2581.138825
526.069345	2582.361305
526.431608	2584.433219
526.793815	2581.131263
527.155964	2582.295770
527.518057	2584.730647
527.880093	2583.324165
528.242072	2581.887436
528.603995	2582.391552
528.965860	2581.463979
529.327669	2581.259813
529.689421	2582.109247
530.051117	2584.312231
530.412755	2580.165882
530.774337	2581.219483
531.135862	2581.756366
531.497331	2579.538258
531.858743	2576.521128
532.220098	2578.777044
532.581396	2578.187229
532.942638	2576.931982
533.303824	2581.511870
533.664953	2583.656881
534.026025	2579.843248
534.387040	2581.521952
534.747999	2581.799216
535.108902	2581.191757
535.469748	2580.480954
535.830537	2580.107909
536.191270	2581.408527
536.551947	2580.889288
536.912567	2580.158320
537.273131	2582.716706
537.633638	2579.397106
537.994089	2581.907601
538.354483	2580.299473
538.714821	2582.812488
539.075103	2580.501119
539.435328	2580.972467
539.795497	2581.030440
540.155609	2583.419947
540.515665	2583.858527
540.875665	2581.572364
541.235609	2580.443146
541.595496	2583.833322
541.955328	2581.703434
542.315102	2580.818712
542.674821	2582.036150
543.034483	2581.723599
543.394090	2584.037488
543.753640	2583.402303
544.113134	2581.705955
544.472571	2582.603280
544.831953	2582.144535
545.191278	2582.126891
545.550548	2585.683425
545.909761	2580.969946
546.268918	2579.203022
546.628019	2582.096644
546.987064	2580.813670
547.346053	2581.547158
547.704986	2583.719896
548.063863	2579.271077
548.422684	2583.881212
548.781449	2580.175964
549.140158	2583.548496
549.498811	2584.523960
549.857408	2581.932807
550.215949	2579.404668
550.574434	2576.284194
550.932864	2576.901735
551.291237	2576.138000
551.649555	2580.637230
552.007817	2583.412385
552.366022	2585.045719
552.724173	2581.945409
553.082267	2579.823084
553.440305	2582.527663
553.798288	2581.569843
554.156215	2581.842066
554.514086	2581.688311
554.871902	2581.176633
555.229661	2581.383321
555.587365	2581.731160
555.945014	2581.892477
556.302606	2583.122519
556.660143	2579.215625
557.017625	2580.417940
557.375050	2579.112281
557.732421	2582.162179
558.089735	2582.794844
558.446994	2583.367015
558.804197	2582.910790
559.161345	2582.381469
559.518437	2583.230904
559.875474	2582.368866
560.232455	2581.615214
560.589381	2580.634709
560.946251	2583.586305
561.303065	2582.328537
561.659825	2581.900039
562.016528	2580.574216
562.373177	2578.184709
562.729770	2583.934145
563.086307	2578.923238
563.442789	2581.012796
563.799216	2578.666139
564.155587	2579.190419
564.511904	2582.593198
564.868164	2581.562282
565.224370	2580.604462
565.580520	2579.021540
565.936615	2578.961046
566.292654	2576.256467
566.648638	2580.559092
567.004567	2578.686303
567.360441	2581.438773
567.716260	2577.892322
568.072023	2581.433732
568.427732	2577.955336
568.783385	2575.911148
569.138982	2575.432239
569.494525	2576.937023
569.850013	2574.101374
570.205445	2580.072621
570.560823	2577.136149
570.916145	2577.584811
571.271412	2579.729822
571.626625	2577.017682
571.981782	2576.735377
572.336884	2574.872671
572.691931	2577.741087
573.046923	2579.349215
573.401860	2575.966601
573.756743	2576.785788
574.111570	2575.124728
574.466342	2576.276632
574.821059	2580.155800
575.175722	2578.872826
575.530330	2574.547516
575.884882	2577.113463
576.239380	2576.190932
576.593823	2576.483319
576.948211	2577.186560
577.302544	2579.437435
577.656823	2574.350911
578.011047	2578.310737
578.365216	2576.616910
578.719330	2573.559450
579.073389	2576.604307
579.427394	2575.391909
579.781344	2575.134811
580.135239	2574.529872
580.489080	2575.245716
580.842866	2576.354770
581.196597	2578.938361
581.550273	2574.156827
581.903895	2576.957188
582.257463	2576.001889
582.610975	2574.338308
582.964434	2572.573904
583.317837	2576.201015
583.671186	2575.901066
584.024481	2575.913669
584.377721	2573.524162
584.730906	2573.501477
585.084037	2576.911817
585.437113	2572.934347
585.790135	2576.548854
586.143103	2574.625654
586.496016	2571.663976
586.848874	2569.922257
587.201679	2570.474264
587.554428	2569.181208
587.907124	2570.834706
588.259765	2566.048131
588.612352	2574.592887
588.964884	2570.733883
589.317362	2572.924265
589.669786	2570.023081
590.022155	2573.279666
590.374470	2571.880746
590.726731	2574.141703
591.078937	2572.049624
591.431090	2574.905438
591.783188	2573.390571
592.135232	2568.205745
592.487222	2571.608523
592.839157	2570.544840
593.191038	2572.152968
593.542866	2568.893862
593.894639	2570.517114
594.246358	2573.317475
594.598022	2569.196331
594.949633	2567.512586
595.301190	2567.346228
595.652692	2569.571897
596.004141	2567.812535
596.355535	2570.456620
596.706876	2568.483008
597.058162	2568.125086
597.409395	2568.374623
597.760573	2568.785477
598.111698	2569.652556
598.462768	2568.538461
598.813785	2569.617268
599.164748	2568.457802
599.515657	2570.398647
599.866511	2567.265569
600.217312	2567.479818
600.568060	2570.360838
600.918753	2571.805128
601.269392	2568.430076
601.619978	2565.017215
601.970510	2568.276321
602.320988	2569.007288
602.671412	2567.086608
603.021783	2567.245405
603.372100	2567.865467
603.722363	2567.336146
604.072572	2567.600806
604.422728	2571.870663
604.772830	2564.087122
605.122878	2564.056875
605.472872	2565.201217
605.822813	2561.773232
606.172701	2566.801783
606.522534	2561.531257
606.872314	2569.254305
607.222041	2565.896896
607.571714	2563.842626
607.921333	2567.656259
608.270899	2564.513099
608.620411	2566.151474
608.969870	2570.396126
609.319276	2571.416960
609.668627	2573.705643
610.017926	2573.491394
610.367171	2577.095819
610.716362	2574.862588
611.065500	2571.338822
611.414585	2571.147258
611.763616	2571.732032
612.112594	2569.987793
612.461518	2570.083574
612.810389	2569.531568
613.159207	2569.647515
613.507971	2567.620971
613.856682	2569.836558
614.205340	2567.878070
614.553945	2570.973338
614.902496	2567.789849
615.250994	2566.050651
615.599439	2568.069633
615.947830	2565.778429
616.296169	2568.120045
616.644454	2570.628019
616.992686	2568.576269
617.340864	2568.031825
617.688990	2565.866649
618.037063	2569.060220
618.385082	2569.463512
618.733048	2568.911506
619.080961	2566.527040
619.428821	2568.609037
619.776628	2569.062741
620.124382	2567.736917
620.472083	2568.349418
620.819731	2566.504355
621.167326	2565.057544
621.514868	2567.003429
621.862357	2567.252967
622.209793	2570.207083
622.557176	2567.626012
622.904506	2562.340362
623.251783	2562.312636
623.599007	2563.910682
623.946179	2558.821637
624.293297	2563.827502
624.640363	2562.610064
624.987376	2564.613922
625.334336	2565.289437
625.681243	2563.860270
626.028097	2561.727862
626.374899	2564.868501
626.721647	2566.620302
627.068343	2565.153326
627.414987	2562.988150
627.761577	2562.846998
628.108115	2562.320197
628.454600	2562.955383
628.801032	2561.347255
629.147412	2562.534447
629.493739	2561.942111
629.840014	2564.865980
630.186236	2563.257852
630.532405	2563.444375
630.878521	2563.451937
631.224585	2563.608212
631.570597	2561.828685
631.916556	2560.152501
632.262462	2560.432285
632.608316	2564.001422
632.954117	2560.765002
633.299866	2561.188458
633.645562	2559.673592
633.991206	2561.301884
634.336797	2558.710731
634.682336	2559.824826
635.027823	2559.781977
635.373257	2560.762481
635.718639	2558.577141
636.063968	2558.660320
636.409245	2558.277192
636.754470	2559.925649
637.099642	2558.007490
637.444762	2559.938252
637.789829	2558.337686
638.134845	2558.365412
638.479808	2557.122768
638.824719	2559.416493
639.169577	2559.260217
639.514383	2556.406924
639.859137	2555.623025
640.203839	2559.282902
640.548489	2553.609084
640.893086	2552.789896
641.237632	2553.094886
641.582125	2553.674619
641.926566	2552.111861
642.270955	2558.083108
642.615292	2557.899106
642.959576	2558.365412
643.303809	2556.951369
643.647990	2555.091183
643.992118	2556.681667
644.336195	2557.415155
644.680219	2555.872562
645.024192	2558.887172
645.368112	2555.754095
645.711981	2557.069836
646.055797	2556.225443
646.399562	2558.148643
646.743274	2561.175856
647.086935	2559.938252
647.430544	2560.066802
647.774101	2556.971533
648.117606	2557.059753
648.461059	2558.430947
648.804460	2560.565876
649.147810	2558.173848
649.491108	2557.415155
649.834354	2558.418344
650.177548	2560.714590
650.520690	2557.999929
650.863781	2554.017417
651.206820	2558.632593
651.549807	2555.325597
651.892742	2554.120761
652.235626	2555.774259
652.578458	2555.302911
652.921238	2552.878116
653.263967	2559.078736
653.606644	2555.799465
653.949269	2554.962633
654.291843	2553.034392
654.634365	2554.193857
654.976836	2552.439536
655.319255	2557.735268
655.661622	2555.496996
656.003938	2553.573796
656.346203	2556.152346
656.688416	2555.340720
657.030577	2551.995914
657.372687	2552.215205
657.714746	2554.982798
658.056753	2552.235369
658.398708	2548.348640
658.740612	2548.394010
659.082465	2550.997766
659.424266	2550.856614
659.766016	2549.351829
660.107715	2553.518343
660.449362	2553.346944
660.790958	2553.215874
661.132503	2554.657644
661.473996	2553.916594
661.815438	2552.583209
662.156829	2555.227294
662.498168	2555.060936
662.839456	2555.827191
663.180693	2551.905174
663.521879	2553.702345
663.863013	2553.601522
664.204097	2555.023127
664.545129	2553.586398
664.886110	2555.728889
665.227040	2554.982798
665.567918	2554.516491
665.908746	2554.786193
666.249522	2556.424568
666.590248	2553.276367
666.930922	2555.534804
667.271545	2554.171172
667.612118	2557.906667
667.952639	2554.302242
668.293109	2554.395504
668.633528	2555.784342
668.973896	2552.794937
669.314213	2552.590771
669.654480	2552.401727
669.994695	2555.300391
670.334859	2554.576985
670.674973	2554.453477
671.015035	2554.672767
671.355047	2550.654967
671.695008	2555.222253
672.034918	2554.110678
672.374777	2553.546069
672.714585	2552.885678
673.054342	2552.767211
673.394049	2551.363250
673.733705	2555.280226
674.073310	2554.599670
674.412864	2554.758467
674.752368	2552.396686
675.091820	2553.392314
675.431223	2554.980277
675.770574	2551.154042
676.109875	2548.590615
676.449125	2548.111705
676.788324	2551.131357
677.127473	2550.813764
677.466571	2548.394010
677.805619	2553.072201
678.144616	2551.721172
678.483562	2554.617314
678.822458	2551.842159
679.161303	2551.627910
679.500098	2553.331820
679.838842	2550.150852
680.177535	2551.794268
680.516179	2552.026161
680.854771	2551.922818
681.193314	2552.149670
681.531805	2552.258054
681.870247	2554.188816
682.208638	2554.372818
682.546978	2555.554969
682.885268	2556.545556
683.223508	2552.973898
683.561697	2552.232849
683.899836	2555.217212
684.237925	2553.639331
684.575963	2550.415513
684.913951	2552.784855
685.251889	2553.475493
685.589776	2554.609753
685.927614	2549.989535
686.265401	2553.062118
686.603137	2551.557334
686.940824	2554.030020
687.278460	2552.636141
687.616046	2553.525905
687.953582	2553.515822
688.291068	2552.963816
688.628504	2557.793241
688.965889	2553.162942
689.303224	2553.750236
689.640510	2552.568085
689.977745	2553.621687
690.314930	2552.303425
690.652065	2553.921635
690.989150	2550.566747
691.326185	2552.459701
691.663170	2552.593291
692.000105	2548.840152
692.336990	2548.951057
692.673825	2550.014741
693.010610	2551.338044
693.347345	2546.692621
693.684030	2545.550799
694.020665	2546.067518
694.357251	2543.703216
694.693786	2546.642209
695.030272	2546.838814
695.366707	2548.489792
695.703093	2548.948537
696.039429	2549.193033
696.375716	2547.642878
696.711952	2547.214380
697.048139	2549.021634
697.384276	2547.567261
697.720363	2549.765204
698.056400	2549.964329
698.392388	2545.742363
698.728326	2549.407282
699.064214	2550.060111
699.400053	2547.710934
699.735842	2546.211190
700.071581	2549.213198
700.407270	2547.060625
700.742910	2548.197405
701.078501	2544.131714
701.414042	2544.489636
701.749533	2547.022816
702.084974	2544.671118
702.420366	2546.831252
702.755709	2547.630275
703.091002	2548.628424
703.426246	2547.809236
703.761440	2547.557178
704.096584	2546.816129
704.431679	2543.932589
704.766725	2549.019113
705.101721	2544.824873
705.436668	2546.427960
705.771565	2549.629093
706.106413	2546.448125
706.441212	2547.254709
706.775961	2546.254040
707.110661	2547.940306
707.445311	2548.010882
707.779913	2545.465100
708.114465	2550.617159
708.448967	2547.380738
708.783421	2545.540717
709.117825	2545.933927
709.452180	2545.545758
709.786485	2549.641696
710.120742	2546.128011
710.454949	2548.661191
710.789107	2545.858310
711.123216	2545.860830
711.457275	2546.541386
711.791286	2546.710265
712.125247	2546.770758
712.459159	2548.852755
712.793023	2546.705223
713.126837	2548.020965
713.460602	2547.542055
713.794318	2545.691952
714.127985	2549.097251
714.461602	2548.489792
714.795171	2547.441232
715.128691	2548.547765
715.462162	2548.353681
715.795584	2548.525080
716.128957	2547.577343
716.462281	2548.605738
716.795556	2545.606252
717.128782	2543.980480
717.461960	2547.549617
717.795088	2543.514173
718.128167	2547.161448
718.461198	2544.129194
718.794180	2547.458876
719.127113	2545.737322
719.459997	2547.000131
719.792833	2544.121632
720.125619	2543.272198
720.458357	2544.245140
720.791046	2543.241951
721.123686	2544.885367
721.456278	2545.734801
721.788821	2545.636499
722.121315	2545.636499
722.453761	2543.282280
722.786158	2545.102137
723.118506	2542.153062
723.450805	2544.338402
723.783056	2541.845551
724.115259	2542.737835
724.447412	2541.656508
724.779518	2543.420912
725.111574	2544.557692
725.443582	2544.577857
725.775542	2545.402085
726.107453	2541.832948
726.439315	2543.491488
726.771129	2548.532642
727.102895	2546.811088
727.434612	2544.688762
727.766281	2541.782537
728.097901	2541.671631
728.429473	2541.593493
728.760996	2542.185829
729.092471	2542.415202
729.423897	2544.134235
729.755276	2546.954761
730.086606	2544.774462
730.417887	2545.737322
730.749120	2546.349822
731.080305	2544.759338
731.411442	2544.638350
731.742530	2545.984338
732.073570	2546.778320
732.404562	2545.152548
732.735506	2544.222455
733.066401	2546.644730
733.397249	2545.931406
733.728048	2545.442414
734.058798	2544.688762
734.389501	2546.183464
734.720156	2547.665563
735.050762	2544.865202
735.381320	2543.899821
735.711831	2546.624565
736.042293	2540.323123
736.372707	2542.891591
736.703073	2540.539892
737.033391	2543.967877
737.363661	2545.208001
737.693883	2543.846889
738.024056	2547.093392
738.354182	2543.715819
738.684260	2544.688762
739.014290	2541.953936
739.344272	2545.311344
739.674207	2544.784544
740.004093	2544.489636
740.333931	2542.725232
740.663722	2544.903011
740.993464	2544.522404
741.323159	2543.453679
741.652806	2545.001313
741.982405	2542.667259
742.311956	2543.665408
742.641460	2543.337733
742.970915	2543.798998
743.300323	2541.679193
743.629683	2543.070552
743.958996	2540.590304
744.288260	2542.722712
744.617477	2540.481919
744.946647	2541.175078
745.275768	2539.763555
745.604842	2538.785571
745.933869	2539.904707
746.262847	2534.775333
746.591778	2541.747249
746.920662	2539.471168
747.249498	2543.524255
747.578286	2541.220448
747.907027	2544.585418
748.235720	2543.299924
748.564365	2543.259595
748.892963	2539.766075
749.221514	2542.873947
749.550017	2539.970242
749.878473	2543.272198
750.206881	2540.683565
750.535242	2541.270860
750.863555	2543.206663
751.191821	2541.706919
751.520039	2542.924358
751.848210	2543.098278
752.176334	2542.011909
752.504411	2543.282280
752.832440	2541.953936
753.160421	2543.352856
753.488356	2541.001158
753.816243	2543.395706
754.144082	2540.176929
754.471875	2541.848072
754.799620	2543.007537
755.127318	2540.260108
755.454969	2541.515356
755.782572	2540.058462
756.110129	2542.248843
756.437638	2541.384286
756.765100	2541.414532
757.092515	2540.723894
757.419882	2541.006199
757.747203	2543.110881
758.074477	2541.346477
758.401703	2541.512835
758.728882	2543.070552
759.056014	2541.837989
759.383099	2542.468134
759.710138	2543.685572
760.037129	2539.718184
760.364073	2542.107691
760.690970	2540.819676
761.017820	2543.594832
761.344623	2539.692978
761.671379	2544.441745
761.998088	2539.733308
762.324751	2540.930582
762.651366	2541.517876
762.977935	2546.644730
763.304456	2549.994576
763.630931	2550.481048
763.957359	2550.803682
764.283740	2549.934082
764.610074	2545.707075
764.936362	2548.693959
765.262602	2542.105171
765.588796	2542.533669
765.914943	2543.221786
766.241044	2540.623071
766.567097	2541.843031
766.893104	2541.956457
767.219064	2541.671631
767.544978	2540.839841
767.870845	2538.309182
768.196665	2540.645757
768.522438	2540.242464
768.848165	2542.291693
769.173846	2543.317568
769.499479	2538.682227
769.825066	2541.008720
770.150607	2539.889583
770.476101	2537.641229
770.801548	2541.215407
771.126949	2538.956970
771.452303	2540.262629
771.777611	2538.099974
772.102872	2538.833462
772.428087	2537.303472
772.753256	2538.737680
773.078378	2537.679037
773.403453	2537.484953
773.728482	2539.158616
774.053465	2539.657690
774.378401	2538.246167
774.703291	2538.891435
775.028135	2535.798687
775.352932	2538.682227
775.677683	2538.052083
776.002388	2539.118287
776.327046	2537.348842
776.651658	2539.297248
776.976224	2536.620395
777.300743	2537.212731
777.625216	2536.897659
777.949643	2536.985879
778.274024	2539.082999
778.598359	2536.053265
778.922647	2531.606968
779.246889	2535.586959
779.571086	2534.908923
779.895236	2536.817000
780.219339	2538.367155
780.543397	2538.185673
780.867409	2537.230375
781.191374	2537.805066
781.515294	2538.432690
781.839167	2535.579397
782.162995	2537.900848
782.486776	2540.547454
782.810511	2539.387989
783.134201	2538.132741
783.457844	2536.353214
783.781441	2537.001002
784.104993	2538.420087
784.428498	2537.434542
784.751958	2538.830941
785.075372	2534.528316
785.398739	2536.683410
785.722061	2536.317926
786.045337	2536.769109
786.368568	2537.830272
786.691752	2536.496887
787.014891	2539.428318
787.337983	2538.233564
787.661030	2536.774150
787.984031	2540.020653
788.306987	2539.851775
788.629897	2536.970755
788.952760	2541.207845
789.275579	2538.417567
789.598351	2539.619882
789.921078	2535.531506
790.243759	2534.752648
790.566395	2536.138965
790.888984	2539.776158
791.211529	2537.076620
791.534027	2540.965870
791.856480	2534.470343
792.178888	2536.537216
792.501249	2538.977135
792.823566	2538.934285
793.145836	2535.254243
793.468062	2535.521424
793.790241	2534.533357
794.112375	2537.336239
794.434464	2535.518903
794.756507	2535.549150
795.078505	2537.447144
795.400457	2535.518903
795.722364	2532.237112
796.044226	2534.755168
796.366042	2535.773481
796.687812	2533.242822
797.009538	2537.797505
797.331218	2538.039480
797.652852	2537.558050
797.974442	2537.671476
798.295986	2539.284645
798.617484	2535.763399
798.938938	2537.542926
799.260346	2537.908410
799.581709	2539.251877
799.903026	2538.551157
800.224299	2538.505787
800.545526	2539.735828
800.866708	2539.607279
801.187845	2538.251208
801.508936	2538.651980
801.829983	2536.307844
802.150984	2537.701723
802.471940	2537.505118
802.792851	2535.176105
803.113717	2534.606454
803.434538	2534.573687
803.755314	2535.929757
804.076045	2534.835827
804.396731	2533.716691
804.717372	2536.890097
805.037967	2534.974458
805.358518	2537.142155
805.679024	2538.629295
805.999485	2533.696526
806.319901	2538.573842
806.640272	2535.644932
806.960598	2535.765920
807.280879	2535.471012
807.601115	2535.821372
807.921306	2536.338091
808.241453	2535.158461
808.561554	2537.036290
808.881611	2536.196938
809.201623	2534.263656
809.521590	2538.122659
809.841513	2536.282638
810.161390	2536.622916
810.481223	2536.257432
810.801011	2535.244160
811.120755	2536.393543
811.440453	2536.723739
811.760107	2535.874304
812.079716	2535.279448
812.399281	2532.698378
812.718801	2535.922195
813.038276	2532.748789
813.357707	2536.764068
813.677093	2536.264994
813.996434	2534.714839
814.315731	2535.748276
814.634983	2537.283307
814.954191	2535.299613
815.273354	2536.194418
815.592473	2537.016126
815.911547	2536.466640
816.230577	2535.712988
816.549562	2535.481094
816.868502	2536.824562
817.187399	2540.050900
817.506250	2535.171063
817.825058	2536.335570
818.143821	2537.341280
818.462539	2540.164326
818.781213	2539.042670
819.099843	2538.155427
819.418429	2540.668442
819.736970	2541.767413
820.055466	2540.857485
820.373919	2541.172557
820.692327	2541.099460
821.010691	2548.741850
821.329011	2553.987170
821.647286	2574.613051
821.965517	2589.323138
822.283704	2599.322267
822.601847	2604.280242
822.919945	2596.337904
823.237999	2586.885740
823.556010	2574.524831
823.873976	2564.298850
824.191897	2562.678119
824.509775	2555.141594
824.827609	2551.630431
825.145398	2548.058773
825.463144	2547.993238
825.780845	2550.102961
826.098502	2551.743857
826.416116	2555.754095
826.733685	2561.362378
827.051210	2561.899261
827.368692	2561.289282
827.686129	2555.171841
828.003522	2551.282591
828.320872	2542.248843
828.638177	2543.811601
828.955439	2537.757175
829.272656	2539.768596
829.589830	2535.644932
829.906960	2540.184491
830.224046	2539.400592
830.541088	2538.475540
830.858086	2538.334388
831.175041	2536.804397
831.491952	2534.490508
831.808819	2537.973945
832.125642	2535.806249
832.442421	2538.135262
832.759157	2539.602238
833.075849	2544.431663
833.392497	2546.869061
833.709101	2551.592622
834.025662	2550.881819
834.342179	2548.106664
834.658653	2544.245140
834.975083	2544.996272
835.291469	2544.966025
835.607811	2541.923689
835.924110	2537.883204
836.240366	2539.062834
836.556578	2537.721887
836.872746	2536.852288
837.188871	2533.467153
837.504952	2537.668955
837.820990	2536.058307
838.136984	2533.628470
838.452935	2536.242309
838.768842	2536.020498
839.084706	2536.330529
839.400526	2534.848430
839.716303	2537.273225
840.032037	2541.003678
840.347727	2539.882022
840.663373	2538.626774
840.978977	2538.510828
841.294537	2535.264325
841.610054	2535.223996
841.925527	2533.010929
842.240957	2533.694005
842.556344	2534.508152
842.871687	2534.475384
843.186987	2533.986392
843.502244	2531.856505
843.817458	2534.518234
844.132629	2533.058820
844.447756	2534.896321
844.762840	2527.072450
845.077881	2531.974972
845.392879	2530.039169
845.707833	2535.133255
846.022745	2528.299971
846.337613	2533.298275
846.652438	2533.333563
846.967221	2536.244829
847.281960	2533.807431
847.596656	2536.025539
847.911309	2534.639222
848.225919	2533.573018
848.540485	2532.348017
848.855009	2534.450178
849.169490	2532.658048
849.483928	2533.210055
849.798323	2534.624098
850.112675	2534.268697
850.426984	2533.825075
850.741251	2533.988913
851.055474	2530.603778
851.369654	2532.373223
851.683792	2533.517565
851.997887	2531.541433
852.311938	2532.718542
852.625947	2531.516227
852.939914	2534.384643
853.253837	2534.795498
853.567718	2531.410363
853.881555	2534.213244
854.195350	2533.028573
854.509103	2532.519417
854.822812	2530.611340
855.136479	2532.133768
855.450103	2533.560415
855.763685	2532.995806
856.077224	2532.002698
856.390720	2532.378264
856.704173	2531.034797
857.017584	2532.224509
857.330953	2530.860877
857.644278	2531.697708
857.957561	2533.179808
858.270802	2532.196783
858.584000	2533.373892
858.897155	2534.848430
859.210268	2531.493542
859.523339	2532.877338
859.836367	2533.220137
860.149352	2534.334232
860.462295	2532.791639
860.775195	2530.190403
861.088054	2527.294261
861.400869	2531.455733
861.713642	2527.929446
862.026373	2531.332225
862.339062	2528.509179
862.651708	2534.500590
862.964312	2531.506145
863.276873	2532.113604
863.589392	2532.690816
863.901869	2535.619726
864.214303	2529.691329
864.526696	2533.036135
864.839045	2532.738707
865.151353	2535.201310
865.463619	2530.656710
865.775842	2534.621578
866.088023	2533.207534
866.400162	2532.975641
866.712258	2531.193593
867.024313	2534.649304
867.336325	2534.500590
867.648296	2532.176618
867.960224	2534.084695
868.272110	2533.593182
868.583954	2535.546629
868.895755	2535.503780
869.207515	2534.719880
869.519233	2532.411032
869.830909	2533.348686
870.142542	2534.127545
870.454134	2532.852133
870.765684	2533.588141
871.077191	2534.301464
871.388657	2535.415559
871.700081	2533.520086
872.011463	2531.707791
872.322803	2532.741227
872.634101	2535.239119
872.945357	2533.005888
873.256571	2534.898841
873.567744	2533.184849
873.878874	2533.482277
874.189963	2534.165353
874.501010	2535.972607
874.812015	2534.253573
875.122979	2537.187525
875.433900	2533.111752
875.744780	2534.896321
876.055618	2533.867925
876.366415	2534.112421
876.677169	2535.592000
876.987882	2530.480270
877.298554	2528.010104
877.609183	2534.321629
877.919771	2530.797863
878.230317	2532.708460
878.540822	2536.207021
878.851285	2535.430683
879.161707	2533.862884
879.472087	2536.602751
879.782425	2539.836651
880.092722	2543.025181
880.402977	2549.213197
880.713191	2555.504557
881.023363	2567.628532
881.333494	2572.566343
881.643583	2571.406877
881.953631	2569.362689
882.263637	2567.900755
882.573602	2566.670713
882.883526	2559.371122
883.193408	2556.487583
883.503248	2550.304607
883.813048	2550.904505
884.122806	2548.401572
884.432522	2545.152548
884.742197	2541.306148
885.051831	2539.239275
885.361424	2541.901004
885.670975	2541.275901
885.980485	2540.071065
886.289954	2539.665252
886.599382	2537.041332
886.908768	2538.067206
887.218113	2535.360107
887.527417	2537.308513
887.836680	2536.252391
888.145901	2535.889428
888.455082	2532.829447
888.764221	2533.129396
889.073319	2535.929757
889.382376	2532.184180
889.691392	2534.329191
890.000366	2536.466640
890.309300	2536.564942
890.618193	2532.436237
890.927044	2536.169212
891.235855	2534.707277
891.544625	2534.782895
891.853353	2534.533357
892.162041	2534.661907
892.470687	2534.490508
892.779293	2535.796167
893.087858	2533.600744
893.396381	2536.017977
893.704864	2537.598379
894.013306	2533.638553
894.321707	2542.415202
894.630068	2545.621375
894.938387	2549.669422
895.246665	2545.896118
895.554903	2543.844369
895.863100	2540.040818
896.171256	2541.175078
896.479371	2540.842362
896.787446	2538.697351
897.095480	2537.308513
897.403473	2533.570497
897.711425	2534.586290
898.019336	2534.709798
898.327207	2534.654345
898.635038	2535.405477
898.942827	2534.430014
899.250576	2533.169725
899.558284	2536.247350
899.865952	2534.099818
900.173579	2532.413552
900.481165	2535.410518
900.788711	2533.005888
901.096216	2534.026722
901.403681	2534.246012
901.711105	2533.794828
902.018489	2534.296423
902.325832	2536.726259
902.633135	2533.235260
902.940397	2535.859181
903.247619	2533.757020
903.554800	2538.243647
903.861941	2544.557692
904.169041	2549.586243
904.476101	2555.217212
904.783121	2553.896429
905.090100	2549.850903
905.397039	2546.122970
905.703938	2543.672969
906.010796	2543.037784
906.317614	2537.696682
906.624391	2538.793132
906.931129	2535.241640
907.237826	2536.748945
907.544483	2531.768285
907.851099	2533.915816
908.157675	2533.073943
908.464211	2531.886752
908.770707	2529.235105
909.077163	2533.331042
909.383578	2528.355423
909.689954	2528.904909
909.996289	2526.434744
910.302584	2532.804242
910.608839	2532.849612
910.915054	2532.826927
911.221229	2529.782070
911.527363	2531.639735
911.833458	2530.434899
912.139513	2531.788449
912.445527	2532.484128
912.751502	2534.009077
913.057436	2531.886752
913.363331	2534.016639
913.669186	2533.595703
913.975000	2535.236598
914.280775	2533.061341
914.586510	2536.315405
914.892205	2539.889583
915.197859	2540.260108
915.503475	2541.817825
915.809050	2547.496685
916.114585	2548.744370
916.420081	2552.590771
916.725536	2550.244113
917.030952	2547.353012
917.336328	2543.531817
917.641665	2544.562733
917.946961	2543.612476
918.252218	2540.358411
918.557435	2536.655683
918.862612	2536.547298
919.167750	2532.960517
919.472848	2535.821372
919.777906	2537.406815
920.082925	2536.380940
920.387904	2533.331042
920.692843	2533.348686
920.997743	2533.409180
921.302603	2533.857843
921.607423	2530.780218
921.912204	2535.528985
922.216946	2534.387164
922.521647	2535.498738
922.826310	2531.123017
923.130932	2532.927750
923.435516	2530.896165
923.740059	2529.953469
924.044564	2531.491021
924.349028	2531.889272
924.653454	2526.994312
924.957840	2528.388191
925.262186	2526.129754
925.566493	2529.537574
925.870761	2525.751668
926.174989	2529.149405
926.479178	2528.620084
926.783328	2530.555887
927.087438	2532.831968
927.391509	2529.943387
927.695541	2529.976154
927.999533	2530.218130
928.303486	2529.340969
928.607400	2529.461957
928.911275	2529.751823
929.215110	2531.218799
929.518906	2533.699047
929.822663	2530.727286
930.126381	2531.067564
930.430060	2531.788449
930.733699	2529.540095
931.037299	2529.318284
931.340861	2532.232071
931.644383	2528.665454
931.947866	2529.598068
932.251309	2529.371216
932.554714	2529.272913
932.858080	2531.112935
933.161407	2531.385157
933.464694	2530.170239
933.767943	2530.722245
934.071153	2530.596216
934.374323	2528.778880
934.677455	2531.160826
934.980548	2531.503624
935.283602	2529.948428
935.586617	2528.796524
935.889593	2532.597554
936.192530	2528.292409
936.495428	2528.972965
936.798287	2529.005732
937.101108	2528.562111
937.403890	2532.370702
937.706632	2530.850795
938.009336	2531.052441
938.312002	2530.697039
938.614628	2528.327697
938.917216	2530.828109
939.219765	2529.512368
939.522275	2532.879859
939.824747	2533.686444
940.127179	2527.891637
940.429573	2525.580268
940.731929	2529.648479
941.034246	2525.038344
941.336524	2528.698222
941.638763	2528.259642
941.940964	2530.114786
942.243126	2531.193593
942.545250	2532.746268
942.847335	2533.817514
943.149381	2529.071267
943.451389	2528.085722
943.753359	2529.633356
944.055290	2529.787111
944.357182	2531.859025
944.659036	2528.552028
944.960851	2531.657379
945.262628	2530.525640
945.564367	2527.158149
945.866067	2530.507996
946.167729	2528.869621
946.469352	2529.091432
946.770937	2528.428520
947.072484	2529.726617
947.373992	2531.213758
947.675462	2530.865918
947.976893	2531.564118
948.278286	2531.564118
948.579641	2531.198634
948.880958	2531.627132
949.182236	2530.901206
949.483476	2526.412059
949.784678	2527.624456
950.085841	2529.552698
950.386967	2530.472708
950.688054	2529.625794
950.989103	2530.475229
951.290114	2530.510517
951.591087	2529.187214
951.892021	2527.929446
952.192917	2530.475229
952.493776	2530.215609
952.794596	2530.757533
953.095378	2527.894158
953.396122	2530.772657
953.696828	2528.138654
953.997496	2530.674354
954.298126	2528.806607
954.598718	2532.148892
954.899272	2530.293747
955.199788	2527.508510
955.500266	2531.780888
955.800706	2527.369878
956.101108	2525.691174
956.401472	2527.558921
956.701798	2525.176976
957.002087	2527.148067
957.302337	2530.326515
957.602550	2528.209230
957.902724	2530.681916
958.202861	2527.382481
958.502960	2528.264683
958.803022	2529.303160
959.103045	2527.170752
959.403031	2529.620753
959.702979	2524.362830
960.002889	2530.122348
960.302762	2528.937677
960.602596	2531.231402
960.902393	2528.284847
961.202153	2527.858870
961.501875	2528.483973
961.801559	2529.235105
962.101205	2530.437420
962.400814	2529.015815
962.700385	2528.478932
962.999918	2526.669158
963.299414	2528.274765
963.598873	2528.184024
963.898293	2529.096473
964.197677	2528.373068
964.497022	2527.271575
964.796331	2527.856349
965.095601	2529.348531
965.394835	2527.521112
965.694030	2528.214271
965.993189	2527.165711
966.292309	2529.343490
966.591393	2527.006915
966.890439	2527.430372
967.189447	2528.181504
967.488419	2529.623274
967.787353	2526.681760
968.086249	2526.364168
968.385108	2527.400125
968.683930	2531.301978
968.982714	2528.761236
969.281462	2528.451205
969.580172	2527.934487
969.878844	2528.799045
970.177480	2527.894158
970.476078	2527.642100
970.774639	2524.703107
971.073162	2526.550690
971.371649	2526.545649
971.670098	2522.661440
971.968510	2527.616894
972.266885	2521.176820
972.565223	2527.397604
972.863524	2529.033459
973.161788	2528.801566
973.460014	2528.932636
973.758204	2527.621936
974.056356	2529.141843
974.354471	2528.695701
974.652550	2526.638911
974.950591	2531.279293
975.248595	2527.793335
975.546563	2530.717204
975.844493	2525.570186
976.142386	2527.180835
976.440243	2526.664116
976.738062	2528.720907
977.035845	2529.625794
977.333590	2528.725948
977.631299	2527.359796
977.928971	2530.082019
978.226606	2527.044723
978.524204	2525.444157
978.821765	2528.768798
979.119290	2526.175124
979.416777	2526.812830
979.714228	2526.638911
980.011642	2527.773170
980.309020	2531.743079
980.606360	2530.419776
980.903664	2526.006246
981.200931	2524.503982
981.498162	2527.533715
981.795356	2528.012625
982.092513	2528.073119
982.389633	2525.897861
982.686717	2529.194776
982.983764	2528.521782
983.280775	2528.738551
983.577749	2527.211082
983.874686	2530.986906
984.171587	2528.914992
984.468451	2525.827285
984.765279	2529.829961
985.062070	2527.569003
985.358824	2527.329549
985.655543	2529.688809
985.952224	2528.670496
986.248869	2527.183355
986.545478	2525.003056
986.842050	2526.147398
987.138586	2523.183200
987.435086	2525.408869
987.731549	2527.004394
988.027975	2527.984899
988.324366	2527.180835
988.620719	2526.752337
988.917037	2527.495907
989.213318	2526.946421
989.509563	2526.843077
989.805772	2525.030782
990.101944	2526.139836
990.398080	2526.157480
990.694180	2528.057995
990.990244	2526.154960
991.286271	2528.196627
991.582262	2527.301822
991.878217	2526.918695
992.174136	2527.942049
992.470019	2525.665968
992.765865	2525.184538
993.061676	2528.458767
993.357450	2524.824095
993.653188	2526.371729
993.948890	2525.620597
994.244556	2528.400794
994.540186	2529.073788
994.835780	2528.378109
995.131337	2526.444826
995.426859	2526.475073
995.722345	2529.673685
996.017795	2527.165711
996.313208	2526.560773
996.608586	2527.821061
996.903928	2526.565814
997.199234	2527.848788
997.494504	2526.591020
997.789738	2528.347862
998.084936	2528.441123
998.380099	2530.087060
998.675225	2528.292409
998.970316	2525.388704
999.265371	2529.091432
999.560390	2528.070598
999.855373	2527.800897
1000.150320	2524.698066
1000.445232	2526.011287
1000.740108	2527.838705
1001.034948	2525.119003
1001.329752	2527.387522
1001.624521	2525.930628
1001.919254	2524.990453
1002.213951	2524.509023
1002.508613	2523.435257
1002.803239	2526.812830
1003.097829	2520.675226
1003.392384	2524.574558
1003.686903	2523.679753
1003.981386	2528.249559
1004.275834	2526.694363
1004.570246	2528.186545
1004.864623	2524.566996
1005.158964	2526.217974
1005.453270	2525.988602
1005.747540	2527.490866
1006.041775	2525.693694
1006.335974	2527.546318
1006.630138	2524.410721
1006.924266	2526.301153
1007.218359	2526.144878
1007.512416	2525.141688
1007.806438	2526.580937
1008.100425	2525.156811
1008.394376	2524.284692
1008.688292	2526.742254
1008.982172	2526.263345
1009.276017	2525.786956
1009.569827	2524.103210
1009.863602	2527.538757
1010.157341	2525.166894
1010.451045	2526.427182
1010.744714	2526.084384
1011.038347	2526.470032
1011.331945	2528.257121
1011.625508	2524.935001
1011.919036	2529.151926
1012.212528	2525.673530
1012.505986	2524.161183
1012.799408	2526.495238
1013.092795	2526.666637
1013.386147	2527.193438
1013.679464	2524.428365
1013.972745	2528.294930
1014.265992	2525.812161
1014.559204	2527.427851
1014.852380	2527.236287
1015.145521	2526.238139
1015.438628	2525.832326
1015.731699	2524.100690
1016.024736	2526.371729
1016.317737	2525.870135
1016.610703	2527.306863
1016.903635	2525.280320
1017.196531	2522.968951
1017.489393	2524.854342
1017.782219	2519.548528
1018.075011	2523.687315
1018.367768	2527.125382
1018.660490	2528.499096
1018.953177	2528.499096
1019.245829	2528.499096
