Dividing Wavelength (nm)	Counts (n)	Blue Motor Position (mm): 0.000000	Red Motor Position (mm): 43.100000	
326.493990	2127.654269
326.888308	2127.654269
327.282561	2127.654269
327.676750	2094.007088
328.070874	2093.447519
328.464933	2096.028590
328.858929	2102.700557
329.252859	2111.479727
329.646726	2125.536984
330.040528	2137.189611
330.434265	2154.707621
330.827938	2171.910558
331.221547	2190.099042
331.615091	2209.283153
332.008571	2227.317880
332.401986	2249.161200
332.795338	2266.805238
333.188625	2285.132353
333.581847	2305.453244
333.975006	2321.882365
334.368100	2343.551765
334.761129	2358.256810
335.154095	2375.079141
335.546996	2395.394991
335.939833	2423.002870
336.332606	2433.705239
336.725315	2442.998607
337.117960	2454.512602
337.510540	2466.578604
337.903056	2477.379276
338.295508	2480.477065
338.687896	2489.707418
339.080220	2500.745024
339.472480	2504.651918
339.864676	2509.816580
340.256807	2514.451921
340.648875	2518.424350
341.040879	2520.571882
341.432818	2522.338806
341.824694	2524.929959
342.216506	2525.454239
342.608253	2525.907943
342.999937	2525.650844
343.391557	2525.257634
343.783113	2522.837881
344.174605	2523.762932
344.566033	2517.438805
344.957397	2521.144053
345.348697	2519.936697
345.739934	2514.772034
346.131106	2514.950995
346.522215	2513.095851
346.913260	2509.433453
347.304241	2509.390603
347.695159	2508.901611
348.086012	2505.138389
348.476802	2503.830210
348.867528	2501.914572
349.258191	2500.659324
349.648789	2498.519354
350.039324	2498.549601
350.429796	2501.140754
350.820203	2496.311329
351.210548	2498.516834
351.600828	2493.843684
351.991045	2493.203458
352.381198	2494.630104
352.771288	2492.893427
353.161314	2492.805207
353.551276	2493.929384
353.941175	2491.912922
354.331010	2494.216730
354.720782	2492.575834
355.110490	2491.393683
355.500135	2493.964672
355.889717	2493.591627
356.279235	2494.131030
356.668689	2494.065495
357.058080	2493.813437
357.447408	2491.045844
357.836672	2492.268324
358.225873	2492.999291
358.615010	2491.134064
359.004084	2494.047851
359.393095	2494.887203
359.782043	2496.946514
360.170927	2497.727893
360.559748	2499.013388
360.948505	2499.872904
361.337199	2500.566063
361.725830	2501.944818
362.114398	2501.173522
362.502903	2504.266270
362.891344	2500.225785
363.279722	2502.360714
363.668037	2503.860457
364.056289	2506.875067
364.444478	2505.768534
364.832603	2505.725684
365.220665	2505.690396
365.608665	2509.703154
365.996601	2508.563853
366.384474	2506.605365
366.772284	2512.105264
367.160031	2512.397651
367.547715	2514.104082
367.935336	2516.843949
368.322893	2519.503157
368.710388	2523.858714
369.097820	2530.238294
369.485189	2532.012781
369.872495	2539.703061
370.259738	2543.965356
370.646918	2551.539690
371.034035	2560.734755
371.421090	2567.489901
371.808081	2581.012796
372.195010	2587.319279
372.581875	2601.134562
372.968678	2618.783641
373.355418	2623.829836
373.742096	2644.795995
374.128710	2657.451812
374.515262	2673.384378
374.901751	2690.204188
375.288177	2700.669624
375.674540	2723.314487
376.060841	2744.089082
376.447079	2763.343769
376.833254	2782.684156
377.219367	2796.605302
377.605417	2832.422700
377.991404	2842.194977
378.377329	2865.502752
378.763191	2879.774258
379.148991	2916.683066
379.534727	2943.761624
379.920402	2972.912096
380.306013	2985.399034
380.691563	3033.849564
381.077049	3054.218346
381.462474	3072.898341
381.847835	3111.059876
382.233134	3132.028555
382.618371	3134.758340
383.003545	3206.204093
383.388657	3212.326574
383.773706	3243.564084
384.158693	3259.133688
384.543618	3283.288377
384.928480	3319.254489
385.313280	3365.978423
385.698017	3365.491952
386.082692	3418.305600
386.467305	3424.753236
386.851856	3456.638534
387.236344	3477.282059
387.620770	3510.145341
388.005133	3533.874052
388.389435	3561.492013
388.773674	3577.515321
389.157851	3617.595014
389.541965	3634.261069
389.926018	3600.029114
390.310008	3667.318435
390.693936	3685.083462
391.077802	3724.575861
391.461606	3716.411712
391.845348	3778.891773
392.229027	3780.242802
392.612645	3790.481386
392.996200	3872.415259
393.379694	3910.445724
393.763125	3977.372082
394.146494	3942.517544
394.529801	4005.037934
394.913047	4053.899318
395.296230	4019.753062
395.679351	4073.166608
396.062410	4095.458590
396.445408	4079.029470
396.828343	4109.258749
397.211217	4137.527019
397.594028	4057.339906
397.976778	4120.830718
398.359466	4146.747290
398.742092	4176.623688
399.124656	4098.369857
399.507158	4179.192156
399.889598	4199.510526
400.271977	4263.039147
400.654294	4236.658789
401.036549	4244.404522
401.418742	4213.290520
401.800874	4317.995286
402.182944	4339.238708
402.564952	4404.627515
402.946898	4391.782655
403.328783	4384.969535
403.710606	4303.512051
404.092367	4493.394672
404.474067	4455.301193
404.855705	4462.835198
405.237282	4393.872213
405.618797	4502.375488
406.000250	4539.395201
406.381642	4618.561481
406.762972	4581.819031
407.144240	4588.115432
407.525447	4591.172892
407.906593	4649.239423
408.287677	4689.659394
408.668700	4620.908138
409.049661	4672.038041
409.430560	4713.733424
409.811399	4638.509327
410.192176	4800.960509
410.572891	4739.556735
410.953545	4845.073126
411.334138	4724.982759
411.714669	4788.826452
412.095139	4687.108570
412.475547	4828.379345
412.855894	4807.478721
413.236180	4821.856092
413.616405	4770.595119
413.996568	4861.915621
414.376670	4805.041323
414.756711	4754.473509
415.136691	4788.057676
415.516609	4864.126167
415.896466	4907.306170
416.276262	4933.943627
416.655997	4918.749590
417.035670	5097.188792
417.415283	5191.594480
417.794834	5137.528105
418.174324	5089.319551
418.553753	5001.379142
418.933121	5182.505279
419.312428	5247.667234
419.691674	5188.579870
420.070859	5308.932377
420.449983	5225.468513
420.829045	5339.663251
421.208047	5246.384260
421.586988	5319.029808
421.965867	5328.905428
422.344686	5460.832424
422.723444	5320.285055
423.102141	5137.293691
423.480777	5434.066418
423.859352	5201.797775
424.237866	5460.164472
424.616319	5453.495025
424.994712	5561.438732
425.373044	5442.507830
425.751314	5583.060241
426.129524	5387.584459
426.507673	5579.730558
426.885762	5665.034443
427.263789	5592.706488
427.641756	5476.764991
428.019662	5599.176809
428.397508	5604.573365
428.775292	5550.514551
429.153016	5651.496425
429.530679	5578.739972
429.908282	5658.733001
430.285824	5532.222725
430.663305	5805.728006
431.040726	5543.887955
431.418086	5534.967633
431.795385	5647.879397
432.172624	5655.640253
432.549802	5654.934492
432.926920	5669.523591
433.303977	5677.332338
433.680974	5717.850612
434.057910	5731.537345
434.434786	5738.663016
434.811601	5707.491041
435.188355	5942.733965
435.565050	5817.675541
435.941683	5801.163241
436.318257	6010.653430
436.694770	5995.771944
437.071222	6033.688983
437.447614	5964.095854
437.823946	5875.623604
438.200218	6022.797570
438.576429	5890.573146
438.952580	5989.238609
439.328670	6032.479106
439.704700	5948.800993
440.080670	5926.566984
440.456580	6198.391041
440.832429	6085.491880
441.208218	5928.066728
441.583947	6088.710657
441.959616	6086.953814
442.335224	6018.474781
442.710773	6154.033928
443.086261	6182.077867
443.461689	5978.957176
443.837057	6125.004444
444.212365	6280.776098
444.587612	6171.541855
444.962800	6325.143292
445.337927	6307.050591
445.712995	5914.788328
446.088002	6492.640670
446.462949	6324.155226
446.837837	6250.629997
447.212664	6426.783036
447.587431	6567.184212
447.962139	7115.530681
448.336786	8036.652832
448.711374	7782.142618
449.085901	6850.020669
449.460369	6775.111644
449.834776	6705.329472
450.209124	7100.596262
450.583412	7250.716783
450.957640	7399.637508
451.331808	7161.274111
451.705917	6715.532767
452.079965	6641.395038
452.453954	6844.508168
452.827883	6724.826134
453.201752	6816.859959
453.575562	6617.497448
453.949311	6820.713921
454.323001	6707.154369
454.696632	6784.097500
455.070202	6921.443737
455.443713	7078.495844
455.817164	7180.674991
456.190556	7262.739935
456.563888	7335.773651
456.937160	7376.710341
457.310373	7035.114194
457.683526	7062.568318
458.056619	6952.439271
458.429653	6936.471417
458.802628	6876.791717
459.175542	6984.054868
459.548398	7342.100299
459.921194	7493.085377
460.293930	7502.202304
460.666607	8026.353755
461.039224	8339.205242
461.411782	8461.428017
461.784280	8484.703024
462.156719	8380.444401
462.529099	8258.856811
462.901419	7844.312648
463.273680	7736.021102
463.645882	7748.208091
464.018024	7613.377390
464.390106	7782.886188
464.762130	8169.252822
465.134094	8634.775653
465.505999	9654.487651
465.877845	10882.091791
466.249631	11528.118177
466.621358	11142.449743
466.993026	10517.807932
467.364634	10264.673953
467.736184	9900.979909
468.107674	9564.659330
468.479105	9600.517057
468.850477	9366.330256
469.221790	9136.499011
469.593043	8811.669742
469.964238	8671.402157
470.335373	8676.503804
470.706449	8748.027695
471.077467	8719.126760
471.448425	10030.714003
471.819324	11102.632190
472.190164	11129.592280
472.560945	9883.678669
472.931667	9087.267102
473.302330	8951.995300
473.672934	8601.042772
474.043479	8954.039488
474.413965	8896.162001
474.784393	8779.759238
475.154761	8936.791180
475.525070	9021.805199
475.895321	8853.798665
476.265513	9026.183441
476.635645	9192.362557
477.005719	9196.057723
477.375734	9311.167430
477.745691	9546.954798
478.115588	9688.563330
478.485427	9929.222973
478.855207	10459.141504
479.224928	11271.238621
479.594591	11904.669684
479.964194	11716.228833
480.333739	11648.319449
480.703226	11576.611557
481.072653	11664.874599
481.442022	11906.605487
481.811333	12088.419742
482.180584	11900.697255
482.549777	11606.175403
482.918912	11431.131418
483.287988	11458.575460
483.657005	11468.919907
484.025964	11153.411732
484.394864	11281.131886
484.763706	11254.890159
485.132489	11007.495534
485.501213	10970.798455
485.869879	11045.185721
486.238487	10886.618747
486.607036	10991.409212
486.975527	10773.061716
487.343959	10967.468773
487.712333	11013.781853
488.080648	10941.315267
488.448905	10985.594241
488.817104	10923.479664
489.185244	11194.829852
489.553326	11344.453819
489.921350	11884.459698
490.289315	12951.316566
490.657222	13293.449596
491.025070	13203.757386
491.392861	13066.854771
491.760593	12693.761496
492.128267	12340.268226
492.495883	12014.350068
492.863440	11678.087463
493.230939	11347.723007
493.598380	11277.590475
493.965763	11146.381843
494.333088	11044.331245
494.700354	10963.019954
495.067563	11023.317196
495.434713	10854.884684
495.801805	10980.701802
496.168839	10902.926880
496.535815	10839.824237
496.902733	10842.135606
497.269593	10778.193610
497.636395	10873.904957
498.003139	10862.083452
498.369825	10728.187885
498.736453	10884.803932
499.103023	10812.889352
499.469535	10841.928918
499.835989	10833.905922
500.202385	10791.300610
500.568723	10646.934567
500.935003	10862.212001
501.301226	10672.518423
501.667390	10933.899729
502.033497	11027.776096
502.399546	10881.507017
502.765537	10791.101485
503.131470	10869.821623
503.497345	11049.185877
503.863163	10658.393110
504.228923	10969.649072
504.594625	11032.436643
504.960269	10783.678386
505.325856	11005.600060
505.691385	10796.561054
506.056856	10948.362800
506.422270	10969.911212
506.787625	10866.439008
507.152924	10977.029321
507.518164	10964.028185
507.883347	10878.686492
508.248472	10798.627928
508.613540	11033.858248
508.978550	10915.166802
509.343503	10894.727443
509.708398	11011.762871
510.073236	11120.697164
510.438016	11124.563729
510.802738	11070.094062
511.167403	11125.755962
511.532010	11021.988852
511.896561	11254.582649
512.261053	11333.030564
512.625488	11192.881446
512.989866	11178.544405
513.354186	11170.458394
513.718449	11066.688763
514.082655	11267.004052
514.446803	11151.932154
514.810894	11279.266659
515.174927	11149.623305
515.538904	11174.282109
515.902822	11330.010913
516.266684	11209.938190
516.630488	11153.315950
516.994235	11214.659231
517.357925	11271.646955
517.721558	11360.018382
518.085133	11374.297450
518.448651	11388.092567
518.812112	11266.348702
519.175516	11283.687751
519.538863	11403.546224
519.902152	11317.776033
520.265385	11481.139664
520.628560	11390.398895
520.991678	11370.834177
521.354739	11435.585278
521.717743	11367.441481
522.080690	11345.598161
522.443580	11475.319652
522.806413	11430.985225
523.169189	11465.325565
523.531908	11517.491425
523.894569	11339.737820
524.257174	11346.142606
524.619722	11455.487753
524.982213	11411.720455
525.344647	11459.117384
525.707025	11407.995043
526.069345	11504.175217
526.431608	11420.693709
526.793815	11532.390555
527.155964	11324.790798
527.518057	11368.782427
527.880093	11325.136117
528.242072	11395.336705
528.603995	11294.836262
528.965860	11217.333563
529.327669	11264.627148
529.689421	11217.817514
530.051117	11188.488081
530.412755	11295.113526
530.774337	11187.263080
531.135862	11168.212560
531.497331	11192.301714
531.858743	11039.564834
532.220098	11209.681092
532.581396	11072.443240
532.942638	11057.922196
533.303824	11027.087979
533.664953	11034.919411
534.026025	10952.758686
534.387040	11047.557584
534.747999	11047.673530
535.108902	11106.967582
535.469748	10867.832888
535.830537	10963.277053
536.191270	10945.131420
536.551947	10969.845677
536.912567	10972.078908
537.273131	10893.315920
537.633638	10873.814217
537.994089	10858.801660
538.354483	10808.095214
538.714821	10950.732142
539.075103	10959.463420
539.435328	10920.200394
539.795497	10752.486246
540.155609	10914.531616
540.515665	10996.954482
540.875665	10733.506302
541.235609	10802.338217
541.595496	10797.972577
541.955328	10953.550147
542.315102	10839.163846
542.674821	10787.252564
543.034483	10788.028902
543.394090	10801.405603
543.753640	10715.680782
544.113134	10947.047058
544.472571	10796.619028
544.831953	10943.004053
545.191278	10742.106511
545.550548	10771.440985
545.909761	10916.989179
546.268918	10889.179653
546.628019	10971.310132
546.987064	10833.545480
547.346053	10757.111505
547.704986	10853.909221
548.063863	10832.915335
548.422684	10832.065901
548.781449	10752.145968
549.140158	10847.945536
549.498811	10728.979346
549.857408	10583.869733
550.215949	10813.017901
550.574434	10666.600108
550.932864	10763.912022
551.291237	10820.191463
551.649555	10766.399831
552.007817	10777.119845
552.366022	10742.056099
552.724173	10730.582433
553.082267	10722.687986
553.440305	10862.655623
553.798288	10658.004941
554.156215	10815.122583
554.514086	10792.966712
554.871902	10643.284772
555.229661	10676.584113
555.587365	10651.184260
555.945014	10547.747345
556.302606	10670.910295
556.660143	10564.552031
557.017625	10725.228728
557.375050	10618.313416
557.732421	10759.760631
558.089735	10669.382825
558.446994	10664.409727
558.804197	10702.230984
559.161345	10703.725686
559.518437	10554.588190
559.875474	10644.169494
560.232455	10672.911633
560.589381	10621.050763
560.946251	10622.258119
561.303065	10720.154806
561.659825	10657.367235
562.016528	10591.877605
562.373177	10474.151540
562.729770	10584.905690
563.086307	10502.606332
563.442789	10594.262071
563.799216	10468.024017
564.155587	10521.193067
564.511904	10478.708743
564.868164	10461.072266
565.224370	10480.243774
565.580520	10404.417258
565.936615	10406.363144
566.292654	10280.944277
566.648638	10407.830120
567.004567	10366.782524
567.360441	10352.448003
567.716260	10262.526422
568.072023	10356.503612
568.427732	10308.151385
568.783385	10219.948836
569.138982	10283.351428
569.494525	10298.941197
569.850013	10178.737404
570.205445	10261.707234
570.560823	10153.408126
570.916145	10080.802908
571.271412	10143.996292
571.626625	10083.217621
571.981782	10068.555425
572.336884	10040.047700
572.691931	10051.097909
573.046923	9993.265792
573.401860	9950.657960
573.756743	9882.680521
574.111570	9926.936810
574.466342	9911.306713
574.821059	9939.000291
575.175722	9836.012039
575.530330	9840.475981
575.884882	9826.196912
576.239380	9760.097303
576.593823	9735.783818
576.948211	9757.667467
577.302544	9637.688005
577.656823	9649.141507
578.011047	9649.950612
578.365216	9622.604873
578.719330	9549.916476
579.073389	9561.112878
579.427394	9502.431327
579.781344	9486.561775
580.135239	9429.775697
580.489080	9444.921844
580.842866	9343.834107
581.196597	9346.465589
581.550273	9389.418740
581.903895	9359.595274
582.257463	9425.273947
582.610975	9303.283065
582.964434	9328.355244
583.317837	9243.149661
583.671186	9236.989371
584.024481	9225.235921
584.377721	9146.772882
584.730906	9118.454200
585.084037	9151.922421
585.437113	9089.482689
585.790135	9104.341490
586.143103	9007.206017
586.496016	8973.863826
586.848874	9041.286738
587.201679	9030.508751
587.554428	8913.982480
587.907124	8959.582237
588.259765	8930.091487
588.612352	8934.696581
588.964884	8810.354001
589.317362	8827.806475
589.669786	8827.264551
590.022155	8870.323567
590.374470	8889.961382
590.726731	8829.686826
591.078937	8680.934979
591.431090	8796.911764
591.783188	8667.510386
592.135232	8655.898088
592.487222	8651.131677
592.839157	8714.763642
593.191038	8638.211200
593.542866	8584.023837
593.894639	8483.767890
594.246358	8543.193012
594.598022	8559.143222
594.949633	8448.436963
595.301190	8422.928725
595.652692	8452.399310
596.004141	8565.381650
596.355535	8342.918052
596.706876	8318.473497
597.058162	8255.277592
597.409395	8328.419693
597.760573	8387.799444
598.111698	8299.929612
598.462768	8290.134650
598.813785	8252.205009
599.164748	8228.927481
599.515657	8204.747586
599.866511	8120.772046
600.217312	8251.864731
600.568060	8107.443235
600.918753	8210.791930
601.269392	8178.016868
601.619978	8088.682581
601.970510	8157.532139
602.320988	8153.438722
602.671412	8207.021147
603.021783	8140.714850
603.372100	8110.775437
603.722363	8118.334648
604.072572	8095.314219
604.422728	8105.734284
604.772830	8030.676544
605.122878	8039.707771
605.472872	8032.337604
605.822813	8062.763488
606.172701	8008.243409
606.522534	8086.104031
606.872314	8084.848783
607.222041	8052.789565
607.571714	8100.942667
607.921333	8060.341214
608.270899	8066.824138
608.620411	8159.636821
608.969870	8066.395640
609.319276	8054.329638
609.668627	8073.034839
610.017926	8110.609079
610.367171	8152.319586
610.716362	8129.117676
611.065500	8115.572095
611.414585	8142.055797
611.763616	8135.414077
612.112594	8113.439687
612.461518	8126.564331
612.810389	8192.593364
613.159207	8128.152295
613.507971	8073.100374
613.856682	8190.350051
614.205340	8148.296746
614.553945	8225.323056
614.902496	8122.607026
615.250994	8178.473093
615.599439	8155.621542
615.947830	8167.778285
616.296169	8135.852657
616.644454	8148.183320
616.992686	8147.711972
617.340864	8207.084161
617.688990	8108.612782
618.037063	8200.021505
618.385082	8142.627968
618.733048	8228.582162
619.080961	8164.128489
619.428821	8179.352774
619.776628	8186.889299
620.124382	8135.968604
620.472083	8118.266592
620.819731	8147.616190
621.167326	8034.230557
621.514868	8044.103657
621.862357	7934.322450
622.209793	7948.256199
622.557176	7879.958647
622.904506	7854.636931
623.251783	7790.974720
623.599007	7740.779951
623.946179	7741.717606
624.293297	7696.861419
624.640363	7613.238759
624.987376	7598.248888
625.334336	7543.267543
625.681243	7489.639749
626.028097	7482.075497
626.374899	7454.334028
626.721647	7443.182995
627.068343	7367.908486
627.414987	7347.257399
627.761577	7295.714122
628.108115	7330.737538
628.454600	7221.284006
628.801032	7272.325689
629.147412	7233.387816
629.493739	7214.836370
629.840014	7156.671537
630.186236	7200.138886
630.532405	7086.738130
630.878521	7137.202601
631.224585	7096.984276
631.570597	7010.951944
631.916556	7039.074021
632.262462	7032.011364
632.608316	6992.778584
632.954117	6969.259081
633.299866	6950.163190
633.645562	6942.304032
633.991206	6860.765889
634.336797	6798.361445
634.682336	6755.509117
635.027823	6723.737245
635.373257	6721.869497
635.718639	6649.894423
636.063968	6655.104456
636.409245	6556.698612
636.754470	6547.561521
637.099642	6506.224059
637.444762	6447.625687
637.789829	6449.790862
638.134845	6389.256687
638.479808	6376.792434
638.824719	6374.793617
639.169577	6307.211908
639.514383	6323.136913
639.859137	6247.660758
640.203839	6253.450523
640.548489	6231.037553
640.893086	6209.642896
641.237632	6178.828843
641.582125	6191.088929
641.926566	6161.769579
642.270955	6171.622514
642.615292	6164.650598
642.959576	6175.718451
643.303809	6162.485422
643.647990	6161.885525
643.992118	6151.147867
644.336195	6094.399599
644.680219	6117.162929
645.024192	6101.069045
645.368112	6186.778743
645.711981	6197.551689
646.055797	6269.415857
646.399562	6214.457198
646.743274	6329.093037
647.086935	6374.561724
647.430544	6359.264342
647.774101	6375.907712
648.117606	6379.239914
648.461059	6360.023036
648.804460	6327.336194
649.147810	6237.558286
649.491108	6205.859510
649.834354	6175.335324
650.177548	6092.882211
650.520690	6009.801475
650.863781	5984.966231
651.206820	5996.666749
651.549807	5920.573052
651.892742	5859.963260
652.235626	5861.145410
652.578458	5840.625393
652.921238	5750.519810
653.263967	5784.540036
653.606644	5724.751952
653.949269	5717.583431
654.291843	5665.533517
654.634365	5701.184558
654.976836	5649.479963
655.319255	5647.193800
655.661622	5618.300427
656.003938	5609.591833
656.346203	5572.007511
656.688416	5594.375110
657.030577	5552.538575
657.372687	5517.537843
657.714746	5500.488661
658.056753	5537.150452
658.398708	5474.501513
658.740612	5467.499350
659.082465	5497.937837
659.424266	5488.664635
659.766016	5481.533923
660.107715	5453.308502
660.449362	5458.788237
660.790958	5447.783398
661.132503	5428.422846
661.473996	5453.356393
661.815438	5443.226195
662.156829	5432.236479
662.498168	5417.629736
662.839456	5396.913114
663.180693	5417.579324
663.521879	5417.982617
663.863013	5405.127674
664.204097	5400.058794
664.545129	5435.551038
664.886110	5423.807670
665.227040	5442.167552
665.567918	5413.314508
665.908746	5424.039563
666.249522	5423.903452
666.590248	5408.570783
666.930922	5424.475623
667.271545	5428.203556
667.612118	5420.989665
667.952639	5397.434874
668.293109	5399.005193
668.633528	5364.339699
668.973896	5364.233834
669.314213	5345.770608
669.654480	5319.135672
669.994695	5314.495290
670.334859	5304.649917
670.674973	5279.880207
671.015035	5282.015136
671.355047	5274.702942
671.695008	5249.804683
672.034918	5230.923042
672.374777	5229.483792
672.714585	5210.728179
673.054342	5202.884144
673.394049	5192.368297
673.733705	5205.888672
674.073310	5185.310682
674.412864	5160.057021
674.752368	5134.899143
675.091820	5130.349502
675.431223	5079.285134
675.770574	5070.866407
676.109875	5026.773955
676.449125	5025.622051
676.788324	4990.782637
677.127473	4939.912353
677.466571	4927.775776
677.805619	4909.015122
678.144616	4892.676742
678.483562	4873.343917
678.822458	4846.446841
679.161303	4825.679807
679.500098	4814.599351
679.838842	4800.973112
680.177535	4792.415754
680.516179	4806.367147
680.854771	4805.699194
681.193314	4857.222307
681.531805	4932.214512
681.870247	5030.852248
682.208638	5099.127115
682.546978	5102.023258
682.885268	5075.345472
683.223508	5009.061861
683.561697	4961.584274
683.899836	4932.748874
684.237925	4889.026947
684.575963	4860.481413
684.913951	4830.058049
685.251889	4854.832800
685.589776	4841.408207
685.927614	4814.934588
686.265401	4848.448179
686.603137	4833.811188
686.940824	4873.812744
687.278460	4889.251278
687.616046	4883.726173
687.953582	4928.841980
688.291068	4911.825565
688.628504	4941.003763
688.965889	4913.048045
689.303224	4871.463567
689.640510	4827.746680
689.977745	4771.066467
690.314930	4691.600238
690.652065	4650.419053
690.989150	4589.247171
691.326185	4522.653529
691.663170	4476.156447
692.000105	4419.808949
692.336990	4365.823233
692.673825	4329.907532
693.010610	4283.440697
693.347345	4241.445365
693.684030	4205.015466
694.020665	4180.321374
694.357251	4117.551447
694.693786	4121.828866
695.030272	4088.862241
695.366707	4059.011048
695.703093	4036.845095
696.039429	4041.306516
696.375716	4014.900952
696.711952	4004.458202
697.048139	3992.959330
697.384276	3968.797079
697.720363	3968.255155
698.056400	3966.783138
698.392388	3933.481276
698.728326	3922.010131
699.064214	3905.109662
699.400053	3893.227663
699.735842	3863.071480
700.071581	3845.800487
700.407270	3823.367353
700.742910	3805.670382
701.078501	3770.357099
701.414042	3760.647837
701.749533	3735.991554
702.084974	3700.481666
702.420366	3722.602249
702.755709	3685.569933
703.091002	3651.474089
703.426246	3663.156963
703.761440	3646.755569
704.096584	3625.988536
704.431679	3623.372177
704.766725	3610.456741
705.101721	3600.303857
705.436668	3605.592027
705.771565	3583.935230
706.106413	3593.528546
706.441212	3602.736213
706.775961	3601.722942
707.110661	3598.393259
707.445311	3612.803398
707.779913	3607.868108
708.114465	3618.623410
708.448967	3635.007160
708.783421	3661.770646
709.117825	3680.375024
709.452180	3684.236548
709.786485	3708.045917
710.120742	3750.245416
710.454949	3745.751228
710.789107	3777.996968
711.123216	3812.733039
711.457275	3811.079540
711.791286	3845.447607
712.125247	3843.620188
712.459159	3808.082574
712.793023	3847.821990
713.126837	3794.784010
713.460602	3788.840490
713.794318	3756.383021
714.127985	3747.989500
714.461602	3688.541693
714.795171	3677.415867
715.128691	3628.662868
715.462162	3591.822115
715.795584	3559.021848
716.128957	3544.110115
716.462281	3520.315869
716.795556	3496.456088
717.128782	3470.176553
717.461960	3430.545522
717.795088	3429.736416
718.128167	3406.216913
718.461198	3376.834548
718.794180	3368.670399
719.127113	3348.233562
719.459997	3337.490863
719.792833	3312.312820
720.125619	3310.656801
720.458357	3282.761576
720.791046	3280.641771
721.123686	3265.102414
721.456278	3247.917121
721.788821	3249.265629
722.121315	3232.818865
722.453761	3224.606825
722.786158	3220.213460
723.118506	3227.853328
723.450805	3212.160216
723.783056	3219.041391
724.115259	3215.505022
724.447412	3210.574773
724.779518	3213.793550
725.111574	3212.797922
725.443582	3225.841908
725.775542	3212.820607
726.107453	3238.570821
726.439315	3237.388671
726.771129	3248.007861
727.102895	3263.312804
727.434612	3277.213786
727.766281	3283.593366
728.097901	3288.805919
728.429473	3281.027419
728.760996	3278.912655
729.092471	3277.163375
729.423897	3268.946294
729.755276	3260.628390
730.086606	3259.983122
730.417887	3281.070269
730.749120	3309.583035
731.080305	3320.202226
731.411442	3335.003053
731.742530	3322.238852
732.073570	3322.876558
732.404562	3333.659586
732.735506	3331.912826
733.066401	3319.206598
733.397249	3279.696554
733.728048	3237.653331
734.058798	3191.675488
734.389501	3156.256341
734.720156	3131.625263
735.050762	3108.345215
735.381320	3095.490272
735.711831	3078.751121
736.042293	3061.742268
736.372707	3064.303174
736.703073	3055.037533
737.033391	3054.062070
737.363661	3058.659602
737.693883	3064.386353
738.024056	3069.377095
738.354182	3072.807601
738.684260	3093.793924
739.014290	3103.694750
739.344272	3104.455964
739.674207	3116.504322
740.004093	3124.602936
740.333931	3117.510032
740.663722	3113.736729
740.993464	3109.030812
741.323159	3101.161570
741.652806	3081.604414
741.982405	3069.056982
742.311956	3049.978735
742.641460	3044.796429
742.970915	3028.470653
743.300323	3008.376613
743.629683	2993.989160
743.958996	2985.083962
744.288260	2968.798514
744.617477	2956.856021
744.946647	2948.870833
745.275768	2934.339707
745.604842	2928.020621
745.933869	2914.268353
746.262847	2906.192425
746.591778	2913.297931
746.920662	2905.605130
747.249498	2896.931825
747.578286	2908.546644
747.907027	2913.948240
748.235720	2922.714807
748.564365	2925.709252
748.892963	2919.700197
749.221514	2913.285328
749.550017	2906.981365
749.878473	2902.300654
750.206881	2888.964282
750.535242	2884.908673
750.863555	2883.023282
751.191821	2878.203939
751.520039	2878.816439
751.848210	2870.261601
752.176334	2872.769575
752.504411	2870.793442
752.832440	2862.951928
753.160421	2858.878675
753.488356	2854.974302
753.816243	2859.803727
754.144082	2847.331912
754.471875	2840.901921
754.799620	2846.308558
755.127318	2838.502332
755.454969	2839.634071
755.782572	2837.123576
756.110129	2830.612926
756.437638	2828.876248
756.765100	2827.805003
757.092515	2829.773574
757.419882	2830.529747
757.747203	2828.719972
758.074477	2825.400373
758.401703	2827.928511
758.728882	2834.572752
759.056014	2836.695078
759.383099	2836.546364
759.710138	2838.640963
760.037129	2842.031139
760.364073	2842.936026
760.690970	2843.407374
761.017820	2837.864626
761.344623	2840.949812
761.671379	2845.118846
761.998088	2855.405320
762.324751	2894.895199
762.651366	2975.346973
762.977935	3146.143786
763.304456	3270.337652
763.630931	3286.933131
763.957359	3168.266890
764.283740	3059.085580
764.610074	2990.115033
764.936362	2929.079263
765.262602	2884.212994
765.588796	2850.485154
765.914943	2820.868375
766.241044	2800.560087
766.567097	2785.446708
766.893104	2772.296858
767.219064	2762.942997
767.544978	2754.141142
767.870845	2737.283524
768.196665	2736.058524
768.522438	2731.715570
768.848165	2725.900599
769.173846	2720.199054
769.499479	2712.977601
769.825066	2707.200438
770.150607	2703.631302
770.476101	2701.093081
770.801548	2702.681044
771.126949	2692.266020
771.452303	2685.163034
771.777611	2686.284691
772.102872	2683.875020
772.428087	2679.947961
772.753256	2671.877073
773.078378	2673.205417
773.403453	2664.819458
773.728482	2660.385763
774.053465	2661.462050
774.378401	2659.354847
774.703291	2653.789413
775.028135	2652.319917
775.352932	2650.265647
775.677683	2647.787920
776.002388	2646.338588
776.327046	2644.574184
776.651658	2640.405150
776.976224	2634.842237
777.300743	2638.930613
777.625216	2637.690489
777.949643	2635.497587
778.274024	2635.376599
778.598359	2629.712863
778.922647	2627.729169
779.246889	2629.533902
779.571086	2621.110134
779.895236	2630.106073
780.219339	2630.385857
780.543397	2630.600106
780.867409	2631.096659
781.191374	2630.779067
781.515294	2628.331587
781.839167	2627.325876
782.162995	2628.762605
782.486776	2631.159674
782.810511	2627.774539
783.134201	2625.798407
783.457844	2622.987963
783.781441	2619.749022
784.104993	2616.416819
784.428498	2616.754577
784.751958	2616.164762
785.075372	2617.664505
785.398739	2613.787858
785.722061	2615.544700
786.045337	2616.908332
786.368568	2617.064608
786.691752	2613.871037
787.014891	2622.627521
787.337983	2630.852163
787.661030	2641.511683
787.984031	2656.035247
788.306987	2662.061947
788.629897	2661.915753
788.952760	2653.628097
789.275579	2645.905049
789.598351	2633.841568
789.921078	2624.858232
790.243759	2622.372943
790.566395	2614.876747
790.888984	2611.489092
791.211529	2609.023967
791.534027	2606.314347
791.856480	2601.583224
792.178888	2600.275045
792.501249	2598.697164
792.823566	2597.610795
793.145836	2596.794128
793.468062	2597.656165
793.790241	2594.601226
794.112375	2595.732965
794.434464	2598.936618
794.756507	2599.027359
795.078505	2601.184973
795.400457	2604.522217
795.722364	2609.076899
796.044226	2615.665687
796.366042	2616.873044
796.687812	2615.421192
797.009538	2615.627879
797.331218	2615.844648
797.652852	2609.800305
797.974442	2609.195367
798.295986	2603.771085
798.617484	2602.160436
798.938938	2599.869232
799.260346	2600.648090
799.581709	2594.177769
799.903026	2596.955445
800.224299	2595.314549
800.545526	2591.679877
800.866708	2590.931266
801.187845	2588.740885
801.508936	2586.696697
801.829983	2586.122005
802.150984	2584.960019
802.471940	2586.726944
802.792851	2585.680904
803.113717	2583.850966
803.434538	2584.816347
803.755314	2581.557241
804.076045	2582.943558
804.396731	2585.426326
804.717372	2583.097313
805.037967	2585.794330
805.358518	2585.839701
805.679024	2587.677201
805.999485	2583.157807
806.319901	2588.836667
806.640272	2585.408682
806.960598	2586.016141
807.280879	2585.370873
807.601115	2588.569486
807.921306	2586.802561
808.241453	2589.116451
808.561554	2586.996646
808.881611	2585.804413
809.201623	2584.287025
809.521590	2580.818712
809.841513	2583.477920
810.161390	2585.915318
810.481223	2581.025399
810.801011	2579.150090
811.120755	2581.232086
811.440453	2579.906263
811.760107	2577.242013
812.079716	2576.339646
812.399281	2573.463668
812.718801	2573.965263
813.038276	2571.517783
813.357707	2577.660429
813.677093	2575.172619
813.996434	2574.587845
814.315731	2571.631209
814.634983	2574.950808
814.954191	2573.125911
815.273354	2577.743608
815.592473	2574.608010
815.911547	2575.318813
816.230577	2580.738053
816.549562	2579.591191
816.868502	2577.826787
817.187399	2582.023547
817.506250	2579.150090
817.825058	2581.889957
818.143821	2584.045050
818.462539	2584.261820
818.781213	2585.988415
819.099843	2592.849425
819.418429	2602.798142
819.736970	2612.749380
820.055466	2623.171966
820.373919	2635.830303
820.692327	2650.565596
821.010691	2679.554751
821.329011	2760.218253
821.647286	2955.789817
821.965517	3257.064294
822.283704	3414.895259
822.601847	3388.668657
822.919945	3222.633213
823.237999	3079.459403
823.556010	2958.922894
823.873976	2865.293544
824.191897	2796.070940
824.509775	2748.066552
824.827609	2710.139431
825.145398	2688.028930
825.463144	2685.669670
825.780845	2700.268852
826.098502	2714.729402
826.416116	2761.997781
826.733685	2813.218424
827.051210	2823.943479
827.368692	2798.478091
827.686129	2748.595873
828.003522	2703.492670
828.320872	2665.013542
828.638177	2640.609317
828.955439	2620.038888
829.272656	2605.981631
829.589830	2597.227667
829.906960	2594.626432
830.224046	2588.135946
830.541088	2583.644278
830.858086	2579.308886
831.175041	2580.687642
831.491952	2575.575912
831.808819	2581.325347
832.125642	2580.465831
832.442421	2587.571337
832.759157	2600.292689
833.075849	2626.685650
833.392497	2660.978099
833.709101	2687.300484
834.025662	2681.573733
834.342179	2660.405928
834.658653	2636.276445
834.975083	2617.122581
835.291469	2605.873246
835.607811	2592.105855
835.924110	2584.597056
836.240366	2577.894842
836.556578	2572.946950
836.872746	2568.084757
837.188871	2565.785991
837.504952	2561.957234
837.820990	2560.696946
838.136984	2559.270299
838.452935	2560.606205
838.768842	2561.717780
839.084706	2563.088973
839.400526	2573.284707
839.716303	2588.796337
840.032037	2604.020622
840.347727	2603.113214
840.663373	2591.906729
840.978977	2582.542786
841.294537	2571.656414
841.610054	2564.291289
841.925527	2561.289282
842.240957	2557.218550
842.556344	2559.035886
842.871687	2553.389793
843.186987	2552.799978
843.502244	2549.737477
843.817458	2551.214536
844.132629	2549.780327
844.447756	2552.149670
844.762840	2543.904862
845.077881	2544.504760
845.392879	2543.095757
845.707833	2546.415357
846.022745	2540.532331
846.337613	2547.249668
846.652438	2545.124822
846.967221	2546.813608
847.281960	2547.360573
847.596656	2548.076417
847.911309	2547.055584
848.225919	2543.872095
848.540485	2546.831252
848.855009	2546.795964
849.169490	2547.794113
849.483928	2546.697662
849.798323	2544.134235
850.112675	2546.531304
850.426984	2546.823691
850.741251	2546.798485
851.055474	2544.063659
851.369654	2546.828732
851.683792	2543.025181
851.997887	2546.425439
852.311938	2544.986190
852.625947	2545.928886
852.939914	2545.838145
853.253837	2547.002652
853.567718	2549.014072
853.881555	2542.631971
854.195350	2547.108516
854.509103	2545.442414
854.822812	2545.913762
855.136479	2544.900490
855.450103	2548.726726
855.763685	2543.662887
856.077224	2545.268495
856.390720	2547.816798
856.704173	2545.792775
857.017584	2544.182126
857.330953	2544.109029
857.644278	2546.112888
857.957561	2546.435522
858.270802	2548.399051
858.584000	2544.484595
858.897155	2546.047353
859.210268	2545.029040
859.523339	2545.318906
859.836367	2545.941489
860.149352	2546.680018
860.462295	2546.392672
860.775195	2541.916127
861.088054	2542.536189
861.400869	2540.335726
861.713642	2539.057793
862.026373	2544.517363
862.339062	2545.064328
862.651708	2545.306303
862.964312	2543.030222
863.276873	2545.029040
863.589392	2544.817311
863.901869	2545.830583
864.214303	2544.832435
864.526696	2547.045501
864.839045	2549.014072
865.151353	2548.177240
865.463619	2546.816129
865.775842	2550.405430
866.088023	2546.828732
866.400162	2550.629762
866.712258	2548.046170
867.024313	2549.722354
867.336325	2547.032898
867.648296	2547.519370
867.960224	2546.110367
868.272110	2546.425439
868.583954	2544.179605
868.895755	2546.246478
869.207515	2548.388969
869.519233	2548.336037
869.830909	2547.652960
870.142542	2551.020451
870.454134	2547.098433
870.765684	2547.862168
871.077191	2547.784030
871.388657	2549.936603
871.700081	2549.041798
872.011463	2549.268650
872.322803	2548.608259
872.634101	2553.178065
872.945357	2547.605069
873.256571	2548.416695
873.567744	2549.946685
873.878874	2551.816953
874.189963	2551.743857
874.501010	2550.901984
874.812015	2551.184289
875.122979	2552.631100
875.433900	2552.328631
875.744780	2553.278888
876.055618	2549.616490
876.366415	2550.917108
876.677169	2551.242262
876.987882	2549.195553
877.298554	2546.803526
877.609183	2549.172868
877.919771	2549.603887
878.230317	2552.885678
878.540822	2557.190823
878.851285	2557.969682
879.161707	2560.495300
879.472087	2564.634087
879.782425	2575.792681
880.092722	2587.624269
880.402977	2611.791561
880.713191	2653.383601
881.023363	2710.230172
881.333494	2749.689804
881.643583	2766.824686
881.953631	2751.058477
882.263637	2729.900754
882.573602	2704.087526
882.883526	2677.744977
883.193408	2659.067502
883.503248	2640.248874
883.813048	2627.144395
884.122806	2611.479009
884.432522	2601.197576
884.742197	2590.815320
885.051831	2585.328024
885.361424	2575.275963
885.670975	2571.918554
885.980485	2570.118862
886.289954	2565.637277
886.599382	2562.733572
886.908768	2563.051165
887.218113	2558.695608
887.527417	2560.530588
887.836680	2554.892057
888.145901	2555.176882
888.455082	2554.382901
888.764221	2554.912222
889.073319	2552.268137
889.382376	2552.996583
889.691392	2549.936603
890.000366	2555.774259
890.309300	2553.372149
890.618193	2553.543549
890.927044	2552.119423
891.235855	2551.194371
891.544625	2550.720502
891.853353	2551.012889
892.162041	2551.756460
892.470687	2557.279044
892.779293	2556.646379
893.087858	2559.323232
893.396381	2560.936401
893.704864	2568.845971
894.013306	2574.426528
894.321707	2590.981678
894.630068	2601.157247
894.938387	2604.809563
895.246665	2603.713112
895.554903	2595.362440
895.863100	2588.592171
896.171256	2579.573547
896.479371	2573.524162
896.787446	2570.189439
897.095480	2566.484191
897.403473	2563.530074
897.711425	2557.337017
898.019336	2560.250804
898.327207	2556.444733
898.635038	2558.882131
898.942827	2554.148487
899.250576	2554.987839
899.558284	2553.316697
899.865952	2554.186296
900.173579	2548.532642
900.481165	2552.411810
900.788711	2551.131357
901.096216	2549.956768
901.403681	2549.450132
901.711105	2546.886705
902.018489	2549.137580
902.325832	2554.592109
902.633135	2549.371994
902.940397	2553.684701
903.247619	2556.212840
903.554800	2567.179870
903.861941	2585.615369
904.169041	2610.745521
904.476101	2618.287087
904.783121	2620.752212
905.090100	2609.817949
905.397039	2594.966710
905.703938	2585.615369
906.010796	2575.591035
906.317614	2565.110476
906.624391	2560.989333
906.931129	2559.456822
907.237826	2556.583364
907.544483	2551.272509
907.851099	2551.955585
908.157675	2548.658671
908.464211	2547.799154
908.770707	2542.790768
909.077163	2541.840510
909.383578	2540.565098
909.689954	2542.395037
909.996289	2538.399922
910.302584	2543.511652
910.608839	2546.039791
910.915054	2543.284801
911.221229	2543.035263
911.527363	2543.181457
911.833458	2543.801519
912.139513	2546.064997
912.445527	2543.574667
912.751502	2546.501057
913.057436	2544.938299
913.363331	2548.615821
913.669186	2548.235214
913.975000	2552.550441
914.280775	2556.129661
914.586510	2559.560166
914.892205	2567.061403
915.197859	2577.819225
915.503475	2586.827767
915.809050	2601.137082
916.114585	2605.177567
916.420081	2608.169492
916.725536	2606.304265
917.030952	2600.658172
917.336328	2589.429002
917.641665	2585.910277
917.946961	2578.356108
918.252218	2572.803277
918.557435	2566.978224
918.862612	2564.555949
919.167750	2562.438665
919.472848	2558.302398
919.777906	2552.842828
920.082925	2554.811399
920.387904	2553.541028
920.692843	2552.658826
920.997743	2549.273691
921.302603	2550.947354
921.607423	2548.013403
921.912204	2545.734801
922.216946	2546.185985
922.521647	2546.848896
922.826310	2545.328988
923.130932	2543.027702
923.435516	2541.361600
923.740059	2542.165664
924.044564	2540.688606
924.349028	2543.133566
924.653454	2536.547298
924.957840	2539.874460
925.262186	2537.638708
925.566493	2540.315561
925.870761	2536.607792
926.174989	2541.044008
926.479178	2541.263298
926.783328	2538.220962
927.087438	2540.088709
927.391509	2540.164326
927.695541	2538.011754
927.999533	2538.137783
928.303486	2536.338091
928.607400	2537.051414
928.911275	2538.117618
929.215110	2540.282793
929.518906	2541.187681
929.822663	2539.680376
930.126381	2538.092412
930.430060	2538.278935
930.733699	2537.036290
931.037299	2540.678524
931.340861	2538.974614
931.644383	2540.895294
931.947866	2535.680220
932.251309	2538.152906
932.554714	2537.379089
932.858080	2540.028215
933.161407	2537.893287
933.464694	2538.629295
933.767943	2535.975128
934.071153	2538.286497
934.374323	2536.388502
934.677455	2538.573842
934.980548	2536.270035
935.283602	2538.329346
935.586617	2539.027546
935.889593	2535.990251
936.192530	2537.573173
936.495428	2537.303472
936.798287	2539.146013
937.101108	2541.926210
937.403890	2537.084181
937.706632	2541.785057
938.009336	2537.555529
938.312002	2541.661549
938.614628	2542.347146
938.917216	2542.359749
939.219765	2543.395706
939.522275	2544.782023
939.824747	2543.451159
940.127179	2535.700385
940.429573	2536.990920
940.731929	2537.847916
941.034246	2535.128214
941.336524	2542.195911
941.638763	2541.089378
941.940964	2540.307999
942.243126	2539.698020
942.545250	2540.522248
942.847335	2539.879501
943.149381	2540.171888
943.451389	2538.397402
943.753359	2541.197763
944.055290	2537.714326
944.357182	2542.241282
944.659036	2538.200797
944.960851	2540.827238
945.262628	2538.213400
945.564367	2540.378575
945.866067	2539.390509
946.167729	2539.153575
946.469352	2538.818338
946.770937	2538.662063
947.072484	2538.162988
947.373992	2537.936136
947.675462	2537.835313
947.976893	2536.665766
948.278286	2535.171063
948.579641	2538.551157
948.880958	2538.218441
949.182236	2535.864222
949.483476	2539.239275
949.784678	2537.782381
950.085841	2538.833462
950.386967	2538.611651
950.688054	2536.252391
950.989103	2535.672658
951.290114	2535.208872
951.591087	2537.694161
951.892021	2538.856147
952.192917	2537.394212
952.493776	2540.882691
952.794596	2539.398071
953.095378	2534.614016
953.396122	2537.966383
953.696828	2539.448483
953.997496	2541.311189
954.298126	2537.101825
954.598718	2538.563760
954.899272	2536.842206
955.199788	2539.405633
955.500266	2537.767258
955.800706	2534.992102
956.101108	2534.850950
956.401472	2533.973789
956.701798	2529.867770
957.002087	2532.834489
957.302337	2536.080992
957.602550	2536.184335
957.902724	2534.954294
958.202861	2535.624767
958.502960	2533.323481
958.803022	2535.576876
959.103045	2532.582431
959.403031	2534.755168
959.702979	2532.032945
960.002889	2534.291382
960.302762	2531.218799
960.602596	2532.743748
960.902393	2532.279962
961.202153	2533.061341
961.501875	2533.565456
961.801559	2533.734335
962.101205	2535.196269
962.400814	2533.814993
962.700385	2533.923378
962.999918	2532.501773
963.299414	2532.148892
963.598873	2534.873635
963.898293	2534.782895
964.197677	2533.179808
964.497022	2532.325332
964.796331	2531.811134
965.095601	2534.482946
965.394835	2533.247863
965.694030	2532.794159
965.993189	2532.791639
966.292309	2532.237112
966.591393	2534.540919
966.890439	2531.382636
967.189447	2534.878677
967.488419	2531.319622
967.787353	2533.772143
968.086249	2533.053779
968.385108	2533.046217
968.683930	2531.301978
968.982714	2531.307019
969.281462	2531.120496
969.580172	2533.177287
969.878844	2530.283665
970.177480	2532.839530
970.476078	2533.419263
970.774639	2533.212575
971.073162	2531.755682
971.371649	2529.708973
971.670098	2527.087573
971.968510	2529.494724
972.266885	2526.873324
972.565223	2532.587472
972.863524	2529.880373
973.161788	2532.274921
973.460014	2529.613191
973.758204	2532.085877
974.056356	2531.410363
974.354471	2532.968079
974.652550	2531.067564
974.950591	2531.594365
975.248595	2534.344314
975.546563	2532.390867
975.844493	2531.687626
976.142386	2531.748120
976.440243	2532.584952
976.738062	2533.346166
977.035845	2532.529499
977.333590	2531.536392
977.631299	2530.896165
977.928971	2531.894313
978.226606	2531.788449
978.524204	2531.543953
978.821765	2529.724097
979.119290	2530.573531
979.416777	2533.298275
979.714228	2530.203006
980.011642	2534.182997
980.309020	2534.644263
980.606360	2532.078316
980.903664	2532.779036
981.200931	2529.827440
981.498162	2532.078316
981.795356	2530.810465
982.092513	2532.668131
982.389633	2532.738707
982.686717	2533.794828
982.983764	2533.383974
983.280775	2534.687113
983.577749	2536.436393
983.874686	2535.125693
984.171587	2533.784746
984.468451	2534.475384
984.765279	2536.194418
985.062070	2533.000847
985.358824	2532.844571
985.655543	2531.848943
985.952224	2534.424973
986.248869	2533.078985
986.545478	2525.194620
986.842050	2526.948942
987.138586	2526.994312
987.435086	2525.751668
987.731549	2524.859383
988.027975	2531.198634
988.324366	2528.584796
988.620719	2529.986237
988.917037	2528.945238
989.213318	2530.266021
989.509563	2528.768798
989.805772	2527.465660
990.101944	2531.566638
990.398080	2528.937677
990.694180	2526.071781
990.990244	2526.843077
991.286271	2532.116124
991.582262	2530.167718
991.878217	2533.449509
992.174136	2529.328366
992.470019	2531.422966
992.765865	2529.098994
993.061676	2528.466329
993.357450	2531.632173
993.653188	2529.625794
993.948890	2528.771319
994.244556	2529.779549
994.540186	2527.624456
994.835780	2529.358613
995.131337	2525.915505
995.426859	2530.150074
995.722345	2529.265352
996.017795	2530.268541
996.313208	2530.505476
996.608586	2530.094622
996.903928	2530.611340
997.199234	2530.031607
997.494504	2529.963552
997.789738	2529.179652
998.084936	2531.095291
998.380099	2530.772657
998.675225	2530.946577
998.970316	2529.862728
999.265371	2531.128058
999.560390	2531.566638
999.855373	2527.037162
1000.150320	2529.310722
1000.445232	2529.845084
1000.740108	2527.309384
1001.034948	2525.633200
1001.329752	2530.828109
1001.624521	2527.324507
1001.919254	2526.596061
1002.213951	2526.366688
1002.508613	2523.765453
1002.803239	2526.422141
1003.097829	2523.518436
1003.392384	2528.809127
1003.686903	2529.338448
1003.981386	2530.306350
1004.275834	2529.151926
1004.570246	2530.513037
1004.864623	2527.737882
1005.158964	2527.067409
1005.453270	2528.892306
1005.747540	2528.947759
1006.041775	2528.874662
1006.335974	2526.931298
1006.630138	2524.405679
1006.924266	2529.179652
1007.218359	2529.943387
1007.512416	2527.828623
1007.806438	2528.365506
1008.100425	2529.797193
1008.394376	2527.271575
1008.688292	2530.422297
1008.982172	2530.074457
1009.276017	2531.317101
1009.569827	2526.953983
1009.863602	2531.387677
1010.157341	2523.135309
1010.451045	2528.368026
1010.744714	2527.563962
1011.038347	2529.540095
1011.331945	2529.048582
1011.625508	2527.521113
1011.919036	2526.931297
1012.212528	2526.429703
1012.505986	2529.517409
1012.799408	2525.844929
1013.092795	2530.205527
1013.386147	2524.193951
1013.679464	2529.169570
1013.972745	2528.688140
1014.265992	2529.119158
1014.559204	2531.259128
1014.852380	2527.838705
1015.145521	2528.627646
1015.438628	2526.021369
1015.731699	2530.848274
1016.024736	2527.765608
1016.317737	2526.825433
1016.610703	2527.901720
1016.903635	2527.223684
1017.196531	2524.531708
1017.489393	2524.960206
1017.782219	2521.645648
1018.075011	2527.132944
1018.367768	2525.751667
1018.660490	2528.131092
1018.953177	2528.131092
1019.245829	2528.131092
