Dividing Wavelength (nm)	Counts (n)	Blue Motor Position (mm): 0.000000	Red Motor Position (mm): 14.600000	
326.493990	2126.973713
326.888308	2126.973713
327.282561	2126.973713
327.676750	2096.257963
328.070874	2093.122365
328.464933	2098.783581
328.858929	2103.144179
329.252859	2113.014758
329.646726	2124.296860
330.040528	2135.732718
330.434265	2153.502785
330.827938	2170.773778
331.221547	2188.266582
331.615091	2208.552185
332.008571	2228.719321
332.401986	2247.326220
332.795338	2268.327667
333.188625	2286.057405
333.581847	2306.264870
333.975006	2322.608291
334.368100	2340.474140
334.761129	2358.100535
335.154095	2376.790613
335.546996	2393.933056
335.939833	2406.921589
336.332606	2421.014135
336.725315	2435.847730
337.117960	2444.674790
337.510540	2453.272478
337.903056	2462.901082
338.295508	2471.345015
338.687896	2479.559575
339.080220	2488.709269
339.472480	2494.466267
339.864676	2498.194200
340.256807	2504.656959
340.648875	2505.758451
341.040879	2510.693741
341.432818	2507.704337
341.824694	2512.485871
342.216506	2513.294976
342.608253	2514.610718
342.999937	2511.656601
343.391557	2511.359173
343.783113	2513.766324
344.174605	2508.823473
344.566033	2509.493946
344.957397	2507.104439
345.348697	2507.522855
345.739934	2504.228461
346.131106	2503.905827
346.522215	2501.806187
346.913260	2499.043634
347.304241	2498.342914
347.695159	2493.387460
348.086012	2495.398880
348.476802	2492.520381
348.867528	2489.657006
349.258191	2488.116933
349.648789	2487.363281
350.039324	2485.387149
350.429796	2486.879330
350.820203	2483.963023
351.210548	2483.534525
351.600828	2481.505460
351.991045	2483.252220
352.381198	2481.843217
352.771288	2479.526807
353.161314	2479.940182
353.551276	2482.468321
353.941175	2477.701910
354.331010	2480.673670
354.720782	2482.145687
355.110490	2480.398927
355.500135	2481.530666
355.889717	2480.053608
356.279235	2478.881540
356.668689	2485.702221
357.058080	2480.030923
357.447408	2481.850779
357.836672	2480.008238
358.225873	2480.076293
358.615010	2476.865078
359.004084	2486.516367
359.393095	2484.545276
359.782043	2484.167189
360.170927	2485.974443
360.559748	2487.229690
360.948505	2491.058447
361.337199	2487.317911
361.725830	2490.919815
362.114398	2490.340082
362.502903	2490.430823
362.891344	2488.245483
363.279722	2492.043992
363.668037	2491.867552
364.056289	2492.033910
364.444478	2496.328973
364.832603	2492.507778
365.220665	2492.595999
365.608665	2493.074908
365.996601	2494.428458
366.384474	2495.126658
366.772284	2500.906341
367.160031	2498.799138
367.547715	2499.918275
367.935336	2503.797442
368.322893	2505.874398
368.710388	2508.107629
369.097820	2515.860924
369.485189	2517.869823
369.872495	2525.958355
370.259738	2531.798532
370.646918	2538.828421
371.034035	2545.694472
371.421090	2555.585216
371.808081	2564.515620
372.195010	2576.069945
372.581875	2586.855493
372.968678	2599.108018
373.355418	2613.132508
373.742096	2628.863428
374.128710	2641.657877
374.515262	2657.509785
374.901751	2672.955880
375.288177	2684.830318
375.674540	2709.252188
376.060841	2726.414796
376.447079	2743.458937
376.833254	2766.638163
377.219367	2780.410595
377.605417	2815.489464
377.991404	2827.363902
378.377329	2847.178157
378.763191	2863.967720
379.148991	2902.008267
379.534727	2925.396700
379.920402	2955.182358
380.306013	2965.078143
380.691563	3018.181658
381.077049	3037.043135
381.462474	3056.179355
381.847835	3095.167638
382.233134	3116.234620
382.618371	3114.639095
383.003545	3185.394210
383.388657	3193.870910
383.773706	3222.492061
384.158693	3237.318095
384.543618	3265.621653
384.928480	3303.447951
385.313280	3347.565609
385.698017	3345.143334
386.082692	3399.645769
386.467305	3404.971748
386.851856	3434.233126
387.236344	3457.830767
387.620770	3489.829491
388.005133	3515.267153
388.389435	3541.350083
388.773674	3550.403995
389.157851	3593.190789
389.541965	3609.135958
389.926018	3574.856112
390.310008	3646.536279
390.693936	3660.401972
391.077802	3700.668189
391.461606	3688.244265
391.845348	3748.523862
392.229027	3745.645363
392.612645	3752.241713
392.996200	3830.117458
393.379694	3864.724979
393.763125	3916.918565
394.146494	3878.958677
394.529801	3930.443981
394.913047	3964.144094
395.296230	3924.082045
395.679351	3961.046305
396.062410	3968.492090
396.445408	3933.887089
396.828343	3949.746559
397.211217	3954.659163
397.594028	3863.613404
397.976778	3905.717121
398.359466	3906.795928
398.742092	3911.990837
399.124656	3825.275429
399.507158	3864.241028
399.889598	3865.211450
400.271977	3886.182650
400.654294	3835.345134
401.036549	3811.666835
401.418742	3756.887136
401.800874	3803.129641
402.182944	3787.935603
402.564952	3797.493631
402.946898	3753.776744
403.328783	3717.845920
403.710606	3624.115747
404.092367	3707.821586
404.474067	3647.317658
404.855705	3616.962350
405.237282	3539.815052
405.618797	3557.658216
406.000250	3534.544525
406.381642	3537.861605
406.762972	3477.582007
407.144240	3437.424176
407.525447	3401.437899
407.906593	3388.303173
408.287677	3364.841643
408.668700	3298.179945
409.049661	3276.281173
409.430560	3253.190168
409.811399	3191.373018
410.192176	3202.012374
410.572891	3147.956081
410.953545	3137.775471
411.334138	3073.919175
411.714669	3053.434446
412.095139	2999.852022
412.475547	2997.202896
412.855894	2962.613019
413.236180	2931.017587
413.616405	2895.573234
413.996568	2880.719474
414.376670	2848.589680
414.756711	2817.679846
415.136691	2798.029428
415.516609	2784.655247
415.896466	2768.349635
416.276262	2752.545617
416.655997	2726.901268
417.035670	2727.022255
417.415283	2719.342057
417.794834	2692.253417
418.174324	2674.992507
418.553753	2656.897285
418.933121	2654.464928
419.312428	2640.546302
419.691674	2626.983078
420.070859	2620.956378
420.449983	2607.730911
420.829045	2600.262442
421.208047	2591.818509
421.586988	2585.489341
421.965867	2577.718402
422.344686	2574.577763
422.723444	2567.172308
423.102141	2559.396328
423.480777	2559.197203
423.859352	2550.922149
424.237866	2551.491799
424.616319	2550.397869
424.994712	2551.491799
425.373044	2547.174051
425.751314	2541.570808
426.129524	2540.328164
426.507673	2542.389996
426.885762	2539.158616
427.263789	2538.074768
427.641756	2538.714995
428.019662	2537.893287
428.397508	2537.132072
428.775292	2536.075951
429.153016	2533.872966
429.530679	2535.680220
429.908282	2534.974458
430.285824	2534.288862
430.663305	2532.166536
431.040726	2531.619571
431.418086	2534.074612
431.795385	2532.887421
432.172624	2529.986237
432.549802	2532.035466
432.926920	2532.970600
433.303977	2535.125693
433.680974	2533.212575
434.057910	2532.499252
434.434786	2534.382123
434.811601	2532.186700
435.188355	2533.111752
435.565050	2533.830117
435.941683	2534.077133
436.318257	2532.161495
436.694770	2530.245856
437.071222	2529.789632
437.447614	2529.628315
437.823946	2530.235774
438.200218	2530.187883
438.576429	2533.797349
438.952580	2534.203162
439.328670	2531.543953
439.704700	2532.900024
440.080670	2535.176105
440.456580	2530.054292
440.832429	2531.468336
441.208218	2530.384488
441.583947	2534.820703
441.959616	2532.022863
442.335224	2533.575538
442.710773	2533.106711
443.086261	2537.179963
443.461689	2531.982534
443.837057	2535.234078
444.212365	2533.452030
444.587612	2534.528316
444.962800	2534.777853
445.337927	2535.445806
445.712995	2532.264838
446.088002	2538.367155
446.462949	2534.903882
446.837837	2533.941022
447.212664	2537.137113
447.587431	2536.885056
447.962139	2536.461599
448.336786	2539.819007
448.711374	2537.013605
449.085901	2537.046373
449.460369	2539.035108
449.834776	2537.280786
450.209124	2537.263142
450.583412	2539.587114
450.957640	2536.632998
451.331808	2537.177443
451.705917	2534.641742
452.079965	2539.889583
452.453954	2538.364634
452.827883	2538.488143
453.201752	2537.784902
453.575562	2536.534696
453.949311	2539.360262
454.323001	2535.821372
454.696632	2537.895807
455.070202	2539.544264
455.443713	2538.004192
455.817164	2536.466640
456.190556	2535.599562
456.563888	2537.595858
456.937160	2535.960004
457.310373	2541.084337
457.683526	2537.472350
458.056619	2540.519728
458.429653	2538.326826
458.802628	2538.394881
459.175542	2540.754141
459.548398	2541.719522
459.921194	2541.795140
460.293930	2542.052238
460.666607	2542.785726
461.039224	2543.050387
461.411782	2542.705068
461.784280	2546.891746
462.156719	2545.883515
462.529099	2544.414019
462.901419	2542.999975
463.273680	2541.303627
463.645882	2543.640202
464.018024	2544.131714
464.390106	2542.488298
464.762130	2546.932075
465.134094	2546.163299
465.505999	2552.558003
465.877845	2553.251162
466.249631	2554.405586
466.621358	2553.974567
466.993026	2553.934238
467.364634	2557.500854
467.736184	2553.556152
468.107674	2552.000956
468.479105	2551.159083
468.850477	2554.667726
469.221790	2552.462221
469.593043	2549.530790
469.964238	2549.142621
470.335373	2548.983825
470.706449	2549.926521
471.077467	2551.186809
471.448425	2555.388611
471.819324	2555.812068
472.190164	2559.774415
472.560945	2555.300391
472.931667	2550.934752
473.302330	2554.720658
473.672934	2551.486758
474.043479	2551.254865
474.413965	2549.886192
474.784393	2547.985677
475.154761	2549.243444
475.525070	2547.073228
475.895321	2548.202446
476.265513	2549.762683
476.635645	2553.299053
477.005719	2551.340564
477.375734	2553.397355
477.745691	2552.825184
478.115588	2554.206460
478.485427	2553.510781
478.855207	2556.008673
479.224928	2561.957234
479.594591	2558.211657
479.964194	2561.674930
480.333739	2560.752399
480.703226	2557.480690
481.072653	2560.928839
481.442022	2560.323901
481.811333	2560.923798
482.180584	2560.132337
482.549777	2559.474466
482.918912	2558.267110
483.287988	2558.667882
483.657005	2556.424568
484.025964	2560.402038
484.394864	2558.884651
484.763706	2558.899775
485.132489	2558.549414
485.501213	2556.963972
485.869879	2556.313663
486.238487	2552.666388
486.607036	2556.502706
486.975527	2555.867521
487.343959	2557.400031
487.712333	2557.546225
488.080648	2556.096893
488.448905	2556.081770
488.817104	2555.315514
489.185244	2557.205947
489.553326	2559.529919
489.921350	2558.677964
490.289315	2562.831875
490.657222	2564.341700
491.025070	2562.095866
491.392861	2566.766495
491.760593	2562.247101
492.128267	2561.609395
492.495883	2559.257697
492.863440	2561.984961
493.230939	2556.633776
493.598380	2556.404403
493.965763	2551.882488
494.333088	2552.033723
494.700354	2552.454659
495.067563	2556.477500
495.434713	2554.806358
495.801805	2557.780638
496.168839	2558.302398
496.535815	2555.665874
496.902733	2557.117727
497.269593	2557.392470
497.636395	2556.545556
498.003139	2559.565207
498.369825	2558.204095
498.736453	2558.826678
499.103023	2555.890206
499.469535	2557.596636
499.835989	2557.647048
500.202385	2557.868859
500.568723	2556.205278
500.935003	2558.138560
501.301226	2555.461708
501.667390	2556.636297
502.033497	2557.125288
502.399546	2558.892213
502.765537	2558.413303
503.131470	2557.410114
503.497345	2556.157387
503.863163	2557.505896
504.228923	2556.127140
504.594625	2558.035217
504.960269	2557.752912
505.325856	2558.191492
505.691385	2553.659495
506.056856	2558.095711
506.422270	2557.498334
506.787625	2558.690567
507.152924	2556.646379
507.518164	2557.243756
507.883347	2556.333827
508.248472	2553.357026
508.613540	2557.246276
508.978550	2558.998077
509.343503	2557.168138
509.708398	2556.462377
510.073236	2557.866338
510.438016	2559.108982
510.802738	2558.040258
511.167403	2559.774415
511.532010	2556.931204
511.896561	2558.113355
512.261053	2562.481514
512.625488	2557.077398
512.989866	2554.226625
513.354186	2557.823488
513.718449	2551.358208
514.082655	2559.938252
514.446803	2560.308777
514.810894	2560.104610
515.174927	2560.278530
515.538904	2560.782646
515.902822	2557.077398
516.266684	2556.568241
516.630488	2555.565051
516.994235	2558.625032
517.357925	2561.269117
517.721558	2559.739127
518.085133	2556.502706
518.448651	2561.299364
518.812112	2557.543704
519.175516	2559.618139
519.538863	2561.556463
519.902152	2558.846842
520.265385	2559.681153
520.628560	2561.112841
520.991678	2559.807182
521.354739	2557.407593
521.717743	2556.921122
522.080690	2560.583520
522.443580	2561.259035
522.806413	2558.279713
523.169189	2558.453632
523.531908	2560.124775
523.894569	2558.635114
524.257174	2558.425906
524.619722	2560.991853
524.982213	2561.606874
525.344647	2558.700649
525.707025	2560.679302
526.069345	2558.940104
526.431608	2557.442881
526.793815	2559.618139
527.155964	2561.153170
527.518057	2557.931873
527.880093	2559.945814
528.242072	2558.846842
528.603995	2561.354817
528.965860	2557.057233
529.327669	2561.798438
529.689421	2557.636966
530.051117	2556.994218
530.412755	2561.662327
530.774337	2558.277192
531.135862	2559.053530
531.497331	2556.464897
531.858743	2554.965154
532.220098	2560.112172
532.581396	2555.728889
532.942638	2553.609084
533.303824	2556.326266
533.664953	2558.567058
534.026025	2555.809547
534.387040	2559.209806
534.747999	2560.843139
535.108902	2560.926318
535.469748	2558.209137
535.830537	2560.855742
536.191270	2556.230484
536.551947	2556.777449
536.912567	2557.548745
537.273131	2558.352809
537.633638	2558.488921
537.994089	2558.302398
538.354483	2557.790721
538.714821	2555.552448
539.075103	2559.698797
539.435328	2560.225598
539.795497	2556.661502
540.155609	2560.971689
540.515665	2558.067984
540.875665	2556.878272
541.235609	2556.812737
541.595496	2560.109652
541.955328	2558.287274
542.315102	2558.637635
542.674821	2558.418344
543.034483	2559.686195
543.394090	2556.452294
543.753640	2559.759291
544.113134	2559.517316
544.472571	2556.994218
544.831953	2561.193500
545.191278	2559.045968
545.550548	2559.018242
545.909761	2559.068653
546.268918	2556.049002
546.628019	2558.085628
546.987064	2558.965310
547.346053	2557.654610
547.704986	2557.352140
548.063863	2559.159394
548.422684	2556.969013
548.781449	2560.371792
549.140158	2559.101421
549.498811	2558.380536
549.857408	2555.192006
550.215949	2557.261400
550.574434	2553.180586
550.932864	2554.067829
551.291237	2554.622356
551.649555	2558.970351
552.007817	2558.246945
552.366022	2559.653427
552.724173	2558.171328
553.082267	2558.050340
553.440305	2558.655279
553.798288	2558.609908
554.156215	2555.776780
554.514086	2556.268292
554.871902	2558.383056
555.229661	2560.016390
555.587365	2559.834909
555.945014	2560.490259
556.302606	2558.930022
556.660143	2554.650082
557.017625	2559.809703
557.375050	2558.874569
557.732421	2562.219374
558.089735	2559.171997
558.446994	2557.566389
558.804197	2557.674774
559.161345	2556.664023
559.518437	2557.863817
559.875474	2555.587737
560.232455	2559.444219
560.589381	2558.488921
560.946251	2561.430434
561.303065	2560.492779
561.659825	2562.312636
562.016528	2561.314487
562.373177	2558.705690
562.729770	2557.815927
563.086307	2557.962120
563.442789	2557.541184
563.799216	2560.240722
564.155587	2557.793241
564.511904	2561.175856
564.868164	2558.824157
565.224370	2559.585372
565.580520	2559.003118
565.936615	2558.453632
566.292654	2556.729558
566.648638	2557.344579
567.004567	2555.207129
567.360441	2557.810885
567.716260	2555.794424
568.072023	2558.448591
568.427732	2552.265616
568.783385	2556.908519
569.138982	2554.947510
569.494525	2555.227294
569.850013	2551.726213
570.205445	2555.262582
570.560823	2555.466749
570.916145	2557.699980
571.271412	2561.294323
571.626625	2559.877758
571.981782	2556.694270
572.336884	2556.112017
572.691931	2560.417162
573.046923	2556.835422
573.401860	2557.775597
573.756743	2556.895916
574.111570	2556.164949
574.466342	2558.219219
574.821059	2557.644527
575.175722	2559.083777
575.530330	2558.478838
575.884882	2557.054712
576.239380	2553.903991
576.593823	2559.802141
576.948211	2557.571431
577.302544	2558.539332
577.656823	2556.585885
578.011047	2556.290977
578.365216	2558.725855
578.719330	2557.407593
579.073389	2558.130999
579.427394	2554.811399
579.781344	2554.854249
580.135239	2556.021276
580.489080	2556.908519
580.842866	2556.238045
581.196597	2558.234342
581.550273	2557.717624
581.903895	2555.517160
582.257463	2555.078580
582.610975	2556.744681
582.964434	2556.036399
583.317837	2554.566903
583.671186	2556.595967
584.024481	2556.371636
584.377721	2553.795606
584.730906	2557.616801
585.084037	2556.149825
585.437113	2557.296688
585.790135	2555.260062
586.143103	2555.814588
586.496016	2554.821481
586.848874	2550.904505
587.201679	2554.753426
587.554428	2551.033054
587.907124	2555.368446
588.259765	2549.321582
588.612352	2553.881306
588.964884	2555.683518
589.317362	2556.492624
589.669786	2555.108827
590.022155	2556.474980
590.374470	2553.102448
590.726731	2555.169321
591.078937	2556.033879
591.431090	2554.607232
591.783188	2554.793755
592.135232	2552.169834
592.487222	2551.708569
592.839157	2555.310473
593.191038	2553.992211
593.542866	2553.780483
593.894639	2556.880792
594.246358	2555.108827
594.598022	2556.258210
594.949633	2552.177396
595.301190	2556.013714
595.652692	2555.020607
596.004141	2553.205791
596.355535	2557.256358
596.706876	2554.738302
597.058162	2555.126471
597.409395	2553.190668
597.760573	2553.752757
598.111698	2553.417520
598.462768	2555.502037
598.813785	2553.180586
599.164748	2554.667726
599.515657	2552.747046
599.866511	2554.576985
600.217312	2552.442057
600.568060	2552.661347
600.918753	2554.471121
601.269392	2552.547921
601.619978	2551.017931
601.970510	2553.936759
602.320988	2554.677808
602.671412	2551.806871
603.021783	2553.160421
603.372100	2550.760832
603.722363	2552.124464
604.072572	2554.612273
604.422728	2553.893909
604.772830	2550.707900
605.122878	2547.015254
605.472872	2548.320913
605.822813	2547.768907
606.172701	2550.120605
606.522534	2555.847356
606.872314	2552.618497
607.222041	2555.469269
607.571714	2555.008004
607.921333	2550.216387
608.270899	2551.131357
608.620411	2552.426933
608.969870	2557.100083
609.319276	2555.910370
609.668627	2558.551935
610.017926	2560.500341
610.367171	2562.728531
610.716362	2559.998746
611.065500	2558.899775
611.414585	2555.128992
611.763616	2553.460370
612.112594	2554.566903
612.461518	2554.302242
612.810389	2555.330638
613.159207	2555.706204
613.507971	2551.559855
613.856682	2555.209650
614.205340	2551.247303
614.553945	2555.562531
614.902496	2553.046995
615.250994	2552.444577
615.599439	2553.659495
615.947830	2554.022458
616.296169	2553.485575
616.644454	2552.757129
616.992686	2553.374670
617.340864	2555.345761
617.688990	2551.416182
618.037063	2554.335010
618.385082	2555.224773
618.733048	2553.099927
619.080961	2552.293342
619.428821	2553.354505
619.776628	2554.617314
620.124382	2552.038764
620.472083	2553.107489
620.819731	2552.885678
621.167326	2551.085986
621.514868	2554.060267
621.862357	2550.997766
622.209793	2553.944320
622.557176	2552.678991
622.904506	2551.743857
623.251783	2549.107333
623.599007	2547.519370
623.946179	2549.450132
624.293297	2549.392158
624.640363	2554.208981
624.987376	2551.791748
625.334336	2551.055739
625.681243	2549.187992
626.028097	2551.469114
626.374899	2552.104299
626.721647	2549.119936
627.068343	2554.559341
627.414987	2550.123126
627.761577	2550.423074
628.108115	2549.064483
628.454600	2546.894267
628.801032	2551.418702
629.147412	2548.535162
629.493739	2550.554144
629.840014	2550.632282
630.186236	2550.118085
630.532405	2548.419216
630.878521	2550.624721
631.224585	2550.327293
631.570597	2550.087838
631.916556	2549.999618
632.262462	2549.175389
632.608316	2551.022972
632.954117	2545.772610
633.299866	2550.218908
633.645562	2546.518701
633.991206	2551.343085
634.336797	2546.561551
634.682336	2550.980122
635.027823	2549.104813
635.373257	2549.208156
635.718639	2548.333516
636.063968	2550.266799
636.409245	2547.615152
636.754470	2549.165307
637.099642	2546.614483
637.444762	2550.143290
637.789829	2548.252858
638.134845	2546.017106
638.479808	2548.966181
638.824719	2548.169679
639.169577	2545.848227
639.514383	2549.886192
639.859137	2545.901159
640.203839	2548.915769
640.548489	2546.692621
640.893086	2542.647095
641.237632	2542.790767
641.582125	2546.735470
641.926566	2540.986034
642.270955	2547.002652
642.615292	2544.703885
642.959576	2550.042467
643.303809	2547.456355
643.647990	2547.307641
643.992118	2548.464586
644.336195	2547.738660
644.680219	2544.212373
645.024192	2548.275543
645.368112	2547.930224
645.711981	2547.111036
646.055797	2549.606407
646.399562	2547.826880
646.743274	2549.278733
647.086935	2548.204967
647.430544	2546.100285
647.774101	2547.211859
648.117606	2548.643547
648.461059	2548.835111
648.804460	2547.330327
649.147810	2547.373176
649.491108	2547.569781
649.834354	2546.702703
650.177548	2546.659853
650.520690	2547.605069
650.863781	2544.598021
651.206820	2550.760832
651.549807	2546.382590
651.892742	2546.574153
652.235626	2547.607590
652.578458	2546.949719
652.921238	2548.172199
653.263967	2545.727240
653.606644	2544.356046
653.949269	2547.539534
654.291843	2545.611293
654.634365	2546.196067
654.976836	2543.118442
655.319255	2545.102137
655.661622	2546.574153
656.003938	2544.973587
656.346203	2546.178423
656.688416	2546.801005
657.030577	2545.570964
657.372687	2544.207332
657.714746	2546.783361
658.056753	2543.695655
658.398708	2542.805891
658.740612	2542.019471
659.082465	2539.261960
659.424266	2543.373021
659.766016	2539.161137
660.107715	2548.366284
660.449362	2544.638350
660.790958	2545.626417
661.132503	2545.785213
661.473996	2546.102806
661.815438	2544.799667
662.156829	2547.456355
662.498168	2546.080120
662.839456	2546.342260
663.180693	2544.083823
663.521879	2545.959133
663.863013	2544.580377
664.204097	2546.861499
664.545129	2548.114226
664.886110	2549.195553
665.227040	2544.726571
665.567918	2546.816129
665.908746	2545.117260
666.249522	2549.387117
666.590248	2548.083979
666.930922	2547.247147
667.271545	2545.555840
667.612118	2547.315203
667.952639	2545.928886
668.293109	2544.091385
668.633528	2546.695141
668.973896	2543.088196
669.314213	2545.097095
669.654480	2542.447969
669.994695	2543.758669
670.334859	2545.535676
670.674973	2544.966025
671.015035	2543.988042
671.355047	2546.238917
671.695008	2543.680531
672.034918	2545.507949
672.374777	2543.698175
672.714585	2545.260933
673.054342	2544.635830
673.394049	2544.482075
673.733705	2545.936448
674.073310	2547.448794
674.412864	2545.674307
674.752368	2542.823535
675.091820	2544.655994
675.431223	2544.328319
675.770574	2544.167002
676.109875	2543.080634
676.449125	2542.942002
676.788324	2541.762372
677.127473	2543.869574
677.466571	2545.460058
677.805619	2546.075079
678.144616	2544.343443
678.483562	2543.904863
678.822458	2544.373690
679.161303	2544.411498
679.500098	2541.717002
679.838842	2545.081972
680.177535	2543.829245
680.516179	2543.645243
680.854771	2542.614327
681.193314	2545.172713
681.531805	2542.889070
681.870247	2545.422250
682.208638	2545.235727
682.546978	2544.461910
682.885268	2545.031560
683.223508	2546.864020
683.561697	2545.412167
683.899836	2545.016437
684.237925	2543.599873
684.575963	2544.847558
684.913951	2544.424101
685.251889	2543.592311
685.589776	2547.138763
685.927614	2545.880995
686.265401	2544.262784
686.603137	2544.156920
686.940824	2546.004503
687.278460	2544.721529
687.616046	2543.274718
687.953582	2546.047353
688.291068	2545.049204
688.628504	2543.667928
688.965889	2545.455017
689.303224	2545.213042
689.640510	2546.894267
689.977745	2544.184647
690.314930	2545.150028
690.652065	2544.552651
690.989150	2545.694472
691.326185	2543.297403
691.663170	2543.289842
692.000105	2542.087527
692.336990	2543.919986
692.673825	2543.950233
693.010610	2542.987373
693.347345	2540.716333
693.684030	2539.768596
694.020665	2540.471837
694.357251	2536.600231
694.693786	2541.749769
695.030272	2542.652136
695.366707	2541.348997
695.703093	2543.897301
696.039429	2541.865716
696.375716	2540.905376
696.711952	2543.380582
697.048139	2542.163144
697.384276	2542.309337
697.720363	2541.051569
698.056400	2541.182639
698.392388	2540.577701
698.728326	2541.228010
699.064214	2541.192722
699.400053	2541.752290
699.735842	2541.701878
700.071581	2541.805222
700.407270	2543.219266
700.742910	2540.083668
701.078501	2541.293545
701.414042	2539.728267
701.749533	2543.052908
702.084974	2541.326312
702.420366	2539.629964
702.755709	2538.977135
703.091002	2541.316230
703.426246	2539.672814
703.761440	2540.711292
704.096584	2541.490150
704.431679	2540.660880
704.766725	2543.415871
705.101721	2541.638864
705.436668	2543.199101
705.771565	2540.764224
706.106413	2542.314378
706.441212	2540.277752
706.775961	2542.415202
707.110661	2543.191539
707.445311	2541.187681
707.779913	2541.512835
708.114465	2540.212217
708.448967	2541.837989
708.783421	2542.049718
709.117825	2541.628782
709.452180	2541.953936
709.786485	2541.495191
710.120742	2539.524100
710.454949	2543.342774
710.789107	2539.947557
711.123216	2538.493184
711.457275	2539.468647
711.791286	2538.941847
712.125247	2537.709284
712.459159	2539.892104
712.793023	2543.425953
713.126837	2542.198432
713.460602	2540.136600
713.794318	2542.604245
714.127985	2542.251364
714.461602	2541.442259
714.795171	2542.775644
715.128691	2538.820859
715.462162	2543.206663
715.795584	2538.054603
716.128957	2541.016281
716.462281	2540.096271
716.795556	2539.330015
717.128782	2541.139790
717.461960	2540.476878
717.795088	2539.251878
718.128167	2541.376724
718.461198	2540.975952
718.794180	2542.982331
719.127113	2539.019984
719.459997	2540.607948
719.792833	2540.660880
720.125619	2539.342618
720.458357	2540.048380
720.791046	2541.026364
721.123686	2540.907897
721.456278	2537.411856
721.788821	2540.454193
722.121315	2539.319933
722.453761	2539.831610
722.786158	2539.077958
723.118506	2541.636343
723.450805	2539.529141
723.783056	2538.866229
724.115259	2537.575694
724.447412	2537.986548
724.779518	2539.887063
725.111574	2541.384286
725.443582	2540.751621
725.775542	2539.521579
726.107453	2537.873122
726.439315	2536.428831
726.771129	2542.652136
727.102895	2539.675334
727.434612	2537.600900
727.766281	2542.621889
728.097901	2538.369676
728.429473	2533.222658
728.760996	2536.335570
729.092471	2534.548481
729.423897	2539.950077
729.755276	2537.943698
730.086606	2542.415202
730.417887	2539.387989
730.749120	2539.067875
731.080305	2538.478060
731.411442	2541.485109
731.742530	2540.600386
732.073570	2541.974101
732.404562	2540.184491
732.735506	2541.278421
733.066401	2538.072248
733.397249	2539.715664
733.728048	2540.663401
734.058798	2540.746580
734.389501	2541.419574
734.720156	2538.616692
735.050762	2535.992772
735.381320	2540.040818
735.711831	2537.305992
736.042293	2538.326826
736.372707	2541.180119
736.703073	2537.391692
737.033391	2539.375386
737.363661	2539.433359
737.693883	2536.242309
738.024056	2540.116435
738.354182	2538.553678
738.684260	2538.089892
739.014290	2540.045859
739.344272	2538.904038
739.674207	2540.363452
740.004093	2538.737680
740.333931	2538.452855
740.663722	2539.254398
740.993464	2539.733308
741.323159	2541.278421
741.652806	2541.059131
741.982405	2541.200283
742.311956	2537.686599
742.641460	2539.282124
742.970915	2538.382278
743.300323	2536.915303
743.629683	2539.456044
743.958996	2537.676517
744.288260	2538.755324
744.617477	2535.733152
744.946647	2535.266845
745.275768	2535.362627
745.604842	2535.980169
745.933869	2535.229037
746.262847	2535.322298
746.591778	2537.643749
746.920662	2535.539068
747.249498	2536.791794
747.578286	2534.523275
747.907027	2538.856147
748.235720	2536.373379
748.564365	2538.530993
748.892963	2539.022505
749.221514	2538.195756
749.550017	2538.122659
749.878473	2541.021322
750.206881	2535.332380
750.535242	2538.170550
750.863555	2537.043852
751.191821	2536.804397
751.520039	2537.328677
751.848210	2539.498894
752.176334	2535.690302
752.504411	2537.893287
752.832440	2538.790612
753.160421	2536.080992
753.488356	2536.688451
753.816243	2537.999151
754.144082	2534.523275
754.471875	2538.853626
754.799620	2538.286497
755.127318	2537.419418
755.454969	2536.441434
755.782572	2535.216434
756.110129	2537.489994
756.437638	2538.500746
756.765100	2536.149047
757.092515	2537.941177
757.419882	2537.096784
757.747203	2534.392205
758.074477	2536.854809
758.401703	2538.276414
758.728882	2538.170550
759.056014	2538.180632
759.383099	2539.022505
759.710138	2538.478060
760.037129	2537.280786
760.364073	2539.055272
760.690970	2535.730632
761.017820	2539.173740
761.344623	2537.157278
761.671379	2540.532331
761.998088	2533.406660
762.324751	2537.729449
762.651366	2537.265663
762.977935	2540.605427
763.304456	2539.420756
763.630931	2542.780685
763.957359	2540.151723
764.283740	2541.389327
764.610074	2540.507125
764.936362	2542.049718
765.262602	2536.887576
765.588796	2537.580735
765.914943	2536.544778
766.241044	2539.072917
766.567097	2535.947401
766.893104	2537.263142
767.219064	2534.871115
767.544978	2535.778522
767.870845	2536.491846
768.196665	2536.363296
768.522438	2537.225334
768.848165	2535.476053
769.173846	2537.026208
769.499479	2534.941691
769.825066	2534.702236
770.150607	2535.488656
770.476101	2537.144675
770.801548	2537.989068
771.126949	2537.187525
771.452303	2537.921013
771.777611	2536.693492
772.102872	2538.127700
772.428087	2535.811290
772.753256	2535.425642
773.078378	2534.858512
773.403453	2533.041176
773.728482	2535.135775
774.053465	2534.891279
774.378401	2532.436237
774.703291	2534.427493
775.028135	2535.685261
775.352932	2535.614685
775.677683	2533.567977
776.002388	2536.801877
776.327046	2536.176774
776.651658	2536.204500
776.976224	2534.931609
777.300743	2537.495035
777.625216	2536.053265
777.949643	2533.426824
778.274024	2537.716846
778.598359	2531.112935
778.922647	2535.352545
779.246889	2531.312060
779.571086	2532.642925
779.895236	2534.674510
780.219339	2533.227699
780.543397	2536.696013
780.867409	2534.220806
781.191374	2535.486136
781.515294	2534.979500
781.839167	2534.044366
782.162995	2533.469674
782.486776	2537.754655
782.810511	2535.849099
783.134201	2536.025539
783.457844	2532.602596
783.781441	2537.298430
784.104993	2534.636701
784.428498	2533.978831
784.751958	2533.361289
785.075372	2530.913809
785.398739	2533.855322
785.722061	2534.656866
786.045337	2535.811290
786.368568	2535.072761
786.691752	2535.148378
787.014891	2533.257946
787.337983	2533.401618
787.661030	2532.388347
787.984031	2537.565612
788.306987	2534.409849
788.629897	2535.012267
788.952760	2534.545960
789.275579	2533.603265
789.598351	2534.946732
789.921078	2533.885569
790.243759	2534.309026
790.566395	2533.578059
790.888984	2535.062679
791.211529	2532.647966
791.534027	2537.827752
791.856480	2531.939684
792.178888	2536.494366
792.501249	2531.846423
792.823566	2535.392874
793.145836	2534.815662
793.468062	2535.541588
793.790241	2534.372041
794.112375	2535.934798
794.434464	2534.714839
794.756507	2533.857843
795.078505	2535.430683
795.400457	2531.188552
795.722364	2531.060003
796.044226	2532.146371
796.366042	2531.153264
796.687812	2532.907585
797.009538	2534.823224
797.331218	2536.103677
797.652852	2531.533871
797.974442	2533.499921
798.295986	2534.256094
798.617484	2534.747607
798.938938	2533.721732
799.260346	2536.300282
799.581709	2533.268028
799.903026	2537.232895
800.224299	2535.634850
800.545526	2534.092257
800.866708	2534.125024
801.187845	2534.858512
801.508936	2532.428676
801.829983	2533.053779
802.150984	2536.683410
802.471940	2532.078316
802.792851	2531.606968
803.113717	2536.751465
803.434538	2533.704088
803.755314	2533.918337
804.076045	2534.470343
804.396731	2532.877338
804.717372	2535.314736
805.037967	2533.767102
805.358518	2533.530168
805.679024	2533.666279
805.999485	2531.748120
806.319901	2533.681402
806.640272	2534.432534
806.960598	2534.891279
807.280879	2532.776515
807.601115	2534.261135
807.921306	2531.478418
808.241453	2534.344314
808.561554	2531.405322
808.881611	2534.387164
809.201623	2535.075282
809.521590	2535.173584
809.841513	2534.666948
810.161390	2532.511855
810.481223	2533.852802
810.801011	2533.071423
811.120755	2534.200641
811.440453	2533.446989
811.760107	2531.843902
812.079716	2530.611340
812.399281	2530.424817
812.718801	2531.037317
813.038276	2528.473891
813.357707	2534.908923
813.677093	2533.804911
813.996434	2530.460105
814.315731	2533.520086
814.634983	2530.916330
814.954191	2529.928263
815.273354	2535.029911
815.592473	2534.619057
815.911547	2535.206352
816.230577	2533.008408
816.549562	2530.767616
816.868502	2533.565456
817.187399	2533.590662
817.506250	2533.850281
817.825058	2534.593851
818.143821	2534.152750
818.462539	2536.937988
818.781213	2534.336753
819.099843	2534.243491
819.418429	2535.798687
819.736970	2534.359438
820.055466	2536.320447
820.373919	2535.733152
820.692327	2537.479912
821.010691	2540.489481
821.329011	2544.928217
821.647286	2556.056564
821.965517	2564.351782
822.283704	2571.011147
822.601847	2574.086251
822.919945	2565.715415
823.237999	2559.197203
823.556010	2557.120247
823.873976	2550.140770
824.191897	2545.235727
824.509775	2542.024512
824.827609	2544.779503
825.145398	2542.049718
825.463144	2541.197763
825.780845	2540.872608
826.098502	2544.174564
826.416116	2544.471992
826.733685	2548.598177
827.051210	2547.673125
827.368692	2549.271171
827.686129	2546.927034
828.003522	2542.344625
828.320872	2533.356248
828.638177	2537.731970
828.955439	2533.646114
829.272656	2531.501103
829.589830	2532.017822
829.906960	2535.395395
830.224046	2534.019160
830.541088	2536.378420
830.858086	2534.558563
831.175041	2534.301464
831.491952	2533.378933
831.808819	2531.856505
832.125642	2534.041845
832.442421	2536.184335
832.759157	2535.917154
833.075849	2537.542926
833.392497	2539.297248
833.709101	2539.337577
834.025662	2540.126518
834.342179	2541.109543
834.658653	2537.845396
834.975083	2538.483102
835.291469	2541.417053
835.607811	2535.433203
835.924110	2533.736855
836.240366	2533.416742
836.556578	2530.994468
836.872746	2533.320960
837.188871	2532.481608
837.504952	2531.294416
837.820990	2533.230219
838.136984	2531.042358
838.452935	2532.514375
838.768842	2534.193080
839.084706	2530.182842
839.400526	2533.691485
839.716303	2532.108563
840.032037	2535.506300
840.347727	2534.432534
840.663373	2533.973789
840.978977	2533.983872
841.294537	2533.676361
841.610054	2530.991947
841.925527	2532.892462
842.240957	2528.163860
842.556344	2535.153419
842.871687	2531.150743
843.186987	2529.867770
843.502244	2533.409180
843.817458	2531.216278
844.132629	2529.819879
844.447756	2528.846936
844.762840	2528.234436
845.077881	2528.902389
845.392879	2528.259642
845.707833	2528.103366
846.022745	2524.743437
846.337613	2531.004550
846.652438	2532.068233
846.967221	2531.057482
847.281960	2533.522606
847.596656	2533.043697
847.911309	2532.559746
848.225919	2529.393901
848.540485	2529.880372
848.855009	2530.898686
849.169490	2530.661751
849.483928	2531.402801
849.798323	2530.515558
850.112675	2532.433717
850.426984	2532.388347
850.741251	2532.625281
851.055474	2530.233253
851.369654	2531.455733
851.683792	2529.794673
851.997887	2529.676206
852.311938	2532.819365
852.625947	2531.455733
852.939914	2531.289375
853.253837	2532.300126
853.567718	2530.092101
853.881555	2531.508665
854.195350	2528.831812
854.509103	2532.169056
854.822812	2530.578572
855.136479	2531.838861
855.450103	2532.814324
855.763685	2532.295085
856.077224	2530.666793
856.390720	2530.881042
856.704173	2528.395753
857.017584	2529.663603
857.330953	2530.303829
857.644278	2530.399611
857.957561	2533.812473
858.270802	2530.402132
858.584000	2530.591175
858.897155	2530.747451
859.210268	2530.066895
859.523339	2530.989426
859.836367	2529.237625
860.149352	2530.255938
860.462295	2530.591175
860.775195	2530.208048
861.088054	2527.216123
861.400869	2528.884745
861.713642	2526.643952
862.026373	2528.730989
862.339062	2529.469518
862.651708	2532.340456
862.964312	2530.203006
863.276873	2530.016484
863.589392	2531.523789
863.901869	2529.403983
864.214303	2530.374406
864.526696	2531.070085
864.839045	2532.534540
865.151353	2530.192924
865.463619	2531.864067
865.775842	2530.129910
866.088023	2530.092101
866.400162	2533.063861
866.712258	2530.777698
867.024313	2530.641587
867.336325	2531.848943
867.648296	2532.022863
867.960224	2529.575383
868.272110	2529.381298
868.583954	2531.546474
868.895755	2531.281813
869.207515	2528.405835
869.519233	2530.724766
869.830909	2529.121679
870.142542	2533.913296
870.454134	2530.346679
870.765684	2532.945394
871.077191	2530.835671
871.388657	2532.055630
871.700081	2528.884745
872.011463	2530.255938
872.322803	2531.307019
872.634101	2532.191742
872.945357	2533.053779
873.256571	2531.465815
873.567744	2530.203006
873.878874	2532.907585
874.189963	2530.548325
874.501010	2528.597399
874.812015	2530.747451
875.122979	2532.169056
875.433900	2532.491690
875.744780	2531.407842
876.055618	2529.547656
876.366415	2531.244005
876.677169	2530.571011
876.987882	2528.055475
877.298554	2526.197810
877.609183	2527.687471
877.919771	2528.725948
878.230317	2528.804086
878.540822	2535.506300
878.851285	2532.957997
879.161707	2528.267203
879.472087	2531.697708
879.782425	2534.288862
880.092722	2535.652494
880.402977	2537.467309
880.713191	2542.863864
881.023363	2549.941644
881.333494	2554.168652
881.643583	2554.970195
881.953631	2553.871224
882.263637	2553.069680
882.573602	2551.721172
882.883526	2547.864689
883.193408	2543.955274
883.503248	2543.988042
883.813048	2543.161292
884.122806	2537.404295
884.432522	2538.820859
884.742197	2535.655014
885.051831	2535.171063
885.361424	2534.818183
885.670975	2536.408667
885.980485	2535.168543
886.289954	2531.548994
886.599382	2535.347504
886.908768	2530.886083
887.218113	2533.086546
887.527417	2534.288862
887.836680	2533.852802
888.145901	2531.808614
888.455082	2531.090249
888.764221	2529.134282
889.073319	2533.290713
889.382376	2530.278624
889.691392	2531.473377
890.000366	2533.008408
890.309300	2531.289375
890.618193	2531.541433
890.927044	2531.624612
891.235855	2531.480939
891.544625	2530.578572
891.853353	2529.182173
892.162041	2530.714683
892.470687	2533.242822
892.779293	2531.720394
893.087858	2532.143851
893.396381	2528.700742
893.704864	2532.965559
894.013306	2533.119314
894.321707	2535.680220
894.630068	2538.304141
894.938387	2539.871939
895.246665	2537.305992
895.554903	2537.399253
895.863100	2538.709953
896.171256	2535.528985
896.479371	2535.413039
896.787446	2531.632173
897.095480	2531.775846
897.403473	2532.405991
897.711425	2531.992616
898.019336	2531.223840
898.327207	2530.427338
898.635038	2529.507327
898.942827	2531.586803
899.250576	2529.577903
899.558284	2530.591175
899.865952	2533.147040
900.173579	2532.267359
900.481165	2534.157792
900.788711	2530.197965
901.096216	2528.806607
901.403681	2530.240815
901.711105	2531.392719
902.018489	2530.167718
902.325832	2531.780888
902.633135	2529.411545
902.940397	2532.103521
903.247619	2531.864067
903.554800	2532.348017
903.861941	2534.437576
904.169041	2540.804553
904.476101	2542.185829
904.783121	2539.473688
905.090100	2540.018133
905.397039	2536.048224
905.703938	2535.972607
906.010796	2535.874304
906.317614	2534.298944
906.624391	2536.060827
906.931129	2529.562780
907.237826	2533.273069
907.544483	2530.235774
907.851099	2531.019673
908.157675	2531.531350
908.464211	2528.214271
908.770707	2527.130423
909.077163	2527.768129
909.383578	2524.745957
909.689954	2528.688140
909.996289	2523.951976
910.302584	2529.361134
910.608839	2531.314581
910.915054	2529.290557
911.221229	2530.883562
911.527363	2528.562111
911.833458	2530.296268
912.139513	2529.305681
912.445527	2528.231915
912.751502	2529.867770
913.057436	2529.787111
913.363331	2528.771319
913.669186	2530.296268
913.975000	2531.342307
914.280775	2532.138809
914.586510	2531.934643
914.892205	2535.395395
915.197859	2534.182997
915.503475	2537.487474
915.809050	2536.070909
916.114585	2537.515200
916.420081	2540.252547
916.725536	2539.440921
917.030952	2539.493853
917.336328	2535.534027
917.641665	2537.545447
917.946961	2536.058307
918.252218	2532.383305
918.557435	2533.520086
918.862612	2529.787111
919.167750	2533.222658
919.472848	2531.329704
919.777906	2531.695188
920.082925	2528.607481
920.387904	2529.328366
920.692843	2529.603109
920.997743	2531.012112
921.302603	2531.974972
921.607423	2528.052954
921.912204	2530.974303
922.216946	2528.610002
922.521647	2531.047400
922.826310	2529.066226
923.130932	2531.846422
923.435516	2528.347862
923.740059	2530.596216
924.044564	2530.528161
924.349028	2530.145033
924.653454	2526.845598
924.957840	2524.750998
925.262186	2526.240659
925.566493	2527.629497
925.870761	2526.583458
926.174989	2530.006401
926.479178	2530.172759
926.783328	2529.295599
927.087438	2528.194107
927.391509	2529.908099
927.695541	2527.931967
927.999533	2530.235774
928.303486	2529.981196
928.607400	2528.932636
928.911275	2526.825433
929.215110	2526.943900
929.518906	2528.282327
929.822663	2527.110258
930.126381	2528.579755
930.430060	2527.934487
930.733699	2527.868952
931.037299	2526.689322
931.340861	2526.031452
931.644383	2528.657893
931.947866	2527.833664
932.251309	2528.221833
932.554714	2526.321318
932.858080	2528.501617
933.161407	2527.934487
933.464694	2528.733510
933.767943	2528.292409
934.071153	2529.824920
934.374323	2527.082532
934.677455	2529.353572
934.980548	2529.139323
935.283602	2530.253418
935.586617	2528.776360
935.889593	2528.993129
936.192530	2528.617563
936.495428	2529.300640
936.798287	2526.517923
937.101108	2526.404497
937.403890	2530.515558
937.706632	2529.293078
938.009336	2527.279137
938.312002	2528.342821
938.614628	2528.360465
938.917216	2529.416586
939.219765	2528.146216
939.522275	2529.552697
939.824747	2527.921884
940.127179	2525.837367
940.429573	2526.739734
940.731929	2527.281658
941.034246	2524.375433
941.336524	2528.201668
941.638763	2528.637728
941.940964	2528.148736
942.243126	2527.314425
942.545250	2528.607481
942.847335	2527.390043
943.149381	2528.294930
943.451389	2529.252749
943.753359	2527.064888
944.055290	2530.180321
944.357182	2526.714528
944.659036	2526.961544
944.960851	2529.156967
945.262628	2528.269724
945.564367	2527.155629
945.866067	2525.970958
946.167729	2529.824920
946.469352	2527.712676
946.770937	2528.718387
947.072484	2530.734848
947.373992	2529.409025
947.675462	2527.548839
947.976893	2527.901720
948.278286	2528.057995
948.579641	2529.305681
948.880958	2524.156142
949.182236	2528.199148
949.483476	2529.018335
949.784678	2529.749303
950.085841	2526.964065
950.386967	2528.161339
950.688054	2524.887110
950.989103	2525.071112
951.290114	2528.357944
951.591087	2527.619415
951.892021	2526.573376
952.192917	2528.705784
952.493776	2529.222502
952.794596	2525.005577
953.095378	2528.020187
953.396122	2529.635877
953.696828	2530.298788
953.997496	2528.841895
954.298126	2525.456760
954.598718	2528.597399
954.899272	2525.355937
955.199788	2528.403314
955.500266	2528.567152
955.800706	2527.140505
956.101108	2525.018180
956.401472	2527.632018
956.701798	2524.186389
957.002087	2524.453570
957.302337	2526.507841
957.602550	2527.163191
957.902724	2526.389373
958.202861	2527.604292
958.502960	2526.056657
958.803022	2528.546987
959.103045	2525.870135
959.403031	2526.727131
959.702979	2525.320649
960.002889	2526.943900
960.302762	2526.349044
960.602596	2526.238139
960.902393	2526.162522
961.202153	2526.129754
961.501875	2526.976668
961.801559	2526.684281
962.101205	2524.488858
962.400814	2526.197810
962.700385	2527.485824
962.999918	2525.595392
963.299414	2528.234436
963.598873	2525.855011
963.898293	2528.239477
964.197677	2527.889117
964.497022	2525.330731
964.796331	2525.918026
965.095601	2526.210413
965.394835	2527.503468
965.694030	2524.418282
965.993189	2526.651513
966.292309	2524.050278
966.591393	2524.690505
966.890439	2525.275278
967.189447	2527.548839
967.488419	2527.407687
967.787353	2524.572037
968.086249	2525.852491
968.385108	2527.526154
968.683930	2527.410207
968.982714	2530.056813
969.281462	2525.471883
969.580172	2525.852491
969.878844	2525.527336
970.177480	2527.178314
970.476078	2528.610002
970.774639	2526.160001
971.073162	2525.718900
971.371649	2522.197654
971.670098	2522.462315
971.968510	2525.048427
972.266885	2523.765453
972.565223	2528.368026
972.863524	2528.350382
973.161788	2526.464991
973.460014	2526.838036
973.758204	2525.441637
974.056356	2525.335772
974.354471	2525.862573
974.652550	2527.561442
974.950591	2526.492717
975.248595	2526.031452
975.546563	2525.179497
975.844493	2526.875845
976.142386	2526.480114
976.440243	2528.599919
976.738062	2526.119672
977.035845	2526.197810
977.333590	2527.934487
977.631299	2524.511544
977.928971	2525.219826
978.226606	2527.082532
978.524204	2526.066740
978.821765	2529.615712
979.119290	2528.050434
979.416777	2524.846780
979.714228	2526.487676
980.011642	2525.600433
980.309020	2529.459436
980.606360	2527.100176
980.903664	2526.724610
981.200931	2524.072963
981.498162	2526.759898
981.795356	2525.786956
982.092513	2528.095804
982.389633	2524.927439
982.686717	2526.772501
982.983764	2526.099507
983.280775	2522.996677
983.577749	2525.860052
983.874686	2528.199148
984.171587	2525.270237
984.468451	2526.051616
984.765279	2526.308715
985.062070	2526.381812
985.358824	2524.922398
985.655543	2524.277130
985.952224	2525.466842
986.248869	2526.578417
986.545478	2522.497603
986.842050	2522.532891
987.138586	2520.433250
987.435086	2523.339475
987.731549	2522.545494
988.027975	2526.714528
988.324366	2527.911802
988.620719	2525.875176
988.917037	2526.245701
989.213318	2526.951462
989.509563	2524.594723
989.805772	2524.307377
990.101944	2525.915505
990.398080	2526.921215
990.694180	2524.509023
990.990244	2526.737213
991.286271	2524.332583
991.582262	2526.916174
991.878217	2526.475073
992.174136	2524.483817
992.470019	2527.178314
992.765865	2526.563293
993.061676	2525.905423
993.357450	2524.599764
993.653188	2526.349044
993.948890	2524.902233
994.244556	2524.420803
994.540186	2528.703263
994.835780	2525.088756
995.131337	2527.047244
995.426859	2523.062212
995.722345	2525.383663
996.017795	2525.129085
996.313208	2528.736031
996.608586	2525.222346
996.903928	2527.667306
997.199234	2529.565300
997.494504	2526.006246
997.789738	2522.545494
998.084936	2525.948273
998.380099	2528.007584
998.675225	2526.414579
998.970316	2526.540608
999.265371	2526.548170
999.560390	2524.725793
999.855373	2527.037162
1000.150320	2526.371729
1000.445232	2526.399456
1000.740108	2522.827798
1001.034948	2526.908612
1001.329752	2524.912315
1001.624521	2526.565814
1001.919254	2520.430730
1002.213951	2522.490041
1002.508613	2521.592716
1002.803239	2523.962058
1003.097829	2520.743281
1003.392384	2527.470701
1003.686903	2525.408869
1003.981386	2528.231915
1004.275834	2524.453570
1004.570246	2528.796524
1004.864623	2525.154291
1005.158964	2525.812161
1005.453270	2524.309897
1005.747540	2525.716379
1006.041775	2524.080525
1006.335974	2526.991791
1006.630138	2527.095135
1006.924266	2526.767460
1007.218359	2523.304187
1007.512416	2523.518436
1007.806438	2524.035155
1008.100425	2524.935001
1008.394376	2525.875176
1008.688292	2524.420803
1008.982172	2527.253931
1009.276017	2525.444157
1009.569827	2528.317615
1009.863602	2526.671678
1010.157341	2525.965917
1010.451045	2526.099507
1010.744714	2527.319466
1011.038347	2524.771163
1011.331945	2525.892820
1011.625508	2527.087573
1011.919036	2527.316946
1012.212528	2524.970289
1012.505986	2526.870804
1012.799408	2523.067253
1013.092795	2525.696215
1013.386147	2523.289064
1013.679464	2527.359796
1013.972745	2525.963396
1014.265992	2522.432068
1014.559204	2526.200330
1014.852380	2525.721421
1015.145521	2525.741585
1015.438628	2524.972809
1015.731699	2524.808972
1016.024736	2524.750998
1016.317737	2525.928108
1016.610703	2525.993643
1016.903635	2523.031965
1017.196531	2521.093641
1017.489393	2525.250073
1017.782219	2520.556758
1018.075011	2523.692356
1018.367768	2524.181348
1018.660490	2524.766122
1018.953177	2524.766122
1019.245829	2524.766122
