Dividing Wavelength (nm)	Counts (n)	Blue Motor Position (mm): 0.000000	Red Motor Position (mm): 45.200000	
326.493990	2126.759464
326.888308	2126.759464
327.282561	2126.759464
327.676750	2093.850812
328.070874	2090.939545
328.464933	2094.246542
328.858929	2102.055290
329.252859	2110.060642
329.646726	2124.740482
330.040528	2134.379168
330.434265	2154.087559
330.827938	2170.584735
331.221547	2189.136181
331.615091	2207.307020
332.008571	2227.915257
332.401986	2247.169944
332.795338	2266.520413
333.188625	2284.005655
333.581847	2304.636578
333.975006	2319.966726
334.368100	2339.561691
334.761129	2359.570031
335.154095	2376.467979
335.546996	2396.665362
335.939833	2421.455236
336.332606	2435.779674
336.725315	2444.757969
337.117960	2455.757767
337.510540	2463.518623
337.903056	2476.965901
338.295508	2484.905718
338.687896	2489.306646
339.080220	2498.105980
339.472480	2509.562002
339.864676	2509.441014
340.256807	2517.174144
340.648875	2521.053312
341.040879	2522.648837
341.432818	2522.779907
341.824694	2524.551873
342.216506	2524.869466
342.608253	2524.705628
342.999937	2525.333252
343.391557	2525.784435
343.783113	2525.113962
344.174605	2523.412572
344.566033	2519.805627
344.957397	2520.977695
345.348697	2517.774042
345.739934	2520.095493
346.131106	2513.748680
346.522215	2513.110974
346.913260	2511.628875
347.304241	2511.006293
347.695159	2507.351456
348.086012	2507.283400
348.476802	2506.451610
348.867528	2505.062772
349.258191	2503.585714
349.648789	2502.504387
350.039324	2500.613954
350.429796	2498.108500
350.820203	2495.338386
351.210548	2497.770743
351.600828	2495.814775
351.991045	2494.446102
352.381198	2495.154384
352.771288	2494.877121
353.161314	2495.260248
353.551276	2494.062974
353.941175	2493.664723
354.331010	2493.195896
354.720782	2494.398211
355.110490	2494.715804
355.500135	2493.175731
355.889717	2491.005515
356.279235	2492.822851
356.668689	2496.429796
357.058080	2492.853097
357.447408	2496.026504
357.836672	2490.987871
358.225873	2495.396360
358.615010	2492.066678
359.004084	2495.650938
359.393095	2497.758140
359.782043	2495.164467
360.170927	2500.714777
360.559748	2499.509941
360.948505	2502.625374
361.337199	2502.902638
361.725830	2501.775940
362.114398	2503.580673
362.502903	2505.113184
362.891344	2503.071516
363.279722	2506.146620
363.668037	2503.540344
364.056289	2506.446569
364.444478	2506.139058
364.832603	2507.749707
365.220665	2508.803308
365.608665	2508.435304
365.996601	2510.981087
366.384474	2509.831704
366.772284	2510.799605
367.160031	2513.355470
367.547715	2514.209946
367.935336	2517.746315
368.322893	2520.438291
368.710388	2523.629342
369.097820	2531.750641
369.485189	2534.092257
369.872495	2537.641229
370.259738	2546.450645
370.646918	2555.560010
371.034035	2559.164435
371.421090	2571.280848
371.808081	2578.802250
372.195010	2589.595360
372.581875	2600.426279
372.968678	2618.342540
373.355418	2625.463170
373.742096	2643.165182
374.128710	2658.565907
374.515262	2673.918741
374.901751	2689.904240
375.288177	2703.676672
375.674540	2723.508571
376.060841	2740.867784
376.447079	2765.571959
376.833254	2783.367232
377.219367	2795.009777
377.605417	2834.524861
377.991404	2841.801767
378.377329	2866.216075
378.763191	2883.227448
379.148991	2921.593150
379.534727	2944.742128
379.920402	2974.812611
380.306013	2986.981956
380.691563	3036.662527
381.077049	3058.515929
381.462474	3073.846078
381.847835	3113.638426
382.233134	3136.046355
382.618371	3137.094915
383.003545	3205.044628
383.388657	3213.032336
383.773706	3246.429980
384.158693	3261.495468
384.543618	3285.987914
384.928480	3319.897236
385.313280	3367.838609
385.698017	3368.191490
386.082692	3419.268460
386.467305	3425.073349
386.851856	3457.984522
387.236344	3478.784323
387.620770	3510.281452
388.005133	3537.780946
388.389435	3566.598702
388.773674	3573.099270
389.157851	3620.249182
389.541965	3633.809886
389.926018	3599.136830
390.310008	3671.268179
390.693936	3692.188968
391.077802	3727.487127
391.461606	3718.929768
391.845348	3784.386631
392.229027	3781.266156
392.612645	3793.206129
392.996200	3873.063047
393.379694	3911.801794
393.763125	3977.364520
394.146494	3944.075261
394.529801	4005.292513
394.913047	4053.609452
395.296230	4018.848175
395.679351	4074.411773
396.062410	4100.920681
396.445408	4080.078030
396.828343	4113.730253
397.211217	4136.226402
397.594028	4056.994587
397.976778	4128.077376
398.359466	4151.425480
398.742092	4179.260211
399.124656	4098.238787
399.507158	4184.215666
399.889598	4207.833471
400.271977	4269.433851
400.654294	4238.294643
401.036549	4247.343515
401.418742	4216.957960
401.800874	4318.564936
402.182944	4342.540664
402.564952	4403.606681
402.946898	4394.688880
403.328783	4388.105133
403.710606	4303.544818
404.092367	4495.756453
404.474067	4460.463335
404.855705	4469.819716
405.237282	4397.491761
405.618797	4505.937063
406.000250	4539.301940
406.381642	4618.826142
406.762972	4584.405143
407.144240	4594.726906
407.525447	4592.904528
407.906593	4656.183612
408.287677	4693.475548
408.668700	4624.454590
409.049661	4675.556766
409.430560	4715.215524
409.811399	4642.527126
410.192176	4801.704080
410.572891	4745.848095
410.953545	4846.671172
411.334138	4730.207915
411.714669	4793.640754
412.095139	4684.351059
412.475547	4829.816074
412.855894	4811.189011
413.236180	4823.489426
413.616405	4769.433133
413.996568	4860.995611
414.376670	4804.007887
414.756711	4761.110188
415.136691	4790.232934
415.516609	4870.730079
415.896466	4906.776849
416.276262	4936.315490
416.655997	4921.020629
417.035670	5100.833546
417.415283	5194.626734
417.794834	5137.336541
418.174324	5089.932051
418.553753	5001.079194
418.933121	5186.124828
419.312428	5251.095219
419.691674	5189.814953
420.070859	5312.914888
420.449983	5231.230552
420.829045	5340.709290
421.208047	5248.798973
421.586988	5323.869316
421.965867	5334.705276
422.344686	5467.781655
422.723444	5322.145241
423.102141	5141.109845
423.480777	5435.190595
423.859352	5208.426892
424.237866	5466.327282
424.616319	5456.751610
424.994712	5564.309669
425.373044	5447.720383
425.751314	5588.570222
426.129524	5392.265170
426.507673	5584.421352
426.885762	5668.069218
427.263789	5598.241675
427.641756	5476.454960
428.019662	5600.636223
428.397508	5612.457729
428.775292	5553.650149
429.153016	5654.251415
429.530679	5580.872380
429.908282	5665.362118
430.285824	5538.786307
430.663305	5810.570034
431.040726	5547.946083
431.418086	5548.157812
431.795385	5651.929964
432.172624	5661.936654
432.549802	5659.312734
432.926920	5668.964023
433.303977	5678.771587
433.680974	5718.851281
434.057910	5732.928703
434.434786	5744.762812
434.811601	5713.759716
435.188355	5944.831085
435.565050	5816.826106
435.941683	5801.329599
436.318257	6019.064596
436.694770	5997.833776
437.071222	6034.543458
437.447614	5963.269105
437.823946	5876.052102
438.200218	6032.617738
438.576429	5891.946860
438.952580	5994.826728
439.328670	6040.272730
439.704700	5948.576662
440.080670	5933.014620
440.456580	6202.711310
440.832429	6091.758034
441.208218	5932.641575
441.583947	6090.220482
441.959616	6097.152069
442.335224	6021.373444
442.710773	6159.556512
443.086261	6182.244225
443.461689	5982.218802
443.837057	6128.813035
444.212365	6287.337159
444.587612	6178.985119
444.962800	6330.665877
445.337927	6308.242824
445.712995	5919.070788
446.088002	6497.732236
446.462949	6323.346121
446.837837	6256.520586
447.212664	6434.306958
447.587431	6573.641930
447.962139	7113.020186
448.336786	8042.392186
448.711374	7780.998276
449.085901	6856.793459
449.460369	6782.277644
449.834776	6716.109979
450.209124	7101.997703
450.583412	7257.968482
450.957640	7405.434835
451.331808	7168.946747
451.705917	6719.953859
452.079965	6646.088352
452.453954	6852.505958
452.827883	6732.425673
453.201752	6820.025804
453.575562	6621.853005
453.949311	6825.528223
454.323001	6717.133333
454.696632	6785.267048
455.070202	6926.560508
455.443713	7083.620177
455.817164	7185.219591
456.190556	7262.681961
456.563888	7341.853282
456.937160	7381.020527
457.310373	7040.470420
457.683526	7064.519245
458.056619	6949.452388
458.429653	6942.442663
458.802628	6877.240379
459.175542	6989.758933
459.548398	7341.560896
459.921194	7504.032243
460.293930	7510.923500
460.666607	8033.151751
461.039224	8342.323195
461.411782	8472.251374
461.784280	8491.879107
462.156719	8381.540852
462.529099	8264.712111
462.901419	7848.693411
463.273680	7738.839107
463.645882	7751.605829
464.018024	7619.424254
464.390106	7790.425234
464.762130	8177.507712
465.134094	8639.915110
465.505999	9662.493003
465.877845	10888.504139
466.249631	11538.197964
466.621358	11157.401806
466.993026	10531.908039
467.364634	10277.735583
467.736184	9906.764633
468.107674	9576.196011
468.479105	9601.114434
468.850477	9374.388540
469.221790	9142.815576
469.593043	8821.368922
469.964238	8674.920882
470.335373	8685.265330
470.706449	8748.882171
471.077467	8728.621773
471.448425	10034.532677
471.819324	11110.932449
472.190164	11138.754577
472.560945	9891.298373
472.931667	9101.178166
473.302330	8962.586765
473.672934	8607.936550
474.043479	8961.376888
474.413965	8907.580214
474.784393	8786.348026
475.154761	8947.216287
475.525070	9028.986322
475.895321	8861.700673
476.265513	9036.076705
476.635645	9204.862098
477.005719	9203.039721
477.375734	9318.867792
477.745691	9549.896311
478.115588	9685.430253
478.485427	9927.322458
478.855207	10470.537032
479.224928	11280.345466
479.594591	11913.267372
479.964194	11730.374311
480.333739	11666.704538
480.703226	11584.253946
481.072653	11672.753922
481.442022	11916.171077
481.811333	12107.515633
482.180584	11910.860221
482.549777	11617.386929
482.918912	11443.283120
483.287988	11453.627567
483.657005	11473.600619
484.025964	11153.358800
484.394864	11287.642536
484.763706	11258.716395
485.132489	11016.113387
485.501213	10978.133334
485.869879	11054.930271
486.238487	10894.853472
486.607036	11009.393529
486.975527	10787.978490
487.343959	10971.844494
487.712333	11023.236537
488.080648	10951.329519
488.448905	10998.789462
488.817104	10931.986611
489.185244	11201.479134
489.553326	11360.043587
489.921350	11890.751058
490.289315	12954.694139
490.657222	13297.167447
491.025070	13208.145711
491.392861	13083.916557
491.760593	12706.840769
492.128267	12351.913292
492.495883	12025.511183
492.863440	11684.386385
493.230939	11355.365397
493.598380	11290.105139
493.965763	11153.142031
494.333088	11054.685775
494.700354	10978.433282
495.067563	11031.302383
495.434713	10867.515295
495.801805	10991.676393
496.168839	10920.936402
496.535815	10848.381595
496.902733	10852.994251
497.269593	10781.462799
497.636395	10888.524303
498.003139	10877.587520
498.369825	10740.155584
498.736453	10897.265664
499.103023	10823.992493
499.469535	10857.513646
499.835989	10838.679895
500.202385	10800.704883
500.568723	10655.285238
500.935003	10876.478466
501.301226	10680.735504
501.667390	10933.614904
502.033497	11032.960923
502.399546	10894.397248
502.765537	10801.718155
503.131470	10881.128931
503.497345	11046.960207
503.863163	10659.141721
504.228923	10970.659823
504.594625	11043.023066
504.960269	10793.201125
505.325856	11004.501089
505.691385	10800.662033
506.056856	10959.959974
506.422270	10982.264559
506.787625	10873.718435
507.152924	10986.017698
507.518164	10971.027827
507.883347	10893.406661
508.248472	10808.422889
508.613540	11040.764629
508.978550	10929.458473
509.343503	10899.871941
509.708398	11012.755978
510.073236	11133.489092
510.438016	11137.544701
510.802738	11079.528582
511.167403	11135.634103
511.532010	11032.189626
511.896561	11262.081365
512.261053	11331.692138
512.625488	11210.608664
512.989866	11188.730056
513.354186	11177.634477
513.718449	11080.912378
514.082655	11271.634352
514.446803	11165.979329
514.810894	11289.926178
515.174927	11151.783440
515.538904	11185.634788
515.902822	11330.898156
516.266684	11221.225334
516.630488	11161.238124
516.994235	11216.413552
517.357925	11282.830754
517.721558	11369.546162
518.085133	11390.315716
518.448651	11392.128011
518.812112	11284.232195
519.175516	11294.213680
519.538863	11411.009653
519.902152	11334.285812
520.265385	11500.270843
520.628560	11396.211346
520.991678	11377.201154
521.354739	11447.371495
521.717743	11378.879859
522.080690	11358.705161
522.443580	11489.056797
522.806413	11445.791094
523.169189	11479.607154
523.531908	11531.442818
523.894569	11348.683347
524.257174	11359.302538
524.619722	11478.709828
524.982213	11420.723956
525.344647	11468.158693
525.707025	11424.119173
526.069345	11515.293482
526.431608	11432.278281
526.793815	11538.860876
527.155964	11334.895791
527.518057	11382.499407
527.880093	11337.731440
528.242072	11410.122410
528.603995	11303.423868
528.965860	11233.515667
529.327669	11284.000302
529.689421	11236.096738
530.051117	11198.555265
530.412755	11303.436471
530.774337	11196.871520
531.135862	11181.067502
531.497331	11199.805471
531.858743	11054.267360
532.220098	11225.578370
532.581396	11094.432753
532.942638	11080.141082
533.303824	11037.487879
533.664953	11049.251412
534.026025	10965.525408
534.387040	11064.594163
534.747999	11061.057794
535.108902	11122.131373
535.469748	10874.008301
535.830537	10981.117697
536.191270	10969.109668
536.551947	10986.806639
536.912567	10987.688841
537.273131	10910.849053
537.633638	10884.776206
537.994089	10872.770698
538.354483	10825.598101
538.714821	10970.095214
539.075103	10974.440688
539.435328	10941.970617
539.795497	10770.163052
540.155609	10923.426732
540.515665	11013.043324
540.875665	10744.803528
541.235609	10816.057717
541.595496	10819.009313
541.955328	10971.446243
542.315102	10855.872750
542.674821	10806.232508
543.034483	10802.912908
543.394090	10807.301233
543.753640	10737.453526
544.113134	10957.646084
544.472571	10811.276182
544.831953	10959.072731
545.191278	10762.198029
545.550548	10788.091916
545.909761	10928.964440
546.268918	10905.810420
546.628019	10989.133131
546.987064	10850.362769
547.346053	10772.913002
547.704986	10870.497137
548.063863	10858.718481
548.422684	10847.517038
548.781449	10763.097875
549.140158	10861.042453
549.498811	10737.672816
549.857408	10605.319842
550.215949	10826.896198
550.574434	10681.421101
550.932864	10779.290061
551.291237	10838.032107
551.649555	10790.753645
552.007817	10795.091558
552.366022	10760.421023
552.724173	10755.079920
553.082267	10742.262786
553.440305	10871.475121
553.798288	10678.280462
554.156215	10827.238996
554.514086	10808.521192
554.871902	10655.033181
555.229661	10690.802688
555.587365	10663.288070
555.945014	10564.753677
556.302606	10688.108191
556.660143	10580.603065
557.017625	10737.456046
557.375050	10642.785698
557.732421	10768.827147
558.089735	10685.786740
558.446994	10682.328508
558.804197	10719.005423
559.161345	10724.999355
559.518437	10568.532022
559.875474	10664.291260
560.232455	10695.768224
560.589381	10643.335183
560.946251	10643.854422
561.303065	10745.065668
561.659825	10678.078816
562.016528	10607.316139
562.373177	10489.511935
562.729770	10606.101221
563.086307	10517.175267
563.442789	10609.524164
563.799216	10486.157047
564.155587	10537.874245
564.511904	10487.288787
564.868164	10473.871756
565.224370	10493.557461
565.580520	10421.095916
565.936615	10424.574312
566.292654	10292.085227
566.648638	10418.880329
567.004567	10388.928313
567.360441	10362.905877
567.716260	10272.951528
568.072023	10371.979954
568.427732	10318.634464
568.783385	10230.633562
569.138982	10305.716507
569.494525	10317.890894
569.850013	10196.157111
570.205445	10281.904617
570.560823	10175.926960
570.916145	10088.921686
571.271412	10164.319704
571.626625	10102.326114
571.981782	10077.266538
572.336884	10054.513291
572.691931	10059.546883
573.046923	10006.735755
573.401860	9965.915012
573.756743	9898.512264
574.111570	9945.957084
574.466342	9921.623434
574.821059	9953.264236
575.175722	9849.086271
575.530330	9851.531231
575.884882	9845.025622
576.239380	9776.390312
576.593823	9756.087065
576.948211	9775.540878
577.302544	9649.547320
577.656823	9660.973095
578.011047	9666.727572
578.365216	9637.204055
578.719330	9559.741685
579.073389	9574.134179
579.427394	9522.129636
579.781344	9499.540225
580.135239	9445.761196
580.489080	9460.597312
580.842866	9357.152835
581.196597	9363.817240
581.550273	9402.175380
581.903895	9373.750834
582.257463	9432.593702
582.610975	9309.695413
582.964434	9338.188014
583.317837	9263.215974
583.671186	9246.302903
584.024481	9241.062624
584.377721	9163.965737
584.730906	9135.158064
585.084037	9167.250049
585.437113	9101.352086
585.790135	9120.868913
586.143103	9021.772431
586.496016	8996.009615
586.848874	9053.501454
587.201679	9036.464874
587.554428	8924.823481
587.907124	8975.971028
588.259765	8947.387686
588.612352	8951.103016
588.964884	8824.746495
589.317362	8831.481477
589.669786	8834.755706
590.022155	8892.187051
590.374470	8903.696005
590.726731	8840.416922
591.078937	8693.837812
591.431090	8808.705543
591.783188	8677.950616
592.135232	8676.849123
592.487222	8672.909462
592.839157	8725.299653
593.191038	8661.178697
593.542866	8603.996889
593.894639	8502.813369
594.246358	8552.965288
594.598022	8573.694513
594.949633	8464.235939
595.301190	8441.220552
595.652692	8468.147875
596.004141	8581.904032
596.355535	8358.217953
596.706876	8339.716919
597.058162	8270.441383
597.409395	8348.707817
597.760573	8402.398626
598.111698	8319.254875
598.462768	8304.035632
598.813785	8262.925022
599.164748	8240.259995
599.515657	8229.310608
599.866511	8136.341649
600.217312	8261.299250
600.568060	8122.027293
600.918753	8220.828867
601.269392	8198.630146
601.619978	8106.135055
601.970510	8169.925816
602.320988	8167.929519
602.671412	8227.543684
603.021783	8159.644383
603.372100	8133.690002
603.722363	8137.291907
604.072572	8111.967670
604.422728	8117.006304
604.772830	8053.031541
605.122878	8058.004639
605.472872	8053.515492
605.822813	8085.804082
606.172701	8030.505145
606.522534	8101.083819
606.872314	8108.338040
607.222041	8072.752535
607.571714	8124.973847
607.921333	8087.318949
608.270899	8089.995801
608.620411	8180.363525
608.969870	8087.853311
609.319276	8084.823577
609.668627	8095.152902
610.017926	8127.323025
610.367171	8176.033174
610.716362	8156.130699
611.065500	8143.953792
611.414585	8170.475302
611.763616	8161.439034
612.112594	8135.603120
612.461518	8158.026172
612.810389	8218.499854
613.159207	8157.063312
613.507971	8106.281249
613.856682	8223.472952
614.205340	8178.969646
614.553945	8257.818333
614.902496	8156.796131
615.250994	8205.148358
615.599439	8192.507665
615.947830	8200.074437
616.296169	8174.651898
616.644454	8189.989608
616.992686	8188.573044
617.340864	8240.214624
617.688990	8143.805077
618.037063	8242.271415
618.385082	8187.584978
618.733048	8270.607741
619.080961	8210.454173
619.428821	8231.538798
619.776628	8236.214469
620.124382	8187.521964
620.472083	8164.849374
620.819731	8199.129220
621.167326	8091.578724
621.514868	8096.816482
621.862357	7984.459246
622.209793	8004.581011
622.557176	7934.496370
622.904506	7912.998369
623.251783	7846.558482
623.599007	7794.138044
623.946179	7799.670710
624.293297	7753.362671
624.640363	7673.233531
624.987376	7657.172414
625.334336	7609.296576
625.681243	7556.624080
626.028097	7539.166565
626.374899	7520.642845
626.721647	7510.736978
627.068343	7438.676204
627.414987	7412.605877
627.761577	7366.779268
628.108115	7413.556134
628.454600	7303.066645
628.801032	7352.689243
629.147412	7310.008314
629.493739	7297.380223
629.840014	7235.444607
630.186236	7293.410315
630.532405	7175.802716
630.878521	7225.392546
631.224585	7181.302615
631.570597	7109.723271
631.916556	7140.441542
632.262462	7134.072044
632.608316	7097.511076
632.954117	7068.433701
633.299866	7058.545477
633.645562	7048.090124
633.991206	6970.973073
634.336797	6918.315701
634.682336	6871.037240
635.027823	6838.536921
635.373257	6830.261867
635.718639	6759.133707
636.063968	6776.092148
636.409245	6666.164747
636.754470	6667.679614
637.099642	6622.901565
637.444762	6568.353760
637.789829	6573.893988
638.134845	6522.970772
638.479808	6505.276322
638.824719	6515.139340
639.169577	6439.338030
639.514383	6456.727490
639.859137	6388.371965
640.203839	6397.388068
640.548489	6383.623198
640.893086	6357.731832
641.237632	6328.374672
641.582125	6350.235636
641.926566	6327.071534
642.270955	6333.773748
642.615292	6331.482543
642.959576	6344.332445
643.303809	6332.505898
643.647990	6337.622669
643.992118	6329.413150
644.336195	6277.020438
644.680219	6304.280477
645.024192	6292.118694
645.368112	6385.765688
645.711981	6405.819398
646.055797	6482.800338
646.399562	6440.734430
646.743274	6566.097843
647.086935	6618.876204
647.430544	6613.673733
647.774101	6632.744418
648.117606	6644.374360
648.461059	6629.646629
648.804460	6593.476350
649.147810	6500.255333
649.491108	6469.307690
649.834354	6449.415297
650.177548	6365.343974
650.520690	6281.736437
650.863781	6254.834320
651.206820	6279.236025
651.549807	6197.833993
651.892742	6139.124716
652.235626	6146.658720
652.578458	6129.705320
652.921238	6034.188057
653.263967	6075.311270
653.606644	6015.175345
653.949269	6016.833885
654.291843	5956.859278
654.634365	6007.341392
654.976836	5959.780626
655.319255	5960.057890
655.661622	5938.832112
656.003938	5931.172078
656.346203	5894.432149
656.688416	5922.602117
657.030577	5877.314911
657.372687	5844.991033
657.714746	5832.418395
658.056753	5875.525302
658.398708	5819.863401
658.740612	5808.140198
659.082465	5854.531416
659.424266	5844.547411
659.766016	5848.237536
660.107715	5825.141489
660.449362	5833.517367
660.790958	5828.153579
661.132503	5816.150592
661.473996	5854.864133
661.815438	5837.363767
662.156829	5837.237738
662.498168	5825.111243
662.839456	5805.072656
663.180693	5834.591132
663.521879	5833.114074
663.863013	5824.685265
664.204097	5840.602708
664.545129	5881.158791
664.886110	5876.697370
665.227040	5913.220529
665.567918	5877.239294
665.908746	5902.361884
666.249522	5906.820785
666.590248	5893.484412
666.930922	5917.293782
667.271545	5931.068735
667.612118	5935.736843
667.952639	5905.479838
668.293109	5927.736532
668.633528	5879.167535
668.973896	5884.117948
669.314213	5878.323142
669.654480	5856.056365
669.994695	5843.962637
670.334859	5838.949210
670.674973	5830.699362
671.015035	5830.863199
671.355047	5824.334905
671.695008	5815.608668
672.034918	5786.213699
672.374777	5799.870185
672.714585	5779.143481
673.054342	5779.725734
673.394049	5772.721051
673.733705	5801.432943
674.073310	5791.048166
674.412864	5750.948308
674.752368	5736.142439
675.091820	5741.473459
675.431223	5684.190828
675.770574	5677.619684
676.109875	5629.922807
676.449125	5632.508919
676.788324	5599.159165
677.127473	5544.868459
677.466571	5537.694897
677.805619	5523.720819
678.144616	5507.929404
678.483562	5483.441999
678.822458	5457.432166
679.161303	5447.906906
679.500098	5441.078663
679.838842	5420.127628
680.177535	5423.608544
680.516179	5436.834012
680.854771	5447.180980
681.193314	5525.112177
681.531805	5626.537672
681.870247	5767.014465
682.208638	5868.208067
682.546978	5885.431169
682.885268	5856.996541
683.223508	5770.220639
683.561697	5716.945725
683.899836	5686.194687
684.237925	5643.057533
684.575963	5607.865238
684.913951	5565.030554
685.251889	5620.667248
685.589776	5587.163740
685.927614	5558.814811
686.265401	5622.209841
686.603137	5605.594198
686.940824	5672.142470
687.278460	5693.796747
687.616046	5699.089958
687.953582	5764.030102
688.291068	5745.042596
688.628504	5794.468589
688.965889	5760.581953
689.303224	5708.872317
689.640510	5654.067413
689.977745	5584.590231
690.314930	5491.447352
690.652065	5436.100524
690.989150	5345.972255
691.326185	5272.842756
691.663170	5216.399477
692.000105	5146.166122
692.336990	5072.081325
692.673825	5043.818096
693.010610	4980.939784
693.347345	4915.049383
693.684030	4895.449377
694.020665	4855.362121
694.357251	4769.060088
694.693786	4780.987458
695.030272	4745.754834
695.366707	4710.249987
695.703093	4677.159853
696.039429	4695.088717
696.375716	4672.166590
696.711952	4650.353518
697.048139	4640.573679
697.384276	4616.255153
697.720363	4625.309065
698.056400	4626.975167
698.392388	4581.914813
698.728326	4561.609045
699.064214	4542.031724
699.400053	4532.914798
699.735842	4495.486751
700.071581	4478.170388
700.407270	4452.783137
700.742910	4431.022996
701.078501	4381.828896
701.414042	4379.399060
701.749533	4343.657279
702.084974	4291.415802
702.420366	4340.718287
702.755709	4283.806180
703.091002	4227.743508
703.426246	4268.166001
703.761440	4236.275661
704.096584	4200.412893
704.431679	4211.546281
704.766725	4198.131771
705.101721	4181.904297
705.436668	4208.135941
705.771565	4164.950896
706.106413	4190.675904
706.441212	4209.035787
706.775961	4214.959142
707.110661	4200.997667
707.445311	4227.814085
707.779913	4237.455291
708.114465	4249.065069
708.448967	4274.747227
708.783421	4323.490143
709.117825	4356.108929
709.452180	4364.494889
709.786485	4399.742637
710.120742	4477.031087
710.454949	4468.934994
710.789107	4521.829300
711.123216	4583.530503
711.457275	4574.768977
711.791286	4635.313235
712.125247	4642.617867
712.459159	4569.022062
712.793023	4638.181652
713.126837	4582.302982
713.460602	4573.213782
713.794318	4512.898896
714.127985	4514.897714
714.461602	4431.045681
714.795171	4412.708484
715.128691	4348.138865
715.462162	4292.602994
715.795584	4242.468719
716.128957	4226.672263
716.462281	4186.345553
716.795556	4163.010052
717.128782	4119.121767
717.461960	4052.971746
717.795088	4065.688056
718.128167	4025.961243
718.461198	3981.054645
718.794180	3971.557111
719.127113	3950.417032
719.459997	3925.707817
719.792833	3892.143815
720.125619	3883.916652
720.458357	3847.748893
720.791046	3846.302082
721.123686	3826.568485
721.456278	3790.589770
721.788821	3798.491779
722.121315	3774.717698
722.453761	3752.425715
722.786158	3754.840428
723.118506	3774.417749
723.450805	3736.684712
723.783056	3758.190275
724.115259	3759.995008
724.447412	3762.543311
724.779518	3762.893671
725.111574	3763.375101
725.443582	3787.630613
725.775542	3770.707460
726.107453	3814.472237
726.439315	3806.446720
726.771129	3825.595543
727.102895	3853.266436
727.434612	3888.773803
727.766281	3901.094383
728.097901	3901.951379
728.429473	3906.798449
728.760996	3909.346752
729.092471	3906.687543
729.423897	3887.513515
729.755276	3888.103330
730.086606	3894.306470
730.417887	3929.123199
730.749120	3977.850992
731.080305	4020.166437
731.411442	4046.604768
731.742530	4027.592057
732.073570	4028.219680
732.404562	4068.682502
732.735506	4058.368301
733.066401	4028.733878
733.397249	3977.172957
733.728048	3911.010333
734.058798	3824.052950
734.389501	3764.216974
734.720156	3720.658884
735.050762	3680.483409
735.381320	3665.889268
735.711831	3626.885861
736.042293	3602.574897
736.372707	3615.613841
736.703073	3592.167434
737.033391	3585.102257
737.363661	3599.570369
737.693883	3613.725929
738.024056	3621.171713
738.354182	3626.356540
738.684260	3671.757171
739.014290	3687.110005
739.344272	3687.450283
739.674207	3717.530848
740.004093	3721.581415
740.333931	3718.516394
740.663722	3713.311402
740.993464	3706.755382
741.323159	3691.838608
741.652806	3665.581758
741.982405	3639.473622
742.311956	3609.660238
742.641460	3600.891151
742.970915	3576.741504
743.300323	3546.424004
743.629683	3520.837628
743.958996	3509.626102
744.288260	3484.783296
744.617477	3453.152576
744.946647	3447.219138
745.275768	3421.133687
745.604842	3413.705547
745.933869	3387.098337
746.262847	3371.241388
746.591778	3391.436250
746.920662	3371.977396
747.249498	3352.876464
747.578286	3381.890825
747.907027	3397.455388
748.235720	3406.211872
748.564365	3414.640681
748.892963	3404.089546
749.221514	3395.451529
749.550017	3381.104405
749.878473	3376.607696
750.206881	3352.231197
750.535242	3344.508149
750.863555	3342.935309
751.191821	3342.111080
751.520039	3331.388546
751.848210	3313.386586
752.176334	3332.013649
752.504411	3331.209585
752.832440	3306.195380
753.160421	3297.811941
753.488356	3301.073567
753.816243	3296.987712
754.144082	3271.822272
754.471875	3263.103597
754.799620	3270.380502
755.127318	3263.693412
755.454969	3261.797938
755.782572	3263.706014
756.110129	3250.893922
756.437638	3246.631626
756.765100	3249.101792
757.092515	3254.037081
757.419882	3255.927514
757.747203	3240.284814
758.074477	3241.817324
758.401703	3249.111874
758.728882	3264.356323
759.056014	3267.628032
759.383099	3273.392592
759.710138	3275.280504
760.037129	3290.010755
760.364073	3302.628763
760.690970	3290.608132
761.017820	3278.688324
761.344623	3293.272382
761.671379	3324.126764
761.998088	3357.176568
762.324751	3453.092082
762.651366	3653.218328
762.977935	4034.208571
763.304456	4361.434908
763.630931	4410.623967
763.957359	4144.720746
764.283740	3881.272566
764.610074	3724.701890
764.936362	3563.087538
765.262602	3448.305507
765.588796	3361.637990
765.914943	3293.274902
766.241044	3230.164697
766.567097	3203.096222
766.893104	3166.363854
767.219064	3145.342243
767.544978	3120.627986
767.870845	3083.792275
768.196665	3073.772982
768.522438	3072.452199
768.848165	3060.429047
769.173846	3037.827034
769.499479	3028.624408
769.825066	3014.378107
770.150607	3001.477794
770.476101	3004.505007
770.801548	3001.560973
771.126949	2972.163485
771.452303	2964.574028
771.777611	2959.724438
772.102872	2960.024386
772.428087	2941.924123
772.753256	2933.170160
773.078378	2928.612957
773.403453	2906.845254
773.728482	2898.797052
774.053465	2909.890111
774.378401	2898.996178
774.703291	2882.194012
775.028135	2882.529249
775.352932	2877.707385
775.677683	2866.311857
776.002388	2863.594675
776.327046	2866.059799
776.651658	2855.581761
776.976224	2847.147910
777.300743	2847.785616
777.625216	2840.415449
777.949643	2836.216168
778.274024	2839.424863
778.598359	2829.660148
778.922647	2830.360868
779.246889	2830.638132
779.571086	2819.986173
779.895236	2818.793941
780.219339	2821.432985
780.543397	2827.948676
780.867409	2832.284068
781.191374	2828.490600
781.515294	2827.058912
781.839167	2828.740137
782.162995	2822.907522
782.486776	2824.684529
782.810511	2822.146308
783.134201	2813.412509
783.457844	2813.052066
783.781441	2809.457724
784.104993	2797.384160
784.428498	2797.477422
784.751958	2804.033442
785.075372	2799.970272
785.398739	2791.092800
785.722061	2799.849284
786.045337	2803.730973
786.368568	2796.610343
786.691752	2794.432565
787.014891	2820.291163
787.337983	2840.317147
787.661030	2869.054244
787.984031	2918.626431
788.306987	2944.149793
788.629897	2939.741304
788.952760	2926.016762
789.275579	2910.794998
789.598351	2873.235882
789.921078	2843.911490
790.243759	2830.817092
790.566395	2815.915442
790.888984	2802.029583
791.211529	2794.046916
791.534027	2784.141049
791.856480	2776.279370
792.178888	2765.511465
792.501249	2762.096083
792.823566	2758.640372
793.145836	2755.121647
793.468062	2752.769949
793.790241	2753.783221
794.112375	2756.210536
794.434464	2762.693460
794.756507	2768.473143
795.078505	2775.157713
795.400457	2780.594597
795.722364	2803.935140
796.044226	2825.481031
796.366042	2826.002791
796.687812	2819.998776
797.009538	2826.857266
797.331218	2818.806543
797.652852	2809.745069
797.974442	2801.046558
798.295986	2794.019190
798.617484	2786.931328
798.938938	2778.028650
799.260346	2769.778802
799.581709	2765.829058
799.903026	2757.944693
800.224299	2755.051071
800.545526	2748.169896
800.866708	2739.224368
801.187845	2735.032649
801.508936	2735.357803
801.829983	2736.625653
802.150984	2726.167780
802.471940	2722.873386
802.792851	2724.655434
803.113717	2722.003787
803.434538	2721.892881
803.755314	2718.550596
804.076045	2714.605893
804.396731	2714.119422
804.717372	2715.926676
805.037967	2712.478527
805.358518	2717.655792
805.679024	2721.726523
805.999485	2719.425237
806.319901	2724.211812
806.640272	2720.524208
806.960598	2720.831718
807.280879	2726.293809
807.601115	2732.859912
807.921306	2723.667367
808.241453	2723.654765
808.561554	2724.216853
808.881611	2724.252141
809.201623	2721.056050
809.521590	2721.207284
809.841513	2718.117057
810.161390	2719.667212
810.481223	2714.225286
810.801011	2709.544575
811.120755	2705.988041
811.440453	2707.034080
811.760107	2705.393185
812.079716	2700.415045
812.399281	2696.450178
812.718801	2691.827440
813.038276	2690.660413
813.357707	2692.961699
813.677093	2692.054292
813.996434	2691.971113
814.315731	2687.247552
814.634983	2690.665454
814.954191	2686.236800
815.273354	2695.512523
815.592473	2696.581248
815.911547	2699.411856
816.230577	2704.148020
816.549562	2709.448793
816.868502	2709.902497
817.187399	2714.371480
817.506250	2720.594784
817.825058	2719.084959
818.143821	2722.689384
818.462539	2734.258832
818.781213	2746.634864
819.099843	2768.271497
819.418429	2804.466981
819.736970	2845.020543
820.055466	2888.268602
820.373919	2943.101233
820.692327	3018.290042
821.010691	3132.668782
821.329011	3434.328908
821.647286	4082.923761
821.965517	5055.604314
822.283704	5582.016722
822.601847	5552.057144
822.919945	5058.210590
823.237999	4624.144559
823.556010	4196.405176
823.873976	3835.592151
824.191897	3574.883838
824.509775	3387.010117
824.827609	3231.291395
825.145398	3158.292967
825.463144	3148.782830
825.780845	3201.021787
826.098502	3273.937036
826.416116	3456.446970
826.733685	3673.229188
827.051210	3715.050601
827.368692	3621.466621
827.686129	3422.227618
828.003522	3228.400293
828.320872	3072.106880
828.638177	2966.439254
828.955439	2885.528735
829.272656	2837.736076
829.589830	2797.880714
829.906960	2770.240067
830.224046	2747.078486
830.541088	2729.003429
830.858086	2718.288456
831.175041	2709.625233
831.491952	2709.622713
831.808819	2714.583208
832.125642	2722.218036
832.442421	2749.997314
832.759157	2805.465130
833.075849	2915.042170
833.392497	3074.193918
833.709101	3188.416382
834.025662	3156.858759
834.342179	3057.921073
834.658653	2951.245217
834.975083	2864.507124
835.291469	2810.644915
835.607811	2759.333531
835.924110	2728.179200
836.240366	2704.037114
836.556578	2682.269412
836.872746	2669.303564
837.188871	2655.747902
837.504952	2647.513177
837.820990	2639.974131
838.136984	2636.611682
838.452935	2631.595734
838.768842	2631.588172
839.084706	2642.436735
839.400526	2685.074814
839.716303	2761.901999
840.032037	2812.157262
840.347727	2796.847277
840.663373	2757.470825
840.978977	2713.075903
841.294537	2676.056190
841.610054	2650.084165
841.925527	2636.256280
842.240957	2627.038531
842.556344	2613.636623
842.871687	2607.199070
843.186987	2601.999119
843.502244	2598.855960
843.817458	2593.603078
844.132629	2590.018817
844.447756	2587.420102
844.762840	2581.564802
845.077881	2582.542786
845.392879	2581.653022
845.707833	2581.073290
846.022745	2575.769996
846.337613	2576.511046
846.652438	2577.209245
846.967221	2578.242682
847.281960	2575.676735
847.596656	2575.676735
847.911309	2574.464337
848.225919	2571.522824
848.540485	2573.282187
848.855009	2573.440983
849.169490	2571.182546
849.483928	2571.638770
849.798323	2573.589697
850.112675	2572.097515
850.426984	2569.692885
850.741251	2570.822103
851.055474	2570.139027
851.369654	2573.183884
851.683792	2572.072310
851.997887	2570.927968
852.311938	2568.730025
852.625947	2571.565674
852.939914	2575.674214
853.253837	2573.579615
853.567718	2568.414952
853.881555	2569.886969
854.195350	2570.290262
854.509103	2570.212124
854.822812	2569.372772
855.136479	2572.460478
855.450103	2572.319326
855.763685	2569.551733
856.077224	2570.481826
856.390720	2568.997206
856.704173	2570.048286
857.017584	2571.348904
857.330953	2572.788153
857.644278	2571.477453
857.957561	2577.252095
858.270802	2571.989131
858.584000	2571.568194
858.897155	2573.128431
859.210268	2570.471743
859.523339	2570.733883
859.836367	2565.980075
860.149352	2566.204407
860.462295	2567.777247
860.775195	2564.450085
861.088054	2563.822461
861.400869	2564.760116
861.713642	2562.307595
862.026373	2567.174829
862.339062	2571.084243
862.651708	2568.248594
862.964312	2569.917216
863.276873	2570.570046
863.589392	2573.909810
863.901869	2572.858730
864.214303	2574.335788
864.526696	2574.938206
864.839045	2578.393917
865.151353	2576.475757
865.463619	2577.264698
865.775842	2578.051118
866.088023	2575.490212
866.400162	2574.353432
866.712258	2579.049267
867.024313	2576.511046
867.336325	2574.519790
867.648296	2576.087589
867.960224	2575.467527
868.272110	2578.073803
868.583954	2573.670355
868.895755	2571.240519
869.207515	2576.919379
869.519233	2578.522466
869.830909	2579.543300
870.142542	2578.625810
870.454134	2576.664801
870.765684	2580.332240
871.077191	2580.319637
871.388657	2584.362643
871.700081	2581.811819
872.011463	2581.597570
872.322803	2580.790985
872.634101	2584.453383
872.945357	2585.696028
873.256571	2587.858683
873.567744	2588.566965
873.878874	2588.282140
874.189963	2587.987232
874.501010	2591.165680
874.812015	2589.297932
875.122979	2592.438571
875.433900	2588.514033
875.744780	2589.129054
876.055618	2588.355237
876.366415	2589.255082
876.677169	2589.630648
876.987882	2589.300453
877.298554	2585.181830
877.609183	2588.045206
877.919771	2590.603591
878.230317	2594.455033
878.540822	2600.804366
878.851285	2604.983483
879.161707	2614.808691
879.472087	2633.458440
879.782425	2657.897954
880.092722	2706.580377
880.402977	2799.907258
880.713191	2964.112762
881.023363	3166.885614
881.333494	3304.831748
881.643583	3381.820249
881.953631	3344.256091
882.263637	3229.761405
882.573602	3106.396809
882.883526	3018.123684
883.193408	2944.921089
883.503248	2881.773076
883.813048	2824.737461
884.122806	2775.094698
884.432522	2735.075499
884.742197	2703.487629
885.051831	2679.905111
885.361424	2661.890548
885.670975	2647.883702
885.980485	2634.464150
886.289954	2628.379477
886.599382	2623.605505
886.908768	2617.591408
887.218113	2608.615634
887.527417	2602.692278
887.836680	2597.381422
888.145901	2593.555187
888.455082	2591.952100
888.764221	2588.967737
889.073319	2584.506316
889.382376	2582.623445
889.691392	2583.752663
890.000366	2585.365832
890.309300	2582.124370
890.618193	2583.004052
890.927044	2583.404823
891.235855	2586.812643
891.544625	2587.019331
891.853353	2588.151070
892.162041	2588.176276
892.470687	2598.034252
892.779293	2602.102463
893.087858	2608.391303
893.396381	2617.689711
893.704864	2637.209058
894.013306	2670.755417
894.321707	2712.828887
894.630068	2740.885428
894.938387	2749.886409
895.246665	2737.616240
895.554903	2715.054556
895.863100	2689.097655
896.171256	2667.897082
896.479371	2643.356746
896.787446	2629.881741
897.095480	2618.753394
897.403473	2615.413630
897.711425	2604.149172
898.019336	2600.206989
898.327207	2593.933273
898.635038	2592.819178
898.942827	2590.268354
899.250576	2588.335072
899.558284	2585.771645
899.865952	2582.598239
900.173579	2578.615727
900.481165	2578.167065
900.788711	2574.522310
901.096216	2572.473081
901.403681	2569.637432
901.711105	2572.339491
902.018489	2568.694737
902.325832	2573.877043
902.633135	2571.263204
902.940397	2582.416757
903.247619	2596.786566
903.554800	2629.009622
903.861941	2688.671677
904.169041	2754.214239
904.476101	2785.648354
904.783121	2777.257353
905.090100	2746.728126
905.397039	2708.135572
905.703938	2673.170129
906.010796	2644.491005
906.317614	2623.401338
906.624391	2608.935747
906.931129	2595.115424
907.237826	2585.645616
907.544483	2577.284863
907.851099	2573.834193
908.157675	2566.043090
908.464211	2563.401525
908.770707	2559.587892
909.077163	2556.414486
909.383578	2554.995401
909.689954	2556.933725
909.996289	2550.846531
910.302584	2553.949362
910.608839	2553.397355
910.915054	2555.121430
911.221229	2553.818292
911.527363	2554.919784
911.833458	2555.975905
912.139513	2555.280226
912.445527	2557.783159
912.751502	2557.556307
913.057436	2563.711556
913.363331	2562.045455
913.669186	2567.452092
913.975000	2572.140365
914.280775	2582.857858
914.586510	2593.479569
914.892205	2611.219390
915.197859	2639.094450
915.503475	2676.066272
915.809050	2708.732949
916.114585	2724.363047
916.420081	2726.092162
916.725536	2725.598129
917.030952	2709.557178
917.336328	2684.684125
917.641665	2666.508245
917.946961	2644.700213
918.252218	2632.838378
918.557435	2616.815071
918.862612	2607.173864
919.167750	2600.711105
919.472848	2591.518561
919.777906	2582.540266
920.082925	2576.793350
920.387904	2574.134142
920.692843	2575.097002
920.997743	2567.074006
921.302603	2567.721794
921.607423	2565.009653
921.912204	2558.972871
922.216946	2562.229457
922.521647	2559.229970
922.826310	2558.418344
923.130932	2554.844166
923.435516	2552.268137
923.740059	2554.352654
924.044564	2550.234031
924.349028	2550.806202
924.653454	2544.524924
924.957840	2544.827394
925.262186	2544.963505
925.566493	2543.100798
925.870761	2538.911600
926.174989	2544.774462
926.479178	2545.437373
926.783328	2545.074410
927.087438	2544.792106
927.391509	2544.227496
927.695541	2543.070552
927.999533	2542.021992
928.303486	2542.460572
928.607400	2541.366642
928.911275	2541.222969
929.215110	2540.461754
929.518906	2540.655839
929.822663	2541.507794
930.126381	2540.953267
930.430060	2543.068031
930.733699	2540.265149
931.037299	2543.685572
931.340861	2542.442928
931.644383	2542.861344
931.947866	2543.100798
932.251309	2544.202291
932.554714	2541.258257
932.858080	2542.175747
933.161407	2538.924203
933.464694	2540.764224
933.767943	2538.576363
934.071153	2542.374872
934.374323	2542.427804
934.677455	2540.134079
934.980548	2541.359080
935.283602	2538.367155
935.586617	2541.696837
935.889593	2538.949408
936.192530	2537.757175
936.495428	2539.750952
936.798287	2537.104346
937.101108	2538.525951
937.403890	2541.318751
937.706632	2539.440921
938.009336	2544.638350
938.312002	2545.747404
938.614628	2548.232693
938.917216	2548.706562
939.219765	2548.605738
939.522275	2552.464742
939.824747	2549.467776
940.127179	2546.120450
940.429573	2544.466951
940.731929	2544.479554
941.034246	2540.363452
941.336524	2544.814791
941.638763	2548.134391
941.940964	2545.311344
942.243126	2545.202960
942.545250	2547.058104
942.847335	2545.268495
943.149381	2541.638864
943.451389	2538.987217
943.753359	2542.684903
944.055290	2542.213555
944.357182	2539.962680
944.659036	2541.747249
944.960851	2543.274718
945.262628	2543.589790
945.564367	2542.148020
945.866067	2541.795140
946.167729	2543.824204
946.469352	2543.221786
946.770937	2542.510983
947.072484	2539.887063
947.373992	2541.263298
947.675462	2538.074768
947.976893	2541.916127
948.278286	2540.398740
948.579641	2542.004348
948.880958	2541.094419
949.182236	2536.917823
949.483476	2540.476878
949.784678	2539.370345
950.085841	2541.371683
950.386967	2540.678524
950.688054	2540.625592
950.989103	2539.645087
951.290114	2539.501415
951.591087	2541.182639
951.892021	2541.384286
952.192917	2538.606610
952.493776	2544.287990
952.794596	2541.127187
953.095378	2543.347815
953.396122	2541.704399
953.696828	2542.314378
953.997496	2542.584080
954.298126	2541.517876
954.598718	2540.849923
954.899272	2540.260108
955.199788	2539.680376
955.500266	2540.645757
955.800706	2538.430169
956.101108	2533.588141
956.401472	2535.937319
956.701798	2533.378933
957.002087	2533.073943
957.302337	2537.147196
957.602550	2538.299099
957.902724	2532.849612
958.202861	2535.400436
958.502960	2534.097298
958.803022	2536.418749
959.103045	2531.057482
959.403031	2533.446989
959.702979	2530.560928
960.002889	2533.711649
960.302762	2532.975641
960.602596	2535.738193
960.902393	2534.298944
961.202153	2534.442617
961.501875	2532.050589
961.801559	2533.691485
962.101205	2532.421114
962.400814	2531.727955
962.700385	2531.639735
962.999918	2534.001516
963.299414	2532.600075
963.598873	2530.442461
963.898293	2529.666123
964.197677	2530.860877
964.497022	2535.309695
964.796331	2531.962369
965.095601	2530.878521
965.394835	2531.974972
965.694030	2532.849612
965.993189	2532.630322
966.292309	2531.173428
966.591393	2532.834489
966.890439	2530.707122
967.189447	2532.146371
967.488419	2531.503624
967.787353	2530.790301
968.086249	2532.990764
968.385108	2533.908254
968.683930	2532.741227
968.982714	2531.596885
969.281462	2533.699047
969.580172	2528.857018
969.878844	2533.724252
970.177480	2532.002698
970.476078	2530.563449
970.774639	2533.240302
971.073162	2532.436237
971.371649	2530.908768
971.670098	2530.001360
971.968510	2532.335414
972.266885	2527.881555
972.565223	2530.656710
972.863524	2532.201824
973.161788	2530.674354
973.460014	2533.867925
973.758204	2533.562935
974.056356	2532.358100
974.354471	2533.893131
974.652550	2533.963707
974.950591	2533.205013
975.248595	2532.589993
975.546563	2530.172759
975.844493	2531.594365
976.142386	2532.234591
976.440243	2534.767771
976.738062	2533.903213
977.035845	2528.841895
977.333590	2530.472708
977.631299	2530.881042
977.928971	2531.075126
978.226606	2530.641587
978.524204	2530.991947
978.821765	2529.003212
979.119290	2531.455733
979.416777	2529.179652
979.714228	2530.528161
980.011642	2529.409025
980.309020	2535.680220
980.606360	2530.563449
980.903664	2531.526309
981.200931	2532.204344
981.498162	2531.894313
981.795356	2533.333563
982.092513	2533.089067
982.389633	2537.013605
982.686717	2536.771630
982.983764	2534.407329
983.280775	2538.256250
983.577749	2537.056455
983.874686	2539.294727
984.171587	2534.014119
984.468451	2535.902031
984.765279	2533.252904
985.062070	2532.695857
985.358824	2529.777029
985.655543	2532.068233
985.952224	2528.322656
986.248869	2533.651156
986.545478	2525.708818
986.842050	2531.891793
987.138586	2525.789476
987.435086	2527.271575
987.731549	2526.028931
988.027975	2530.286185
988.324366	2527.132944
988.620719	2528.539426
988.917037	2531.201155
989.213318	2532.690816
989.509563	2527.405166
989.805772	2531.569159
990.101944	2528.383150
990.398080	2529.653521
990.694180	2530.364323
990.990244	2530.452543
991.286271	2526.916174
991.582262	2528.302491
991.878217	2528.758716
992.174136	2529.736700
992.470019	2531.312060
992.765865	2530.303829
993.061676	2527.758047
993.357450	2530.165198
993.653188	2529.109076
993.948890	2529.837523
994.244556	2531.914478
994.540186	2532.564787
994.835780	2529.668644
995.131337	2530.195445
995.426859	2530.263500
995.722345	2528.957841
996.017795	2530.538243
996.313208	2528.723428
996.608586	2529.824920
996.903928	2530.266021
997.199234	2529.066226
997.494504	2533.615867
997.789738	2529.756864
998.084936	2532.353058
998.380099	2527.473222
998.675225	2530.918850
998.970316	2530.815507
999.265371	2528.186545
999.560390	2527.334590
999.855373	2528.882224
1000.150320	2531.964890
1000.445232	2528.463808
1000.740108	2526.626308
1001.034948	2527.939528
1001.329752	2526.810310
1001.624521	2530.185362
1001.919254	2525.434075
1002.213951	2525.033303
1002.508613	2523.515916
1002.803239	2525.751668
1003.097829	2523.848632
1003.392384	2529.010773
1003.686903	2528.884745
1003.981386	2529.822399
1004.275834	2527.725279
1004.570246	2530.820548
1004.864623	2528.907430
1005.158964	2528.821730
1005.453270	2528.476411
1005.747540	2526.391894
1006.041775	2530.024045
1006.335974	2526.845598
1006.630138	2524.506502
1006.924266	2530.185362
1007.218359	2528.650331
1007.512416	2531.740558
1007.806438	2526.545649
1008.100425	2529.076308
1008.394376	2528.153777
1008.688292	2525.857532
1008.982172	2527.795855
1009.276017	2531.198634
1009.569827	2530.276103
1009.863602	2528.128572
1010.157341	2528.998171
1010.451045	2528.461288
1010.744714	2526.807789
1011.038347	2529.771988
1011.331945	2525.514733
1011.625508	2529.199817
1011.919036	2527.256452
1012.212528	2528.178983
1012.505986	2527.843746
1012.799408	2525.912984
1013.092795	2527.206040
1013.386147	2526.122192
1013.679464	2528.385670
1013.972745	2527.387522
1014.265992	2528.925074
1014.559204	2527.717718
1014.852380	2529.819879
1015.145521	2528.151257
1015.438628	2527.886596
1015.731699	2528.305012
1016.024736	2527.808458
1016.317737	2526.485155
1016.610703	2530.021525
1016.903635	2524.917357
1017.196531	2523.687315
1017.489393	2524.057840
1017.782219	2523.105062
1018.075011	2527.667306
1018.367768	2527.049765
1018.660490	2526.648993
1018.953177	2526.648993
1019.245829	2526.648993
