Dividing Wavelength (nm)	Counts (n)	Blue Motor Position (mm): 0.000000	Red Motor Position (mm): 41.200000	
326.493990	2128.813734
326.888308	2128.813734
327.282561	2128.813734
327.676750	2096.159660
328.070874	2093.008939
328.464933	2096.963724
328.858929	2102.067893
329.252859	2114.600201
329.646726	2125.090842
330.040528	2136.884622
330.434265	2154.899185
330.827938	2172.956598
331.221547	2189.748681
331.615091	2209.484799
332.008571	2227.948025
332.401986	2251.326376
332.795338	2267.606782
333.188625	2286.080090
333.581847	2305.518779
333.975006	2322.981336
334.368100	2342.651919
334.761129	2360.215299
335.154095	2377.229193
335.546996	2396.325084
335.939833	2420.031110
336.332606	2432.031576
336.725315	2443.979111
337.117960	2454.424382
337.510540	2461.151802
337.903056	2474.803246
338.295508	2481.157621
338.687896	2490.801348
339.080220	2498.315188
339.472480	2505.196363
339.864676	2509.438494
340.256807	2512.500995
340.648875	2513.229441
341.040879	2518.187416
341.432818	2522.348889
341.824694	2523.594054
342.216506	2521.781759
342.608253	2524.380474
342.999937	2523.974661
343.391557	2521.423837
343.783113	2518.822602
344.174605	2522.467356
344.566033	2517.645492
344.957397	2516.664988
345.348697	2515.676922
345.739934	2515.165244
346.131106	2513.153824
346.522215	2511.555778
346.913260	2509.320027
347.304241	2509.221724
347.695159	2505.060252
348.086012	2501.745693
348.476802	2503.391630
348.867528	2501.355003
349.258191	2501.135713
349.648789	2497.934581
350.039324	2498.272338
350.429796	2498.587410
350.820203	2496.409632
351.210548	2492.956441
351.600828	2491.723879
351.991045	2492.764877
352.381198	2491.517192
352.771288	2491.071050
353.161314	2489.747747
353.551276	2492.089363
353.941175	2489.281440
354.331010	2492.260762
354.720782	2489.868734
355.110490	2491.859990
355.500135	2490.609784
355.889717	2486.700369
356.279235	2493.458036
356.668689	2493.115237
357.058080	2494.118427
357.447408	2489.775473
357.836672	2491.313025
358.225873	2492.354023
358.615010	2492.807727
359.004084	2495.736638
359.393095	2497.339724
359.782043	2497.864004
360.170927	2497.470794
360.559748	2497.770743
360.948505	2499.653614
361.337199	2497.309478
361.725830	2499.124293
362.114398	2501.100425
362.502903	2500.805518
362.891344	2500.868532
363.279722	2500.722339
363.668037	2504.321723
364.056289	2503.021105
364.444478	2503.409274
364.832603	2504.334325
365.220665	2504.006650
365.608665	2508.319358
365.996601	2506.716271
366.384474	2509.347753
366.772284	2508.130314
367.160031	2511.878412
367.547715	2509.539317
367.935336	2515.087107
368.322893	2520.869310
368.710388	2520.133302
369.097820	2526.951462
369.485189	2529.343490
369.872495	2536.441434
370.259738	2542.977290
370.646918	2550.012220
371.034035	2555.917932
371.421090	2566.945456
371.808081	2579.134966
372.195010	2584.702921
372.581875	2599.133223
372.968678	2612.951026
373.355418	2624.165073
373.742096	2641.783906
374.128710	2656.400731
374.515262	2672.444203
374.901751	2686.332582
375.288177	2698.607792
375.674540	2725.474621
376.060841	2741.177815
376.447079	2758.221957
376.833254	2780.718106
377.219367	2793.688994
377.605417	2831.830364
377.991404	2841.506859
378.377329	2863.803883
378.763191	2878.524052
379.148991	2918.460073
379.534727	2941.470419
379.920402	2969.499235
380.306013	2982.825525
380.691563	3029.098276
381.077049	3053.235321
381.462474	3070.471026
381.847835	3114.409723
382.233134	3133.810603
382.618371	3134.045017
383.003545	3198.133206
383.388657	3206.309957
383.773706	3240.627612
384.158693	3256.527411
384.543618	3283.991617
384.928480	3317.888336
385.313280	3364.463556
385.698017	3363.107486
386.082692	3414.900301
386.467305	3419.376845
386.851856	3452.199798
387.236344	3477.012357
387.620770	3508.209538
388.005133	3531.971016
388.389435	3561.567631
388.773674	3571.617171
389.157851	3612.236268
389.541965	3631.916932
389.926018	3595.446705
390.310008	3667.071419
390.693936	3683.563554
391.077802	3726.204153
391.461606	3716.252916
391.845348	3778.049900
392.229027	3775.569652
392.612645	3789.069862
392.996200	3867.605998
393.379694	3908.890528
393.763125	3970.957214
394.146494	3942.177267
394.529801	3999.217922
394.913047	4052.029050
395.296230	4020.027805
395.679351	4070.787183
396.062410	4090.172941
396.445408	4074.442020
396.828343	4104.890589
397.211217	4132.783293
397.594028	4053.233886
397.976778	4116.560860
398.359466	4148.930109
398.742092	4172.318543
399.124656	4097.706945
399.507158	4174.347607
399.889598	4201.579920
400.271977	4262.986215
400.654294	4234.803644
401.036549	4244.573401
401.418742	4214.651632
401.800874	4315.512518
402.182944	4335.283923
402.564952	4396.896905
402.946898	4385.279566
403.328783	4382.965677
403.710606	4297.215650
404.092367	4491.310155
404.474067	4454.492088
404.855705	4463.165393
405.237282	4389.942633
405.618797	4501.415148
406.000250	4534.966547
406.381642	4615.020070
406.762972	4577.408022
407.144240	4583.056634
407.525447	4588.680042
407.906593	4645.322446
408.287677	4687.302655
408.668700	4616.154330
409.049661	4668.045447
409.430560	4714.545050
409.811399	4637.725427
410.192176	4796.441115
410.572891	4738.261158
410.953545	4843.437272
411.334138	4722.010999
411.714669	4791.654539
412.095139	4685.795350
412.475547	4827.892874
412.855894	4801.792300
413.236180	4814.982479
413.616405	4767.681332
413.996568	4860.060477
414.376670	4796.657885
414.756711	4753.898818
415.136691	4787.969456
415.516609	4861.857648
415.896466	4902.270058
416.276262	4934.266261
416.655997	4914.933436
417.035670	5098.391107
417.415283	5187.233882
417.794834	5130.810767
418.174324	5083.766720
418.553753	4992.166434
418.933121	5179.702398
419.312428	5243.281430
419.691674	5180.912275
420.070859	5311.856246
420.449983	5220.114808
420.829045	5341.422613
421.208047	5242.754630
421.586988	5313.398839
421.965867	5325.288400
422.344686	5460.797136
422.723444	5312.130989
423.102141	5134.384945
423.480777	5430.877888
423.859352	5197.013720
424.237866	5456.832269
424.616319	5449.812462
424.994712	5558.282969
425.373044	5437.428868
425.751314	5578.745013
426.129524	5382.419797
426.507673	5576.045475
426.885762	5659.179143
427.263789	5590.657259
427.641756	5474.569569
428.019662	5596.799905
428.397508	5601.341985
428.775292	5546.360641
429.153016	5650.664634
429.530679	5575.664868
429.908282	5657.891128
430.285824	5529.437487
430.663305	5805.864117
431.040726	5540.674219
431.418086	5544.094642
431.795385	5646.430065
432.172624	5655.678062
432.549802	5646.525847
432.926920	5663.333054
433.303977	5672.588612
433.680974	5710.064550
434.057910	5729.225976
434.434786	5736.286112
434.811601	5705.693870
435.188355	5938.703562
435.565050	5813.027597
435.941683	5790.271828
436.318257	6004.614128
436.694770	5989.740204
437.071222	6027.506008
437.447614	5956.002282
437.823946	5871.721751
438.200218	6022.631212
438.576429	5892.093054
438.952580	5988.779864
439.328670	6028.363004
439.704700	5941.425785
440.080670	5924.724443
440.456580	6191.661100
440.832429	6075.865797
441.208218	5924.772333
441.583947	6079.437454
441.959616	6087.117652
442.335224	6016.889338
442.710773	6150.537888
443.086261	6177.233318
443.461689	5968.527028
443.837057	6119.628053
444.212365	6277.242249
444.587612	6168.106309
444.962800	6322.811759
445.337927	6301.137318
445.712995	5914.533750
446.088002	6489.986503
446.462949	6320.608775
446.837837	6250.554380
447.212664	6422.805566
447.587431	6566.939716
447.962139	7107.961388
448.336786	8030.172429
448.711374	7778.142463
449.085901	6847.618559
449.460369	6770.186436
449.834776	6701.087341
450.209124	7095.454285
450.583412	7246.799806
450.957640	7395.261787
451.331808	7156.311095
451.705917	6709.112858
452.079965	6631.509335
452.453954	6844.054464
452.827883	6723.376802
453.201752	6810.427447
453.575562	6608.151149
453.949311	6813.368960
454.323001	6708.318876
454.696632	6783.545494
455.070202	6922.328459
455.443713	7074.132725
455.817164	7170.925400
456.190556	7253.658296
456.563888	7330.518248
456.937160	7372.253961
457.310373	7026.307299
457.683526	7056.460960
458.056619	6943.173631
458.429653	6932.481343
458.802628	6868.887188
459.175542	6977.559341
459.548398	7329.232754
459.921194	7494.988413
460.293930	7498.441603
460.666607	8026.719238
461.039224	8333.120569
461.411782	8464.916495
461.784280	8479.263619
462.156719	8372.360911
462.529099	8244.308041
462.901419	7840.226793
463.273680	7726.359730
463.645882	7744.505364
464.018024	7617.070036
464.390106	7771.810773
464.762130	8159.629259
465.134094	8630.939335
465.505999	9653.915480
465.877845	10874.131809
466.249631	11522.502332
466.621358	11139.407407
466.993026	10502.122382
467.364634	10257.875957
467.736184	9893.221573
468.107674	9559.797137
468.479105	9594.571017
468.850477	9352.910704
469.221790	9130.305953
469.593043	8793.309860
469.964238	8662.547370
470.335373	8676.249226
470.706449	8731.946414
471.077467	8711.421357
471.448425	10021.191264
471.819324	11089.200035
472.190164	11119.141968
472.560945	9873.926557
472.931667	9083.246782
473.302330	8947.057490
473.672934	8589.919467
474.043479	8951.085372
474.413965	8886.251092
474.784393	8774.012323
475.154761	8931.732382
475.525070	9018.793109
475.895321	8841.425152
476.265513	9023.506588
476.635645	9189.917597
477.005719	9190.759470
477.375734	9307.426893
477.745691	9542.309375
478.115588	9671.279734
478.485427	9917.643443
478.855207	10453.686976
479.224928	11262.956005
479.594591	11894.917572
479.964194	11711.003677
480.333739	11653.453865
480.703226	11560.754607
481.072653	11660.019968
481.442022	11891.731563
481.811333	12079.622928
482.180584	11883.191848
482.549777	11594.038825
482.918912	11426.496077
483.287988	11435.378590
483.657005	11455.996910
484.025964	11141.990998
484.394864	11269.711152
484.763706	11238.221584
485.132489	10994.350726
485.501213	10959.218924
485.869879	11042.103055
486.238487	10875.858404
486.607036	10979.416307
486.975527	10766.984605
487.343959	10957.726743
487.712333	11000.682415
488.080648	10938.172107
488.448905	10973.215688
488.817104	10914.970197
489.185244	11181.206134
489.553326	11335.500730
489.921350	11876.668595
490.289315	12931.497270
490.657222	13273.864713
491.025070	13189.362372
491.392861	13064.545923
491.760593	12681.088035
492.128267	12327.831700
492.495883	12000.461690
492.863440	11667.445587
493.230939	11332.271871
493.598380	11268.796182
493.965763	11130.290480
494.333088	11040.988960
494.700354	10954.122318
495.067563	11013.310505
495.434713	10839.408342
495.801805	10967.839297
496.168839	10899.327496
496.535815	10829.540283
496.902733	10829.152114
497.269593	10762.697103
497.636395	10866.885151
498.003139	10855.628254
498.369825	10721.810825
498.736453	10875.714732
499.103023	10798.466611
499.469535	10833.961375
499.835989	10827.317134
500.202385	10785.208376
500.568723	10637.956272
500.935003	10860.336692
501.301226	10664.079531
501.667390	10922.816752
502.033497	11017.300578
502.399546	10878.643642
502.765537	10788.986721
503.131470	10864.911539
503.497345	11035.282374
503.863163	10648.691409
504.228923	10953.633326
504.594625	11017.086329
504.960269	10764.385890
505.325856	10987.814870
505.691385	10782.786102
506.056856	10937.685636
506.422270	10961.331168
506.787625	10856.631444
507.152924	10964.655809
507.518164	10946.477408
507.883347	10871.376819
508.248472	10790.615013
508.613540	11023.113029
508.978550	10904.555173
509.343503	10876.843950
509.708398	10997.811478
510.073236	11108.124527
510.438016	11121.261774
510.802738	11063.570809
511.167403	11120.729932
511.532010	11013.086174
511.896561	11241.359702
512.261053	11311.146916
512.625488	11184.820641
512.989866	11169.891264
513.354186	11153.520117
513.718449	11060.465458
514.082655	11248.689540
514.446803	11144.642645
514.810894	11264.304514
515.174927	11129.904832
515.538904	11166.284319
515.902822	11313.664972
516.266684	11193.685510
516.630488	11139.236008
516.994235	11200.211284
517.357925	11255.716908
517.721558	11346.613953
518.085133	11361.291273
518.448651	11374.085721
518.812112	11257.035170
519.175516	11262.837538
519.538863	11388.145499
519.902152	11303.252469
520.265385	11472.468880
520.628560	11378.945394
520.991678	11358.909328
521.354739	11418.717577
521.717743	11350.571259
522.080690	11326.958495
522.443580	11463.256171
522.806413	11423.531879
523.169189	11452.987341
523.531908	11504.301246
523.894569	11326.033443
524.257174	11333.461583
524.619722	11450.423914
524.982213	11399.523384
525.344647	11451.348966
525.707025	11402.842983
526.069345	11488.124183
526.431608	11407.327090
526.793815	11515.061589
527.155964	11308.230608
527.518057	11357.810356
527.880093	11311.764457
528.242072	11374.365505
528.603995	11284.622885
528.965860	11206.502644
529.327669	11248.560991
529.689421	11206.789990
530.051117	11174.004846
530.412755	11279.838830
530.774337	11168.222642
531.135862	11151.939715
531.497331	11174.866883
531.858743	11026.165448
532.220098	11190.323061
532.581396	11061.942516
532.942638	11046.473736
533.303824	11006.840184
533.664953	11017.761844
534.026025	10934.789493
534.387040	11030.737774
534.747999	11035.118537
535.108902	11093.694224
535.469748	10846.145844
535.830537	10953.991248
536.191270	10929.705489
536.551947	10956.675662
536.912567	10953.330857
537.273131	10876.725483
537.633638	10861.501198
537.994089	10843.811789
538.354483	10792.412185
538.714821	10934.441653
539.075103	10947.536050
539.435328	10917.601679
539.795497	10739.958979
540.155609	10888.922555
540.515665	10986.899900
540.875665	10718.922244
541.235609	10794.516867
541.595496	10786.652667
541.955328	10937.224370
542.315102	10824.700775
542.674821	10773.081880
543.034483	10773.417117
543.394090	10776.333425
543.753640	10701.951200
544.113134	10931.111971
544.472571	10785.904055
544.831953	10927.023595
545.191278	10731.898174
545.550548	10760.910014
545.909761	10892.002700
546.268918	10874.262879
546.628019	10953.792122
546.987064	10812.662500
547.346053	10737.982847
547.704986	10839.715852
548.063863	10824.148769
548.422684	10809.562190
548.781449	10731.119316
549.140158	10833.484986
549.498811	10711.007632
549.857408	10564.267206
550.215949	10787.799529
550.574434	10643.020111
550.932864	10739.013763
551.291237	10808.538836
551.649555	10755.135373
552.007817	10762.467731
552.366022	10726.473892
552.724173	10720.220341
553.082267	10707.977899
553.440305	10836.474390
553.798288	10644.870215
554.156215	10794.383276
554.514086	10775.176480
554.871902	10628.509150
555.229661	10666.902577
555.587365	10635.811261
555.945014	10529.581547
556.302606	10661.218677
556.660143	10551.896214
557.017625	10704.794410
557.375050	10604.525860
557.732421	10740.984854
558.089735	10651.385906
558.446994	10649.092181
558.804197	10689.726402
559.161345	10691.884015
559.518437	10538.879955
559.875474	10631.019644
560.232455	10659.242544
560.589381	10606.370923
560.946251	10604.440161
561.303065	10714.294465
561.659825	10643.892231
562.016528	10574.495707
562.373177	10455.587491
562.729770	10564.511702
563.086307	10481.995575
563.442789	10579.609957
563.799216	10453.064393
564.155587	10502.727320
564.511904	10456.946082
564.868164	10447.914854
565.224370	10465.596702
565.580520	10384.227437
565.936615	10392.673891
566.292654	10257.949054
566.648638	10392.177337
567.004567	10344.359472
567.360441	10333.606691
567.716260	10244.277445
568.072023	10335.126599
568.427732	10281.367734
568.783385	10196.270537
569.138982	10266.806361
569.494525	10283.268249
569.850013	10159.175206
570.205445	10239.727803
570.560823	10134.884406
570.916145	10047.145644
571.271412	10120.333116
571.626625	10065.966792
571.981782	10043.120283
572.336884	10016.896201
572.691931	10024.609166
573.046923	9968.980033
573.401860	9926.364639
573.756743	9860.748981
574.111570	9898.701308
574.466342	9886.050532
574.821059	9916.972970
575.175722	9807.227050
575.530330	9815.794491
575.884882	9802.455598
576.239380	9732.464218
576.593823	9711.475374
576.948211	9727.634793
577.302544	9605.379250
577.656823	9626.242066
578.011047	9620.485068
578.365216	9586.961395
578.719330	9517.895067
579.073389	9521.459162
579.427394	9473.391760
579.781344	9453.159089
580.135239	9399.269155
580.489080	9405.331142
580.842866	9304.568559
581.196597	9311.255650
581.550273	9349.235703
581.903895	9312.881422
582.257463	9382.187205
582.610975	9254.998893
582.964434	9287.421074
583.317837	9201.227426
583.671186	9186.517339
584.024481	9183.275877
584.377721	9097.520809
584.730906	9070.815297
585.084037	9101.508362
585.437113	9041.322026
585.790135	9053.574550
586.143103	8951.307183
586.496016	8933.496786
586.848874	8982.511925
587.201679	8974.738466
587.554428	8852.737502
587.907124	8893.369202
588.259765	8866.048668
588.612352	8867.654276
588.964884	8741.738856
589.317362	8760.454139
589.669786	8754.271164
590.022155	8807.523393
590.374470	8813.028333
590.726731	8755.871731
591.078937	8604.652239
591.431090	8711.439001
591.783188	8581.883867
592.135232	8577.971932
592.487222	8574.652332
592.839157	8619.284188
593.191038	8553.784476
593.542866	8497.106783
593.894639	8388.525370
594.246358	8441.638967
594.598022	8455.449208
594.949633	8347.303855
595.301190	8322.415679
595.652692	8349.617745
596.004141	8455.187068
596.355535	8228.977892
596.706876	8202.474026
597.058162	8139.792319
597.409395	8216.206129
597.760573	8275.963967
598.111698	8179.831683
598.462768	8163.389960
598.813785	8118.022096
599.164748	8088.314577
599.515657	8076.561126
599.866511	7982.452866
600.217312	8097.978468
600.568060	7955.646531
600.918753	8053.364257
601.269392	8024.526336
601.619978	7931.257428
601.970510	7989.422262
602.320988	7981.116961
602.671412	8028.037500
603.021783	7964.483673
603.372100	7935.721370
603.722363	7932.938653
604.072572	7900.622337
604.422728	7911.599449
604.772830	7832.022315
605.122878	7840.015064
605.472872	7824.425296
605.822813	7841.275353
606.172701	7782.906353
606.522534	7852.310439
606.872314	7850.109975
607.222041	7808.585991
607.571714	7851.892023
607.921333	7810.667987
608.270899	7805.352091
608.620411	7891.233187
608.969870	7786.049513
609.319276	7772.506453
609.668627	7778.218080
610.017926	7810.834345
610.367171	7837.542378
610.716362	7808.580950
611.065500	7787.569420
611.414585	7808.643964
611.763616	7779.992566
612.112594	7760.558918
612.461518	7764.821214
612.810389	7819.321128
613.159207	7753.972651
613.507971	7692.178187
613.856682	7786.684698
614.205340	7735.285093
614.553945	7793.651573
614.902496	7688.117537
615.250994	7728.845019
615.599439	7699.283693
615.947830	7703.455248
616.296169	7660.255080
616.644454	7663.105853
616.992686	7645.073645
617.340864	7685.508740
617.688990	7582.099551
618.037063	7657.013618
618.385082	7594.236129
618.733048	7654.382136
619.080961	7591.314781
619.428821	7595.461130
619.776628	7581.955878
620.124382	7524.562342
620.472083	7497.443455
620.819731	7514.003645
621.167326	7409.029178
621.514868	7406.039774
621.862357	7295.704040
622.209793	7299.142107
622.557176	7231.341108
622.904506	7197.767023
623.251783	7125.592824
623.599007	7074.611635
623.946179	7072.955616
624.293297	7018.574169
624.640363	6941.951151
624.987376	6916.465598
625.334336	6865.275201
625.681243	6799.672145
626.028097	6779.013497
626.374899	6750.283961
626.721647	6725.582307
627.068343	6662.580487
627.414987	6620.754033
627.761577	6572.800058
628.108115	6590.272697
628.454600	6490.967007
628.801032	6512.278485
629.147412	6477.255069
629.493739	6445.768022
629.840014	6383.603033
630.186236	6418.197951
630.532405	6302.740405
630.878521	6332.362225
631.224585	6282.311129
631.570597	6213.627928
631.916556	6221.469443
632.262462	6209.252207
632.608316	6158.810421
632.954117	6125.669876
633.299866	6107.536846
633.645562	6087.450368
633.991206	6008.034551
634.336797	5955.750224
634.682336	5908.007976
635.027823	5870.355598
635.373257	5854.533937
635.718639	5789.031704
636.063968	5789.581190
636.409245	5695.185584
636.754470	5679.126989
637.099642	5635.556296
637.444762	5578.041772
637.789829	5579.120579
638.134845	5517.578173
638.479808	5495.177806
638.824719	5487.792515
639.169577	5424.447897
639.514383	5426.643319
639.859137	5360.952043
640.203839	5361.378021
640.548489	5333.034133
640.893086	5304.150842
641.237632	5268.693887
641.582125	5274.826450
641.926566	5241.275051
642.270955	5237.100976
642.615292	5219.978697
642.959576	5216.515424
643.303809	5199.945151
643.647990	5189.908214
643.992118	5175.190565
644.336195	5124.098471
644.680219	5124.713492
645.024192	5114.711843
645.368112	5164.692362
645.711981	5162.726312
646.055797	5203.879772
646.399562	5157.899407
646.743274	5231.144852
647.086935	5253.890538
647.430544	5237.758846
647.774101	5234.608125
648.117606	5229.435901
648.461059	5210.529054
648.804460	5171.686963
649.147810	5104.175831
649.491108	5068.328186
649.834354	5042.842633
650.177548	4975.079443
650.520690	4907.243156
650.863781	4880.661152
651.206820	4884.827665
651.549807	4822.254343
651.892742	4775.694246
652.235626	4768.349285
652.578458	4743.151078
652.921238	4679.337632
653.263967	4692.283315
653.606644	4648.694978
653.949269	4631.915498
654.291843	4588.564095
654.634365	4610.082260
654.976836	4565.609201
655.319255	4558.085279
655.661622	4529.239797
656.003938	4513.584493
656.346203	4489.906194
656.688416	4490.778313
657.030577	4456.400165
657.372687	4426.821194
657.714746	4411.203700
658.056753	4421.162499
658.398708	4370.546794
658.740612	4366.939848
659.082465	4374.849419
659.424266	4363.935321
659.766016	4351.773537
660.107715	4321.244309
660.449362	4324.906708
660.790958	4309.485818
661.132503	4292.003097
661.473996	4294.221204
661.815438	4282.639153
662.156829	4275.722690
662.498168	4253.034977
662.839456	4236.444540
663.180693	4240.268255
663.521879	4232.376329
663.863013	4221.217735
664.204097	4211.720201
664.545129	4225.159917
664.886110	4208.415725
665.227040	4213.739183
665.567918	4198.212429
665.908746	4191.432077
666.249522	4184.382024
666.590248	4179.413967
666.930922	4179.688709
667.271545	4171.396011
667.612118	4163.955268
667.952639	4146.959018
668.293109	4138.341166
668.633528	4113.140438
668.973896	4106.649952
669.314213	4088.191767
669.654480	4066.172007
669.994695	4055.270512
670.334859	4044.353893
670.674973	4026.147766
671.015035	4018.097043
671.355047	4007.256042
671.695008	3992.220801
672.034918	3974.080209
672.374777	3968.061071
672.714585	3957.459524
673.054342	3950.074234
673.394049	3939.318932
673.733705	3941.262297
674.073310	3920.233124
674.412864	3906.937081
674.752368	3886.285994
675.091820	3880.632340
675.431223	3847.653111
675.770574	3836.237418
676.109875	3808.410249
676.449125	3794.567241
676.788324	3771.831637
677.127473	3744.296855
677.466571	3728.971747
677.805619	3716.217628
678.144616	3701.399156
678.483562	3683.944161
678.822458	3665.584278
679.161303	3653.011641
679.500098	3641.918582
679.838842	3630.144967
680.177535	3623.699852
680.516179	3625.587764
680.854771	3619.636682
681.193314	3643.377996
681.531805	3678.719005
681.870247	3723.645768
682.208638	3755.697424
682.546978	3752.259357
682.885268	3728.679360
683.223508	3691.571427
683.561697	3664.775173
683.899836	3645.351608
684.237925	3621.212042
684.575963	3607.127058
684.913951	3585.853389
685.251889	3595.406376
685.589776	3588.336157
685.927614	3572.454002
686.265401	3581.124787
686.603137	3578.092533
686.940824	3596.160028
687.278460	3600.371912
687.616046	3600.046758
687.953582	3618.310858
688.291068	3608.929271
688.628504	3615.008902
688.965889	3604.427521
689.303224	3576.199580
689.640510	3552.589336
689.977745	3517.878471
690.314930	3478.242399
690.652065	3452.335909
690.989150	3419.263419
691.326185	3379.491236
691.663170	3356.763194
692.000105	3324.769511
692.336990	3294.764563
692.673825	3276.860905
693.010610	3252.973398
693.347345	3230.063874
693.684030	3213.165927
694.020665	3198.118082
694.357251	3167.495593
694.693786	3168.037517
695.030272	3156.936897
695.366707	3137.583907
695.703093	3128.522433
696.039429	3127.617546
696.375716	3116.380814
696.711952	3104.627364
697.048139	3101.111159
697.384276	3095.759974
697.720363	3092.604212
698.056400	3086.577512
698.392388	3071.741397
698.728326	3065.782753
699.064214	3052.048129
699.400053	3048.635268
699.735842	3032.828730
700.071581	3021.647451
700.407270	3009.730163
700.742910	3002.261694
701.078501	2986.586226
701.414042	2978.381748
701.749533	2965.693164
702.084974	2954.877368
702.420366	2956.425002
702.755709	2944.454783
703.091002	2928.786876
703.426246	2928.491969
703.761440	2921.262954
704.096584	2911.261305
704.431679	2909.481778
704.766725	2903.671848
705.101721	2898.698750
705.436668	2897.635066
705.771565	2886.834394
706.106413	2887.983777
706.441212	2888.255999
706.775961	2890.000239
707.110661	2885.521173
707.445311	2886.264744
707.779913	2883.436656
708.114465	2886.819271
708.448967	2893.032493
708.783421	2900.400139
709.117825	2907.798032
709.452180	2909.895152
709.786485	2915.231214
710.120742	2932.489604
710.454949	2933.157557
710.789107	2941.740121
711.123216	2952.122378
711.457275	2955.545321
711.791286	2968.790953
712.125247	2969.978144
712.459159	2958.179324
712.793023	2969.526961
713.126837	2948.298662
713.460602	2944.404371
713.794318	2929.341403
714.127985	2920.516863
714.461602	2897.430899
714.795171	2889.639796
715.128691	2865.981661
715.462162	2852.040350
715.795584	2839.800429
716.128957	2833.098215
716.462281	2824.883654
716.795556	2812.923517
717.128782	2804.020839
717.461960	2790.334107
717.795088	2786.228087
718.128167	2779.296500
718.461198	2769.728390
718.794180	2768.707557
719.127113	2762.965682
719.459997	2756.518047
719.792833	2747.144021
720.125619	2744.222672
720.458357	2736.350911
720.791046	2737.394429
721.123686	2731.597102
721.456278	2726.014025
721.788821	2722.273488
722.121315	2722.417161
722.453761	2715.170503
722.786158	2715.392313
723.118506	2715.304093
723.450805	2713.406099
723.783056	2713.138918
724.115259	2714.673949
724.447412	2712.181098
724.779518	2711.704709
725.111574	2707.994420
725.443582	2711.931561
725.775542	2710.146993
726.107453	2718.535473
726.439315	2716.201419
726.771129	2722.281050
727.102895	2725.124261
727.434612	2728.741289
727.766281	2729.288254
728.097901	2727.672564
728.429473	2725.416648
728.760996	2723.188458
729.092471	2721.625700
729.423897	2717.953220
729.755276	2715.659495
730.086606	2711.621530
730.417887	2719.344578
730.749120	2725.091493
731.080305	2726.966803
731.411442	2731.443347
731.742530	2725.409086
732.073570	2722.432285
732.404562	2725.822461
732.735506	2726.843294
733.066401	2722.530587
733.397249	2711.435008
733.728048	2697.274407
734.058798	2682.967612
734.389501	2678.107940
734.720156	2670.629388
735.050762	2663.498676
735.381320	2660.259734
735.711831	2658.626401
736.042293	2653.728920
736.372707	2651.099958
736.703073	2649.063332
737.033391	2650.414361
737.363661	2652.168682
737.693883	2652.438384
738.024056	2657.343427
738.354182	2653.396203
738.684260	2659.828716
739.014290	2660.413490
739.344272	2664.595127
739.674207	2666.755261
740.004093	2669.051507
740.333931	2666.334325
740.663722	2666.331804
740.993464	2661.802327
741.323159	2658.865855
741.652806	2655.790752
741.982405	2651.735143
742.311956	2648.516367
742.641460	2644.309524
742.970915	2639.195273
743.300323	2635.449696
743.629683	2631.431896
743.958996	2632.551032
744.288260	2625.475773
744.617477	2622.831688
744.946647	2619.209619
745.275768	2615.680811
745.604842	2613.876078
745.933869	2614.322220
746.262847	2610.954729
746.591778	2615.292642
746.920662	2612.467075
747.249498	2612.313320
747.578286	2612.875409
747.907027	2614.271808
748.235720	2617.291460
748.564365	2614.314658
748.892963	2614.327261
749.221514	2613.218207
749.550017	2613.923969
749.878473	2610.614451
750.206881	2609.722167
750.535242	2607.466251
750.863555	2606.425252
751.191821	2606.291662
751.520039	2605.023812
751.848210	2603.881990
752.176334	2605.265787
752.504411	2604.769233
752.832440	2602.528441
753.160421	2600.824531
753.488356	2600.890066
753.816243	2600.070878
754.144082	2597.187338
754.471875	2600.068358
754.799620	2597.446958
755.127318	2596.642893
755.454969	2595.405290
755.782572	2596.766402
756.110129	2594.576020
756.437638	2596.184148
756.765100	2593.635845
757.092515	2594.986874
757.419882	2594.911257
757.747203	2593.819847
758.074477	2593.688777
758.401703	2596.151381
758.728882	2595.344796
759.056014	2596.257245
759.383099	2597.068871
759.710138	2596.393356
760.037129	2597.976279
760.364073	2602.173039
760.690970	2596.665579
761.017820	2597.492328
761.344623	2597.930908
761.671379	2596.894951
761.998088	2595.269179
762.324751	2604.305447
762.651366	2617.130143
762.977935	2654.490134
763.304456	2673.036539
763.630931	2678.150789
763.957359	2656.481390
764.283740	2637.483801
764.610074	2625.571555
764.936362	2611.365583
765.262602	2603.632453
765.588796	2598.049375
765.914943	2593.550146
766.241044	2588.786255
766.567097	2587.997315
766.893104	2582.169741
767.219064	2580.959864
767.544978	2578.199832
767.870845	2577.289904
768.196665	2576.105233
768.522438	2575.966601
768.848165	2573.768658
769.173846	2572.490725
769.499479	2571.691703
769.825066	2571.245560
770.150607	2570.078533
770.476101	2570.630540
770.801548	2569.312278
771.126949	2569.501321
771.452303	2569.397977
771.777611	2566.980744
772.102872	2568.823286
772.428087	2563.709035
772.753256	2565.294478
773.078378	2563.416648
773.403453	2564.712225
773.728482	2562.050496
774.053465	2563.222564
774.378401	2559.915567
774.703291	2560.505382
775.028135	2558.299877
775.352932	2559.403890
775.677683	2560.225598
776.002388	2560.641493
776.327046	2561.894220
776.651658	2563.008315
776.976224	2555.514640
777.300743	2560.147460
777.625216	2561.589230
777.949643	2558.428427
778.274024	2559.013201
778.598359	2553.402396
778.922647	2552.293342
779.246889	2555.444064
779.571086	2549.697148
779.895236	2554.965154
780.219339	2556.432130
780.543397	2558.093190
780.867409	2557.319373
781.191374	2557.032027
781.515294	2557.843653
781.839167	2557.631924
782.162995	2558.700649
782.486776	2556.230484
782.810511	2557.435319
783.134201	2557.858776
783.457844	2554.428271
783.781441	2556.490103
784.104993	2555.401214
784.428498	2554.062788
784.751958	2554.148487
785.075372	2553.198230
785.398739	2555.149156
785.722061	2554.922304
786.045337	2553.178065
786.368568	2555.532284
786.691752	2555.360885
787.014891	2559.968499
787.337983	2556.152346
787.661030	2558.957748
787.984031	2561.465722
788.306987	2565.029818
788.629897	2561.034703
788.952760	2561.838767
789.275579	2560.220557
789.598351	2559.892882
789.921078	2557.578992
790.243759	2555.996070
790.566395	2553.548590
790.888984	2553.866182
791.211529	2554.864331
791.534027	2553.977088
791.856480	2552.298384
792.178888	2555.043292
792.501249	2550.271840
792.823566	2553.034392
793.145836	2551.953065
793.468062	2551.897612
793.790241	2551.937941
794.112375	2552.704197
794.434464	2549.679504
794.756507	2549.339226
795.078505	2552.074052
795.400457	2548.716644
795.722364	2548.918290
796.044226	2555.113868
796.366042	2554.382901
796.687812	2552.419371
797.009538	2556.086811
797.331218	2555.875082
797.652852	2554.798796
797.974442	2554.208981
798.295986	2551.774104
798.617484	2552.346275
798.938938	2552.426933
799.260346	2555.267623
799.581709	2552.663867
799.903026	2551.610266
800.224299	2552.260575
800.545526	2553.125133
800.866708	2551.033054
801.187845	2551.600184
801.508936	2551.378373
801.829983	2551.063301
802.150984	2548.570450
802.471940	2549.588763
802.792851	2548.855276
803.113717	2551.091027
803.434538	2549.407282
803.755314	2547.746222
804.076045	2548.257899
804.396731	2550.884340
804.717372	2546.503577
805.037967	2548.870399
805.358518	2547.090872
805.679024	2551.138918
805.999485	2548.734288
806.319901	2550.360060
806.640272	2548.494833
806.960598	2549.916438
807.280879	2547.514329
807.601115	2552.908363
807.921306	2548.391489
808.241453	2550.405430
808.561554	2548.572971
808.881611	2549.301418
809.201623	2548.903167
809.521590	2549.724875
809.841513	2552.099258
810.161390	2548.580533
810.481223	2549.321582
810.801011	2548.676315
811.120755	2548.862837
811.440453	2546.553989
811.760107	2548.638506
812.079716	2543.325130
812.399281	2544.741694
812.718801	2543.420912
813.038276	2544.073741
813.357707	2549.445091
813.677093	2546.122970
813.996434	2547.932744
814.315731	2547.423588
814.634983	2547.312682
814.954191	2544.000644
815.273354	2547.045501
815.592473	2548.691438
815.911547	2550.549103
816.230577	2548.278063
816.549562	2549.833259
816.868502	2550.481048
817.187399	2550.536500
817.506250	2551.045657
817.825058	2551.272509
818.143821	2552.079093
818.462539	2552.668908
818.781213	2554.208981
819.099843	2555.403734
819.418429	2559.834909
819.736970	2562.025290
820.055466	2566.564849
820.373919	2570.842268
820.692327	2574.608010
821.010691	2584.476069
821.329011	2614.165944
821.647286	2666.588903
821.965517	2728.947976
822.283704	2764.397370
822.601847	2772.294337
822.919945	2743.446335
823.237999	2705.957794
823.556010	2672.020746
823.873976	2647.046870
824.191897	2626.436113
824.509775	2608.345932
824.827609	2601.981475
825.145398	2594.323963
825.463144	2591.142995
825.780845	2591.710124
826.098502	2598.929057
826.416116	2612.217538
826.733685	2629.947276
827.051210	2635.016157
827.368692	2630.910137
827.686129	2613.182919
828.003522	2596.627770
828.320872	2580.753177
828.638177	2573.554409
828.955439	2563.530074
829.272656	2562.529405
829.589830	2557.470608
829.906960	2557.145453
830.224046	2558.539332
830.541088	2554.534135
830.858086	2552.363919
831.175041	2554.329969
831.491952	2553.223435
831.808819	2553.987170
832.125642	2554.287119
832.442421	2557.687377
832.759157	2562.864642
833.075849	2573.834193
833.392497	2581.239648
833.709101	2589.605443
834.025662	2588.055288
834.342179	2582.915832
834.658653	2575.003741
834.975083	2570.544840
835.291469	2568.117524
835.607811	2556.389280
835.924110	2556.003632
836.240366	2553.783003
836.556578	2553.170503
836.872746	2552.046326
837.188871	2549.193033
837.504952	2548.840152
837.820990	2548.492313
838.136984	2544.860161
838.452935	2547.446273
838.768842	2548.066335
839.084706	2544.812270
839.400526	2552.409289
839.716303	2558.597305
840.032037	2561.831206
840.347727	2563.053685
840.663373	2559.678633
840.978977	2551.988353
841.294537	2551.547252
841.610054	2550.140770
841.925527	2546.163299
842.240957	2546.304452
842.556344	2545.603731
842.871687	2544.771941
843.186987	2545.941489
843.502244	2542.992414
843.817458	2543.872095
844.132629	2541.374203
844.447756	2544.824873
844.762840	2538.382278
845.077881	2538.349511
845.392879	2537.260622
845.707833	2539.241795
846.022745	2535.138296
846.337613	2538.440252
846.652438	2539.466127
846.967221	2541.366642
847.281960	2538.586445
847.596656	2540.688606
847.911309	2539.524100
848.225919	2542.407640
848.540485	2539.188863
848.855009	2540.492001
849.169490	2538.467978
849.483928	2541.548123
849.798323	2538.704912
850.112675	2540.736497
850.426984	2541.598535
850.741251	2540.386137
851.055474	2544.235058
851.369654	2542.195911
851.683792	2540.746580
851.997887	2537.621064
852.311938	2540.461754
852.625947	2540.305479
852.939914	2542.904193
853.253837	2540.812115
853.567718	2538.389840
853.881555	2540.774306
854.195350	2539.869419
854.509103	2539.387989
854.822812	2540.562577
855.136479	2541.159954
855.450103	2542.669780
855.763685	2538.004192
856.077224	2540.048380
856.390720	2539.456044
856.704173	2540.865047
857.017584	2540.207176
857.330953	2538.704912
857.644278	2539.725746
857.957561	2545.797816
858.270802	2539.866898
858.584000	2539.256919
858.897155	2543.670449
859.210268	2540.928061
859.523339	2543.728422
859.836367	2539.950077
860.149352	2538.606610
860.462295	2538.513348
860.775195	2535.274407
861.088054	2535.453368
861.400869	2536.567463
861.713642	2533.441948
862.026373	2539.269522
862.339062	2539.829090
862.651708	2540.502084
862.964312	2538.783050
863.276873	2540.950746
863.589392	2539.191384
863.901869	2539.766075
864.214303	2540.555016
864.526696	2539.884542
864.839045	2540.066024
865.151353	2539.367824
865.463619	2541.497712
865.775842	2542.359749
866.088023	2541.656508
866.400162	2544.724050
866.712258	2542.924358
867.024313	2540.789429
867.336325	2540.809594
867.648296	2541.661549
867.960224	2541.167516
868.272110	2541.704399
868.583954	2539.826569
868.895755	2545.243289
869.207515	2541.553164
869.519233	2543.541899
869.830909	2539.766075
870.142542	2540.557536
870.454134	2540.595345
870.765684	2542.884029
871.077191	2541.792619
871.388657	2542.715150
871.700081	2539.982845
872.011463	2544.454348
872.322803	2539.808925
872.634101	2545.223124
872.945357	2542.389996
873.256571	2545.621375
873.567744	2540.625592
873.878874	2547.592467
874.189963	2543.975439
874.501010	2544.272867
874.812015	2545.313865
875.122979	2543.340253
875.433900	2543.993083
875.744780	2544.519883
876.055618	2544.905532
876.366415	2544.582898
876.677169	2545.230686
876.987882	2541.601055
877.298554	2543.551982
877.609183	2543.476364
877.919771	2543.433515
878.230317	2545.623896
878.540822	2548.900646
878.851285	2550.445760
879.161707	2549.445091
879.472087	2555.726368
879.782425	2560.969168
880.092722	2569.213975
880.402977	2583.238465
880.713191	2606.004316
881.023363	2627.895527
881.333494	2647.424957
881.643583	2652.786224
881.953631	2650.628610
882.263637	2642.691313
882.573602	2635.230406
882.883526	2620.742129
883.193408	2611.035388
883.503248	2595.256576
883.813048	2592.249528
884.122806	2580.438104
884.432522	2575.384348
884.742197	2567.139541
885.051831	2565.004612
885.361424	2560.351627
885.670975	2558.375495
885.980485	2556.691749
886.289954	2556.636297
886.599382	2556.139743
886.908768	2553.659495
887.218113	2549.394679
887.527417	2549.782848
887.836680	2547.166489
888.145901	2546.299411
888.455082	2545.444935
888.764221	2546.617003
889.073319	2542.889070
889.382376	2547.695810
889.691392	2543.330171
890.000366	2544.504760
890.309300	2545.906201
890.618193	2547.133722
890.927044	2548.648588
891.235855	2545.233207
891.544625	2543.735984
891.853353	2546.390151
892.162041	2547.945347
892.470687	2547.282436
892.779293	2549.427447
893.087858	2551.201933
893.396381	2550.024823
893.704864	2556.971533
894.013306	2559.139229
894.321707	2572.117680
894.630068	2576.342167
894.938387	2584.539083
895.246665	2579.324009
895.554903	2575.132290
895.863100	2568.253636
896.171256	2568.067113
896.479371	2561.697615
896.787446	2559.119065
897.095480	2553.742674
897.403473	2552.167314
897.711425	2551.600184
898.019336	2550.498692
898.327207	2548.716644
898.635038	2549.684545
898.942827	2548.671273
899.250576	2549.616490
899.558284	2545.346632
899.865952	2547.315203
900.173579	2545.505429
900.481165	2543.380582
900.788711	2544.630789
901.096216	2545.180274
901.403681	2542.599204
901.711105	2545.563402
902.018489	2544.051056
902.325832	2548.676315
902.633135	2544.212373
902.940397	2544.779503
903.247619	2550.481048
903.554800	2555.355843
903.861941	2572.664645
904.169041	2583.205698
904.476101	2591.206009
904.783121	2594.029055
905.090100	2585.741398
905.397039	2577.330233
905.703938	2566.227092
906.010796	2561.180897
906.317614	2557.803324
906.624391	2553.873744
906.931129	2550.670091
907.237826	2550.723023
907.544483	2544.817311
907.851099	2542.952084
908.157675	2543.378062
908.464211	2541.719522
908.770707	2537.812628
909.077163	2538.994779
909.383578	2537.101825
909.689954	2539.347659
909.996289	2536.275076
910.302584	2540.265149
910.608839	2541.016281
910.915054	2540.597866
911.221229	2539.992927
911.527363	2542.304296
911.833458	2542.269008
912.139513	2543.274718
912.445527	2540.983514
912.751502	2539.859337
913.057436	2542.982331
913.363331	2546.228834
913.669186	2545.767569
913.975000	2547.277394
914.280775	2551.940462
914.586510	2550.980122
914.892205	2555.239897
915.197859	2562.118551
915.503475	2570.073492
915.809050	2578.502301
916.114585	2586.454722
916.420081	2589.870103
916.725536	2587.289032
917.030952	2581.824422
917.336328	2575.706982
917.641665	2574.434090
917.946961	2564.969324
918.252218	2561.851370
918.557435	2559.013201
918.862612	2557.699980
919.167750	2551.993394
919.472848	2554.690411
919.777906	2548.998948
920.082925	2547.796633
920.387904	2548.066335
920.692843	2546.357384
920.997743	2544.093906
921.302603	2546.206149
921.607423	2542.246323
921.912204	2542.405119
922.216946	2542.987372
922.521647	2540.996117
922.826310	2542.221117
923.130932	2540.484440
923.435516	2541.104502
923.740059	2538.672145
924.044564	2539.856816
924.349028	2539.632485
924.653454	2535.254242
924.957840	2539.403112
925.262186	2538.150385
925.566493	2535.433203
925.870761	2533.716691
926.174989	2537.326157
926.479178	2540.111394
926.783328	2537.079140
927.087438	2537.605941
927.391509	2537.933616
927.695541	2536.222144
927.999533	2537.797505
928.303486	2534.916485
928.607400	2536.738862
928.911275	2536.101156
929.215110	2537.338760
929.518906	2538.954449
929.822663	2538.581404
930.126381	2537.028729
930.430060	2538.180632
930.733699	2534.729963
931.037299	2537.641229
931.340861	2534.682072
931.644383	2536.209541
931.947866	2536.547298
932.251309	2536.736342
932.554714	2534.823224
932.858080	2536.242309
933.161407	2537.353883
933.464694	2537.147196
933.767943	2536.595189
934.071153	2536.234747
934.374323	2534.455220
934.677455	2535.856660
934.980548	2535.813811
935.283602	2535.324819
935.586617	2534.387164
935.889593	2536.701054
936.192530	2534.850950
936.495428	2534.283820
936.798287	2532.804242
937.101108	2536.005374
937.403890	2536.869932
937.706632	2535.486136
938.009336	2537.701723
938.312002	2538.717515
938.614628	2537.580735
938.917216	2540.486960
939.219765	2538.614172
939.522275	2538.677186
939.824747	2537.527803
940.127179	2534.919006
940.429573	2537.318595
940.731929	2534.767771
941.034246	2533.290713
941.336524	2537.573173
941.638763	2539.025026
941.940964	2537.658873
942.243126	2539.040149
942.545250	2534.258615
942.847335	2534.838347
943.149381	2538.077289
943.451389	2536.330529
943.753359	2533.159643
944.055290	2538.604089
944.357182	2538.286497
944.659036	2536.917823
944.960851	2537.986548
945.262628	2536.030580
945.564367	2535.864222
945.866067	2538.480581
946.167729	2538.011754
946.469352	2533.567977
946.770937	2535.518903
947.072484	2536.680889
947.373992	2537.588297
947.675462	2535.438245
947.976893	2533.782226
948.278286	2537.114428
948.579641	2535.556712
948.880958	2536.426311
949.182236	2537.905889
949.483476	2531.972451
949.784678	2533.648635
950.085841	2534.586290
950.386967	2536.683410
950.688054	2537.391692
950.989103	2534.419932
951.290114	2531.720394
951.591087	2534.619057
951.892021	2537.598379
952.192917	2537.036290
952.493776	2535.024870
952.794596	2540.343287
953.095378	2535.249201
953.396122	2537.351363
953.696828	2538.311702
953.997496	2533.867925
954.298126	2535.176105
954.598718	2533.184849
954.899272	2535.609644
955.199788	2536.272556
955.500266	2533.474715
955.800706	2533.255425
956.101108	2530.810465
956.401472	2533.210055
956.701798	2529.406504
957.002087	2531.488501
957.302337	2532.773995
957.602550	2533.139478
957.902724	2532.910106
958.202861	2533.840199
958.502960	2532.738707
958.803022	2532.547143
959.103045	2534.392205
959.403031	2529.582944
959.702979	2532.794159
960.002889	2531.362472
960.302762	2531.914478
960.602596	2535.125693
960.902393	2532.562266
961.202153	2533.043697
961.501875	2533.555374
961.801559	2530.913809
962.101205	2529.794673
962.400814	2533.381454
962.700385	2529.729138
962.999918	2533.958666
963.299414	2532.269879
963.598873	2529.275434
963.898293	2533.015970
964.197677	2531.060003
964.497022	2531.284334
964.796331	2533.540250
965.095601	2529.986237
965.394835	2529.777029
965.694030	2530.354241
965.993189	2533.230219
966.292309	2531.062523
966.591393	2532.191742
966.890439	2531.574200
967.189447	2534.175436
967.488419	2528.158818
967.787353	2530.971782
968.086249	2531.932122
968.385108	2530.165198
968.683930	2532.133768
968.982714	2531.110414
969.281462	2532.504293
969.580172	2527.997502
969.878844	2529.250228
970.177480	2530.195445
970.476078	2531.102852
970.774639	2531.238963
971.073162	2532.158974
971.371649	2529.338448
971.670098	2527.695032
971.968510	2526.182686
972.266885	2524.720752
972.565223	2532.935312
972.863524	2530.477749
973.161788	2532.839530
973.460014	2531.669982
973.758204	2529.235105
974.056356	2531.259128
974.354471	2533.222657
974.652550	2532.403470
974.950591	2532.136289
975.248595	2529.013294
975.546563	2529.898017
975.844493	2529.640918
976.142386	2530.490352
976.440243	2529.303160
976.738062	2527.891637
977.035845	2532.494211
977.333590	2531.886752
977.631299	2528.594878
977.928971	2530.412214
978.226606	2529.630835
978.524204	2529.068747
978.821765	2530.250897
979.119290	2529.734179
979.416777	2528.541946
979.714228	2529.824920
980.011642	2529.892975
980.309020	2533.429345
980.606360	2530.404653
980.903664	2530.991947
981.200931	2530.772657
981.498162	2527.654703
981.795356	2531.561597
982.092513	2531.853984
982.389633	2531.541433
982.686717	2530.402132
982.983764	2533.825075
983.280775	2532.998326
983.577749	2528.791483
983.874686	2533.671320
984.171587	2534.629139
984.468451	2532.625281
984.765279	2533.510003
985.062070	2532.479087
985.358824	2530.618902
985.655543	2531.831299
985.952224	2528.857018
986.248869	2530.308871
986.545478	2524.188910
986.842050	2526.054137
987.138586	2523.117665
987.435086	2526.918695
987.731549	2523.399969
988.027975	2532.103521
988.324366	2527.689991
988.620719	2528.322656
988.917037	2528.879703
989.213318	2530.936494
989.509563	2527.100176
989.805772	2529.535053
990.101944	2527.793335
990.398080	2527.899199
990.694180	2528.781401
990.990244	2529.482121
991.286271	2529.288037
991.582262	2528.252080
991.878217	2529.232584
992.174136	2528.562111
992.470019	2527.606812
992.765865	2528.730989
993.061676	2528.052954
993.357450	2528.269724
993.653188	2527.480783
993.948890	2527.097656
994.244556	2525.781914
994.540186	2532.935312
994.835780	2529.666123
995.131337	2529.315763
995.426859	2527.546318
995.722345	2529.711494
996.017795	2528.302491
996.313208	2529.645959
996.608586	2528.816689
996.903928	2530.999509
997.199234	2529.799714
997.494504	2527.327028
997.789738	2527.163191
998.084936	2530.896165
998.380099	2530.248377
998.675225	2527.039682
998.970316	2529.585465
999.265371	2529.204858
999.560390	2525.698735
999.855373	2530.994468
1000.150320	2528.935156
1000.445232	2530.545805
1000.740108	2528.020187
1001.034948	2527.614374
1001.329752	2529.678726
1001.624521	2529.555218
1001.919254	2523.601615
1002.213951	2527.599250
1002.508613	2526.016328
1002.803239	2527.475742
1003.097829	2524.642614
1003.392384	2528.688140
1003.686903	2528.720907
1003.981386	2530.318953
1004.275834	2527.206040
1004.570246	2526.966586
1004.864623	2527.143026
1005.158964	2527.137985
1005.453270	2528.098325
1005.747540	2527.090094
1006.041775	2527.679909
1006.335974	2529.396422
1006.630138	2528.252080
1006.924266	2529.845084
1007.218359	2527.493386
1007.512416	2527.800897
1007.806438	2526.717048
1008.100425	2529.245187
1008.394376	2527.609333
1008.688292	2525.958355
1008.982172	2526.490197
1009.276017	2525.665968
1009.569827	2526.845598
1009.863602	2529.751823
1010.157341	2526.863242
1010.451045	2527.160670
1010.744714	2525.295443
1011.038347	2529.469518
1011.331945	2525.981040
1011.625508	2528.640249
1011.919036	2527.158149
1012.212528	2529.401463
1012.505986	2526.280989
1012.799408	2525.963396
1013.092795	2525.766791
1013.386147	2525.252593
1013.679464	2527.153108
1013.972745	2524.496420
1014.265992	2528.952800
1014.559204	2525.615556
1014.852380	2527.125382
1015.145521	2526.477594
1015.438628	2527.314425
1015.731699	2525.459281
1016.024736	2529.449354
1016.317737	2526.858201
1016.610703	2529.623274
1016.903635	2524.995494
1017.196531	2521.968282
1017.489393	2525.713859
1017.782219	2521.948117
1018.075011	2526.452388
1018.367768	2527.808458
1018.660490	2529.184693
1018.953177	2529.184693
1019.245829	2529.184693
