Dividing Wavelength (nm)	Counts (n)	Blue Motor Position (mm): 0.000000	Red Motor Position (mm): 18.000000	
326.493990	2128.700308
326.888308	2128.700308
327.282561	2128.700308
327.676750	2095.189238
328.070874	2094.599423
328.464933	2098.972624
328.858929	2105.803388
329.252859	2113.753287
329.646726	2126.182252
330.040528	2138.908645
330.434265	2155.380615
330.827938	2174.678152
331.221547	2190.242714
331.615091	2209.555375
332.008571	2229.097408
332.401986	2253.441140
332.795338	2268.667945
333.188625	2288.058743
333.581847	2307.799902
333.975006	2325.378405
334.368100	2344.663339
334.761129	2362.980372
335.154095	2375.283308
335.546996	2394.154867
335.939833	2408.464182
336.332606	2424.863056
336.725315	2438.317895
337.117960	2448.992538
337.510540	2455.104937
337.903056	2467.692699
338.295508	2474.543627
338.687896	2481.210553
339.080220	2490.211533
339.472480	2495.900475
339.864676	2498.844509
340.256807	2503.308451
340.648875	2506.955725
341.040879	2511.959071
341.432818	2512.778258
341.824694	2513.489061
342.216506	2512.722805
342.608253	2513.859586
342.999937	2514.151972
343.391557	2511.028978
343.783113	2515.276150
344.174605	2510.381189
344.566033	2510.325737
344.957397	2512.637106
345.348697	2508.742814
345.739934	2506.393637
346.131106	2504.561177
346.522215	2504.359531
346.913260	2498.726042
347.304241	2498.761330
347.695159	2499.620847
348.086012	2497.032214
348.476802	2494.947697
348.867528	2493.289157
349.258191	2491.726400
349.648789	2491.073570
350.039324	2489.420072
350.429796	2486.755822
350.820203	2485.205667
351.210548	2486.385297
351.600828	2483.405975
351.991045	2486.407982
352.381198	2481.916314
352.771288	2485.203147
353.161314	2485.125009
353.551276	2483.768938
353.941175	2483.438743
354.331010	2481.966726
354.720782	2479.567137
355.110490	2482.871613
355.500135	2482.092755
355.889717	2483.506798
356.279235	2481.911273
356.668689	2484.038640
357.058080	2482.312045
357.447408	2485.339258
357.836672	2479.947744
358.225873	2483.476551
358.615010	2480.981180
359.004084	2485.631645
359.393095	2485.772797
359.782043	2488.777325
360.170927	2487.811944
360.559748	2490.105669
360.948505	2488.825216
361.337199	2490.519043
361.725830	2490.332521
362.114398	2491.960813
362.502903	2490.703045
362.891344	2493.972234
363.279722	2491.280258
363.668037	2494.456184
364.056289	2495.799652
364.444478	2492.923674
364.832603	2495.469456
365.220665	2498.073212
365.608665	2497.513644
365.996601	2500.331649
366.384474	2499.693943
366.772284	2498.078253
367.160031	2502.123779
367.547715	2500.329129
367.935336	2505.380365
368.322893	2509.141066
368.710388	2510.149296
369.097820	2519.288908
369.485189	2520.695390
369.872495	2527.085053
370.259738	2534.929088
370.646918	2540.479398
371.034035	2548.275543
371.421090	2559.706359
371.808081	2568.765313
372.195010	2575.780078
372.581875	2591.211050
372.968678	2602.319233
373.355418	2614.614607
373.742096	2634.844757
374.128710	2647.485451
374.515262	2664.585044
374.901751	2677.041736
375.288177	2690.998170
375.674540	2714.542879
376.060841	2732.920405
376.447079	2748.681573
376.833254	2774.288114
377.219367	2784.572068
377.605417	2820.142449
377.991404	2827.830209
378.377329	2854.006400
378.763191	2870.768237
379.148991	2909.091088
379.534727	2929.099428
379.920402	2959.248048
380.306013	2974.789926
380.691563	3020.951772
381.077049	3043.402550
381.462474	3059.748492
381.847835	3103.014194
382.233134	3122.180661
382.618371	3125.109572
383.003545	3189.444777
383.388657	3195.751261
383.773706	3230.993967
384.158693	3244.678179
384.543618	3274.468878
384.928480	3307.896769
385.313280	3353.221783
385.698017	3351.222966
386.082692	3404.878487
386.467305	3411.222779
386.851856	3440.393416
387.236344	3461.399904
387.620770	3497.539936
388.005133	3522.526415
388.389435	3551.434911
388.773674	3560.125861
389.157851	3600.147581
389.541965	3615.916310
389.926018	3584.668718
390.310008	3654.440808
390.693936	3672.304137
391.077802	3709.752348
391.461606	3701.462170
391.845348	3763.387704
392.229027	3761.093979
392.612645	3775.867081
392.996200	3852.495140
393.379694	3891.614493
393.763125	3955.155717
394.146494	3924.606325
394.529801	3986.670490
394.913047	4035.788973
395.296230	3999.522912
395.679351	4054.796643
396.062410	4077.292792
396.445408	4060.480544
396.828343	4090.311572
397.211217	4117.160758
397.594028	4033.238149
397.976778	4102.218778
398.359466	4128.349599
398.742092	4154.208197
399.124656	4079.394954
399.507158	4161.812778
399.889598	4183.378834
400.271977	4241.052155
400.654294	4215.511149
401.036549	4218.934092
401.418742	4193.851831
401.800874	4291.040236
402.182944	4311.406498
402.564952	4375.174573
402.946898	4361.818036
403.328783	4350.455275
403.710606	4265.849590
404.092367	4452.200883
404.474067	4411.165891
404.855705	4410.248401
405.237282	4334.459694
405.618797	4433.147842
406.000250	4459.732367
406.381642	4522.766955
406.762972	4475.695181
407.144240	4476.521930
407.525447	4461.398469
407.906593	4508.616436
408.287677	4531.924211
408.668700	4445.347435
409.049661	4481.132065
409.430560	4494.234024
409.811399	4410.389553
410.192176	4536.224315
410.572891	4457.814208
410.953545	4521.862068
411.334138	4400.171135
411.714669	4428.457049
412.095139	4316.293896
412.475547	4406.538112
412.855894	4361.026575
413.236180	4341.335828
413.616405	4274.197741
413.996568	4311.600582
414.376670	4234.397832
414.756711	4166.281761
415.136691	4156.421264
415.516609	4175.665869
415.896466	4170.770908
416.276262	4153.071417
416.655997	4101.986885
417.035670	4180.023946
417.415283	4191.336295
417.794834	4114.688072
418.174324	4047.353380
418.553753	3950.800160
418.933121	4011.959439
419.312428	4001.151205
419.691674	3917.836055
420.070859	3938.348510
420.449983	3845.629088
420.829045	3854.304914
421.208047	3769.845422
421.586988	3745.821804
421.965867	3704.617933
422.344686	3705.749672
422.723444	3608.115125
423.102141	3494.593381
423.480777	3559.465469
423.859352	3431.909154
424.237866	3473.811224
424.616319	3427.074687
424.994712	3418.585384
425.373044	3337.145544
425.751314	3334.322498
426.129524	3237.446644
426.507673	3245.981318
426.885762	3226.829974
427.263789	3171.505831
427.641756	3113.729167
428.019662	3103.122579
428.397508	3067.058165
428.775292	3023.414375
429.153016	3005.936695
429.530679	2965.294913
429.908282	2946.501491
430.285824	2906.401633
430.663305	2906.656211
431.040726	2852.327696
431.418086	2826.842143
431.795385	2815.706234
432.172624	2794.223357
432.549802	2774.638474
432.926920	2756.109713
433.303977	2735.531723
433.680974	2723.493448
434.057910	2708.218752
434.434786	2692.313911
434.811601	2679.413598
435.188355	2672.809687
435.565050	2654.759836
435.941683	2643.104688
436.318257	2639.056641
436.694770	2625.296812
437.071222	2619.290277
437.447614	2607.357866
437.823946	2597.416711
438.200218	2594.767584
438.576429	2588.206523
438.952580	2585.522108
439.328670	2581.781572
439.704700	2573.987948
440.080670	2571.313616
440.456580	2570.524675
440.832429	2566.307750
441.208218	2564.424879
441.583947	2561.932029
441.959616	2559.784497
442.335224	2556.409445
442.710773	2555.179403
443.086261	2556.333827
443.461689	2552.069011
443.837057	2552.852911
444.212365	2549.601366
444.587612	2550.256716
444.962800	2550.730585
445.337927	2550.067673
445.712995	2545.137425
446.088002	2549.898794
446.462949	2548.446942
446.837837	2547.012734
447.212664	2548.406613
447.587431	2547.032898
447.962139	2548.688917
448.336786	2556.502706
448.711374	2553.450287
449.085901	2548.754452
449.460369	2545.548279
449.834776	2546.254040
450.209124	2543.735984
450.583412	2547.758825
450.957640	2547.806716
451.331808	2548.285625
451.705917	2545.792775
452.079965	2547.922662
452.453954	2545.744884
452.827883	2547.030378
453.201752	2549.155224
453.575562	2545.336550
453.949311	2546.314534
454.323001	2547.300080
454.696632	2546.748073
455.070202	2545.586087
455.443713	2546.196067
455.817164	2541.001158
456.190556	2543.375541
456.563888	2547.400903
456.937160	2544.986190
457.310373	2547.416026
457.683526	2548.111705
458.056619	2546.465769
458.429653	2550.372663
458.802628	2546.022147
459.175542	2545.465100
459.548398	2545.795295
459.921194	2549.477858
460.293930	2550.662529
460.666607	2549.805533
461.039224	2555.030689
461.411782	2552.873075
461.784280	2553.843497
462.156719	2554.594629
462.529099	2554.866852
462.901419	2552.825184
463.273680	2551.340564
463.645882	2550.339895
464.018024	2551.615307
464.390106	2552.479865
464.762130	2554.685370
465.134094	2554.652602
465.505999	2562.032852
465.877845	2565.468398
466.249631	2566.947977
466.621358	2565.173491
466.993026	2566.544684
467.364634	2567.663821
467.736184	2562.156360
468.107674	2559.981102
468.479105	2563.068809
468.850477	2562.511761
469.221790	2560.349106
469.593043	2557.057233
469.964238	2560.447409
470.335373	2557.939435
470.706449	2560.717111
471.077467	2561.430434
471.448425	2564.850857
471.819324	2570.993503
472.190164	2569.975190
472.560945	2563.663665
472.931667	2564.434962
473.302330	2560.560835
473.672934	2561.637121
474.043479	2563.991340
474.413965	2561.611915
474.784393	2556.590926
475.154761	2559.597974
475.525070	2558.975392
475.895321	2559.492110
476.265513	2557.452963
476.635645	2564.492935
477.005719	2561.821123
477.375734	2564.838254
477.745691	2566.731207
478.115588	2566.438820
478.485427	2570.383523
478.855207	2571.658935
479.224928	2573.015005
479.594591	2577.632702
479.964194	2574.918041
480.333739	2575.142372
480.703226	2575.356621
481.072653	2575.172619
481.442022	2574.560119
481.811333	2577.093299
482.180584	2577.824266
482.549777	2575.321333
482.918912	2575.011302
483.287988	2575.775037
483.657005	2572.536096
484.025964	2573.370407
484.394864	2574.086251
484.763706	2574.560119
485.132489	2573.650191
485.501213	2575.696899
485.869879	2570.862433
486.238487	2573.206569
486.607036	2570.438976
486.975527	2570.451579
487.343959	2567.074006
487.712333	2571.422001
488.080648	2570.194480
488.448905	2569.067782
488.817104	2570.839747
489.185244	2570.295303
489.553326	2571.737073
489.921350	2571.278328
490.289315	2578.645974
490.657222	2581.151428
491.025070	2577.602455
491.392861	2577.347877
491.760593	2576.400140
492.128267	2574.262691
492.495883	2575.651529
492.863440	2574.756724
493.230939	2569.287072
493.598380	2571.111970
493.965763	2565.158367
494.333088	2566.874880
494.700354	2567.918399
495.067563	2567.905796
495.434713	2565.702812
495.801805	2567.414283
496.168839	2567.888152
496.535815	2567.442010
496.902733	2566.574931
497.269593	2568.689695
497.636395	2566.947977
498.003139	2568.649366
498.369825	2567.835220
498.736453	2568.172977
499.103023	2570.108780
499.469535	2566.317832
499.835989	2567.880590
500.202385	2563.923284
500.568723	2566.877401
500.935003	2568.634243
501.301226	2568.397308
501.667390	2570.295303
502.033497	2569.894531
502.399546	2570.139027
502.765537	2566.872359
503.131470	2568.387226
503.497345	2570.325550
503.863163	2569.455951
504.228923	2569.498801
504.594625	2568.982082
504.960269	2567.981413
505.325856	2573.488874
505.691385	2570.005437
506.056856	2572.321847
506.422270	2569.750858
506.787625	2566.048131
507.152924	2570.602813
507.518164	2571.926116
507.883347	2569.708008
508.248472	2569.965107
508.613540	2572.223544
508.978550	2568.772874
509.343503	2571.369069
509.708398	2573.418298
510.073236	2569.934860
510.438016	2572.967114
510.802738	2568.246074
511.167403	2571.190108
511.532010	2571.104408
511.896561	2572.034501
512.261053	2575.714543
512.625488	2566.418656
512.989866	2568.162895
513.354186	2569.786146
513.718449	2566.305230
514.082655	2569.753379
514.446803	2570.754048
514.810894	2571.583318
515.174927	2571.280848
515.538904	2571.273287
515.902822	2574.103895
516.266684	2571.681620
516.630488	2574.350911
516.994235	2572.049624
517.357925	2572.770509
517.721558	2574.940726
518.085133	2573.360324
518.448651	2572.389902
518.812112	2572.087433
519.175516	2571.008626
519.538863	2571.232957
519.902152	2574.161868
520.265385	2571.545509
520.628560	2573.067937
520.991678	2573.453586
521.354739	2574.431570
521.717743	2573.461148
522.080690	2572.921744
522.443580	2574.945767
522.806413	2573.211610
523.169189	2573.781261
523.531908	2575.848134
523.894569	2573.861919
524.257174	2573.259501
524.619722	2572.730180
524.982213	2576.808474
525.344647	2573.403174
525.707025	2574.552557
526.069345	2575.606158
526.431608	2571.606003
526.793815	2575.701940
527.155964	2573.405695
527.518057	2574.761765
527.880093	2574.459296
528.242072	2574.439131
528.603995	2574.386199
528.965860	2571.469892
529.327669	2574.413926
529.689421	2573.277145
530.051117	2573.360324
530.412755	2574.068607
530.774337	2572.911662
531.135862	2572.881415
531.497331	2568.997206
531.858743	2572.344532
532.220098	2571.439645
532.581396	2565.354972
532.942638	2569.907134
533.303824	2571.358986
533.664953	2569.518965
534.026025	2572.861250
534.387040	2573.899728
534.747999	2573.816549
535.108902	2573.188925
535.469748	2571.144737
535.830537	2573.879563
536.191270	2575.162537
536.551947	2573.919893
536.912567	2574.456775
537.273131	2574.078689
537.633638	2573.917372
537.994089	2573.186405
538.354483	2571.111970
538.714821	2572.831003
539.075103	2573.912331
539.435328	2572.924265
539.795497	2572.125242
540.155609	2574.219841
540.515665	2573.309913
540.875665	2574.192115
541.235609	2571.311095
541.595496	2572.883935
541.955328	2573.085582
542.315102	2573.559450
542.674821	2569.650035
543.034483	2575.142372
543.394090	2571.706826
543.753640	2571.928637
544.113134	2573.022567
544.472571	2571.651373
544.831953	2571.127093
545.191278	2570.106260
545.550548	2573.687999
545.909761	2573.135993
546.268918	2571.666497
546.628019	2573.567012
546.987064	2572.142886
547.346053	2572.306723
547.704986	2574.149265
548.063863	2573.912331
548.422684	2572.851168
548.781449	2569.471074
549.140158	2572.026939
549.498811	2572.165571
549.857408	2572.130283
550.215949	2568.845971
550.574434	2570.083574
550.932864	2567.893193
551.291237	2571.469892
551.649555	2571.074161
552.007817	2572.760427
552.366022	2571.180025
552.724173	2570.902762
553.082267	2571.485015
553.440305	2569.143399
553.798288	2569.095508
554.156215	2570.940571
554.514086	2572.858730
554.871902	2570.988462
555.229661	2573.191446
555.587365	2571.308575
555.945014	2575.686817
556.302606	2569.067782
556.660143	2570.176836
557.017625	2570.519634
557.375050	2571.749676
557.732421	2572.402505
558.089735	2573.030129
558.446994	2571.880746
558.804197	2572.886456
559.161345	2571.237999
559.518437	2572.609192
559.875474	2569.972669
560.232455	2572.331929
560.589381	2566.562328
560.946251	2573.100705
561.303065	2570.242371
561.659825	2570.355797
562.016528	2570.998544
562.373177	2571.139696
562.729770	2571.545509
563.086307	2570.789336
563.442789	2571.631209
563.799216	2569.092988
564.155587	2569.491239
564.511904	2568.863615
564.868164	2570.025601
565.224370	2573.962742
565.580520	2569.902093
565.936615	2571.885787
566.292654	2569.178687
566.648638	2573.937537
567.004567	2571.545509
567.360441	2569.024932
567.716260	2568.467885
568.072023	2569.077864
568.427732	2564.624005
568.783385	2568.762792
569.138982	2563.368757
569.494525	2569.009809
569.850013	2568.155333
570.205445	2570.529717
570.560823	2570.514593
570.916145	2569.745817
571.271412	2569.287072
571.626625	2570.759089
571.981782	2570.718760
572.336884	2569.027453
572.691931	2568.800601
573.046923	2567.651218
573.401860	2570.252453
573.756743	2567.010991
574.111570	2569.697926
574.466342	2565.460836
574.821059	2568.525858
575.175722	2567.840261
575.530330	2564.863460
575.884882	2570.512072
576.239380	2566.935374
576.593823	2569.312278
576.948211	2570.234809
577.302544	2569.581980
577.656823	2567.179870
578.011047	2568.999726
578.365216	2567.668862
578.719330	2567.341187
579.073389	2565.017215
579.427394	2567.557956
579.781344	2566.567370
580.135239	2568.505693
580.489080	2566.821948
580.842866	2563.162070
581.196597	2568.578790
581.550273	2564.717266
581.903895	2562.741134
582.257463	2566.136351
582.610975	2565.526371
582.964434	2567.260528
583.317837	2565.526371
583.671186	2565.211299
584.024481	2566.534602
584.377721	2566.045610
584.730906	2567.454613
585.084037	2566.370765
585.437113	2565.695250
585.790135	2565.347410
586.143103	2565.758264
586.496016	2567.394119
586.848874	2563.225085
587.201679	2563.678788
587.554428	2559.764333
587.907124	2565.029818
588.259765	2559.429096
588.612352	2567.194993
588.964884	2562.627708
589.317362	2565.969993
589.669786	2565.425548
590.022155	2567.673903
590.374470	2562.431103
590.726731	2566.761454
591.078937	2562.983109
591.431090	2566.146433
591.783188	2563.562842
592.135232	2563.204920
592.487222	2564.092163
592.839157	2565.556618
593.191038	2566.080898
593.542866	2563.194838
593.894639	2563.696433
594.246358	2565.034859
594.598022	2562.857080
594.949633	2564.301371
595.301190	2562.567214
595.652692	2562.448747
596.004141	2561.984961
596.355535	2563.905640
596.706876	2561.342214
597.058162	2561.654765
597.409395	2564.293809
597.760573	2563.905640
598.111698	2562.781463
598.462768	2561.390105
598.813785	2564.089643
599.164748	2559.272820
599.515657	2561.150650
599.866511	2560.865825
600.217312	2562.224416
600.568060	2559.910526
600.918753	2561.120403
601.269392	2560.235680
601.619978	2560.638973
601.970510	2562.899930
602.320988	2563.683830
602.671412	2560.200392
603.021783	2561.876576
603.372100	2563.446895
603.722363	2557.833571
604.072572	2559.850032
604.422728	2561.352296
604.772830	2558.146122
605.122878	2557.730227
605.472872	2559.355999
605.822813	2555.358364
606.172701	2557.705021
606.522534	2559.119065
606.872314	2563.058727
607.222041	2561.755588
607.571714	2562.385732
607.921333	2562.103428
608.270899	2561.410269
608.620411	2560.974209
608.969870	2561.548901
609.319276	2564.876062
609.668627	2566.637946
610.017926	2566.567370
610.367171	2569.385375
610.716362	2568.145251
611.065500	2567.313460
611.414585	2563.908161
611.763616	2566.627863
612.112594	2564.457647
612.461518	2565.675085
612.810389	2562.194169
613.159207	2564.802966
613.507971	2561.581668
613.856682	2563.215002
614.205340	2561.168294
614.553945	2562.128634
614.902496	2561.760629
615.250994	2561.869014
615.599439	2560.959086
615.947830	2564.165260
616.296169	2561.984961
616.644454	2560.800290
616.992686	2562.486556
617.340864	2559.265258
617.688990	2560.737275
618.037063	2565.324725
618.385082	2562.519323
618.733048	2563.824982
619.080961	2560.192831
619.428821	2561.934549
619.776628	2561.337173
620.124382	2559.235011
620.472083	2560.470094
620.819731	2564.155178
621.167326	2562.519323
621.514868	2563.071329
621.862357	2562.171483
622.209793	2561.740465
622.557176	2558.897254
622.904506	2556.832902
623.251783	2554.564382
623.599007	2553.813250
623.946179	2556.817778
624.293297	2556.517829
624.640363	2558.299877
624.987376	2559.744168
625.334336	2560.253324
625.681243	2559.010680
626.028097	2557.067315
626.374899	2556.290977
626.721647	2558.738458
627.068343	2556.999260
627.414987	2557.405072
627.761577	2558.864487
628.108115	2556.492624
628.454600	2556.621173
628.801032	2556.805175
629.147412	2557.760474
629.493739	2557.314332
629.840014	2558.206616
630.186236	2560.523026
630.532405	2557.820968
630.878521	2557.163097
631.224585	2558.690567
631.570597	2558.073025
631.916556	2554.788714
632.262462	2554.675288
632.608316	2557.974723
632.954117	2556.918601
633.299866	2557.372305
633.645562	2556.016235
633.991206	2555.128992
634.336797	2557.115206
634.682336	2555.897768
635.027823	2554.488765
635.373257	2556.606050
635.718639	2554.556821
636.063968	2554.219063
636.409245	2552.837787
636.754470	2552.404248
637.099642	2553.110009
637.444762	2557.311811
637.789829	2552.986501
638.134845	2557.384908
638.479808	2551.423743
638.824719	2553.200750
639.169577	2552.063970
639.514383	2554.559341
639.859137	2552.656306
640.203839	2552.484906
640.548489	2552.575647
640.893086	2551.806871
641.237632	2549.203115
641.582125	2550.924669
641.926566	2550.647406
642.270955	2552.348795
642.615292	2553.944320
642.959576	2552.663867
643.303809	2555.134033
643.647990	2553.402396
643.992118	2554.390462
644.336195	2551.464073
644.680219	2553.561193
645.024192	2552.026161
645.368112	2551.814433
645.711981	2553.530946
646.055797	2552.875596
646.399562	2552.182437
646.743274	2550.927190
647.086935	2554.382901
647.430544	2555.512119
647.774101	2551.874927
648.117606	2552.817622
648.461059	2554.652602
648.804460	2558.955227
649.147810	2554.803837
649.491108	2554.100596
649.834354	2553.223435
650.177548	2552.008517
650.520690	2553.188147
650.863781	2549.581202
651.206820	2553.967006
651.549807	2552.116902
651.892742	2555.123950
652.235626	2553.835936
652.578458	2552.250493
652.921238	2550.690256
653.263967	2552.119423
653.606644	2550.196222
653.949269	2551.630431
654.291843	2550.977601
654.634365	2552.673950
654.976836	2553.336861
655.319255	2550.349978
655.661622	2548.517518
656.003938	2548.310831
656.346203	2549.898794
656.688416	2550.289484
657.030577	2549.878630
657.372687	2551.796789
657.714746	2552.857952
658.056753	2552.623538
658.398708	2547.186654
658.740612	2548.966181
659.082465	2545.497867
659.424266	2548.330996
659.766016	2546.196067
660.107715	2551.375853
660.449362	2548.940975
660.790958	2550.811243
661.132503	2551.204453
661.473996	2555.076059
661.815438	2549.172868
662.156829	2551.824515
662.498168	2551.113713
662.839456	2551.264947
663.180693	2548.895605
663.521879	2550.728064
663.863013	2551.370811
664.204097	2552.081614
664.545129	2550.879299
664.886110	2549.223280
665.227040	2549.566078
665.567918	2549.737478
665.908746	2548.204967
666.249522	2550.168496
666.590248	2553.089845
666.930922	2552.366439
667.271545	2551.819474
667.612118	2552.946172
667.952639	2550.223949
668.293109	2553.372149
668.633528	2548.570450
668.973896	2551.136398
669.314213	2551.459032
669.654480	2550.168496
669.994695	2551.267468
670.334859	2551.353167
670.674973	2551.368291
671.015035	2550.322251
671.355047	2548.913249
671.695008	2553.031872
672.034918	2551.706048
672.374777	2551.272509
672.714585	2547.668084
673.054342	2552.520194
673.394049	2548.973743
673.733705	2554.370298
674.073310	2549.946685
674.412864	2551.607746
674.752368	2551.683363
675.091820	2549.369473
675.431223	2553.072201
675.770574	2550.203784
676.109875	2547.975594
676.449125	2547.834442
676.788324	2545.961653
677.127473	2547.819318
677.466571	2542.848741
677.805619	2549.634134
678.144616	2547.743701
678.483562	2549.792930
678.822458	2547.637837
679.161303	2551.146480
679.500098	2548.532642
679.838842	2549.709751
680.177535	2547.763866
680.516179	2548.905687
680.854771	2551.010369
681.193314	2550.685214
681.531805	2551.305276
681.870247	2550.539021
682.208638	2550.042467
682.546978	2551.980791
682.885268	2550.957437
683.223508	2550.846531
683.561697	2550.554144
683.899836	2549.901315
684.237925	2549.515667
684.575963	2550.128167
684.913951	2549.467776
685.251889	2549.828218
685.589776	2550.062632
685.927614	2551.058260
686.265401	2551.166645
686.603137	2550.148332
686.940824	2548.343598
687.278460	2551.837118
687.616046	2550.319731
687.953582	2551.327962
688.291068	2551.459032
688.628504	2550.145811
688.965889	2551.191850
689.303224	2550.231511
689.640510	2549.253527
689.977745	2548.993907
690.314930	2550.314690
690.652065	2549.772766
690.989150	2549.931562
691.326185	2546.354863
691.663170	2547.829401
692.000105	2546.294369
692.336990	2546.170861
692.673825	2547.668084
693.010610	2548.036088
693.347345	2545.205480
693.684030	2542.019471
694.020665	2544.053577
694.357251	2541.747249
694.693786	2545.318906
695.030272	2546.332178
695.366707	2547.204298
695.703093	2544.955943
696.039429	2547.373176
696.375716	2543.952753
696.711952	2545.568443
697.048139	2544.068700
697.384276	2544.986190
697.720363	2544.812270
698.056400	2545.273536
698.392388	2544.038453
698.728326	2545.029040
699.064214	2545.649102
699.400053	2545.941489
699.735842	2546.490974
700.071581	2547.254709
700.407270	2545.820501
700.742910	2547.221942
701.078501	2542.936961
701.414042	2544.048535
701.749533	2545.177754
702.084974	2544.540048
702.420366	2546.140614
702.755709	2542.644574
703.091002	2542.752959
703.426246	2542.306817
703.761440	2546.080120
704.096584	2542.947043
704.431679	2541.651467
704.766725	2546.649771
705.101721	2546.559030
705.436668	2546.367466
705.771565	2545.328988
706.106413	2545.187836
706.441212	2546.319575
706.775961	2545.013916
707.110661	2544.436704
707.445311	2543.950233
707.779913	2545.823022
708.114465	2547.113557
708.448967	2547.191695
708.783421	2543.476364
709.117825	2544.343443
709.452180	2545.187836
709.786485	2545.495347
710.120742	2549.359391
710.454949	2546.450645
710.789107	2547.166489
711.123216	2542.594162
711.457275	2545.265974
711.791286	2540.721374
712.125247	2543.378062
712.459159	2546.541386
712.793023	2551.764021
713.126837	2547.234545
713.460602	2545.621375
713.794318	2544.968546
714.127985	2546.007024
714.461602	2545.424770
714.795171	2545.631458
715.128691	2544.146838
715.462162	2545.777651
715.795584	2545.268495
716.128957	2540.255067
716.462281	2542.891591
716.795556	2545.931406
717.128782	2545.729760
717.461960	2544.048535
717.795088	2543.415871
718.128167	2544.484595
718.461198	2544.159441
718.794180	2543.680531
719.127113	2542.095088
719.459997	2542.679862
719.792833	2544.628268
720.125619	2544.847558
720.458357	2542.339584
720.791046	2542.921837
721.123686	2542.299255
721.456278	2542.377393
721.788821	2544.078782
722.121315	2543.899821
722.453761	2542.884029
722.786158	2543.060469
723.118506	2541.265818
723.450805	2542.405119
723.783056	2541.822866
724.115259	2539.740869
724.447412	2542.163144
724.779518	2542.402599
725.111574	2542.904193
725.443582	2543.181457
725.775542	2542.596683
726.107453	2546.027188
726.439315	2545.616334
726.771129	2546.702703
727.102895	2541.225489
727.434612	2545.540717
727.766281	2543.022661
728.097901	2540.537372
728.429473	2538.722556
728.760996	2541.364121
729.092471	2539.841692
729.423897	2543.592311
729.755276	2545.134904
730.086606	2544.547610
730.417887	2542.019471
730.749120	2546.816129
731.080305	2544.751776
731.411442	2542.493339
731.742530	2544.729091
732.073570	2546.165820
732.404562	2546.410316
732.735506	2545.792775
733.066401	2541.827907
733.397249	2544.550130
733.728048	2544.088865
734.058798	2546.516180
734.389501	2540.043339
734.720156	2539.743390
735.050762	2543.322609
735.381320	2543.012578
735.711831	2541.868236
736.042293	2542.939482
736.372707	2541.089378
736.703073	2543.524255
737.033391	2541.084337
737.363661	2539.418236
737.693883	2541.679193
738.024056	2545.210521
738.354182	2542.251364
738.684260	2544.527445
739.014290	2543.680531
739.344272	2543.340253
739.674207	2544.386293
740.004093	2542.137938
740.333931	2545.150027
740.663722	2542.435366
740.993464	2543.151210
741.323159	2541.376724
741.652806	2541.366642
741.982405	2541.538041
742.311956	2542.276570
742.641460	2542.500901
742.970915	2541.616179
743.300323	2541.996786
743.629683	2541.782537
743.958996	2539.967721
744.288260	2544.915614
744.617477	2540.668442
744.946647	2536.506969
745.275768	2538.455375
745.604842	2537.369007
745.933869	2537.989068
746.262847	2535.410518
746.591778	2540.207176
746.920662	2538.508307
747.249498	2542.788247
747.578286	2538.755324
747.907027	2542.203473
748.235720	2539.153575
748.564365	2540.461754
748.892963	2539.330015
749.221514	2542.410160
749.550017	2539.947557
749.878473	2542.047197
750.206881	2539.609799
750.535242	2541.969059
750.863555	2542.286652
751.191821	2539.027546
751.520039	2539.647608
751.848210	2540.398740
752.176334	2540.431507
752.504411	2541.444779
752.832440	2543.093237
753.160421	2539.098122
753.488356	2540.852444
753.816243	2544.340922
754.144082	2540.408822
754.471875	2541.585932
754.799620	2540.963349
755.127318	2538.704912
755.454969	2539.541744
755.782572	2542.205994
756.110129	2541.180119
756.437638	2540.187012
756.765100	2540.111394
757.092515	2542.238761
757.419882	2539.801363
757.747203	2541.563247
758.074477	2538.248688
758.401703	2541.666590
758.728882	2539.095602
759.056014	2541.434697
759.383099	2539.801363
759.710138	2542.024512
760.037129	2539.624923
760.364073	2539.483771
760.690970	2541.066693
761.017820	2541.540561
761.344623	2541.739687
761.671379	2540.371014
761.998088	2536.955632
762.324751	2539.330015
762.651366	2539.887063
762.977935	2544.136756
763.304456	2544.381252
763.630931	2550.682694
763.957359	2547.363094
764.283740	2546.669935
764.610074	2541.520397
764.936362	2546.317055
765.262602	2545.054246
765.588796	2539.990407
765.914943	2538.944367
766.241044	2540.116435
766.567097	2536.895138
766.893104	2542.011909
767.219064	2538.316743
767.544978	2538.639377
767.870845	2541.270860
768.196665	2541.548123
768.522438	2540.945705
768.848165	2535.150899
769.173846	2538.127700
769.499479	2540.252547
769.825066	2538.508307
770.150607	2537.729449
770.476101	2538.674665
770.801548	2539.256919
771.126949	2537.626105
771.452303	2536.960673
771.777611	2539.710623
772.102872	2536.701054
772.428087	2535.869263
772.753256	2540.340767
773.078378	2535.511341
773.403453	2540.154244
773.728482	2539.022505
774.053465	2541.308668
774.378401	2536.975797
774.703291	2537.782381
775.028135	2538.407484
775.352932	2535.932278
775.677683	2536.277597
776.002388	2538.402443
776.327046	2539.171219
776.651658	2539.680376
776.976224	2538.800694
777.300743	2536.945550
777.625216	2537.459747
777.949643	2536.524613
778.274024	2538.863709
778.598359	2535.503780
778.922647	2533.164684
779.246889	2532.521937
779.571086	2532.602596
779.895236	2535.231557
780.219339	2533.895652
780.543397	2536.970755
780.867409	2537.734490
781.191374	2536.416228
781.515294	2537.734490
781.839167	2537.031249
782.162995	2536.443955
782.486776	2535.130734
782.810511	2537.326157
783.134201	2537.439583
783.457844	2534.205682
783.781441	2542.016950
784.104993	2537.157278
784.428498	2537.709284
784.751958	2540.174409
785.075372	2536.766589
785.398739	2535.173584
785.722061	2536.663245
786.045337	2537.835313
786.368568	2539.551826
786.691752	2538.606610
787.014891	2538.397402
787.337983	2537.542926
787.661030	2538.465458
787.984031	2538.727597
788.306987	2539.657690
788.629897	2540.592824
788.952760	2539.932433
789.275579	2538.077289
789.598351	2537.169881
789.921078	2538.606610
790.243759	2537.129552
790.566395	2535.067720
790.888984	2537.260622
791.211529	2538.558719
791.534027	2538.261291
791.856480	2536.005374
792.178888	2538.173071
792.501249	2534.833306
792.823566	2540.169367
793.145836	2535.947401
793.468062	2535.798687
793.790241	2536.897659
794.112375	2534.301464
794.434464	2536.726259
794.756507	2535.024870
795.078505	2535.607123
795.400457	2534.528316
795.722364	2530.780218
796.044226	2535.105528
796.366042	2535.108049
796.687812	2535.871784
797.009538	2537.212731
797.331218	2539.400592
797.652852	2536.360776
797.974442	2535.024870
798.295986	2537.179963
798.617484	2536.968235
798.938938	2537.026208
799.260346	2539.690458
799.581709	2537.449665
799.903026	2536.688451
800.224299	2536.363296
800.545526	2539.791281
800.866708	2535.896990
801.187845	2535.062679
801.508936	2537.555529
801.829983	2537.361445
802.150984	2537.636188
802.471940	2532.887421
802.792851	2537.474871
803.113717	2536.736342
803.434538	2536.023018
803.755314	2536.895138
804.076045	2536.915303
804.396731	2534.906403
804.717372	2536.885056
805.037967	2535.957483
805.358518	2534.225847
805.679024	2534.966897
805.999485	2536.501928
806.319901	2534.737524
806.640272	2537.134593
806.960598	2534.162833
807.280879	2535.281969
807.601115	2536.141486
807.921306	2534.939170
808.241453	2536.088553
808.561554	2536.333049
808.881611	2534.452699
809.201623	2534.765251
809.521590	2535.836496
809.841513	2532.950435
810.161390	2538.193235
810.481223	2536.239788
810.801011	2536.048224
811.120755	2537.437062
811.440453	2538.042001
811.760107	2535.438245
812.079716	2533.452030
812.399281	2529.030938
812.718801	2532.537061
813.038276	2530.845753
813.357707	2536.317926
813.677093	2534.692154
813.996434	2533.557894
814.315731	2534.682072
814.634983	2534.525796
814.954191	2535.639891
815.273354	2535.508821
815.592473	2536.209541
815.911547	2534.946732
816.230577	2536.448996
816.549562	2537.069058
816.868502	2536.607792
817.187399	2533.573018
817.506250	2538.205838
817.825058	2536.065868
818.143821	2534.727442
818.462539	2537.361445
818.781213	2536.370858
819.099843	2536.932947
819.418429	2538.979655
819.736970	2538.858668
820.055466	2538.785571
820.373919	2542.271529
820.692327	2541.228010
821.010691	2545.747404
821.329011	2552.489948
821.647286	2568.639284
821.965517	2580.067580
822.283704	2587.573858
822.601847	2588.758529
822.919945	2585.731316
823.237999	2576.803432
823.556010	2566.675754
823.873976	2562.698284
824.191897	2555.232335
824.509775	2552.207643
824.827609	2550.876778
825.145398	2544.199770
825.463144	2545.805378
825.780845	2545.739842
826.098502	2549.969371
826.416116	2552.900802
826.733685	2555.040771
827.051210	2557.117727
827.368692	2556.001111
827.686129	2549.553475
828.003522	2550.506253
828.320872	2541.079296
828.638177	2541.152393
828.955439	2538.745242
829.272656	2538.026877
829.589830	2533.855322
829.906960	2539.619882
830.224046	2536.862371
830.541088	2539.403112
830.858086	2536.663245
831.175041	2538.336908
831.491952	2535.297092
831.808819	2538.916641
832.125642	2535.879346
832.442421	2537.071578
832.759157	2540.988555
833.075849	2540.582742
833.392497	2545.286139
833.709101	2546.916952
834.025662	2547.330327
834.342179	2544.411498
834.658653	2541.016281
834.975083	2545.190357
835.291469	2545.208001
835.607811	2541.883360
835.924110	2537.661393
836.240366	2535.244160
836.556578	2535.763399
836.872746	2536.383461
837.188871	2535.806249
837.504952	2535.007226
837.820990	2535.375230
838.136984	2532.516896
838.452935	2534.694674
838.768842	2535.997813
839.084706	2532.718542
839.400526	2537.691640
839.716303	2536.476722
840.032037	2539.813966
840.347727	2537.401774
840.663373	2536.995961
840.978977	2535.899510
841.294537	2537.437062
841.610054	2533.898172
841.925527	2536.272556
842.240957	2536.012936
842.556344	2535.851619
842.871687	2534.276259
843.186987	2536.736342
843.502244	2535.019829
843.817458	2534.200641
844.132629	2535.471012
844.447756	2534.586290
844.762840	2529.126720
845.077881	2532.602596
845.392879	2530.150074
845.707833	2533.358769
846.022745	2529.560259
846.337613	2532.148892
846.652438	2531.783408
846.967221	2533.252904
847.281960	2530.833151
847.596656	2534.515713
847.911309	2533.419263
848.225919	2533.880528
848.540485	2535.521424
848.855009	2533.820034
849.169490	2535.128214
849.483928	2534.871115
849.798323	2533.436907
850.112675	2531.276772
850.426984	2532.297606
850.741251	2533.643594
851.055474	2530.578572
851.369654	2533.099149
851.683792	2534.341794
851.997887	2530.734848
852.311938	2532.428676
852.625947	2535.768440
852.939914	2532.063192
853.253837	2535.586959
853.567718	2533.031094
853.881555	2533.590662
854.195350	2534.787936
854.509103	2532.544622
854.822812	2532.393388
855.136479	2536.358255
855.450103	2531.402801
855.763685	2531.695188
856.077224	2533.338604
856.390720	2530.719725
856.704173	2531.375075
857.017584	2534.112421
857.330953	2533.182328
857.644278	2534.268697
857.957561	2536.232226
858.270802	2534.364479
858.584000	2534.205682
858.897155	2533.356248
859.210268	2532.937832
859.523339	2532.297606
859.836367	2531.790970
860.149352	2533.152081
860.462295	2534.309026
860.775195	2528.849457
861.088054	2529.255269
861.400869	2529.749303
861.713642	2527.914322
862.026373	2533.232740
862.339062	2532.259797
862.651708	2534.674510
862.964312	2532.564787
863.276873	2530.611340
863.589392	2532.668131
863.901869	2531.725435
864.214303	2532.587472
864.526696	2534.309026
864.839045	2534.130065
865.151353	2534.518234
865.463619	2532.663089
865.775842	2534.855991
866.088023	2531.617050
866.400162	2531.140661
866.712258	2533.963707
867.024313	2534.810621
867.336325	2532.862215
867.648296	2532.340456
867.960224	2532.781557
868.272110	2532.239632
868.583954	2532.859694
868.895755	2533.361289
869.207515	2531.934643
869.519233	2535.831455
869.830909	2533.041176
870.142542	2535.125693
870.454134	2533.961187
870.765684	2534.276259
871.077191	2532.957997
871.388657	2534.785415
871.700081	2533.966228
872.011463	2535.372710
872.322803	2532.511855
872.634101	2532.121165
872.945357	2534.185518
873.256571	2532.337935
873.567744	2533.567977
873.878874	2535.808769
874.189963	2533.459592
874.501010	2533.139478
874.812015	2534.508152
875.122979	2534.054448
875.433900	2535.508821
875.744780	2533.567977
876.055618	2535.642411
876.366415	2533.827596
876.677169	2534.588810
876.987882	2531.163346
877.298554	2530.976823
877.609183	2528.985568
877.919771	2531.702750
878.230317	2530.762574
878.540822	2538.052083
878.851285	2535.801208
879.161707	2535.715508
879.472087	2537.076620
879.782425	2536.706095
880.092722	2541.348997
880.402977	2544.270346
880.713191	2552.532797
881.023363	2560.833057
881.333494	2568.165415
881.643583	2567.459654
881.953631	2564.591237
882.263637	2564.077040
882.573602	2561.196020
882.883526	2558.471277
883.193408	2553.084804
883.503248	2548.885522
883.813048	2547.539534
884.122806	2546.395193
884.432522	2542.024512
884.742197	2542.092568
885.051831	2540.744059
885.361424	2537.719367
885.670975	2538.185673
885.980485	2537.613502
886.289954	2539.009902
886.599382	2535.763399
886.908768	2537.794984
887.218113	2536.416228
887.527417	2536.035621
887.836680	2535.776002
888.145901	2533.129396
888.455082	2534.666948
888.764221	2534.513193
889.073319	2531.813655
889.382376	2532.592513
889.691392	2533.436907
890.000366	2532.688295
890.309300	2533.426824
890.618193	2534.130065
890.927044	2534.041845
891.235855	2531.042358
891.544625	2533.605785
891.853353	2533.089067
892.162041	2533.981351
892.470687	2535.236598
892.779293	2533.260466
893.087858	2533.351207
893.396381	2532.753830
893.704864	2535.085364
894.013306	2534.301464
894.321707	2542.233720
894.630068	2541.848072
894.938387	2546.312013
895.246665	2544.398896
895.554903	2542.024512
895.863100	2541.200283
896.171256	2538.793133
896.479371	2537.699202
896.787446	2536.217103
897.095480	2536.196938
897.403473	2535.108049
897.711425	2532.804242
898.019336	2534.762730
898.327207	2535.004705
898.635038	2532.227030
898.942827	2534.243491
899.250576	2535.395395
899.558284	2532.650487
899.865952	2535.095446
900.173579	2533.414221
900.481165	2532.847092
900.788711	2533.736855
901.096216	2533.162164
901.403681	2532.219468
901.711105	2533.056299
902.018489	2531.922040
902.325832	2534.989582
902.633135	2534.934129
902.940397	2533.996475
903.247619	2535.352545
903.554800	2538.082330
903.861941	2542.712630
904.169041	2544.794626
904.476101	2546.070038
904.783121	2550.075235
905.090100	2546.037271
905.397039	2543.118443
905.703938	2540.731456
906.010796	2540.401261
906.317614	2537.520241
906.624391	2537.706764
906.931129	2538.034439
907.237826	2535.191228
907.544483	2532.960518
907.851099	2533.552853
908.157675	2529.356093
908.464211	2533.522606
908.770707	2530.649148
909.077163	2531.846423
909.383578	2527.566483
909.689954	2530.787780
909.996289	2526.318797
910.302584	2532.476567
910.608839	2530.321473
910.915054	2531.591844
911.221229	2530.944056
911.527363	2531.715352
911.833458	2531.433048
912.139513	2529.996319
912.445527	2531.019673
912.751502	2534.268697
913.057436	2533.802390
913.363331	2536.597710
913.669186	2534.326670
913.975000	2533.804911
914.280775	2535.047555
914.586510	2534.470343
914.892205	2535.390354
915.197859	2541.590973
915.503475	2543.332692
915.809050	2543.252033
916.114585	2545.603731
916.420081	2547.615152
916.725536	2544.020809
917.030952	2545.974256
917.336328	2546.208670
917.641665	2542.102650
917.946961	2539.511497
918.252218	2539.640046
918.557435	2536.660724
918.862612	2534.576207
919.167750	2534.641742
919.472848	2533.797349
919.777906	2536.149047
920.082925	2532.799201
920.387904	2533.484798
920.692843	2533.177287
920.997743	2531.584283
921.302603	2532.471526
921.607423	2532.516896
921.912204	2535.130734
922.216946	2533.043697
922.521647	2533.711649
922.826310	2530.513037
923.130932	2532.012781
923.435516	2531.962369
923.740059	2531.992616
924.044564	2531.450692
924.349028	2530.016484
924.653454	2526.308715
924.957840	2526.802748
925.262186	2526.956503
925.566493	2530.296268
925.870761	2526.003725
926.174989	2531.491021
926.479178	2527.896678
926.783328	2530.495393
927.087438	2529.066226
927.391509	2530.439941
927.695541	2530.220650
927.999533	2529.388860
928.303486	2528.788963
928.607400	2532.940353
928.911275	2529.472039
929.215110	2530.991947
929.518906	2530.608819
929.822663	2531.125537
930.126381	2530.059333
930.430060	2529.189734
930.733699	2527.798376
931.037299	2531.879190
931.340861	2529.794673
931.644383	2528.143695
931.947866	2529.761905
932.251309	2531.168387
932.554714	2526.124713
932.858080	2534.477905
933.161407	2529.756864
933.464694	2530.765095
933.767943	2529.156967
934.071153	2533.424304
934.374323	2528.337779
934.677455	2532.756351
934.980548	2528.715866
935.283602	2530.586134
935.586617	2528.075639
935.889593	2530.926412
936.192530	2529.219981
936.495428	2530.271062
936.798287	2529.686288
937.101108	2528.927594
937.403890	2529.933305
937.706632	2531.334745
938.009336	2529.434230
938.312002	2530.530681
938.614628	2532.106042
938.917216	2531.735517
939.219765	2530.112266
939.522275	2532.118645
939.824747	2533.416742
940.127179	2526.407018
940.429573	2528.499096
940.731929	2527.858870
941.034246	2525.645803
941.336524	2529.666123
941.638763	2529.993798
941.940964	2529.938346
942.243126	2531.009591
942.545250	2531.740558
942.847335	2529.877852
943.149381	2529.885414
943.451389	2531.294416
943.753359	2528.536905
944.055290	2530.467667
944.357182	2530.603778
944.659036	2527.415248
944.960851	2527.747964
945.262628	2530.366844
945.564367	2528.468849
945.866067	2529.882893
946.167729	2530.480270
946.469352	2528.468849
946.770937	2530.931453
947.072484	2528.854498
947.373992	2529.194776
947.675462	2530.457585
947.976893	2531.332225
948.278286	2529.441792
948.579641	2529.840043
948.880958	2529.502286
949.182236	2528.105886
949.483476	2529.086391
949.784678	2527.584127
950.085841	2529.426669
950.386967	2531.974972
950.688054	2531.624612
950.989103	2529.882893
951.290114	2530.686957
951.591087	2529.829961
951.892021	2528.415917
952.192917	2530.543284
952.493776	2528.166380
952.794596	2531.039838
953.095378	2530.029087
953.396122	2530.427338
953.696828	2529.184693
953.997496	2529.898017
954.298126	2527.029600
954.598718	2532.179139
954.899272	2528.799045
955.199788	2528.670496
955.500266	2530.452543
955.800706	2527.024559
956.101108	2525.308046
956.401472	2524.758560
956.701798	2524.882068
957.002087	2527.674868
957.302337	2526.654034
957.602550	2527.445495
957.902724	2528.660413
958.202861	2529.116638
958.502960	2527.952131
958.803022	2529.865249
959.103045	2527.528674
959.403031	2529.628315
959.702979	2530.331556
960.002889	2529.451874
960.302762	2529.277955
960.602596	2529.081350
960.902393	2527.836185
961.202153	2529.131761
961.501875	2528.506658
961.801559	2528.050434
962.101205	2530.853315
962.400814	2530.003881
962.700385	2527.185876
962.999918	2526.079342
963.299414	2529.721576
963.598873	2527.460619
963.898293	2528.310053
964.197677	2528.952800
964.497022	2527.304343
964.796331	2526.487676
965.095601	2528.781401
965.394835	2527.790814
965.694030	2528.168901
965.993189	2531.024714
966.292309	2528.932636
966.591393	2527.531195
966.890439	2529.088911
967.189447	2529.192255
967.488419	2529.164529
967.787353	2527.044723
968.086249	2529.560259
968.385108	2531.876669
968.683930	2527.667306
968.982714	2531.329704
969.281462	2523.815864
969.580172	2525.895340
969.878844	2527.009435
970.177480	2526.235618
970.476078	2525.091276
970.774639	2526.840557
971.073162	2529.449354
971.371649	2526.134795
971.670098	2525.250073
971.968510	2526.210413
972.266885	2523.508354
972.565223	2528.647810
972.863524	2527.238808
973.161788	2528.005063
973.460014	2527.891637
973.758204	2527.415248
974.056356	2529.787111
974.354471	2527.122861
974.652550	2526.132275
974.950591	2527.569003
975.248595	2526.512882
975.546563	2529.666123
975.844493	2529.600588
976.142386	2529.310722
976.440243	2525.083715
976.738062	2528.814168
977.035845	2526.916174
977.333590	2527.016997
977.631299	2529.739220
977.928971	2527.513551
978.226606	2528.383150
978.524204	2527.495907
978.821765	2525.955834
979.119290	2528.637728
979.416777	2528.405835
979.714228	2528.869621
980.011642	2529.247708
980.309020	2530.392050
980.606360	2529.184693
980.903664	2526.931298
981.200931	2526.603622
981.498162	2527.533715
981.795356	2525.613036
982.092513	2527.629497
982.389633	2528.380629
982.686717	2527.553880
982.983764	2531.163346
983.280775	2527.836185
983.577749	2529.151926
983.874686	2529.088911
984.171587	2529.658562
984.468451	2529.935825
984.765279	2529.560259
985.062070	2529.207378
985.358824	2528.400794
985.655543	2529.784591
985.952224	2526.654034
986.248869	2529.182173
986.545478	2523.248735
986.842050	2525.809641
987.138586	2522.752181
987.435086	2525.434075
987.731549	2521.612880
988.027975	2529.154446
988.324366	2530.318953
988.620719	2526.573376
988.917037	2527.664785
989.213318	2529.565300
989.509563	2528.088242
989.805772	2526.444826
990.101944	2526.575896
990.398080	2524.698066
990.694180	2523.846111
990.990244	2527.344672
991.286271	2526.638911
991.582262	2529.693850
991.878217	2527.354754
992.174136	2528.594878
992.470019	2528.579755
992.765865	2527.508510
993.061676	2528.262162
993.357450	2526.195289
993.653188	2526.724610
993.948890	2527.390043
994.244556	2525.852491
994.540186	2529.509848
994.835780	2526.994312
995.131337	2527.725279
995.426859	2526.623787
995.722345	2525.867614
996.017795	2526.896009
996.313208	2524.393077
996.608586	2524.695546
996.903928	2527.183355
997.199234	2526.210413
997.494504	2529.663603
997.789738	2527.135464
998.084936	2529.671165
998.380099	2525.557583
998.675225	2526.233098
998.970316	2527.931967
999.265371	2527.324508
999.560390	2528.627646
999.855373	2526.651513
1000.150320	2529.618232
1000.445232	2527.810979
1000.740108	2525.809641
1001.034948	2529.169570
1001.329752	2527.445495
1001.624521	2529.396422
1001.919254	2525.681091
1002.213951	2524.375432
1002.508613	2524.652696
1002.803239	2523.745288
1003.097829	2524.592202
1003.392384	2526.197810
1003.686903	2528.448685
1003.981386	2527.667306
1004.275834	2528.544467
1004.570246	2528.942718
1004.864623	2527.314425
1005.158964	2529.217461
1005.453270	2526.782583
1005.747540	2525.847449
1006.041775	2528.143695
1006.335974	2525.688653
1006.630138	2526.328880
1006.924266	2527.861390
1007.218359	2526.560773
1007.512416	2529.545136
1007.806438	2525.928108
1008.100425	2527.722759
1008.394376	2526.086904
1008.688292	2526.439785
1008.982172	2526.026410
1009.276017	2527.165711
1009.569827	2525.824764
1009.863602	2527.697553
1010.157341	2528.269724
1010.451045	2525.688653
1010.744714	2526.220495
1011.038347	2526.948942
1011.331945	2525.658406
1011.625508	2528.877183
1011.919036	2528.166380
1012.212528	2525.527336
1012.505986	2524.967768
1012.799408	2526.964065
1013.092795	2526.230577
1013.386147	2525.577748
1013.679464	2526.747295
1013.972745	2527.700073
1014.265992	2528.468849
1014.559204	2525.469363
1014.852380	2526.041534
1015.145521	2524.133457
1015.438628	2527.127903
1015.731699	2530.220650
1016.024736	2524.544311
1016.317737	2524.471214
1016.610703	2526.898530
1016.903635	2524.186389
1017.196531	2521.857376
1017.489393	2524.483817
1017.782219	2520.269413
1018.075011	2524.393077
1018.367768	2522.540453
1018.660490	2525.239990
1018.953177	2525.239990
1019.245829	2525.239990
