Dividing Wavelength (nm)	Counts (n)	Blue Motor Position (mm): 0.000000	Red Motor Position (mm): 46.800000	
326.493990	2128.339866
326.888308	2128.339866
327.282561	2128.339866
327.676750	2098.216451
328.070874	2092.030955
328.464933	2097.188056
328.858929	2103.640733
329.252859	2112.800509
329.646726	2124.266613
330.040528	2137.166926
330.434265	2157.233239
330.827938	2172.943995
331.221547	2191.571058
331.615091	2209.315920
332.008571	2229.956924
332.401986	2248.944430
332.795338	2267.758017
333.188625	2287.892385
333.581847	2305.614561
333.975006	2324.347489
334.368100	2344.456652
334.761129	2359.484331
335.154095	2376.757845
335.546996	2398.258366
335.939833	2424.507654
336.332606	2439.517690
336.725315	2453.464042
337.117960	2462.621298
337.510540	2469.706640
337.903056	2480.464462
338.295508	2486.339927
338.687896	2497.843840
339.080220	2503.477329
339.472480	2512.062414
339.864676	2515.959226
340.256807	2518.310924
340.648875	2524.274609
341.040879	2524.892151
341.432818	2526.278468
341.824694	2529.451874
342.216506	2528.806607
342.608253	2528.010104
342.999937	2528.453726
343.391557	2528.693181
343.783113	2527.873993
344.174605	2527.112779
344.566033	2526.628828
344.957397	2525.771832
345.348697	2523.268899
345.739934	2522.585823
346.131106	2520.846625
346.522215	2519.130112
346.913260	2516.387724
347.304241	2515.608866
347.695159	2512.213649
348.086012	2511.646519
348.476802	2507.719460
348.867528	2505.269459
349.258191	2506.807011
349.648789	2506.103770
350.039324	2504.084788
350.429796	2504.530930
350.820203	2499.658655
351.210548	2499.668738
351.600828	2498.652945
351.991045	2498.176556
352.381198	2498.426093
352.771288	2497.417862
353.161314	2497.339724
353.551276	2497.881648
353.941175	2497.465753
354.331010	2500.029180
354.720782	2499.328460
355.110490	2497.574138
355.500135	2496.664210
355.889717	2498.743686
356.279235	2499.167143
356.668689	2499.431803
357.058080	2501.450785
357.447408	2497.254025
357.836672	2495.567759
358.225873	2497.727893
358.615010	2494.423417
359.004084	2501.967504
359.393095	2500.918944
359.782043	2501.894407
360.170927	2503.492453
360.559748	2503.421877
360.948505	2504.770385
361.337199	2504.717453
361.725830	2506.386075
362.114398	2506.310458
362.502903	2506.559995
362.891344	2507.618637
363.279722	2508.195849
363.668037	2507.618637
364.056289	2506.837258
364.444478	2513.312620
364.832603	2510.877743
365.220665	2509.037722
365.608665	2511.291118
365.996601	2511.097033
366.384474	2516.455780
366.772284	2516.486027
367.160031	2515.981911
367.547715	2518.346212
367.935336	2523.611698
368.322893	2523.722603
368.710388	2527.006915
369.097820	2535.299613
369.485189	2536.257432
369.872495	2541.906045
370.259738	2547.683207
370.646918	2557.606719
371.034035	2565.849005
371.421090	2572.669686
371.808081	2585.743919
372.195010	2593.224991
372.581875	2609.008844
372.968678	2620.820267
373.355418	2629.080198
373.742096	2649.950575
374.128710	2662.561021
374.515262	2676.588032
374.901751	2695.426824
375.288177	2706.789584
375.674540	2728.474108
376.060841	2745.684607
376.447079	2768.105139
376.833254	2787.064918
377.219367	2798.798204
377.605417	2837.395798
377.991404	2847.019361
378.377329	2867.299923
378.763191	2884.490258
379.148991	2923.385280
379.534727	2948.270936
379.920402	2979.576501
380.306013	2990.833398
380.691563	3041.159237
381.077049	3057.810168
381.462474	3078.990576
381.847835	3118.621607
382.233134	3140.535502
382.618371	3137.180615
383.003545	3208.049155
383.388657	3213.362532
383.773706	3248.048191
384.158693	3263.075870
384.543618	3290.484624
384.928480	3330.029955
385.313280	3370.659134
385.698017	3369.804659
386.082692	3423.644182
386.467305	3430.696756
386.851856	3461.415027
387.236344	3485.020230
387.620770	3514.205990
388.005133	3545.226730
388.389435	3570.583734
388.773674	3578.763006
389.157851	3624.806385
389.541965	3636.552273
389.926018	3605.561780
390.310008	3674.890248
390.693936	3692.156200
391.077802	3734.854773
391.461606	3722.269533
391.845348	3787.577681
392.229027	3783.867392
392.612645	3801.350113
392.996200	3876.468347
393.379694	3916.389244
393.763125	3978.387875
394.146494	3948.854275
394.529801	4006.124303
394.913047	4058.312848
395.296230	4024.809340
395.679351	4078.076692
396.062410	4099.282306
396.445408	4083.231272
396.828343	4116.213021
397.211217	4142.623626
397.594028	4060.881316
397.976778	4128.105103
398.359466	4150.200480
398.742092	4184.001417
399.124656	4103.494190
399.507158	4182.340356
399.889598	4210.863205
400.271977	4267.949231
400.654294	4241.710025
401.036549	4247.756889
401.418742	4220.091037
401.800874	4322.849917
402.182944	4342.523020
402.564952	4408.589862
402.946898	4394.023447
403.328783	4391.785175
403.710606	4307.731497
404.092367	4497.132688
404.474067	4465.438953
404.855705	4471.039675
405.237282	4398.784817
405.618797	4508.387064
406.000250	4538.069378
406.381642	4624.734374
406.762972	4585.675514
407.144240	4595.631793
407.525447	4594.099282
407.906593	4653.980628
408.287677	4696.664077
408.668700	4626.506339
409.049661	4676.184390
409.430560	4717.514290
409.811399	4644.266324
410.192176	4805.699194
410.572891	4747.791460
410.953545	4850.663766
411.334138	4730.066763
411.714669	4797.968585
412.095139	4687.395916
412.475547	4835.628524
412.855894	4817.198066
413.236180	4823.572605
413.616405	4776.674751
413.996568	4861.146845
414.376670	4806.823371
414.756711	4763.209829
415.136691	4792.234272
415.516609	4868.043144
415.896466	4907.654010
416.276262	4940.645841
416.655997	4923.818470
417.035670	5103.409576
417.415283	5194.004151
417.794834	5137.525584
418.174324	5096.984625
418.553753	5002.515923
418.933121	5183.647101
419.312428	5250.747379
419.691674	5190.452658
420.070859	5315.228778
420.449983	5228.447835
420.829045	5352.198080
421.208047	5253.061269
421.586988	5321.835210
421.965867	5335.237118
422.344686	5467.428774
422.723444	5322.568698
423.102141	5141.024145
423.480777	5441.098828
423.859352	5207.421182
424.237866	5465.039267
424.616319	5457.013750
424.994712	5567.974588
425.373044	5449.091577
425.751314	5584.807000
426.129524	5391.224172
426.507673	5585.232978
426.885762	5667.098796
427.263789	5599.018013
427.641756	5482.005271
428.019662	5601.788127
428.397508	5612.515702
428.775292	5555.953956
429.153016	5654.264018
429.530679	5581.560497
429.908282	5666.781203
430.285824	5534.438312
430.663305	5809.639941
431.040726	5545.901896
431.418086	5548.755189
431.795385	5654.526158
432.172624	5665.548641
432.549802	5658.034801
432.926920	5670.375546
433.303977	5679.716804
433.680974	5720.199790
434.057910	5737.927007
434.434786	5739.396504
434.811601	5713.048913
435.188355	5952.493638
435.565050	5824.486139
435.941683	5803.154497
436.318257	6012.697618
436.694770	5997.044836
437.071222	6032.925248
437.447614	5964.806657
437.823946	5875.714345
438.200218	6036.164189
438.576429	5896.287294
438.952580	5993.294217
439.328670	6041.729623
439.704700	5950.290654
440.080670	5935.462100
440.456580	6207.233225
440.832429	6092.539413
441.208218	5933.634682
441.583947	6090.926244
441.959616	6097.802378
442.335224	6019.646849
442.710773	6158.921327
443.086261	6183.542322
443.461689	5985.351879
443.837057	6126.252129
444.212365	6284.322549
444.587612	6180.517630
444.962800	6328.533468
445.337927	6308.439429
445.712995	5919.781591
446.088002	6499.105950
446.462949	6329.544220
446.837837	6258.234578
447.212664	6429.543068
447.587431	6573.417599
447.962139	7118.585620
448.336786	8043.055097
448.711374	7781.956096
449.085901	6859.646752
449.460369	6778.277488
449.834776	6711.129319
450.209124	7105.289577
450.583412	7253.494458
450.957640	7403.312510
451.331808	7165.485995
451.705917	6720.573921
452.079965	6642.080635
452.453954	6854.887903
452.827883	6729.504325
453.201752	6822.042265
453.575562	6619.806297
453.949311	6822.982441
454.323001	6713.254165
454.696632	6788.581607
455.070202	6930.336332
455.443713	7081.873417
455.817164	7185.254879
456.190556	7264.970645
456.563888	7337.631316
456.937160	7387.263996
457.310373	7040.974536
457.683526	7062.195273
458.056619	6957.906403
458.429653	6949.112110
458.802628	6878.152828
459.175542	6990.358831
459.548398	7346.604570
459.921194	7498.287848
460.293930	7509.053232
460.666607	8035.702574
461.039224	8340.838576
461.411782	8468.586455
461.784280	8489.592943
462.156719	8379.249647
462.529099	8261.105166
462.901419	7848.645520
463.273680	7743.592915
463.645882	7753.173628
464.018024	7623.353834
464.390106	7782.611446
464.762130	8172.088471
465.134094	8643.990883
465.505999	9662.296398
465.877845	10888.194108
466.249631	11536.592357
466.621358	11148.917544
466.993026	10527.154231
467.364634	10271.202248
467.736184	9903.898737
468.107674	9580.004602
468.479105	9606.206000
468.850477	9369.672541
469.221790	9139.826172
469.593043	8817.073859
469.964238	8676.561778
470.335373	8685.436729
470.706449	8743.026871
471.077467	8726.025579
471.448425	10036.748264
471.819324	11111.272727
472.190164	11138.583178
472.560945	9882.037773
472.931667	9098.153474
473.302330	8965.198082
473.672934	8607.770192
474.043479	8960.678688
474.413965	8896.978668
474.784393	8784.881050
475.154761	8940.206562
475.525070	9027.446250
475.895321	8855.492492
476.265513	9032.953711
476.635645	9197.517137
477.005719	9196.108134
477.375734	9315.361670
477.745691	9552.956292
478.115588	9683.938071
478.485427	9931.279764
478.855207	10465.014448
479.224928	11280.413521
479.594591	11913.698391
479.964194	11723.694782
480.333739	11658.784885
480.703226	11579.144736
481.072653	11672.085969
481.442022	11906.547514
481.811333	12100.841145
482.180584	11899.807491
482.549777	11614.684871
482.918912	11440.485279
483.287988	11455.034049
483.657005	11472.030299
484.025964	11151.561629
484.394864	11281.492328
484.763706	11253.803791
485.132489	11013.711277
485.501213	10970.294339
485.869879	11049.324508
486.238487	10885.038346
486.607036	11004.002015
486.975527	10779.738724
487.343959	10968.308125
487.712333	11019.967349
488.080648	10948.514034
488.448905	10985.448048
488.817104	10931.815212
489.185244	11197.670542
489.553326	11354.256343
489.921350	11889.841130
490.289315	12948.851442
490.657222	13288.118575
491.025070	13195.018546
491.392861	13080.027306
491.760593	12698.742156
492.128267	12349.158301
492.495883	12014.314780
492.863440	11684.174656
493.230939	11349.527740
493.598380	11284.595158
493.965763	11147.674899
494.333088	11049.662266
494.700354	10970.087652
495.067563	11027.030005
495.434713	10863.752073
495.801805	10986.201700
496.168839	10906.448126
496.535815	10847.106183
496.902733	10848.368992
497.269593	10777.560946
497.636395	10875.465194
498.003139	10862.622855
498.369825	10735.318597
498.736453	10887.117822
499.103023	10811.165277
499.469535	10846.067706
499.835989	10828.877371
500.202385	10794.411002
500.568723	10654.884467
500.935003	10876.324711
501.301226	10670.297795
501.667390	10938.761922
502.033497	11030.236179
502.399546	10893.371373
502.765537	10804.649586
503.131470	10878.557942
503.497345	11056.145189
503.863163	10661.357308
504.228923	10973.364402
504.594625	11036.043588
504.960269	10781.225864
505.325856	11002.272899
505.691385	10800.402414
506.056856	10955.775816
506.422270	10979.106276
506.787625	10863.341219
507.152924	10982.004940
507.518164	10967.861983
507.883347	10881.628005
508.248472	10804.077415
508.613540	11037.306398
508.978550	10918.685527
509.343503	10890.046732
509.708398	11011.755309
510.073236	11121.778492
510.438016	11129.569595
510.802738	11073.285112
511.167403	11137.325410
511.532010	11023.339881
511.896561	11267.122519
512.261053	11331.840852
512.625488	11198.986284
512.989866	11184.732421
513.354186	11179.235043
513.718449	11073.466594
514.082655	11264.443146
514.446803	11166.037302
514.810894	11283.070209
515.174927	11151.828810
515.538904	11178.110866
515.902822	11332.062663
516.266684	11214.142513
516.630488	11158.536065
516.994235	11212.801566
517.357925	11278.651638
517.721558	11365.772859
518.085133	11378.539581
518.448651	11385.503935
518.812112	11269.078487
519.175516	11287.062803
519.538863	11409.358675
519.902152	11323.853144
520.265385	11479.788635
520.628560	11397.804350
520.991678	11370.451049
521.354739	11430.811305
521.717743	11369.878878
522.080690	11350.152843
522.443580	11482.770478
522.806413	11440.684405
523.169189	11466.840432
523.531908	11525.947960
523.894569	11347.382729
524.257174	11348.393481
524.619722	11468.882099
524.982213	11415.841599
525.344647	11467.760442
525.707025	11418.042062
526.069345	11511.580672
526.431608	11431.653178
526.793815	11538.354240
527.155964	11326.005717
527.518057	11386.923020
527.880093	11325.347846
528.242072	11403.425237
528.603995	11301.011676
528.965860	11226.440407
529.327669	11278.318922
529.689421	11223.975283
530.051117	11200.589371
530.412755	11304.076697
530.774337	11195.880933
531.135862	11173.672130
531.497331	11197.163907
531.858743	11051.862729
532.220098	11217.434386
532.581396	11086.555950
532.942638	11072.158415
533.303824	11037.623990
533.664953	11046.020032
534.026025	10951.778181
534.387040	11059.537886
534.747999	11056.586290
535.108902	11123.124480
535.469748	10881.426359
535.830537	10979.181894
536.191270	10959.637340
536.551947	10984.215486
536.912567	10975.791718
537.273131	10902.453012
537.633638	10882.230423
537.994089	10872.548887
538.354483	10824.967956
538.714821	10972.837602
539.075103	10975.491769
539.435328	10938.351068
539.795497	10766.435119
540.155609	10926.479151
540.515665	11013.413849
540.875665	10750.890721
541.235609	10821.943264
541.595496	10813.285082
541.955328	10964.078597
542.315102	10849.289003
542.674821	10809.111007
543.034483	10802.433999
543.394090	10807.535646
543.753640	10738.804555
544.113134	10960.670777
544.472571	10809.574793
544.831953	10957.565426
545.191278	10759.866496
545.550548	10791.454366
545.909761	10930.139028
546.268918	10898.709955
546.628019	10984.994344
546.987064	10846.186173
547.346053	10772.615574
547.704986	10878.540298
548.063863	10857.301917
548.422684	10844.681388
548.781449	10763.354974
549.140158	10870.015707
549.498811	10744.196069
549.857408	10600.520664
550.215949	10827.130611
550.574434	10683.782881
550.932864	10772.330748
551.291237	10837.404483
551.649555	10787.285331
552.007817	10797.476024
552.366022	10756.604869
552.724173	10755.866340
553.082267	10742.159443
553.440305	10874.885462
553.798288	10677.100832
554.156215	10830.772845
554.514086	10804.947014
554.871902	10658.645168
555.229661	10696.884840
555.587365	10671.729482
555.945014	10564.851980
556.302606	10690.898470
556.660143	10584.003323
557.017625	10736.745243
557.375050	10635.826385
557.732421	10776.424165
558.089735	10685.673314
558.446994	10682.033601
558.804197	10720.691689
559.161345	10726.627648
559.518437	10573.061499
559.875474	10663.482155
560.232455	10690.976608
560.589381	10642.614298
560.946251	10638.563731
561.303065	10740.999977
561.659825	10677.912457
562.016528	10611.407035
562.373177	10492.876906
562.729770	10604.788000
563.086307	10520.560402
563.442789	10614.038518
563.799216	10485.824331
564.155587	10540.016735
564.511904	10490.318520
564.868164	10483.306275
565.224370	10496.325055
565.580520	10419.036605
565.936615	10431.266444
566.292654	10294.066401
566.648638	10423.767727
567.004567	10385.976718
567.360441	10366.036434
567.716260	10275.441858
568.072023	10372.748730
568.427732	10318.949536
568.783385	10230.149611
569.138982	10307.254059
569.494525	10319.115894
569.850013	10199.292708
570.205445	10278.829513
570.560823	10181.036170
570.916145	10088.614176
571.271412	10162.025979
571.626625	10109.986148
571.981782	10084.291386
572.336884	10055.725688
572.691931	10060.698786
573.046923	10008.641311
573.401860	9963.689342
573.756743	9899.268437
574.111570	9947.963463
574.466342	9931.055433
574.821059	9959.207757
575.175722	9854.974339
575.530330	9856.539617
575.884882	9853.504843
576.239380	9775.601372
576.593823	9756.223176
576.948211	9772.740517
577.302544	9651.788113
577.656823	9663.176079
578.011047	9666.974589
578.365216	9641.355445
578.719330	9560.265965
579.073389	9577.587369
579.427394	9519.125108
579.781344	9503.409311
580.135239	9447.891084
580.489080	9461.166962
580.842866	9356.212660
581.196597	9365.480821
581.550273	9403.438189
581.903895	9372.293941
582.257463	9447.099622
582.610975	9311.747162
582.964434	9344.615485
583.317837	9258.802444
583.671186	9248.032019
584.024481	9241.780988
584.377721	9161.215788
584.730906	9135.422724
585.084037	9169.735338
585.437113	9102.506510
585.790135	9119.202812
586.143103	9024.343420
586.496016	9002.421962
586.848874	9054.918018
587.201679	9040.097026
587.554428	8934.908309
587.907124	8975.615627
588.259765	8952.106206
588.612352	8950.472872
588.964884	8827.556938
589.317362	8844.142334
589.669786	8839.965738
590.022155	8898.163339
590.374470	8907.101305
590.726731	8846.158796
591.078937	8701.197897
591.431090	8808.629926
591.783188	8683.155607
592.135232	8674.641098
592.487222	8677.822066
592.839157	8726.270075
593.191038	8659.663830
593.542866	8595.321063
593.894639	8503.932505
594.246358	8555.470742
594.598022	8574.221313
594.949633	8472.591652
595.301190	8443.007641
595.652692	8471.361610
596.004141	8580.469824
596.355535	8358.916153
596.706876	8344.611879
597.058162	8269.602031
597.409395	8352.092952
597.760573	8412.168382
598.111698	8322.476173
598.462768	8308.187022
598.813785	8268.795446
599.164748	8240.948112
599.515657	8227.084939
599.866511	8143.701734
600.217312	8266.358048
600.568060	8121.538301
600.918753	8225.827171
601.269392	8195.426493
601.619978	8110.830890
601.970510	8176.103750
602.320988	8175.140890
602.671412	8229.038386
603.021783	8164.350300
603.372100	8137.853995
603.722363	8134.625136
604.072572	8115.229297
604.422728	8126.687840
604.772830	8054.236377
605.122878	8064.749703
605.472872	8059.922798
605.822813	8088.246521
606.172701	8033.595372
606.522534	8115.352805
606.872314	8102.820497
607.222041	8081.161179
607.571714	8132.800239
607.921333	8087.520595
608.270899	8105.071372
608.620411	8187.393414
608.969870	8092.410514
609.319276	8085.355419
609.668627	8099.100125
610.017926	8134.103377
610.367171	8186.302004
610.716362	8156.312180
611.065500	8148.110223
611.414585	8178.659615
611.763616	8170.671907
612.112594	8149.488978
612.461518	8165.996237
612.810389	8223.677119
613.159207	8161.103797
613.507971	8109.636137
613.856682	8227.889003
614.205340	8183.756222
614.553945	8265.375023
614.902496	8162.290989
615.250994	8216.329637
615.599439	8199.603089
615.947830	8209.387968
616.296169	8181.598608
616.644454	8197.576545
616.992686	8194.244342
617.340864	8258.980319
617.688990	8154.487282
618.037063	8249.714679
618.385082	8194.274589
618.733048	8279.598639
619.080961	8220.594453
619.428821	8231.097697
619.776628	8243.085561
620.124382	8193.992285
620.472083	8179.546858
620.819731	8203.343625
621.167326	8097.817152
621.514868	8106.989531
621.862357	7996.986513
622.209793	8003.474478
622.557176	7946.958102
622.904506	7913.313441
623.251783	7852.010490
623.599007	7806.007441
623.946179	7813.523801
624.293297	7767.934126
624.640363	7682.673091
624.987376	7667.201790
625.334336	7610.506453
625.681243	7561.718166
626.028097	7549.911784
626.374899	7525.394132
626.721647	7519.614449
627.068343	7448.761032
627.414987	7417.936897
627.761577	7373.478961
628.108115	7416.439674
628.454600	7303.227962
628.801032	7359.761982
629.147412	7315.389745
629.493739	7307.281049
629.840014	7242.477017
630.186236	7301.168650
630.532405	7180.004518
630.878521	7235.852941
631.224585	7191.921805
631.570597	7115.533201
631.916556	7146.349775
632.262462	7149.276164
632.608316	7103.769669
632.954117	7076.668426
633.299866	7070.472848
633.645562	7060.637556
633.991206	6982.887841
634.336797	6926.686537
634.682336	6882.354630
635.027823	6842.242169
635.373257	6837.208577
635.718639	6768.608555
636.063968	6783.429548
636.409245	6679.609505
636.754470	6680.940369
637.099642	6634.652495
637.444762	6580.266006
637.789829	6588.243632
638.134845	6528.705085
638.479808	6514.415934
638.824719	6518.005236
639.169577	6449.778260
639.514383	6474.396734
639.859137	6396.778089
640.203839	6405.191774
640.548489	6396.031998
640.893086	6367.219283
641.237632	6334.482030
641.582125	6361.442121
641.926566	6325.904507
642.270955	6342.000911
642.615292	6339.127453
642.959576	6357.280648
643.303809	6342.817578
643.647990	6348.952662
643.992118	6340.811199
644.336195	6288.524351
644.680219	6308.134439
645.024192	6294.956863
645.368112	6396.997379
645.711981	6422.220792
646.055797	6494.561350
646.399562	6451.139371
646.743274	6576.535553
647.086935	6632.991434
647.430544	6625.137317
647.774101	6649.844012
648.117606	6656.057234
648.461059	6648.558518
648.804460	6606.994204
649.147810	6511.625656
649.491108	6486.924002
649.834354	6459.711853
650.177548	6376.618514
650.520690	6291.450741
650.863781	6273.715962
651.206820	6291.939733
651.549807	6212.410490
651.892742	6155.455533
652.235626	6159.826214
652.578458	6142.842567
652.921238	6053.959463
653.263967	6088.468681
653.606644	6029.179671
653.949269	6031.014651
654.291843	5969.386545
654.634365	6025.580287
654.976836	5975.312421
655.319255	5978.435416
655.661622	5957.582683
656.003938	5954.016067
656.346203	5912.315642
656.688416	5940.674653
657.030577	5893.693620
657.372687	5863.688672
657.714746	5851.166446
658.056753	5896.488940
658.398708	5838.550959
658.740612	5825.630481
659.082465	5874.738882
659.424266	5867.792172
659.766016	5867.182192
660.107715	5838.911401
660.449362	5858.120718
660.790958	5851.811714
661.132503	5839.748233
661.473996	5879.414552
661.815438	5861.606676
662.156829	5860.205235
662.498168	5852.867836
662.839456	5824.463454
663.180693	5860.782447
663.521879	5862.309917
663.863013	5854.160892
664.204097	5872.762749
664.545129	5913.515437
664.886110	5908.191978
665.227040	5942.499551
665.567918	5904.942955
665.908746	5934.166524
666.249522	5938.839673
666.590248	5921.467857
666.930922	5952.516324
667.271545	5964.988138
667.612118	5966.926462
667.952639	5944.495848
668.293109	5962.979238
668.633528	5921.661942
668.973896	5923.406181
669.314213	5914.679943
669.654480	5896.108333
669.994695	5894.081789
670.334859	5881.786415
670.674973	5872.573706
671.015035	5873.009766
671.355047	5875.212750
671.695008	5859.844793
672.034918	5831.231203
672.374777	5843.483728
672.714585	5833.202294
673.054342	5832.683056
673.394049	5823.901366
673.733705	5855.431262
674.073310	5847.420869
674.412864	5807.126926
674.752368	5793.616634
675.091820	5800.449918
675.431223	5739.152008
675.770574	5738.242079
676.109875	5685.388102
676.449125	5692.181057
676.788324	5659.068238
677.127473	5599.622952
677.466571	5591.249595
677.805619	5582.840950
678.144616	5569.746553
678.483562	5553.309871
678.822458	5519.871898
679.161303	5511.312018
679.500098	5506.308673
679.838842	5488.657073
680.177535	5489.695551
680.516179	5508.746071
680.854771	5516.380899
681.193314	5599.388538
681.531805	5705.121699
681.870247	5856.255491
682.208638	5961.895390
682.546978	5970.205733
682.885268	5947.437361
683.223508	5863.837386
683.561697	5806.247245
683.899836	5775.591988
684.237925	5729.914093
684.575963	5700.022572
684.913951	5660.567981
685.251889	5716.728955
685.589776	5688.979924
685.927614	5657.097147
686.265401	5729.266305
686.603137	5715.204006
686.940824	5785.255880
687.278460	5814.628163
687.616046	5821.413556
687.953582	5888.806221
688.291068	5871.600763
688.628504	5935.033602
688.965889	5895.238734
689.303224	5840.529612
689.640510	5790.236540
689.977745	5715.256938
690.314930	5621.216734
690.652065	5559.785233
690.989150	5471.930525
691.326185	5393.785078
691.663170	5341.692315
692.000105	5260.144090
692.336990	5182.956463
692.673825	5155.036032
693.010610	5090.605045
693.347345	5023.638357
693.684030	5008.613198
694.020665	4965.939831
694.357251	4875.665368
694.693786	4891.179519
695.030272	4853.877501
695.366707	4813.742355
695.703093	4782.772026
696.039429	4805.008556
696.375716	4787.977018
696.711952	4765.390128
697.048139	4744.255090
697.384276	4726.779931
697.720363	4740.577569
698.056400	4747.143672
698.392388	4695.955795
698.728326	4680.096325
699.064214	4656.904497
699.400053	4649.685565
699.735842	4616.257674
700.071581	4593.290177
700.407270	4563.544848
700.742910	4550.384916
701.078501	4495.965661
701.414042	4491.776462
701.749533	4463.871155
702.084974	4396.707862
702.420366	4453.095688
702.755709	4396.836411
703.091002	4340.803986
703.426246	4390.592942
703.761440	4345.146940
704.096584	4309.742917
704.431679	4332.808716
704.766725	4316.384637
705.101721	4299.852173
705.436668	4330.497347
705.771565	4279.987506
706.106413	4306.035148
706.441212	4339.402546
706.775961	4346.182898
707.110661	4327.817974
707.445311	4354.589022
707.779913	4375.840006
708.114465	4385.884505
708.448967	4412.693361
708.783421	4469.313080
709.117825	4509.269266
709.452180	4518.439124
709.786485	4561.195671
710.120742	4647.895955
710.454949	4630.509016
710.789107	4695.469324
711.123216	4771.147126
711.457275	4758.735805
711.791286	4831.459490
712.125247	4844.586655
712.459159	4752.446965
712.793023	4821.977080
713.126837	4783.581132
713.460602	4777.060399
713.794318	4700.142474
714.127985	4707.061457
714.461602	4618.695072
714.795171	4592.165999
715.128691	4529.305332
715.462162	4470.109583
715.795584	4419.529165
716.128957	4404.047782
716.462281	4353.154813
716.795556	4322.197088
717.128782	4284.786685
717.461960	4217.817477
717.795088	4230.289291
718.128167	4188.707334
718.461198	4129.879589
718.794180	4124.747694
719.127113	4102.859004
719.459997	4085.129266
719.792833	4040.935991
720.125619	4030.861245
720.458357	3995.641224
720.791046	3998.630628
721.123686	3972.373778
721.456278	3934.348355
721.788821	3946.530303
722.121315	3924.462652
722.453761	3897.805030
722.786158	3907.577307
723.118506	3931.270730
723.450805	3884.622413
723.783056	3906.475815
724.115259	3922.589863
724.447412	3923.068773
724.779518	3920.321344
725.111574	3921.642126
725.443582	3952.496508
725.775542	3935.265845
726.107453	3985.132938
726.439315	3984.817866
726.771129	4000.387470
727.102895	4038.707801
727.434612	4081.877722
727.766281	4092.401131
728.097901	4091.990277
728.429473	4100.393880
728.760996	4105.114921
729.092471	4100.545115
729.423897	4087.181016
729.755276	4090.714865
730.086606	4087.175975
730.417887	4126.257520
730.749120	4192.001728
731.080305	4249.281838
731.411442	4281.935912
731.742530	4251.499946
732.073570	4256.112602
732.404562	4303.048265
732.735506	4298.478459
733.066401	4262.338427
733.397249	4199.495403
733.728048	4121.806181
734.058798	4042.677710
734.389501	3969.633911
734.720156	3910.697781
735.050762	3864.243549
735.381320	3858.511757
735.711831	3809.791525
736.042293	3776.640898
736.372707	3797.304587
736.703073	3774.211062
737.033391	3760.617590
737.363661	3777.220630
737.693883	3802.953200
738.024056	3812.296979
738.354182	3805.478818
738.684260	3869.400649
739.014290	3889.403947
739.344272	3886.346488
739.674207	3922.315120
740.004093	3929.014814
740.333931	3925.370060
740.663722	3923.961057
740.993464	3921.503495
741.323159	3900.247469
741.652806	3867.043910
741.982405	3837.729600
742.311956	3806.456802
742.641460	3801.942449
742.970915	3779.965539
743.300323	3738.723859
743.629683	3702.513251
743.958996	3691.032023
744.288260	3667.507479
744.617477	3636.315339
744.946647	3623.336889
745.275768	3597.778239
745.604842	3595.797065
745.933869	3550.020868
746.262847	3539.210113
746.591778	3574.987182
746.920662	3546.988614
747.249498	3520.704037
747.578286	3559.846077
747.907027	3577.442224
748.235720	3578.342070
748.564365	3601.120524
748.892963	3598.201696
749.221514	3581.850713
749.550017	3557.138977
749.878473	3559.044533
750.206881	3529.183258
750.535242	3524.215201
750.863555	3526.990356
751.191821	3521.369470
751.520039	3501.131758
751.848210	3482.108964
752.176334	3512.048376
752.504411	3519.824356
752.832440	3482.693737
753.160421	3462.841674
753.488356	3471.988847
753.816243	3484.354798
754.144082	3440.116152
754.471875	3428.251797
754.799620	3446.120166
755.127318	3439.554063
755.454969	3433.229936
755.782572	3442.939198
756.110129	3418.890374
756.437638	3410.275042
756.765100	3424.740633
757.092515	3429.186931
757.419882	3437.388888
757.747203	3408.913930
758.074477	3414.320568
758.401703	3428.019903
758.728882	3447.433387
759.056014	3457.571147
759.383099	3458.811271
759.710138	3456.431847
760.037129	3475.754589
760.364073	3501.363651
760.690970	3487.848317
761.017820	3464.157415
761.344623	3482.081237
761.671379	3528.233001
761.998088	3572.900144
762.324751	3699.483518
762.651366	3941.615178
762.977935	4395.276174
763.304456	4821.656967
763.630931	4912.889248
763.957359	4569.044747
764.283740	4233.966813
764.610074	4043.703584
764.936362	3850.914738
765.262602	3700.302705
765.588796	3593.478134
765.914943	3509.560567
766.241044	3422.209974
766.567097	3391.834501
766.893104	3347.190043
767.219064	3320.935713
767.544978	3296.148360
767.870845	3244.219434
768.196665	3224.127916
768.522438	3232.559245
768.848165	3226.711507
769.173846	3190.203471
769.499479	3174.734690
769.825066	3156.863800
770.150607	3142.521717
770.476101	3152.190650
770.801548	3153.544200
771.126949	3110.099536
771.452303	3091.182606
771.777611	3096.538832
772.102872	3098.870366
772.428087	3074.400605
772.753256	3066.624625
773.078378	3058.349571
773.403453	3028.546270
773.728482	3018.655526
774.053465	3034.210006
774.378401	3020.389683
774.703291	2994.702483
775.028135	2995.942607
775.352932	2991.771053
775.677683	2980.798981
776.002388	2974.976448
776.327046	2976.960143
776.651658	2968.294399
776.976224	2955.378963
777.300743	2958.464149
777.625216	2945.626851
777.949643	2942.266922
778.274024	2945.533589
778.598359	2935.615119
778.922647	2939.249791
779.246889	2936.167126
779.571086	2921.494847
779.895236	2917.028385
780.219339	2926.672112
780.543397	2936.809873
780.867409	2941.379679
781.191374	2932.466919
781.515294	2931.405756
781.839167	2932.330808
782.162995	2927.413162
782.486776	2930.175714
782.810511	2925.215219
783.134201	2915.959660
783.457844	2921.020979
783.781441	2911.833476
784.104993	2895.530384
784.428498	2894.575086
784.751958	2909.403640
785.075372	2904.874163
785.398739	2888.747512
785.722061	2902.086405
786.045337	2911.319278
786.368568	2900.362330
786.691752	2890.159035
787.014891	2939.133845
787.337983	2966.897999
787.661030	2995.468739
787.984031	3053.933521
788.306987	3100.135696
788.629897	3092.848708
788.952760	3078.703230
789.275579	3059.483831
789.598351	3007.698578
789.921078	2962.537401
790.243759	2954.569858
790.566395	2938.806170
790.888984	2913.300452
791.211529	2896.891496
791.534027	2891.005949
791.856480	2880.656460
792.178888	2867.536857
792.501249	2859.110568
792.823566	2854.268540
793.145836	2855.705269
793.468062	2849.930627
793.790241	2846.946264
794.112375	2851.758046
794.434464	2864.350848
794.756507	2868.406456
795.078505	2873.687065
795.400457	2889.750702
795.722364	2920.718510
796.044226	2946.652726
796.366042	2943.832200
796.687812	2937.510593
797.009538	2956.840898
797.331218	2943.043259
797.652852	2927.902154
797.974442	2910.656367
798.295986	2909.791809
798.617484	2902.348545
798.938938	2888.785321
799.260346	2873.644215
799.581709	2869.339070
799.903026	2860.857328
800.224299	2858.132585
800.545526	2849.471882
800.866708	2836.115345
801.187845	2825.914570
801.508936	2827.258038
801.829983	2832.468070
802.150984	2819.335865
802.471940	2807.264822
802.792851	2808.537713
803.113717	2807.015285
803.434538	2811.063331
803.755314	2803.662917
804.076045	2801.293575
804.396731	2797.656382
804.717372	2801.132258
805.037967	2793.628501
805.358518	2800.925571
805.679024	2812.041315
805.999485	2806.962352
806.319901	2811.625420
806.640272	2803.365489
806.960598	2807.529482
807.280879	2819.129177
807.601115	2824.936587
807.921306	2812.550472
808.241453	2808.547795
808.561554	2815.063487
808.881611	2814.781182
809.201623	2810.286993
809.521590	2812.948723
809.841513	2808.114256
810.161390	2810.665080
810.481223	2806.564101
810.801011	2795.944911
811.120755	2790.903757
811.440453	2794.238480
811.760107	2794.598923
812.079716	2794.354427
812.399281	2781.741460
812.718801	2776.107970
813.038276	2773.088319
813.357707	2777.799277
813.677093	2783.977212
813.996434	2781.605349
814.315731	2775.969339
814.634983	2768.470622
814.954191	2770.295520
815.273354	2785.222377
815.592473	2790.618932
815.911547	2793.643624
816.230577	2800.113945
816.549562	2809.271201
816.868502	2808.434369
817.187399	2817.707572
817.506250	2832.248780
817.825058	2824.311483
818.143821	2837.176508
818.462539	2851.805937
818.781213	2876.351315
819.099843	2911.057138
819.418429	2965.166363
819.736970	3026.300436
820.055466	3089.740836
820.373919	3187.985363
820.692327	3315.244251
821.010691	3476.049497
821.329011	3897.159763
821.647286	4752.154578
821.965517	6070.570064
822.283704	6806.865872
822.601847	6782.723786
822.919945	6142.986239
823.237999	5633.781810
823.556010	5087.779478
823.873976	4568.500303
824.191897	4175.713760
824.509775	3897.971388
824.827609	3650.044922
825.145398	3532.523023
825.463144	3523.234697
825.780845	3605.539095
826.098502	3708.320660
826.416116	3971.123572
826.733685	4277.575314
827.051210	4334.605888
827.368692	4225.822829
827.686129	3964.736430
828.003522	3664.984381
828.320872	3423.306425
828.638177	3240.186511
828.955439	3116.653036
829.272656	3040.070348
829.589830	2976.511480
829.906960	2932.151847
830.224046	2892.057029
830.541088	2859.934797
830.858086	2844.473578
831.175041	2827.709221
831.491952	2827.986485
831.808819	2840.314626
832.125642	2861.147195
832.442421	2902.819893
832.759157	2979.878971
833.075849	3141.024494
833.392497	3408.593817
833.709101	3597.700101
834.025662	3546.943243
834.342179	3394.773494
834.658653	3235.936818
834.975083	3094.270313
835.291469	3007.345697
835.607811	2926.016762
835.924110	2875.126314
836.240366	2826.789211
836.556578	2788.516771
836.872746	2766.681013
837.188871	2748.416912
837.504952	2733.258163
837.820990	2725.351113
838.136984	2709.310161
838.452935	2707.530634
838.768842	2703.505273
839.084706	2721.345916
839.400526	2792.373253
839.716303	2920.773962
840.032037	2997.134840
840.347727	2980.153713
840.663373	2918.881009
840.978977	2846.784947
841.294537	2782.290946
841.610054	2739.085737
841.925527	2721.232490
842.240957	2697.949921
842.556344	2676.802281
842.871687	2665.641166
843.186987	2654.664054
843.502244	2650.883188
843.817458	2647.079638
844.132629	2636.778040
844.447756	2628.001391
844.762840	2624.250773
845.077881	2624.613736
845.392879	2625.339662
845.707833	2619.532252
846.022745	2613.704679
846.337613	2616.459669
846.652438	2615.335492
846.967221	2614.607045
847.281960	2611.879781
847.596656	2612.807353
847.911309	2612.217538
848.225919	2612.025974
848.540485	2606.742845
848.855009	2605.452310
849.169490	2606.001796
849.483928	2606.800818
849.798323	2604.922989
850.112675	2604.917947
850.426984	2606.102619
850.741251	2602.510797
851.055474	2601.437031
851.369654	2605.217896
851.683792	2606.556322
851.997887	2602.379727
852.311938	2603.579521
852.625947	2606.024481
852.939914	2604.653287
853.253837	2607.524224
853.567718	2603.566918
853.881555	2601.316043
854.195350	2604.696137
854.509103	2605.583380
854.822812	2601.467278
855.136479	2602.561208
855.450103	2603.902155
855.763685	2606.357197
856.077224	2604.507093
856.390720	2601.908379
856.704173	2601.860488
857.017584	2606.528596
857.330953	2607.105808
857.644278	2608.572784
857.957561	2607.841817
858.270802	2606.379882
858.584000	2606.717639
858.897155	2606.468102
859.210268	2609.109667
859.523339	2603.924840
859.836367	2600.600199
860.149352	2600.350662
860.462295	2604.272680
860.775195	2597.893100
861.088054	2595.296905
861.400869	2597.530137
861.713642	2596.723552
862.026373	2598.147678
862.339062	2598.984509
862.651708	2605.686723
862.964312	2606.649584
863.276873	2601.817638
863.589392	2605.490118
863.901869	2610.541355
864.214303	2615.320368
864.526696	2617.747684
864.839045	2617.530914
865.151353	2621.959568
865.463619	2621.959568
865.775842	2618.271964
866.088023	2619.502006
866.400162	2619.580143
866.712258	2620.467387
867.024313	2618.161059
867.336325	2615.753908
867.648296	2617.392283
867.960224	2623.091307
868.272110	2620.086779
868.583954	2613.571088
868.895755	2617.717437
869.207515	2621.155504
869.519233	2626.063067
869.830909	2622.330093
870.142542	2616.691562
870.454134	2620.326234
870.765684	2621.329424
871.077191	2628.162708
871.388657	2630.874849
871.700081	2626.852008
872.011463	2627.530043
872.322803	2629.448202
872.634101	2632.561115
872.945357	2639.404481
873.256571	2645.068217
873.567744	2641.728453
873.878874	2641.080665
874.189963	2639.648977
874.501010	2646.394041
874.812015	2648.516367
875.122979	2648.922179
875.433900	2639.321302
875.744780	2636.341980
876.055618	2644.372538
876.366415	2648.350008
876.677169	2648.919659
876.987882	2643.568474
877.298554	2641.499080
877.609183	2651.306645
877.919771	2653.434012
878.230317	2660.899961
878.540822	2669.081754
878.851285	2682.884433
879.161707	2704.432845
879.472087	2736.295458
879.782425	2777.471602
880.092722	2878.602190
880.402977	3052.879919
880.713191	3298.863021
881.023363	3579.047832
881.333494	3766.707304
881.643583	3928.102365
881.953631	3921.853855
882.263637	3743.268459
882.573602	3538.385885
882.883526	3412.243613
883.193408	3304.879638
883.503248	3206.511603
883.813048	3100.659976
884.122806	2999.274810
884.432522	2920.751277
884.742197	2863.037627
885.051831	2830.474294
885.361424	2798.067237
885.670975	2765.904675
885.980485	2739.310068
886.289954	2724.799107
886.599382	2711.283773
886.908768	2702.494521
887.218113	2686.319979
887.527417	2676.877898
887.836680	2665.719304
888.145901	2664.320384
888.455082	2654.785041
888.764221	2647.314051
889.073319	2636.687299
889.382376	2639.154944
889.691392	2637.319964
890.000366	2639.492701
890.309300	2640.248874
890.618193	2642.204842
890.927044	2644.760707
891.235855	2642.373721
891.544625	2643.780202
891.853353	2641.536889
892.162041	2649.320431
892.470687	2663.574293
892.779293	2676.237672
893.087858	2685.906605
893.396381	2706.303113
893.704864	2742.942219
894.013306	2805.820531
894.321707	2890.148953
894.630068	2936.003288
894.938387	2952.921400
895.246665	2938.728032
895.554903	2900.901734
895.863100	2858.099817
896.171256	2807.693320
896.479371	2756.409662
896.787446	2722.830536
897.095480	2708.647250
897.403473	2701.282124
897.711425	2688.074301
898.019336	2672.267763
898.327207	2659.458191
898.635038	2657.971051
898.942827	2654.848056
899.250576	2651.720020
899.558284	2639.959008
899.865952	2637.866929
900.173579	2631.809983
900.481165	2631.068933
900.788711	2625.841257
901.096216	2616.953702
901.403681	2616.091665
901.711105	2616.515122
902.018489	2613.624020
902.325832	2616.263064
902.633135	2618.544186
902.940397	2632.344345
903.247619	2662.649241
903.554800	2727.254148
903.861941	2842.749504
904.169041	2959.946248
904.476101	3014.098323
904.783121	3005.977024
905.090100	2951.703962
905.397039	2879.968343
905.703938	2813.455359
906.010796	2758.252203
906.317614	2712.367621
906.624391	2680.782272
906.931129	2659.952224
907.237826	2639.485139
907.544483	2626.907461
907.851099	2613.354318
908.157675	2606.105139
908.464211	2596.925198
908.770707	2588.821543
909.077163	2587.009248
909.383578	2583.064546
909.689954	2582.746953
909.996289	2579.470203
910.302584	2580.654874
910.608839	2577.302507
910.915054	2577.657908
911.221229	2579.954154
911.527363	2582.709144
911.833458	2580.566654
912.139513	2580.969946
912.445527	2582.537745
912.751502	2587.722572
913.057436	2592.395721
913.363331	2597.701536
913.669186	2606.339553
913.975000	2619.159207
914.280775	2633.670168
914.586510	2651.286481
914.892205	2685.984742
915.197859	2743.136304
915.503475	2820.134887
915.809050	2880.565719
916.114585	2895.701784
916.420081	2905.554719
916.725536	2910.921027
917.030952	2884.664177
917.336328	2843.372086
917.641665	2799.385498
917.946961	2756.840680
918.252218	2725.169631
918.557435	2700.566280
918.862612	2681.659432
919.167750	2668.055879
919.472848	2653.630617
919.777906	2637.297279
920.082925	2627.928294
920.387904	2618.178703
920.692843	2616.131994
920.997743	2609.235696
921.302603	2600.993409
921.607423	2598.487956
921.912204	2594.548294
922.216946	2590.225505
922.521647	2591.821030
922.826310	2586.358940
923.130932	2582.464648
923.435516	2580.009606
923.740059	2577.156313
924.044564	2573.902248
924.349028	2570.433935
924.653454	2566.350600
924.957840	2564.780281
925.262186	2558.619991
925.566493	2565.607030
925.870761	2561.059909
926.174989	2559.910526
926.479178	2558.239383
926.783328	2556.903478
927.087438	2555.262582
927.391509	2557.974723
927.695541	2553.813250
927.999533	2552.739485
928.303486	2552.532797
928.607400	2553.916594
928.911275	2553.798127
929.215110	2550.342416
929.518906	2552.207643
929.822663	2552.696635
930.126381	2554.710576
930.430060	2551.819474
930.733699	2555.857438
931.037299	2554.244269
931.340861	2552.802499
931.644383	2554.632438
931.947866	2554.773590
932.251309	2552.247972
932.554714	2552.986501
932.858080	2556.137222
933.161407	2549.682025
933.464694	2554.244269
933.767943	2552.663867
934.071153	2550.816284
934.374323	2549.331665
934.677455	2550.861655
934.980548	2547.534493
935.283602	2551.098589
935.586617	2547.889895
935.889593	2548.693959
936.192530	2545.495347
936.495428	2549.984494
936.798287	2550.639844
937.101108	2549.941644
937.403890	2554.166131
937.706632	2557.455484
938.009336	2559.882800
938.312002	2562.121072
938.614628	2562.110990
938.917216	2564.888665
939.219765	2564.830692
939.522275	2566.832030
939.824747	2567.797411
940.127179	2563.187276
940.429573	2559.323232
940.731929	2564.112328
941.034246	2558.378015
941.336524	2560.611246
941.638763	2560.981771
941.940964	2562.980589
942.243126	2559.865156
942.545250	2559.403890
942.847335	2554.476162
943.149381	2554.093034
943.451389	2555.189485
943.753359	2555.103786
944.055290	2555.398693
944.357182	2553.893909
944.659036	2553.556152
944.960851	2551.675801
945.262628	2548.451983
945.564367	2552.820143
945.866067	2553.846018
946.167729	2553.180586
946.469352	2554.176213
946.770937	2552.563044
947.072484	2553.568754
947.373992	2550.153373
947.675462	2553.097407
947.976893	2550.886861
948.278286	2549.487940
948.579641	2548.394010
948.880958	2547.844524
949.182236	2550.758311
949.483476	2549.815615
949.784678	2550.929710
950.085841	2551.398538
950.386967	2550.599515
950.688054	2546.180943
950.989103	2547.521890
951.290114	2552.200081
951.591087	2553.941800
951.892021	2552.595812
952.192917	2552.447098
952.493776	2554.970195
952.794596	2558.012532
953.095378	2555.532284
953.396122	2557.470607
953.696828	2554.766028
953.997496	2551.877447
954.298126	2550.244113
954.598718	2550.082797
954.899272	2551.343085
955.199788	2549.346788
955.500266	2549.429967
955.800706	2542.929399
956.101108	2542.929399
956.401472	2542.934440
956.701798	2543.035263
957.002087	2538.803215
957.302337	2541.774975
957.602550	2543.373021
957.902724	2542.483257
958.202861	2540.844882
958.502960	2541.228010
958.803022	2538.760365
959.103045	2539.219110
959.403031	2537.522762
959.702979	2537.822710
960.002889	2538.694830
960.302762	2537.762217
960.602596	2536.562422
960.902393	2537.290869
961.202153	2539.692978
961.501875	2536.295241
961.801559	2538.624254
962.101205	2536.963194
962.400814	2536.885056
962.700385	2536.753986
962.999918	2538.087371
963.299414	2537.031249
963.598873	2535.833975
963.898293	2536.638039
964.197677	2535.372710
964.497022	2535.281969
964.796331	2536.539737
965.095601	2536.312885
965.394835	2535.909593
965.694030	2534.709798
965.993189	2534.651825
966.292309	2536.683410
966.591393	2539.506456
966.890439	2533.948584
967.189447	2536.648122
967.488419	2534.795498
967.787353	2534.581248
968.086249	2533.477236
968.385108	2536.892617
968.683930	2532.975641
968.982714	2538.074768
969.281462	2533.779705
969.580172	2537.041332
969.878844	2535.075282
970.177480	2536.080992
970.476078	2538.193235
970.774639	2539.718184
971.073162	2535.647452
971.371649	2534.412370
971.670098	2532.557225
971.968510	2534.200641
972.266885	2533.341125
972.565223	2538.092412
972.863524	2537.139634
973.161788	2537.749614
973.460014	2534.261135
973.758204	2534.767771
974.056356	2535.491177
974.354471	2539.403112
974.652550	2536.496887
974.950591	2536.708615
975.248595	2534.946732
975.546563	2535.140817
975.844493	2537.805066
976.142386	2535.954963
976.440243	2535.710467
976.738062	2536.454037
977.035845	2535.002185
977.333590	2536.244829
977.631299	2532.983203
977.928971	2535.438245
978.226606	2532.335414
978.524204	2537.716846
978.821765	2534.578728
979.119290	2534.752648
979.416777	2534.792977
979.714228	2533.630991
980.011642	2535.826413
980.309020	2538.611651
980.606360	2532.892462
980.903664	2539.793802
981.200931	2534.979500
981.498162	2537.910931
981.795356	2536.567463
982.092513	2540.333205
982.389633	2542.316899
982.686717	2545.772610
982.983764	2548.484751
983.280775	2546.846376
983.577749	2548.202446
983.874686	2547.496685
984.171587	2543.940151
984.468451	2542.563916
984.765279	2540.028215
985.062070	2537.863040
985.358824	2537.477391
985.655543	2535.082843
985.952224	2534.218285
986.248869	2535.937319
986.545478	2528.476411
986.842050	2532.153933
987.138586	2532.022863
987.435086	2530.003881
987.731549	2527.400125
988.027975	2533.303316
988.324366	2532.418593
988.620719	2535.927237
988.917037	2531.193593
989.213318	2533.220137
989.509563	2533.552853
989.805772	2530.732328
990.101944	2532.605116
990.398080	2533.109232
990.694180	2533.021011
990.990244	2532.874818
991.286271	2532.874818
991.582262	2533.303316
991.878217	2532.307688
992.174136	2532.438758
992.470019	2534.097298
992.765865	2532.506814
993.061676	2532.239633
993.357450	2532.532019
993.653188	2532.360620
993.948890	2532.428676
994.244556	2531.727955
994.540186	2532.660569
994.835780	2532.090918
995.131337	2535.365148
995.426859	2532.360620
995.722345	2531.566638
996.017795	2534.712318
996.313208	2537.472350
996.608586	2533.169725
996.903928	2535.397915
997.199234	2536.728780
997.494504	2533.837678
997.789738	2533.293234
998.084936	2534.631660
998.380099	2533.661238
998.675225	2531.458254
998.970316	2531.327184
999.265371	2530.626463
999.560390	2531.488501
999.855373	2534.261135
1000.150320	2531.652338
1000.445232	2532.350538
1000.740108	2533.136958
1001.034948	2532.577390
1001.329752	2531.198634
1001.624521	2531.508665
1001.919254	2525.912984
1002.213951	2527.619415
1002.508613	2528.569672
1002.803239	2532.171577
1003.097829	2524.388035
1003.392384	2532.584952
1003.686903	2530.994468
1003.981386	2531.846422
1004.275834	2531.342307
1004.570246	2530.588655
1004.864623	2530.911288
1005.158964	2529.938346
1005.453270	2532.874818
1005.747540	2531.334745
1006.041775	2531.430527
1006.335974	2532.605116
1006.630138	2531.150743
1006.924266	2529.383819
1007.218359	2528.123530
1007.512416	2532.713501
1007.806438	2529.986237
1008.100425	2530.316432
1008.394376	2528.909950
1008.688292	2531.047400
1008.982172	2528.153777
1009.276017	2530.581093
1009.569827	2530.245856
1009.863602	2531.735517
1010.157341	2528.821730
1010.451045	2531.634694
1010.744714	2529.572862
1011.038347	2530.097142
1011.331945	2530.097142
1011.625508	2530.661751
1011.919036	2528.262162
1012.212528	2534.384643
1012.505986	2530.780218
1012.799408	2529.688809
1013.092795	2528.221833
1013.386147	2530.376926
1013.679464	2531.778367
1013.972745	2529.706453
1014.265992	2530.596216
1014.559204	2529.267872
1014.852380	2530.913809
1015.145521	2529.920702
1015.438628	2531.899355
1015.731699	2529.179652
1016.024736	2529.686288
1016.317737	2527.632018
1016.610703	2531.783408
1016.903635	2529.073788
1017.196531	2526.651513
1017.489393	2529.257790
1017.782219	2524.478776
1018.075011	2528.118489
1018.367768	2528.098325
1018.660490	2529.613191
1018.953177	2529.613191
1019.245829	2529.613191
