Dividing Wavelength (nm)	Counts (n)	Blue Motor Position (mm): 0.000000	Red Motor Position (mm): 38.900000	
326.493990	2125.811727
326.888308	2125.811727
327.282561	2125.811727
327.676750	2095.073292
328.070874	2092.628332
328.464933	2097.175453
328.858929	2103.048397
329.252859	2113.733123
329.646726	2123.220574
330.040528	2136.251957
330.434265	2153.550676
330.827938	2171.834941
331.221547	2189.824299
331.615091	2209.177288
332.008571	2228.253014
332.401986	2247.424523
332.795338	2266.412028
333.188625	2286.866510
333.581847	2305.891825
333.975006	2323.188024
334.368100	2339.909531
334.761129	2358.922243
335.154095	2375.757176
335.546996	2395.276524
335.939833	2416.623290
336.332606	2431.174580
336.725315	2442.428956
337.117960	2453.632921
337.510540	2461.983592
337.903056	2473.101857
338.295508	2479.151241
338.687896	2488.956286
339.080220	2496.064313
339.472480	2503.182422
339.864676	2508.871364
340.256807	2514.041067
340.648875	2514.545183
341.040879	2518.938548
341.432818	2520.186234
341.824694	2515.883609
342.216506	2522.729496
342.608253	2523.765453
342.999937	2520.506347
343.391557	2522.832839
343.783113	2521.590195
344.174605	2519.079700
344.566033	2518.323527
344.957397	2517.098527
345.348697	2513.874709
345.739934	2513.960409
346.131106	2511.712054
346.522215	2510.366066
346.913260	2507.222907
347.304241	2506.892711
347.695159	2504.490601
348.086012	2504.283914
348.476802	2498.610095
348.867528	2500.321567
349.258191	2499.041114
349.648789	2495.971051
350.039324	2495.270331
350.429796	2496.654127
350.820203	2494.614981
351.210548	2491.116420
351.600828	2492.139774
351.991045	2493.876452
352.381198	2488.048878
352.771288	2489.921667
353.161314	2492.601040
353.551276	2490.950062
353.941175	2488.447129
354.331010	2488.124495
354.720782	2489.737664
355.110490	2490.899650
355.500135	2491.093735
355.889717	2489.543580
356.279235	2488.618528
356.668689	2493.097593
357.058080	2491.615494
357.447408	2490.022490
357.836672	2489.714979
358.225873	2489.667088
358.615010	2489.896461
359.004084	2494.446102
359.393095	2494.458705
359.782043	2495.235043
360.170927	2494.627584
360.559748	2497.743017
360.948505	2496.291164
361.337199	2499.358707
361.725830	2497.523727
362.114398	2499.018429
362.502903	2501.140754
362.891344	2501.521362
363.279722	2502.809376
363.668037	2499.089005
364.056289	2501.788543
364.444478	2502.834582
364.832603	2499.149499
365.220665	2503.525220
365.608665	2502.373317
365.996601	2505.395488
366.384474	2507.963956
366.772284	2508.919255
367.160031	2510.691220
367.547715	2512.130470
367.935336	2512.473268
368.322893	2516.518794
368.710388	2516.140708
369.097820	2525.635721
369.485189	2527.410207
369.872495	2536.852288
370.259738	2542.397557
370.646918	2548.736808
371.034035	2556.764846
371.421090	2565.589386
371.808081	2577.688155
372.195010	2585.138980
372.581875	2601.114397
372.968678	2611.468927
373.355418	2623.058540
373.742096	2639.399440
374.128710	2652.440905
374.515262	2668.751558
374.901751	2685.188240
375.288177	2700.432689
375.674540	2721.207284
376.060841	2736.693709
376.447079	2757.364960
376.833254	2779.661984
377.219367	2790.301339
377.605417	2828.954386
377.991404	2840.803618
378.377329	2857.494879
378.763191	2878.952550
379.148991	2917.227511
379.534727	2939.769030
379.920402	2969.065696
380.306013	2980.975422
380.691563	3031.490304
381.077049	3053.134498
381.462474	3071.706108
381.847835	3108.123404
382.233134	3130.705252
382.618371	3129.918833
383.003545	3198.647403
383.388657	3203.547405
383.773706	3237.489494
384.158693	3254.994901
384.543618	3281.745783
384.928480	3314.858603
385.313280	3364.554297
385.698017	3361.068339
386.082692	3415.543048
386.467305	3419.260899
386.851856	3452.474541
387.236344	3475.623519
387.620770	3507.261801
388.005133	3532.137374
388.389435	3558.185016
388.773674	3568.423600
389.157851	3614.877832
389.541965	3631.473311
389.926018	3592.558124
390.310008	3664.427334
390.693936	3683.654294
391.077802	3726.599884
391.461606	3717.805591
391.845348	3776.663583
392.229027	3777.001340
392.612645	3789.069863
392.996200	3867.139692
393.379694	3904.426586
393.763125	3972.414107
394.146494	3938.225002
394.529801	3999.013756
394.913047	4050.632650
395.296230	4012.294675
395.679351	4070.923295
396.062410	4091.473558
396.445408	4075.780446
396.828343	4108.840333
397.211217	4131.091986
397.594028	4052.034091
397.976778	4114.846868
398.359466	4144.435921
398.742092	4172.961290
399.124656	4091.743260
399.507158	4175.000436
399.889598	4200.690156
400.271977	4262.587964
400.654294	4233.944128
401.036549	4240.994181
401.418742	4209.275241
401.800874	4314.284997
402.182944	4334.850384
402.564952	4399.823295
402.946898	4385.718147
403.328783	4385.219072
403.710606	4296.283036
404.092367	4490.899301
404.474067	4453.705668
404.855705	4461.106082
405.237282	4390.998755
405.618797	4499.794417
406.000250	4531.546124
406.381642	4614.987303
406.762972	4574.428700
407.144240	4583.714505
407.525447	4585.932613
407.906593	4645.498887
408.287677	4686.465823
408.668700	4616.628198
409.049661	4671.362526
409.430560	4708.145305
409.811399	4635.444305
410.192176	4798.714675
410.572891	4736.012804
410.953545	4839.827806
411.334138	4721.186770
411.714669	4788.982728
412.095139	4681.951470
412.475547	4826.206608
412.855894	4808.723886
413.236180	4816.341070
413.616405	4764.243265
413.996568	4853.065876
414.376670	4797.736692
414.756711	4755.506946
415.136691	4782.981234
415.516609	4860.960322
415.896466	4899.167228
416.276262	4933.308442
416.655997	4912.707767
417.035670	5097.307259
417.415283	5186.916289
417.794834	5131.035099
418.174324	5082.932409
418.553753	4992.544520
418.933121	5177.295247
419.312428	5246.071709
419.691674	5182.800187
420.070859	5308.559331
420.449983	5219.265373
420.829045	5337.666954
421.208047	5242.109362
421.586988	5316.262214
421.965867	5325.059028
422.344686	5456.675993
422.723444	5312.556966
423.102141	5132.555007
423.480777	5431.215646
423.859352	5199.438515
424.237866	5453.739521
424.616319	5445.958500
424.994712	5558.492177
425.373044	5439.271409
425.751314	5579.496145
426.129524	5383.387698
426.507673	5578.084622
426.885762	5663.166696
427.263789	5590.445531
427.641756	5471.852387
428.019662	5595.426191
428.397508	5602.025061
428.775292	5551.416918
429.153016	5646.165404
429.530679	5575.584209
429.908282	5657.576056
430.285824	5529.974370
430.663305	5801.037212
431.040726	5536.069125
431.418086	5543.829981
431.795385	5641.361185
432.172624	5659.980687
432.549802	5647.445857
432.926920	5660.724257
433.303977	5673.201112
433.680974	5707.165887
434.057910	5730.498867
434.434786	5728.061469
434.811601	5702.966605
435.188355	5936.893788
435.565050	5810.754036
435.941683	5797.195853
436.318257	6010.494634
436.694770	5992.394371
437.071222	6025.403847
437.447614	5954.696623
437.823946	5870.786617
438.200218	6020.697929
438.576429	5887.515686
438.952580	5986.070244
439.328670	6031.609507
439.704700	5941.309839
440.080670	5929.200987
440.456580	6197.125711
440.832429	6081.320325
441.208218	5926.400626
441.583947	6084.614719
441.959616	6084.120686
442.335224	6011.444892
442.710773	6149.257435
443.086261	6176.814902
443.461689	5970.147759
443.837057	6117.064626
444.212365	6271.759994
444.587612	6166.228479
444.962800	6320.374361
445.337927	6301.044057
445.712995	5913.165077
446.088002	6487.108004
446.462949	6317.379916
446.837837	6251.194607
447.212664	6425.129538
447.587431	6563.317647
447.962139	7104.740091
448.336786	8030.845423
448.711374	7775.707585
449.085901	6847.830288
449.460369	6768.517814
449.834776	6699.363266
450.209124	7096.560819
450.583412	7248.115547
450.957640	7393.557877
451.331808	7157.528533
451.705917	6710.456325
452.079965	6629.989427
452.453954	6849.072932
452.827883	6721.587193
453.201752	6812.706048
453.575562	6611.821109
453.949311	6814.800648
454.323001	6702.191353
454.696632	6782.471728
455.070202	6920.606905
455.443713	7076.255051
455.817164	7172.659557
456.190556	7255.982268
456.563888	7331.755851
456.937160	7378.230249
457.310373	7027.955756
457.683526	7056.453399
458.056619	6944.196985
458.429653	6933.340860
458.802628	6871.049842
459.175542	6982.086297
459.548398	7331.909607
459.921194	7493.100501
460.293930	7501.065524
460.666607	8027.112448
461.039224	8338.093667
461.411782	8468.261301
461.784280	8485.996080
462.156719	8373.913586
462.529099	8254.004701
462.901419	7841.779468
463.273680	7732.653611
463.645882	7743.040908
464.018024	7614.433512
464.390106	7781.225128
464.762130	8164.587234
465.134094	8633.507803
465.505999	9652.342640
465.877845	10878.356296
466.249631	11531.347036
466.621358	11145.237501
466.993026	10509.479946
467.364634	10256.857644
467.736184	9894.428930
468.107674	9565.682684
468.479105	9591.569009
468.850477	9357.755253
469.221790	9130.527764
469.593043	8807.828383
469.964238	8666.945777
470.335373	8672.087754
470.706449	8737.390861
471.077467	8711.610400
471.448425	10024.737715
471.819324	11097.674215
472.190164	11125.256888
472.560945	9879.002999
472.931667	9083.221576
473.302330	8949.530176
473.672934	8598.945653
474.043479	8957.711969
474.413965	8886.755208
474.784393	8770.758258
475.154761	8931.780273
475.525070	9017.157255
475.895321	8850.957974
476.265513	9024.081280
476.635645	9186.502216
477.005719	9189.869706
477.375734	9309.763468
477.745691	9539.100680
478.115588	9673.424745
478.485427	9918.487836
478.855207	10455.622779
479.224928	11266.389031
479.594591	11896.737429
479.964194	11709.869417
480.333739	11650.431693
480.703226	11569.967316
481.072653	11659.208342
481.442022	11897.849003
481.811333	12082.498907
482.180584	11890.055379
482.549777	11598.674166
482.918912	11419.851837
483.287988	11448.359562
483.657005	11456.972373
484.025964	11130.630758
484.394864	11267.006573
484.763706	11239.063457
485.132489	10999.525470
485.501213	10960.542227
485.869879	11036.769515
486.238487	10875.923939
486.607036	10979.749023
486.975527	10763.564182
487.343959	10956.957967
487.712333	11007.848415
488.080648	10935.217991
488.448905	10973.137550
488.817104	10916.404405
489.185244	11178.670434
489.553326	11332.924700
489.921350	11871.249355
490.289315	12940.881378
490.657222	13281.738995
491.025070	13187.197196
491.392861	13064.266139
491.760593	12684.516020
492.128267	12335.043070
492.495883	12005.772545
492.863440	11666.207984
493.230939	11328.370018
493.598380	11268.740729
493.965763	11141.310442
494.333088	11035.547035
494.700354	10962.301590
495.067563	11021.797288
495.434713	10846.382778
495.801805	10970.775770
496.168839	10902.158104
496.535815	10833.991622
496.902733	10829.136991
497.269593	10767.793710
497.636395	10866.686025
498.003139	10846.914620
498.369825	10718.632378
498.736453	10875.553415
499.103023	10808.047323
499.469535	10838.841212
499.835989	10821.786988
500.202385	10787.194591
500.568723	10635.208843
500.935003	10853.967194
501.301226	10660.724643
501.667390	10922.027812
502.033497	11017.756803
502.399546	10873.534433
502.765537	10783.645618
503.131470	10859.893070
503.497345	11032.504698
503.863163	10645.586058
504.228923	10955.715322
504.594625	11025.426918
504.960269	10770.992322
505.325856	10987.061217
505.691385	10779.365679
506.056856	10937.849473
506.422270	10961.157248
506.787625	10850.014929
507.152924	10966.480707
507.518164	10945.854826
507.883347	10872.017045
508.248472	10782.254260
508.613540	11019.871567
508.978550	10899.718186
509.343503	10872.405214
509.708398	10998.610501
510.073236	11109.374733
510.438016	11114.274734
510.802738	11063.611138
511.167403	11108.726945
511.532010	11006.762046
511.896561	11237.268806
512.261053	11309.314456
512.625488	11172.396718
512.989866	11162.221149
513.354186	11157.520273
513.718449	11051.421628
514.082655	11248.921433
514.446803	11146.941411
514.810894	11263.392065
515.174927	11139.641821
515.538904	11160.764255
515.902822	11306.433437
516.266684	11193.531755
516.630488	11135.583692
516.994235	11193.221724
517.357925	11247.580486
517.721558	11341.272851
518.085133	11354.790705
518.448651	11368.517767
518.812112	11246.153840
519.175516	11272.642583
519.538863	11385.551826
519.902152	11306.698097
520.265385	11461.174175
520.628560	11371.499609
520.991678	11349.956238
521.354739	11408.428582
521.717743	11346.944149
522.080690	11323.719553
522.443580	11460.843979
522.806413	11415.435786
523.169189	11443.512492
523.531908	11496.467293
523.894569	11323.732156
524.257174	11327.623927
524.619722	11439.930752
524.982213	11394.774617
525.344647	11442.695825
525.707025	11389.947712
526.069345	11482.427679
526.431608	11401.381049
526.793815	11509.758295
527.155964	11305.828498
527.518057	11351.786177
527.880093	11295.652929
528.242072	11371.514733
528.603995	11278.550815
528.965860	11193.998062
529.327669	11249.818758
529.689421	11199.407220
530.051117	11164.545121
530.412755	11271.447829
530.774337	11158.762917
531.135862	11143.460495
531.497331	11162.765593
531.858743	11013.751606
532.220098	11180.202944
532.581396	11056.717360
532.942638	11044.394260
533.303824	10996.634368
533.664953	11012.703046
534.026025	10921.309448
534.387040	11023.770899
534.747999	11028.650736
535.108902	11082.525548
535.469748	10844.197438
535.830537	10947.780546
536.191270	10927.421847
536.551947	10944.972624
536.912567	10945.534712
537.273131	10868.397497
537.633638	10838.831129
537.994089	10836.169400
538.354483	10786.549323
538.714821	10926.189284
539.075103	10929.965109
539.435328	10897.633668
539.795497	10724.381814
540.155609	10881.222192
540.515665	10972.925822
540.875665	10700.884996
541.235609	10771.700604
541.595496	10764.779100
541.955328	10922.476475
542.315102	10803.827878
542.674821	10754.215362
543.034483	10758.870868
543.394090	10759.538821
543.753640	10686.570639
544.113134	10909.775288
544.472571	10759.911866
544.831953	10902.475697
545.191278	10711.244567
545.550548	10737.763557
545.909761	10872.894206
546.268918	10843.426141
546.628019	10924.573595
546.987064	10787.308017
547.346053	10706.687364
547.704986	10812.438168
548.063863	10793.911928
548.422684	10781.326687
548.781449	10694.535662
549.140158	10798.688421
549.498811	10671.732003
549.857408	10527.867554
550.215949	10749.590103
550.574434	10598.680642
550.932864	10695.352329
551.291237	10745.226985
551.649555	10696.242093
552.007817	10707.635101
552.366022	10668.064563
552.724173	10662.143728
553.082267	10643.131017
553.440305	10774.813517
553.798288	10579.436038
554.156215	10723.403830
554.514086	10689.045846
554.871902	10543.666531
555.229661	10578.077447
555.587365	10550.777078
555.945014	10450.579104
556.302606	10563.022041
556.660143	10460.454725
557.017625	10607.870666
557.375050	10503.798565
557.732421	10626.709458
558.089735	10540.233505
558.446994	10538.446416
558.804197	10563.639582
559.161345	10559.873840
559.518437	10407.789790
559.875474	10485.602521
560.232455	10511.761068
560.589381	10463.005548
560.946251	10451.725967
561.303065	10548.248939
561.659825	10474.179266
562.016528	10404.036651
562.373177	10283.653898
562.729770	10387.869671
563.086307	10293.940372
563.442789	10383.168795
563.799216	10253.396892
564.155587	10298.086721
564.511904	10237.050951
564.868164	10221.713240
565.224370	10232.171114
565.580520	10145.924533
565.936615	10145.301951
566.292654	10013.516107
566.648638	10129.392069
567.004567	10072.946270
567.360441	10051.077744
567.716260	9952.008989
568.072023	10041.872597
568.427732	9974.064037
568.783385	9882.955263
569.138982	9940.464747
569.494525	9947.913051
569.850013	9820.132404
570.205445	9874.828923
570.560823	9772.291854
570.916145	9677.868522
571.271412	9733.275844
571.626625	9667.718159
571.981782	9637.635073
572.336884	9590.623793
572.691931	9594.344165
573.046923	9523.745326
573.401860	9467.894382
573.756743	9389.428822
574.111570	9418.276825
574.466342	9384.543944
574.821059	9402.775277
575.175722	9286.737998
575.530330	9286.949727
575.884882	9260.478628
576.239380	9175.489815
576.593823	9140.080750
576.948211	9140.272314
577.302544	9025.190334
577.656823	9014.586267
578.011047	8998.893155
578.365216	8954.765414
578.719330	8866.192341
579.073389	8860.556331
579.427394	8798.174573
579.781344	8756.801823
580.135239	8699.229326
580.489080	8686.034106
580.842866	8576.187363
581.196597	8564.912823
581.550273	8581.115091
581.903895	8526.272379
582.257463	8573.071930
582.610975	8435.067823
582.964434	8442.465717
583.317837	8353.093621
583.671186	8317.974422
584.024481	8293.766802
584.377721	8201.654838
584.730906	8162.112028
585.084037	8166.238212
585.437113	8098.538037
585.790135	8092.186183
586.143103	7986.382446
586.496016	7945.274357
586.848874	7966.532902
587.201679	7939.250178
587.554428	7814.436250
587.907124	7833.675813
588.259765	7794.601830
588.612352	7765.055627
588.964884	7644.496433
589.317362	7629.244422
589.669786	7605.898839
590.022155	7629.269628
590.374470	7617.909388
590.726731	7549.760549
591.078937	7398.289000
591.431090	7462.936757
591.783188	7344.880495
592.135232	7309.216852
592.487222	7296.485418
592.839157	7306.630741
593.191038	7239.006182
593.542866	7176.631986
593.894639	7066.802887
594.246358	7085.969354
594.598022	7077.011224
594.949633	6972.291335
595.301190	6937.086437
595.652692	6933.968484
596.004141	6983.321380
596.355535	6809.895605
596.706876	6772.896057
597.058162	6692.472009
597.409395	6722.582821
597.760573	6752.018118
598.111698	6668.743298
598.462768	6624.303006
598.813785	6589.685402
599.164748	6533.549634
599.515657	6510.340161
599.866511	6418.981851
600.217312	6494.818449
600.568060	6371.254727
600.918753	6420.174084
601.269392	6378.672785
601.619978	6290.084588
601.970510	6308.598226
602.320988	6286.906141
602.671412	6294.369569
603.021783	6230.586370
603.372100	6195.189908
603.722363	6167.115722
604.072572	6129.707840
604.422728	6114.302074
604.772830	6042.563934
605.122878	6021.582652
605.472872	6003.966340
605.822813	5991.980997
606.172701	5936.808088
606.522534	5958.333815
606.872314	5938.181803
607.222041	5895.536162
607.571714	5902.853397
607.921333	5853.571077
608.270899	5826.938661
608.620411	5857.873701
608.969870	5778.082318
609.319276	5750.754223
609.668627	5731.318055
610.017926	5733.820987
610.367171	5732.230503
610.716362	5696.639957
611.065500	5661.924051
611.414585	5647.821423
611.763616	5626.845182
612.112594	5595.693372
612.461518	5574.679322
612.810389	5583.897072
613.159207	5522.563874
613.507971	5477.450588
613.856682	5507.936966
614.205340	5464.348629
614.553945	5480.792873
614.902496	5406.254372
615.250994	5407.386111
615.599439	5374.449733
615.947830	5355.517679
616.296169	5325.195139
616.644454	5307.712417
616.992686	5280.354076
617.340864	5284.059324
617.688990	5214.015012
618.037063	5239.651799
618.385082	5191.884346
618.733048	5203.620152
619.080961	5159.852855
619.428821	5143.509434
619.776628	5114.053972
620.124382	5077.450154
620.472083	5039.245769
620.819731	5032.364594
621.167326	4961.125529
621.514868	4946.143220
621.862357	4875.652765
622.209793	4862.787741
622.557176	4812.141789
622.904506	4772.805665
623.251783	4728.713213
623.599007	4686.037325
623.946179	4665.330786
624.293297	4630.877020
624.640363	4585.862037
624.987376	4551.047828
625.334336	4513.322353
625.681243	4475.012105
626.028097	4444.011529
626.374899	4423.158796
626.721647	4391.311307
627.068343	4355.440977
627.414987	4325.259588
627.761577	4290.309269
628.108115	4287.438332
628.454600	4229.918766
628.801032	4226.125298
629.147412	4200.690156
629.493739	4171.234694
629.840014	4137.360661
630.186236	4144.350221
630.532405	4083.856375
630.878521	4088.179164
631.224585	4059.494999
631.570597	4019.450593
631.916556	4013.602855
632.262462	3998.852439
632.608316	3969.485197
632.954117	3946.563070
633.299866	3929.307201
633.645562	3906.957245
633.991206	3868.740258
634.336797	3836.754137
634.682336	3809.294972
635.027823	3781.586270
635.373257	3764.090945
635.718639	3725.566447
636.063968	3718.624779
636.409245	3678.116587
636.754470	3657.780572
637.099642	3634.445071
637.444762	3606.093622
637.789829	3593.284050
638.134845	3570.135072
638.479808	3550.958522
638.824719	3543.958880
639.169577	3510.538551
639.514383	3503.765761
639.859137	3474.017912
640.203839	3467.454329
640.548489	3447.461113
640.893086	3431.515944
641.237632	3412.767893
641.582125	3404.812952
641.926566	3386.543810
642.270955	3381.777399
642.615292	3370.200389
642.959576	3362.666385
643.303809	3348.576360
643.647990	3339.535051
643.992118	3332.961386
644.336195	3313.583191
644.680219	3302.689257
645.024192	3296.057619
645.368112	3306.139927
645.711981	3300.750933
646.055797	3311.090340
646.399562	3294.673822
646.743274	3309.951039
647.086935	3317.338850
647.430544	3305.902993
647.774101	3297.794297
648.117606	3292.004532
648.461059	3283.177471
648.804460	3261.571086
649.147810	3238.427148
649.491108	3219.472410
649.834354	3205.858774
650.177548	3178.911286
650.520690	3155.296001
650.863781	3144.399547
651.206820	3139.504587
651.549807	3115.617079
651.892742	3099.636621
652.235626	3092.722679
652.578458	3083.086513
652.921238	3061.137329
653.263967	3061.081877
653.606644	3046.026471
653.949269	3038.784853
654.291843	3026.038296
654.634365	3024.392359
654.976836	3010.705626
655.319255	3006.536592
655.661622	2996.539984
656.003938	2988.799292
656.346203	2978.674135
656.688416	2971.442600
657.030577	2960.281485
657.372687	2951.729168
657.714746	2943.892694
658.056753	2942.529062
658.398708	2928.635642
658.740612	2922.649272
659.082465	2922.729930
659.424266	2916.279774
659.766016	2909.194432
660.107715	2904.017167
660.449362	2902.923237
660.790958	2895.792524
661.132503	2887.217522
661.473996	2891.600805
661.815438	2884.212994
662.156829	2875.794267
662.498168	2870.987527
662.839456	2863.362782
663.180693	2859.327338
663.521879	2858.740044
663.863013	2854.074456
664.204097	2848.325020
664.545129	2849.638240
664.886110	2845.771675
665.227040	2844.133300
665.567918	2838.590552
665.908746	2835.371775
666.249522	2833.778770
666.590248	2828.367092
666.930922	2825.919612
667.271545	2822.461380
667.612118	2822.295022
667.952639	2817.967191
668.293109	2812.618527
668.633528	2804.280459
668.973896	2799.408183
669.314213	2796.297792
669.654480	2792.153963
669.994695	2786.190278
670.334859	2783.226080
670.674973	2776.493619
671.015035	2776.145779
671.355047	2772.596807
671.695008	2765.942484
672.034918	2762.912750
672.374777	2759.739344
672.714585	2757.594333
673.054342	2756.117275
673.394049	2750.171234
673.733705	2751.421440
674.073310	2749.531007
674.412864	2743.224524
674.752368	2736.786970
675.091820	2734.818400
675.431223	2728.123747
675.770574	2727.286916
676.109875	2715.581357
676.449125	2712.773434
676.788324	2710.918289
677.127473	2706.769420
677.466571	2697.299612
677.805619	2700.415045
678.144616	2696.324149
678.483562	2696.883717
678.822458	2690.617563
679.161303	2689.198478
679.500098	2685.281502
679.838842	2682.082889
680.177535	2680.789833
680.516179	2680.124401
680.854771	2676.998886
681.193314	2680.656243
681.531805	2684.905936
681.870247	2691.245187
682.208638	2694.557225
682.546978	2695.900692
682.885268	2689.523632
683.223508	2681.810667
683.561697	2678.712878
683.899836	2678.097857
684.237925	2674.695078
684.575963	2673.263391
684.913951	2667.362720
685.251889	2671.294820
685.589776	2669.507731
685.927614	2666.541012
686.265401	2667.191321
686.603137	2668.169305
686.940824	2667.639984
687.278460	2671.892197
687.616046	2669.669048
687.953582	2672.471930
688.291068	2671.778771
688.628504	2671.713236
688.965889	2670.241219
689.303224	2668.071002
689.640510	2661.630928
689.977745	2659.077584
690.314930	2651.830925
690.652065	2649.869916
690.989150	2639.686786
691.326185	2639.318781
691.663170	2635.966414
692.000105	2630.358130
692.336990	2627.688839
692.673825	2628.490383
693.010610	2623.930659
693.347345	2619.877572
693.684030	2615.310286
694.020665	2616.154679
694.357251	2607.728391
694.693786	2609.460027
695.030272	2612.751901
695.366707	2609.444904
695.703093	2604.282762
696.039429	2608.885336
696.375716	2608.381220
696.711952	2606.515993
697.048139	2603.569439
697.384276	2602.377206
697.720363	2602.387288
698.056400	2604.098760
698.392388	2600.864860
698.728326	2598.820672
699.064214	2599.798656
699.400053	2600.038111
699.735842	2593.976123
700.071581	2597.409149
700.407270	2593.320773
700.742910	2593.635845
701.078501	2589.996132
701.414042	2588.922366
701.749533	2586.101841
702.084974	2586.936152
702.420366	2588.642582
702.755709	2583.931624
703.091002	2582.431881
703.426246	2586.399269
703.761440	2583.989597
704.096584	2583.929103
704.431679	2582.202508
704.766725	2582.941037
705.101721	2580.314596
705.436668	2579.825604
705.771565	2581.095975
706.106413	2582.116809
706.441212	2580.133115
706.775961	2584.024885
707.110661	2578.802250
707.445311	2583.535893
707.779913	2578.255285
708.114465	2583.659402
708.448967	2583.271233
708.783421	2580.120512
709.117825	2582.283167
709.452180	2582.154617
709.786485	2584.304669
710.120742	2582.600759
710.454949	2586.316090
710.789107	2586.610997
711.123216	2588.791296
711.457275	2585.985894
711.791286	2588.836667
712.125247	2587.745257
712.459159	2587.982191
712.793023	2591.553849
713.126837	2590.608632
713.460602	2588.216605
713.794318	2588.138467
714.127985	2588.047726
714.461602	2585.136460
714.795171	2582.552868
715.128691	2583.195616
715.462162	2581.239648
715.795584	2577.746128
716.128957	2577.587332
716.462281	2579.820563
716.795556	2578.512384
717.128782	2574.930644
717.461960	2576.886612
717.795088	2575.401992
718.128167	2571.399316
718.461198	2570.267577
718.794180	2572.775551
719.127113	2572.987279
719.459997	2570.386044
719.792833	2567.142061
720.125619	2570.534758
720.458357	2568.044428
720.791046	2566.327915
721.123686	2569.735735
721.456278	2568.230950
721.788821	2567.459654
722.121315	2569.027453
722.453761	2568.591393
722.786158	2566.491752
723.118506	2563.535116
723.450805	2567.623491
723.783056	2565.652400
724.115259	2566.683316
724.447412	2567.908317
724.779518	2567.328584
725.111574	2568.029304
725.443582	2570.486867
725.775542	2564.278686
726.107453	2569.208934
726.439315	2567.933522
726.771129	2571.868143
727.102895	2570.854871
727.434612	2572.659604
727.766281	2572.785633
728.097901	2568.455282
728.429473	2563.928326
728.760996	2569.309757
729.092471	2563.247770
729.423897	2570.320509
729.755276	2568.546022
730.086606	2572.636919
730.417887	2572.906621
730.749120	2570.539799
731.080305	2573.279666
731.411442	2571.091805
731.742530	2571.348904
732.073570	2573.037691
732.404562	2571.084243
732.735506	2573.461147
733.066401	2573.534244
733.397249	2570.323029
733.728048	2571.117011
734.058798	2568.566187
734.389501	2566.887483
734.720156	2565.581824
735.050762	2565.307081
735.381320	2562.564693
735.711831	2562.393294
736.042293	2566.579972
736.372707	2561.803479
736.703073	2564.339180
737.033391	2563.761968
737.363661	2565.012174
737.693883	2564.122410
738.024056	2566.670713
738.354182	2564.750034
738.684260	2565.110476
739.014290	2564.008984
739.344272	2566.804304
739.674207	2565.017215
740.004093	2564.843295
740.333931	2564.956721
740.663722	2569.602144
740.993464	2563.830023
741.323159	2566.766495
741.652806	2565.491083
741.982405	2565.881773
742.311956	2563.479663
742.641460	2564.820610
742.970915	2561.932029
743.300323	2564.578634
743.629683	2564.787842
743.958996	2560.205433
744.288260	2559.222408
744.617477	2558.473797
744.946647	2556.202757
745.275768	2558.430947
745.604842	2553.833415
745.933869	2554.463559
746.262847	2554.851728
746.591778	2561.216185
746.920662	2557.158056
747.249498	2559.063612
747.578286	2557.188303
747.907027	2560.722152
748.235720	2558.375495
748.564365	2559.131668
748.892963	2557.737789
749.221514	2561.001936
749.550017	2558.521688
749.878473	2557.276523
750.206881	2557.561348
750.535242	2558.536812
750.863555	2558.020093
751.191821	2558.468756
751.520039	2558.307439
751.848210	2558.665361
752.176334	2557.473128
752.504411	2559.197203
752.832440	2555.252500
753.160421	2555.703683
753.488356	2555.859959
753.816243	2557.374826
754.144082	2556.139743
754.471875	2556.517829
754.799620	2557.347099
755.127318	2557.286605
755.454969	2555.933056
755.782572	2558.735937
756.110129	2555.522202
756.437638	2556.595967
756.765100	2556.202757
757.092515	2556.280895
757.419882	2555.227294
757.747203	2556.590926
758.074477	2554.365257
758.401703	2558.375495
758.728882	2557.203426
759.056014	2557.543704
759.383099	2555.469269
759.710138	2555.630586
760.037129	2557.644527
760.364073	2559.691236
760.690970	2560.674261
761.017820	2557.483210
761.344623	2556.724517
761.671379	2560.666699
761.998088	2558.897254
762.324751	2562.138716
762.651366	2564.077040
762.977935	2579.076993
763.304456	2582.441963
763.630931	2584.657550
763.957359	2580.271746
764.283740	2576.692527
764.610074	2570.622978
764.936362	2565.317163
765.262602	2563.890517
765.588796	2561.004456
765.914943	2558.125957
766.241044	2555.655792
766.567097	2557.243756
766.893104	2552.779814
767.219064	2554.594629
767.544978	2553.820812
767.870845	2556.180072
768.196665	2555.769218
768.522438	2554.576985
768.848165	2552.747046
769.173846	2549.893753
769.499479	2551.070863
769.825066	2551.365770
770.150607	2550.712941
770.476101	2552.736964
770.801548	2552.394166
771.126949	2551.146480
771.452303	2553.170503
771.777611	2549.366953
772.102872	2548.527601
772.428087	2547.393341
772.753256	2551.317879
773.078378	2549.097251
773.403453	2552.374001
773.728482	2547.713454
774.053465	2547.852086
774.378401	2545.886036
774.703291	2548.051212
775.028135	2548.068856
775.352932	2544.421581
775.677683	2549.674463
776.002388	2547.829401
776.327046	2549.273691
776.651658	2547.786551
776.976224	2549.009031
777.300743	2548.895605
777.625216	2545.865871
777.949643	2546.301931
778.274024	2547.305121
778.598359	2543.357897
778.922647	2544.736653
779.246889	2544.091385
779.571086	2542.420243
779.895236	2545.323947
780.219339	2546.004503
780.543397	2548.595656
780.867409	2545.535676
781.191374	2548.187323
781.515294	2548.323434
781.839167	2545.676828
782.162995	2545.288659
782.486776	2545.185316
782.810511	2546.004503
783.134201	2546.924514
783.457844	2547.448794
783.781441	2544.469472
784.104993	2546.483413
784.428498	2546.080120
784.751958	2546.029709
785.075372	2546.115408
785.398739	2546.531304
785.722061	2546.929555
786.045337	2547.882333
786.368568	2546.264122
786.691752	2546.765717
787.014891	2547.358053
787.337983	2545.553320
787.661030	2547.542055
787.984031	2548.096582
788.306987	2555.330638
788.629897	2550.591953
788.952760	2552.215205
789.275579	2549.835780
789.598351	2550.251675
789.921078	2550.793599
790.243759	2548.457024
790.566395	2547.335368
790.888984	2548.719164
791.211529	2547.100954
791.534027	2546.712785
791.856480	2547.902497
792.178888	2545.565923
792.501249	2543.642723
792.823566	2546.385110
793.145836	2545.644061
793.468062	2545.979297
793.790241	2546.254040
794.112375	2546.332178
794.434464	2545.918803
794.756507	2546.997610
795.078505	2543.163813
795.400457	2544.943340
795.722364	2544.683721
796.044226	2540.691127
796.366042	2544.734132
796.687812	2546.990049
797.009538	2549.180430
797.331218	2548.613300
797.652852	2548.436860
797.974442	2549.949206
798.295986	2546.674977
798.617484	2548.401572
798.938938	2547.940306
799.260346	2546.339740
799.581709	2547.022816
799.903026	2548.741850
800.224299	2545.780172
800.545526	2545.573484
800.866708	2546.100285
801.187845	2548.562889
801.508936	2544.073741
801.829983	2545.281097
802.150984	2545.543238
802.471940	2543.869574
802.792851	2544.638350
803.113717	2543.693134
803.434538	2545.729760
803.755314	2544.817311
804.076045	2544.774462
804.396731	2545.114739
804.717372	2546.427960
805.037967	2544.182126
805.358518	2549.329144
805.679024	2547.607590
805.999485	2544.625747
806.319901	2543.804039
806.640272	2543.950233
806.960598	2542.410160
807.280879	2544.971067
807.601115	2546.460728
807.921306	2543.821683
808.241453	2543.161292
808.561554	2546.017106
808.881611	2544.686241
809.201623	2543.362938
809.521590	2545.649102
809.841513	2544.182126
810.161390	2542.934440
810.481223	2544.255223
810.801011	2544.827394
811.120755	2546.858979
811.440453	2544.048535
811.760107	2543.436035
812.079716	2540.466796
812.399281	2537.641229
812.718801	2541.442259
813.038276	2539.461085
813.357707	2542.208514
813.677093	2543.229348
813.996434	2544.978628
814.315731	2546.672456
814.634983	2543.574667
814.954191	2542.873947
815.273354	2543.862013
815.592473	2544.224976
815.911547	2545.200439
816.230577	2547.058104
816.549562	2543.897301
816.868502	2546.705223
817.187399	2548.333516
817.506250	2544.913093
817.825058	2547.436191
818.143821	2548.341078
818.462539	2550.430636
818.781213	2550.128167
819.099843	2550.339895
819.418429	2552.457180
819.736970	2556.643858
820.055466	2557.168138
820.373919	2563.416648
820.692327	2566.413614
821.010691	2574.575242
821.329011	2593.756833
821.647286	2631.167236
821.965517	2671.526713
822.283704	2701.995447
822.601847	2705.859492
822.919945	2687.814681
823.237999	2660.665547
823.556010	2638.993627
823.873976	2622.446039
824.191897	2603.181270
824.509775	2593.156936
824.827609	2585.542273
825.145398	2580.236458
825.463144	2577.635223
825.780845	2580.213773
826.098502	2582.000862
826.416116	2594.066864
826.733685	2607.403236
827.051210	2611.652929
827.368692	2608.585387
827.686129	2593.920670
828.003522	2581.388362
828.320872	2569.085426
828.638177	2565.055023
828.955439	2558.083108
829.272656	2555.890206
829.589830	2548.905687
829.906960	2550.919628
830.224046	2549.747560
830.541088	2551.075904
830.858086	2547.113557
831.175041	2549.855945
831.491952	2548.628424
831.808819	2547.095913
832.125642	2548.653629
832.442421	2553.384752
832.759157	2556.394321
833.075849	2563.497307
833.392497	2572.241188
833.709101	2580.483475
834.025662	2580.748135
834.342179	2574.905438
834.658653	2565.486042
834.975083	2562.642831
835.291469	2563.782132
835.607811	2554.589588
835.924110	2550.476007
836.240366	2548.996428
836.556578	2547.640357
836.872746	2548.782179
837.188871	2542.377393
837.504952	2546.470810
837.820990	2544.144317
838.136984	2540.991076
838.452935	2543.798998
838.768842	2544.182126
839.084706	2545.245809
839.400526	2545.472661
839.716303	2551.511964
840.032037	2555.756615
840.347727	2557.279044
840.663373	2554.234187
840.978977	2549.573640
841.294537	2547.937786
841.610054	2543.297403
841.925527	2544.691282
842.240957	2541.031405
842.556344	2543.557023
842.871687	2541.616179
843.186987	2539.698020
843.502244	2537.744573
843.817458	2538.896476
844.132629	2541.694317
844.447756	2542.818494
844.762840	2534.863553
845.077881	2536.713657
845.392879	2535.992772
845.707833	2537.673996
846.022745	2534.445137
846.337613	2538.049562
846.652438	2537.535365
846.967221	2538.432690
847.281960	2537.641229
847.596656	2540.726415
847.911309	2535.869263
848.225919	2538.815818
848.540485	2540.587783
848.855009	2537.558050
849.169490	2536.990920
849.483928	2537.835313
849.798323	2538.286497
850.112675	2540.920499
850.426984	2537.162319
850.741251	2540.063503
851.055474	2537.908410
851.369654	2541.601055
851.683792	2537.414377
851.997887	2537.535365
852.311938	2538.578883
852.625947	2538.742721
852.939914	2538.846065
853.253837	2540.469316
853.567718	2537.789943
853.881555	2537.268183
854.195350	2534.611495
854.509103	2540.681045
854.822812	2537.442103
855.136479	2536.083512
855.450103	2534.820703
855.763685	2537.868081
856.077224	2538.321785
856.390720	2537.187525
856.704173	2539.176260
857.017584	2537.013605
857.330953	2536.534696
857.644278	2539.393030
857.957561	2539.655170
858.270802	2539.614841
858.584000	2535.682741
858.897155	2537.797505
859.210268	2536.020498
859.523339	2537.905889
859.836367	2537.691640
860.149352	2536.935467
860.462295	2540.907897
860.775195	2533.351207
861.088054	2536.466640
861.400869	2536.721218
861.713642	2535.975128
862.026373	2539.713143
862.339062	2537.200128
862.651708	2535.995292
862.964312	2537.641229
863.276873	2537.331198
863.589392	2536.842206
863.901869	2538.304141
864.214303	2538.853626
864.526696	2540.882691
864.839045	2539.592155
865.151353	2540.045859
865.463619	2540.267670
865.775842	2540.476878
866.088023	2539.319933
866.400162	2541.366642
866.712258	2539.118287
867.024313	2538.374717
867.336325	2538.914120
867.648296	2539.788760
867.960224	2538.442772
868.272110	2538.929244
868.583954	2538.223482
868.895755	2539.214069
869.207515	2538.886394
869.519233	2541.588452
869.830909	2540.766744
870.142542	2540.413863
870.454134	2539.924872
870.765684	2539.972762
871.077191	2541.064172
871.388657	2540.723894
871.700081	2541.112063
872.011463	2540.849923
872.322803	2542.354708
872.634101	2540.713812
872.945357	2541.366642
873.256571	2539.677855
873.567744	2541.424615
873.878874	2542.982331
874.189963	2541.394368
874.501010	2541.462423
874.812015	2541.964018
875.122979	2539.884542
875.433900	2541.933771
875.744780	2543.065510
876.055618	2542.205994
876.366415	2543.259595
876.677169	2543.287321
876.987882	2539.965201
877.298554	2536.567463
877.609183	2543.491488
877.919771	2539.103163
878.230317	2540.708771
878.540822	2546.342260
878.851285	2550.266799
879.161707	2547.342929
879.472087	2551.373332
879.782425	2553.800647
880.092722	2565.685168
880.402977	2576.201015
880.713191	2592.551997
881.023363	2616.391614
881.333494	2631.631022
881.643583	2633.045065
881.953631	2634.368368
882.263637	2628.560959
882.573602	2619.844804
882.883526	2607.579677
883.193408	2596.012749
883.503248	2589.565113
883.813048	2582.242838
884.122806	2576.339646
884.432522	2570.386044
884.742197	2566.879921
885.051831	2556.633776
885.361424	2558.186451
885.670975	2554.113199
885.980485	2554.145967
886.289954	2552.119423
886.599382	2549.104813
886.908768	2547.171530
887.218113	2548.242775
887.527417	2546.443083
887.836680	2544.519883
888.145901	2546.732950
888.455082	2545.598690
888.764221	2544.340922
889.073319	2543.438556
889.382376	2541.903524
889.691392	2544.270346
890.000366	2542.185829
890.309300	2543.965356
890.618193	2541.538041
890.927044	2539.589635
891.235855	2545.376879
891.544625	2545.744884
891.853353	2545.172713
892.162041	2541.417053
892.470687	2549.117416
892.779293	2545.245809
893.087858	2544.449307
893.396381	2547.363094
893.704864	2551.254865
894.013306	2555.517160
894.321707	2563.729200
894.630068	2572.107598
894.938387	2573.355283
895.246665	2574.953329
895.554903	2568.525858
895.863100	2566.317833
896.171256	2559.056050
896.479371	2558.526729
896.787446	2554.289639
897.095480	2552.149670
897.403473	2548.913249
897.711425	2548.847714
898.019336	2548.610780
898.327207	2545.276056
898.635038	2546.884184
898.942827	2544.414019
899.250576	2546.276725
899.558284	2544.625747
899.865952	2544.857641
900.173579	2542.294214
900.481165	2544.719009
900.788711	2543.471323
901.096216	2542.342105
901.403681	2542.301776
901.711105	2543.804039
902.018489	2540.774306
902.325832	2545.689431
902.633135	2543.095757
902.940397	2545.815460
903.247619	2547.065666
903.554800	2554.463559
903.861941	2565.387740
904.169041	2576.120356
904.476101	2583.961871
904.783121	2587.155442
905.090100	2579.621438
905.397039	2574.171950
905.703938	2565.823799
906.010796	2558.882131
906.317614	2554.705535
906.624391	2549.724875
906.931129	2548.348640
907.237826	2544.398896
907.544483	2541.507794
907.851099	2541.626261
908.157675	2542.125335
908.464211	2540.766744
908.770707	2533.356248
909.077163	2536.396064
909.383578	2534.286341
909.689954	2537.363965
909.996289	2533.073943
910.302584	2538.115097
910.608839	2539.307330
910.915054	2535.153419
911.221229	2536.706095
911.527363	2537.706764
911.833458	2537.406815
912.139513	2542.435366
912.445527	2539.105684
912.751502	2537.616023
913.057436	2541.263298
913.363331	2542.437887
913.669186	2540.718853
913.975000	2541.772454
914.280775	2547.400903
914.586510	2552.731923
914.892205	2553.198230
915.197859	2557.452963
915.503475	2564.689540
915.809050	2572.553740
916.114585	2578.956005
916.420081	2580.117991
916.725536	2580.324678
917.030952	2576.788309
917.336328	2571.061558
917.641665	2568.263718
917.946961	2562.819272
918.252218	2557.949517
918.557435	2554.912222
918.862612	2551.890050
919.167750	2549.974412
919.472848	2549.540872
919.777906	2545.139945
920.082925	2548.237734
920.387904	2544.020809
920.692843	2541.265818
920.997743	2544.408978
921.302603	2544.431663
921.607423	2541.530479
921.912204	2542.173226
922.216946	2537.197607
922.521647	2542.921837
922.826310	2539.584594
923.130932	2540.834800
923.435516	2536.201979
923.740059	2538.251208
924.044564	2536.368337
924.349028	2536.665766
924.653454	2534.238450
924.957840	2534.062010
925.262186	2532.738707
925.566493	2535.670138
925.870761	2530.709642
926.174989	2536.116280
926.479178	2536.965714
926.783328	2536.201979
927.087438	2533.845240
927.391509	2537.905889
927.695541	2532.884900
927.999533	2532.970600
928.303486	2536.645601
928.607400	2535.163502
928.911275	2535.549150
929.215110	2533.542771
929.518906	2533.434386
929.822663	2533.232740
930.126381	2535.523944
930.430060	2535.586959
930.733699	2535.024870
931.037299	2532.751310
931.340861	2533.724252
931.644383	2535.682741
931.947866	2533.840199
932.251309	2535.836496
932.554714	2536.128883
932.858080	2539.546785
933.161407	2533.436907
933.464694	2536.469161
933.767943	2533.288193
934.071153	2533.499921
934.374323	2533.930940
934.677455	2534.558563
934.980548	2533.179808
935.283602	2533.280631
935.586617	2531.523789
935.889593	2531.922040
936.192530	2532.801721
936.495428	2531.942204
936.798287	2531.738038
937.101108	2532.796680
937.403890	2532.244674
937.706632	2535.357586
938.009336	2534.966897
938.312002	2536.595189
938.614628	2537.621064
938.917216	2538.094933
939.219765	2535.738193
939.522275	2539.153575
939.824747	2535.226516
940.127179	2536.086033
940.429573	2531.896834
940.731929	2533.046217
941.034246	2530.646628
941.336524	2536.728780
941.638763	2538.646939
941.940964	2536.199459
942.243126	2533.189890
942.545250	2536.176774
942.847335	2535.498738
943.149381	2533.270548
943.451389	2534.684592
943.753359	2536.471681
944.055290	2536.335570
944.357182	2536.990920
944.659036	2533.646114
944.960851	2534.898841
945.262628	2533.179808
945.564367	2534.145189
945.866067	2534.263656
946.167729	2533.169725
946.469352	2534.823224
946.770937	2534.601413
947.072484	2533.510003
947.373992	2535.929757
947.675462	2532.453882
947.976893	2533.878008
948.278286	2534.137627
948.579641	2535.602082
948.880958	2534.369520
949.182236	2533.739376
949.483476	2529.686288
949.784678	2533.492359
950.085841	2533.961187
950.386967	2535.967566
950.688054	2534.752648
950.989103	2536.060827
951.290114	2533.222658
951.591087	2531.506145
951.892021	2532.731145
952.192917	2534.591331
952.493776	2533.477236
952.794596	2532.695857
953.095378	2534.684592
953.396122	2535.493697
953.696828	2533.474715
953.997496	2533.993954
954.298126	2533.094108
954.598718	2532.716022
954.899272	2535.244160
955.199788	2534.724921
955.500266	2535.355066
955.800706	2528.879703
956.101108	2529.023376
956.401472	2530.034128
956.701798	2528.345341
957.002087	2529.711494
957.302337	2529.983716
957.602550	2533.162164
957.902724	2529.240146
958.202861	2532.388347
958.502960	2530.717204
958.803022	2530.802904
959.103045	2532.342976
959.403031	2531.148223
959.702979	2531.760723
960.002889	2531.985054
960.302762	2531.458254
960.602596	2528.718387
960.902393	2531.410363
961.202153	2532.133768
961.501875	2531.395239
961.801559	2528.877183
962.101205	2531.291896
962.400814	2528.675537
962.700385	2528.496576
962.999918	2528.988088
963.299414	2529.333407
963.598873	2530.107224
963.898293	2530.785260
964.197677	2528.902389
964.497022	2529.104035
964.796331	2531.803573
965.095601	2529.771988
965.394835	2531.294416
965.694030	2527.175793
965.993189	2530.621422
966.292309	2529.504807
966.591393	2530.245856
966.890439	2532.068233
967.189447	2530.021525
967.488419	2529.867770
967.787353	2527.684950
968.086249	2528.254600
968.385108	2530.596216
968.683930	2528.839374
968.982714	2529.945907
969.281462	2528.393232
969.580172	2531.294416
969.878844	2530.792821
970.177480	2531.906916
970.476078	2529.199817
970.774639	2531.009591
971.073162	2529.756864
971.371649	2524.972809
971.670098	2523.931811
971.968510	2527.712676
972.266885	2524.967768
972.565223	2529.497245
972.863524	2530.568490
973.161788	2529.242667
973.460014	2529.116638
973.758204	2529.219981
974.056356	2529.348531
974.354471	2530.767616
974.652550	2526.548170
974.950591	2530.555887
975.248595	2527.821061
975.546563	2530.102183
975.844493	2532.242153
976.142386	2528.844415
976.440243	2526.747295
976.738062	2527.750485
977.035845	2529.734179
977.333590	2530.210568
977.631299	2527.783252
977.928971	2529.169570
978.226606	2529.540095
978.524204	2529.784591
978.821765	2529.635877
979.119290	2530.139992
979.416777	2530.888603
979.714228	2527.402645
980.011642	2530.505476
980.309020	2533.570497
980.606360	2528.763757
980.903664	2528.610002
981.200931	2528.678057
981.498162	2528.267203
981.795356	2528.020187
982.092513	2531.254087
982.389633	2533.283151
982.686717	2531.148223
982.983764	2530.823068
983.280775	2532.791639
983.577749	2533.273069
983.874686	2532.887421
984.171587	2530.576052
984.468451	2532.776515
984.765279	2530.618902
985.062070	2532.131248
985.358824	2529.088911
985.655543	2531.974972
985.952224	2527.710156
986.248869	2529.237625
986.545478	2524.168745
986.842050	2526.127233
987.138586	2527.488345
987.435086	2523.641945
987.731549	2522.847963
988.027975	2528.962883
988.324366	2526.636390
988.620719	2527.725279
988.917037	2528.617563
989.213318	2530.157636
989.509563	2528.322656
989.805772	2529.587986
990.101944	2524.768643
990.398080	2527.853829
990.694180	2528.105886
990.990244	2527.057326
991.286271	2526.369209
991.582262	2528.423479
991.878217	2526.991791
992.174136	2530.175280
992.470019	2527.382481
992.765865	2526.180166
993.061676	2526.230577
993.357450	2528.657893
993.653188	2528.451205
993.948890	2531.065044
994.244556	2526.275947
994.540186	2528.660413
994.835780	2527.508510
995.131337	2529.683767
995.426859	2528.685619
995.722345	2529.940866
996.017795	2530.218130
996.313208	2528.494055
996.608586	2527.705115
996.903928	2529.479601
997.199234	2528.209230
997.494504	2527.528674
997.789738	2527.848788
998.084936	2529.792152
998.380099	2526.701925
998.675225	2527.281658
998.970316	2529.078829
999.265371	2528.688140
999.560390	2528.720907
999.855373	2528.395753
1000.150320	2529.033459
1000.445232	2529.398942
1000.740108	2528.171421
1001.034948	2527.818541
1001.329752	2528.695701
1001.624521	2528.173942
1001.919254	2524.856863
1002.213951	2524.839219
1002.508613	2522.391738
1002.803239	2526.611184
1003.097829	2523.331914
1003.392384	2526.497758
1003.686903	2527.516071
1003.981386	2525.003056
1004.275834	2526.961544
1004.570246	2528.063037
1004.864623	2527.634538
1005.158964	2526.346524
1005.453270	2525.912984
1005.747540	2526.404497
1006.041775	2525.136647
1006.335974	2529.169570
1006.630138	2525.610515
1006.924266	2529.829961
1007.218359	2528.025228
1007.512416	2529.469518
1007.806438	2526.911133
1008.100425	2526.880886
1008.394376	2526.119672
1008.688292	2527.453057
1008.982172	2527.397604
1009.276017	2527.468180
1009.569827	2526.107069
1009.863602	2530.863398
1010.157341	2525.746626
1010.451045	2529.189734
1010.744714	2526.943900
1011.038347	2530.455064
1011.331945	2527.810979
1011.625508	2528.375588
1011.919036	2526.906092
1012.212528	2526.797707
1012.505986	2525.371060
1012.799408	2525.487007
1013.092795	2527.132944
1013.386147	2526.500279
1013.679464	2528.481452
1013.972745	2527.057326
1014.265992	2526.051616
1014.559204	2527.654703
1014.852380	2528.604961
1015.145521	2525.781914
1015.438628	2528.368026
1015.731699	2525.585309
1016.024736	2526.233098
1016.317737	2527.364837
1016.610703	2528.771319
1016.903635	2521.295288
1017.196531	2522.464835
1017.489393	2524.287212
1017.782219	2521.834691
1018.075011	2524.302336
1018.367768	2526.480114
1018.660490	2529.288037
1018.953177	2529.288037
1019.245829	2529.288037
