Dividing Wavelength (nm)	Counts (n)	Blue Motor Position (mm): 0.000000	Red Motor Position (mm): 38.500000	
326.493990	2124.266613
326.888308	2124.266613
327.282561	2124.266613
327.676750	2092.560276
328.070874	2093.780236
328.464933	2096.341142
328.858929	2102.667790
329.252859	2110.479058
329.646726	2124.876593
330.040528	2137.262708
330.434265	2154.677374
330.827938	2170.798984
331.221547	2188.730368
331.615091	2207.521269
332.008571	2225.772767
332.401986	2248.866293
332.795338	2267.352204
333.188625	2284.431633
333.581847	2301.826134
333.975006	2323.198106
334.368100	2341.351301
334.761129	2360.099352
335.154095	2376.387320
335.546996	2395.387429
335.939833	2418.216294
336.332606	2430.388160
336.725315	2441.367793
337.117960	2452.158383
337.510540	2463.279168
337.903056	2470.697226
338.295508	2476.282825
338.687896	2487.091059
339.080220	2496.437358
339.472480	2505.324912
339.864676	2507.694254
340.256807	2510.214831
340.648875	2514.093999
341.040879	2517.970647
341.432818	2520.080369
341.824694	2520.113137
342.216506	2519.838394
342.608253	2520.657582
342.999937	2519.861079
343.391557	2521.769156
343.783113	2521.010462
344.174605	2520.314783
344.566033	2516.561644
344.957397	2517.098527
345.348697	2514.950995
345.739934	2512.702641
346.131106	2512.034688
346.522215	2508.881446
346.913260	2505.975221
347.304241	2506.428925
347.695159	2504.782988
348.086012	2500.941629
348.476802	2500.548419
348.867528	2499.807369
349.258191	2498.060609
349.648789	2495.575321
350.039324	2495.139261
350.429796	2490.687922
350.820203	2492.832933
351.210548	2492.429641
351.600828	2492.709425
351.991045	2490.738333
352.381198	2489.568786
352.771288	2487.048209
353.161314	2490.612305
353.551276	2489.372181
353.941175	2490.955103
354.331010	2488.663899
354.720782	2489.036944
355.110490	2488.061481
355.500135	2488.779845
355.889717	2487.108703
356.279235	2491.907881
356.668689	2489.344454
357.058080	2491.713797
357.447408	2486.967550
357.836672	2489.409989
358.225873	2490.261944
358.615010	2486.191213
359.004084	2494.093221
359.393095	2493.949548
359.782043	2492.535505
360.170927	2495.567759
360.559748	2495.746720
360.948505	2497.254025
361.337199	2496.959117
361.725830	2500.508090
362.114398	2497.962307
362.502903	2496.192862
362.891344	2499.467091
363.279722	2500.122441
363.668037	2497.927019
364.056289	2501.294510
364.444478	2504.251146
364.832603	2503.063955
365.220665	2503.931033
365.608665	2505.108143
365.996601	2501.430621
366.384474	2506.476816
366.772284	2506.486898
367.160031	2508.205932
367.547715	2510.610562
367.935336	2511.898577
368.322893	2515.694566
368.710388	2518.270595
369.097820	2524.093128
369.485189	2526.298633
369.872495	2534.717360
370.259738	2540.940664
370.646918	2548.603218
371.034035	2555.013045
371.421090	2568.087277
371.808081	2572.946950
372.195010	2584.100503
372.581875	2598.702205
372.968678	2611.952878
373.355418	2619.297839
373.742096	2639.124697
374.128710	2656.572130
374.515262	2669.664007
374.901751	2685.251255
375.288177	2698.496886
375.674540	2721.749208
376.060841	2741.545820
376.447079	2759.706576
376.833254	2777.965636
377.219367	2790.205557
377.605417	2830.058399
377.991404	2836.831189
378.377329	2860.801876
378.763191	2877.425080
379.148991	2916.733478
379.534727	2941.382199
379.920402	2969.103504
380.306013	2979.266470
380.691563	3031.306302
381.077049	3053.668860
381.462474	3067.388360
381.847835	3109.494598
382.233134	3127.746095
382.618371	3131.847074
383.003545	3198.491128
383.388657	3206.345245
383.773706	3236.972776
384.158693	3255.531783
384.543618	3282.910290
384.928480	3317.462358
385.313280	3363.304091
385.698017	3358.938452
386.082692	3413.846699
386.467305	3418.724016
386.851856	3451.168882
387.236344	3471.928353
387.620770	3504.484125
388.005133	3534.436141
388.389435	3560.012435
388.773674	3569.603230
389.157851	3614.300620
389.541965	3626.797641
389.926018	3592.238011
390.310008	3666.582427
390.693936	3683.876105
391.077802	3720.973956
391.461606	3714.468347
391.845348	3777.747431
392.229027	3778.135600
392.612645	3788.346457
392.996200	3868.571379
393.379694	3901.190165
393.763125	3970.475784
394.146494	3932.591512
394.529801	3997.466121
394.913047	4050.090726
395.296230	4016.410777
395.679351	4069.524374
396.062410	4095.791307
396.445408	4076.536619
396.828343	4104.104169
397.211217	4132.740444
397.594028	4050.262126
397.976778	4116.334008
398.359466	4140.098008
398.742092	4169.145136
399.124656	4094.508333
399.507158	4175.144109
399.889598	4199.533212
400.271977	4260.158128
400.654294	4235.920260
401.036549	4243.466867
401.418742	4209.557546
401.800874	4315.126869
402.182944	4332.612111
402.564952	4400.859252
402.946898	4385.007344
403.328783	4381.896952
403.710606	4293.671718
404.092367	4488.290504
404.474067	4451.487560
404.855705	4459.767655
405.237282	4390.983632
405.618797	4499.363398
406.000250	4535.405128
406.381642	4613.573259
406.762972	4575.888114
407.144240	4586.993776
407.525447	4587.961677
407.906593	4647.505266
408.287677	4689.452707
408.668700	4617.427221
409.049661	4667.700128
409.430560	4712.238722
409.811399	4637.672495
410.192176	4797.671157
410.572891	4737.880551
410.953545	4842.996171
411.334138	4720.455803
411.714669	4792.042708
412.095139	4683.022715
412.475547	4828.326413
412.855894	4807.529133
413.236180	4814.312005
413.616405	4766.055560
413.996568	4858.225497
414.376670	4801.769615
414.756711	4749.722222
415.136691	4785.542140
415.516609	4858.515363
415.896466	4897.528852
416.276262	4939.919915
416.655997	4913.675668
417.035670	5095.890695
417.415283	5186.863357
417.794834	5134.757991
418.174324	5080.651287
418.553753	4990.071834
418.933121	5175.215771
419.312428	5245.131534
419.691674	5183.899158
420.070859	5310.154857
420.449983	5219.925764
420.829045	5335.068239
421.208047	5241.917798
421.586988	5316.378161
421.965867	5321.378986
422.344686	5459.183967
422.723444	5314.288603
423.102141	5131.577023
423.480777	5432.296973
423.859352	5195.859296
424.237866	5453.000992
424.616319	5452.005364
424.994712	5559.202980
425.373044	5440.067912
425.751314	5580.438841
426.129524	5384.519438
426.507673	5573.555145
426.885762	5659.456407
427.263789	5590.264049
427.641756	5474.327593
428.019662	5595.665646
428.397508	5604.354074
428.775292	5548.475405
429.153016	5649.943749
429.530679	5574.462553
429.908282	5656.703937
430.285824	5529.785327
430.663305	5805.213808
431.040726	5538.254465
431.418086	5533.687180
431.795385	5644.103572
432.172624	5657.422301
432.549802	5649.016177
432.926920	5662.539072
433.303977	5674.592471
433.680974	5713.863059
434.057910	5728.908383
434.434786	5736.795268
434.811601	5701.602973
435.188355	5939.384118
435.565050	5812.798224
435.941683	5795.615451
436.318257	6008.173183
436.694770	5992.293548
437.071222	6025.048445
437.447614	5957.993537
437.823946	5865.793354
438.200218	6024.592221
438.576429	5888.917127
438.952580	5986.922199
439.328670	6032.574888
439.704700	5937.682728
440.080670	5923.265028
440.456580	6195.487336
440.832429	6080.864101
441.208218	5927.212252
441.583947	6081.143885
441.959616	6087.679741
442.335224	6012.395149
442.710773	6154.981665
443.086261	6176.739285
443.461689	5968.602646
443.837057	6120.038907
444.212365	6273.942813
444.587612	6167.960116
444.962800	6318.819165
445.337927	6298.861237
445.712995	5910.258852
446.088002	6490.351986
446.462949	6321.261604
446.837837	6252.051603
447.212664	6424.149033
447.587431	6567.602628
447.962139	7107.318641
448.336786	8029.995988
448.711374	7776.678007
449.085901	6850.960844
449.460369	6773.516118
449.834776	6703.610438
450.209124	7097.954698
450.583412	7243.465083
450.957640	7392.579893
451.331808	7157.629356
451.705917	6707.789555
452.079965	6631.463965
452.453954	6844.893816
452.827883	6722.605506
453.201752	6819.907337
453.575562	6611.533763
453.949311	6819.030176
454.323001	6705.337033
454.696632	6781.624814
455.070202	6916.687408
455.443713	7075.009886
455.817164	7175.664084
456.190556	7259.805983
456.563888	7333.621078
456.937160	7379.311576
457.310373	7033.120418
457.683526	7056.105559
458.056619	6945.820236
458.429653	6935.783299
458.802628	6872.531942
459.175542	6975.943651
459.548398	7336.681059
459.921194	7492.639235
460.293930	7498.965883
460.666607	8023.472735
461.039224	8330.965476
461.411782	8464.142678
461.784280	8482.331161
462.156719	8374.982311
462.529099	8252.943538
462.901419	7845.973708
463.273680	7734.551605
463.645882	7744.245744
464.018024	7611.741536
464.390106	7776.017616
464.762130	8163.957090
465.134094	8632.683575
465.505999	9655.689966
465.877845	10872.614422
466.249631	11526.066427
466.621358	11139.364557
466.993026	10511.803918
467.364634	10260.192367
467.736184	9895.991687
468.107674	9562.887365
468.479105	9597.784752
468.850477	9363.655923
469.221790	9130.111869
469.593043	8807.664545
469.964238	8665.125920
470.335373	8674.220162
470.706449	8739.586283
471.077467	8713.092499
471.448425	10029.463797
471.819324	11099.254617
472.190164	11122.025508
472.560945	9875.995951
472.931667	9082.515815
473.302330	8949.487326
473.672934	8597.554294
474.043479	8955.982853
474.413965	8890.541114
474.784393	8774.740769
475.154761	8931.180376
475.525070	9018.518367
475.895321	8843.492026
476.265513	9023.070528
476.635645	9193.048154
477.005719	9190.809882
477.375734	9303.204927
477.745691	9540.756699
478.115588	9674.712760
478.485427	9917.598073
478.855207	10461.904056
479.224928	11261.428536
479.594591	11897.818756
479.964194	11715.681868
480.333739	11648.122844
480.703226	11568.984291
481.072653	11659.659525
481.442022	11892.180226
481.811333	12084.628794
482.180584	11890.438507
482.549777	11601.202305
482.918912	11429.873650
483.287988	11448.248656
483.657005	11452.667228
484.025964	11136.896912
484.394864	11271.117633
484.763706	11235.063301
485.132489	10996.553710
485.501213	10961.139604
485.869879	11032.736592
486.238487	10873.015194
486.607036	10992.339305
486.975527	10768.718762
487.343959	10958.956784
487.712333	11009.668272
488.080648	10933.367888
488.448905	10979.035700
488.817104	10922.279870
489.185244	11181.833758
489.553326	11333.643065
489.921350	11874.916794
490.289315	12932.576077
490.657222	13279.979633
491.025070	13189.478318
491.392861	13064.276221
491.760593	12678.136439
492.128267	12333.273625
492.495883	12014.592044
492.863440	11670.989518
493.230939	11336.080462
493.598380	11272.486307
493.965763	11133.962961
494.333088	11030.740295
494.700354	10956.277411
495.067563	11012.892089
495.434713	10843.516882
495.801805	10975.769032
496.168839	10902.982333
496.535815	10825.918214
496.902733	10835.496406
497.269593	10767.579461
497.636395	10862.968174
498.003139	10849.636843
498.369825	10720.497605
498.736453	10883.611699
499.103023	10807.034052
499.469535	10829.915849
499.835989	10824.728502
500.202385	10783.794332
500.568723	10631.939655
500.935003	10859.784685
501.301226	10662.163893
501.667390	10923.981259
502.033497	11016.637667
502.399546	10877.632891
502.765537	10787.849941
503.131470	10850.239261
503.497345	11032.378670
503.863163	10640.280244
504.228923	10957.026023
504.594625	11025.729388
504.960269	10768.078535
505.325856	10990.574901
505.691385	10781.210741
506.056856	10936.581623
506.422270	10960.877464
506.787625	10848.195073
507.152924	10963.692948
507.518164	10945.050762
507.883347	10869.793896
508.248472	10784.096802
508.613540	11019.559015
508.978550	10902.347147
509.343503	10877.133816
509.708398	10990.731177
510.073236	11105.523291
510.438016	11114.156267
510.802738	11062.393700
511.167403	11114.161308
511.532010	11004.387663
511.896561	11244.011349
512.261053	11307.645834
512.625488	11176.666575
512.989866	11165.797847
513.354186	11155.493729
513.718449	11053.191073
514.082655	11246.756257
514.446803	11140.849177
514.810894	11261.466344
515.174927	11133.499175
515.538904	11154.427525
515.902822	11308.107100
516.266684	11192.405057
516.630488	11134.154525
516.994235	11191.343894
517.357925	11252.755231
517.721558	11338.268323
518.085133	11356.713905
518.448651	11367.476769
518.812112	11247.371278
519.175516	11271.336924
519.538863	11383.406815
519.902152	11298.496140
520.265385	11459.989503
520.628560	11367.728826
520.991678	11349.563028
521.354739	11410.974365
521.717743	11346.434992
522.080690	11324.858854
522.443580	11453.562032
522.806413	11406.160063
523.169189	11447.656321
523.531908	11496.958805
523.894569	11322.497073
524.257174	11322.668473
524.619722	11441.022162
524.982213	11385.370344
525.344647	11436.510329
525.707025	11385.534182
526.069345	11480.375930
526.431608	11405.010680
526.793815	11505.057419
527.155964	11298.566716
527.518057	11346.573624
527.880093	11296.593104
528.242072	11366.826460
528.603995	11274.802717
528.965860	11198.005779
529.327669	11248.432441
529.689421	11193.821622
530.051117	11165.810450
530.412755	11262.315779
530.774337	11155.163533
531.135862	11144.640125
531.497331	11165.462611
531.858743	11015.354693
532.220098	11175.398725
532.581396	11051.308202
532.942638	11036.154494
533.303824	10996.457928
533.664953	11005.781542
534.026025	10924.462689
534.387040	11017.534992
534.747999	11022.757627
535.108902	11083.551422
535.469748	10844.545277
535.830537	10941.413569
536.191270	10915.703684
536.551947	10938.335945
536.912567	10932.122722
537.273131	10861.591939
537.633638	10834.190747
537.994089	10824.473923
538.354483	10772.996181
538.714821	10919.373644
539.075103	10923.507391
539.435328	10891.753163
539.795497	10719.698582
540.155609	10871.039061
540.515665	10955.967380
540.875665	10693.103975
541.235609	10755.967163
541.595496	10752.271997
541.955328	10901.969061
542.315102	10782.246698
542.674821	10735.800027
543.034483	10735.036292
543.394090	10744.586758
543.753640	10668.916518
544.113134	10882.149764
544.472571	10728.311393
544.831953	10876.047448
545.191278	10680.848930
545.550548	10710.334638
545.909761	10838.692498
546.268918	10817.214662
546.628019	10894.097299
546.987064	10746.479712
547.346053	10675.956490
547.704986	10767.279512
548.063863	10759.374983
548.422684	10733.685263
548.781449	10658.872019
549.140158	10749.254867
549.498811	10633.691456
549.857408	10485.549588
550.215949	10703.786180
550.574434	10550.683817
550.932864	10644.804680
551.291237	10701.384070
551.649555	10641.313681
552.007817	10649.646708
552.366022	10614.545154
552.724173	10602.968144
553.082267	10580.366131
553.440305	10703.947497
553.798288	10500.194140
554.156215	10654.692903
554.514086	10618.517583
554.871902	10471.061312
555.229661	10501.756898
555.587365	10469.455705
555.945014	10362.646258
556.302606	10482.109001
556.660143	10369.232525
557.017625	10512.749134
557.375050	10401.319469
557.732421	10520.280618
558.089735	10428.889540
558.446994	10427.495661
558.804197	10452.187232
559.161345	10446.921747
559.518437	10290.502305
559.875474	10367.115241
560.232455	10381.374144
560.589381	10332.169962
560.946251	10312.204472
561.303065	10413.403115
561.659825	10330.019910
562.016528	10262.397872
562.373177	10139.708791
562.729770	10236.284695
563.086307	10143.071240
563.442789	10215.464730
563.799216	10085.655018
564.155587	10120.880081
564.511904	10061.407068
564.868164	10043.503411
565.224370	10045.613133
565.580520	9957.670205
565.936615	9951.474627
566.292654	9809.906424
566.648638	9926.962016
567.004567	9866.042192
567.360441	9846.845478
567.716260	9735.403211
568.072023	9813.697371
568.427732	9746.418132
568.783385	9654.230552
569.138982	9700.462974
569.494525	9698.401142
569.850013	9568.498169
570.205445	9623.058577
570.560823	9514.598152
570.916145	9413.686855
571.271412	9459.021951
571.626625	9394.099452
571.981782	9361.190799
572.336884	9306.766502
572.691931	9306.607706
573.046923	9222.702741
573.401860	9173.548971
573.756743	9093.497968
574.111570	9108.107232
574.466342	9082.296524
574.821059	9081.593283
575.175722	8962.992578
575.530330	8950.346843
575.884882	8923.656454
576.239380	8832.351076
576.593823	8805.080954
576.948211	8791.106875
577.302544	8675.800563
577.656823	8654.494127
578.011047	8638.317064
578.365216	8589.654806
578.719330	8508.124225
579.073389	8483.523394
579.427394	8427.488448
579.781344	8382.942293
580.135239	8318.768404
580.489080	8298.250908
580.842866	8195.607974
581.196597	8169.643512
581.550273	8183.294956
581.903895	8121.818085
582.257463	8156.518868
582.610975	8019.137343
582.964434	8027.729990
583.317837	7928.542767
583.671186	7900.261894
584.024481	7866.932305
584.377721	7778.520549
584.730906	7739.151658
585.084037	7724.376036
585.437113	7658.624267
585.790135	7643.228583
586.143103	7537.278653
586.496016	7493.624781
586.848874	7511.783017
587.201679	7479.391083
587.554428	7361.032352
587.907124	7367.858075
588.259765	7326.694533
588.612352	7295.220089
588.964884	7181.806730
589.317362	7163.199831
589.669786	7137.046325
590.022155	7148.767008
590.374470	7129.978627
590.726731	7069.693989
591.078937	6931.364728
591.431090	6980.072356
591.783188	6874.182920
592.135232	6832.142217
592.487222	6815.720658
592.839157	6826.470919
593.191038	6754.155567
593.542866	6688.925557
593.894639	6598.537668
594.246358	6607.871365
594.598022	6593.085661
594.949633	6493.369117
595.301190	6446.350275
595.652692	6448.265913
596.004141	6483.322097
596.355535	6325.382747
596.706876	6282.207785
597.058162	6211.422423
597.409395	6234.246247
597.760573	6248.474904
598.111698	6174.027144
598.462768	6131.189939
598.813785	6087.236119
599.164748	6039.093100
599.515657	6013.436147
599.866511	5920.671355
600.217312	5978.505992
600.568060	5870.920208
600.918753	5905.641155
601.269392	5858.642477
601.619978	5783.748575
601.970510	5791.474143
602.320988	5774.432523
602.671412	5772.468993
603.021783	5717.976641
603.372100	5674.103479
603.722363	5642.931504
604.072572	5613.425631
604.422728	5588.671045
604.772830	5524.252660
605.122878	5499.835832
605.472872	5484.122555
605.822813	5467.670750
606.172701	5418.222072
606.522534	5430.817394
606.872314	5408.716976
607.222041	5367.253486
607.571714	5371.556110
607.921333	5321.494932
608.270899	5302.358712
608.620411	5323.849151
608.969870	5254.651753
609.319276	5225.972628
609.668627	5208.666347
610.017926	5200.900450
610.367171	5195.007341
610.716362	5167.144884
611.065500	5138.553980
611.414585	5118.918685
611.763616	5097.007310
612.112594	5055.995003
612.461518	5037.609915
612.810389	5045.108631
613.159207	4992.657946
613.507971	4948.376451
613.856682	4974.250173
614.205340	4934.856076
614.553945	4941.709525
614.902496	4872.428947
615.250994	4873.648907
615.599439	4845.955328
615.947830	4820.195032
616.296169	4796.776352
616.644454	4778.824803
616.992686	4751.678189
617.340864	4752.363786
617.688990	4695.494530
618.037063	4715.765009
618.385082	4673.444523
618.733048	4677.421993
619.080961	4640.581241
619.428821	4625.858551
619.776628	4601.610601
620.124382	4566.362853
620.472083	4532.738357
620.819731	4521.632695
621.167326	4461.673212
621.514868	4448.727528
621.862357	4388.324423
622.209793	4370.506465
622.557176	4326.635823
622.904506	4293.659116
623.251783	4254.252416
623.599007	4215.874112
623.946179	4198.252758
624.293297	4161.157428
624.640363	4122.653095
624.987376	4095.579578
625.334336	4066.482038
625.681243	4027.125750
626.028097	4006.210003
626.374899	3986.670490
626.721647	3953.877785
627.068343	3924.177827
627.414987	3900.892737
627.761577	3870.237481
628.108115	3865.476111
628.454600	3821.602949
628.801032	3813.244716
629.147412	3796.770225
629.493739	3771.448509
629.840014	3742.509766
630.186236	3745.451279
630.532405	3699.417983
630.878521	3702.092315
631.224585	3677.146165
631.570597	3647.090806
631.916556	3637.484887
632.262462	3624.791262
632.608316	3603.890638
632.954117	3585.906321
633.299866	3570.082139
633.645562	3548.679921
633.991206	3522.128163
634.336797	3493.383504
634.682336	3470.731079
635.027823	3449.316258
635.373257	3434.853188
635.718639	3407.812438
636.063968	3396.106879
636.409245	3362.789893
636.754470	3347.941175
637.099642	3332.016170
637.444762	3310.795432
637.789829	3299.989719
638.134845	3280.135135
638.479808	3265.762805
638.824719	3256.784510
639.169577	3233.360789
639.514383	3225.017679
639.859137	3206.952704
640.203839	3198.539019
640.548489	3182.382121
640.893086	3171.110101
641.237632	3157.577123
641.582125	3149.564209
641.926566	3133.452681
642.270955	3133.442599
642.615292	3123.093110
642.959576	3115.087758
643.303809	3108.556943
643.647990	3099.644183
643.992118	3090.151690
644.336195	3077.758014
644.680219	3068.411714
645.024192	3062.591702
645.368112	3067.678227
645.711981	3061.646486
646.055797	3070.818865
646.399562	3058.611711
646.743274	3068.744431
647.086935	3070.619740
647.430544	3065.097156
647.774101	3060.643296
648.117606	3050.283725
648.461059	3044.846841
648.804460	3030.149357
649.147810	3012.558250
649.491108	2997.621312
649.834354	2987.622183
650.177548	2968.861529
650.520690	2956.097327
650.863781	2943.864968
651.206820	2941.626695
651.549807	2927.622370
651.892742	2912.418250
652.235626	2906.701581
652.578458	2898.340828
652.921238	2887.610732
653.263967	2886.373128
653.606644	2875.292672
653.949269	2867.531816
654.291843	2861.389170
654.634365	2859.415558
654.976836	2849.318127
655.319255	2846.966429
655.661622	2837.378154
656.003938	2832.150478
656.346203	2826.630414
656.688416	2824.374498
657.030577	2816.129691
657.372687	2807.887404
657.714746	2803.652835
658.056753	2804.202321
658.398708	2790.959210
658.740612	2787.584157
659.082465	2784.987963
659.424266	2783.150462
659.766016	2778.416819
660.107715	2778.883126
660.449362	2777.131325
660.790958	2774.129317
661.132503	2765.415683
661.473996	2769.483894
661.815438	2763.883172
662.156829	2758.537029
662.498168	2755.262799
662.839456	2749.641913
663.180693	2750.622417
663.521879	2747.834659
663.863013	2743.683269
664.204097	2739.678072
664.545129	2738.349728
664.886110	2736.776888
665.227040	2734.450396
665.567918	2731.750858
665.908746	2731.019890
666.249522	2727.942266
666.590248	2727.412945
666.930922	2723.967316
667.271545	2721.111502
667.612118	2721.547562
667.952639	2718.054043
668.293109	2714.855431
668.633528	2711.281252
668.973896	2707.155068
669.314213	2703.195242
669.654480	2701.188862
669.994695	2698.403625
670.334859	2694.128727
670.674973	2692.545804
671.015035	2692.734847
671.355047	2686.713189
671.695008	2684.676563
672.034918	2684.608507
672.374777	2682.765966
672.714585	2679.272446
673.054342	2678.082734
673.394049	2677.114832
673.733705	2677.205573
674.073310	2675.741118
674.412864	2670.541168
674.752368	2667.072854
675.091820	2666.213337
675.431223	2660.922646
675.770574	2659.380053
676.109875	2651.301604
676.449125	2655.584064
676.788324	2648.460914
677.127473	2648.032416
677.466571	2641.680562
677.805619	2645.655512
678.144616	2641.834317
678.483562	2646.058804
678.822458	2638.449182
679.161303	2639.099491
679.500098	2638.182001
679.838842	2633.433234
680.177535	2633.982720
680.516179	2633.713018
680.854771	2633.402987
681.193314	2636.135293
681.531805	2637.897176
681.870247	2640.586632
682.208638	2643.036632
682.546978	2644.654843
682.885268	2640.233751
683.223508	2636.276445
683.561697	2634.910292
683.899836	2632.767802
684.237925	2631.124386
684.575963	2631.147071
684.913951	2626.799076
685.251889	2630.960548
685.589776	2625.611884
685.927614	2625.768160
686.265401	2624.134826
686.603137	2626.640279
686.940824	2628.727317
687.278460	2629.687657
687.616046	2627.721607
687.953582	2630.834519
688.291068	2628.603809
688.628504	2627.580455
688.965889	2628.276134
689.303224	2628.477780
689.640510	2623.658437
689.977745	2622.592233
690.314930	2616.600822
690.652065	2615.355657
690.989150	2611.428598
691.326185	2611.705861
691.663170	2607.410798
692.000105	2605.139758
692.336990	2602.606578
692.673825	2602.054572
693.010610	2600.832092
693.347345	2595.128027
693.684030	2591.339600
694.020665	2593.245156
694.357251	2588.566965
694.693786	2591.659713
695.030272	2588.609815
695.366707	2592.282295
695.703093	2587.130236
696.039429	2590.049064
696.375716	2587.016810
696.711952	2586.868096
697.048139	2585.743919
697.384276	2587.939341
697.720363	2587.775504
698.056400	2584.004721
698.392388	2584.748291
698.728326	2585.970771
699.064214	2585.038157
699.400053	2584.420616
699.735842	2580.642271
700.071581	2578.729153
700.407270	2581.542117
700.742910	2581.068249
701.078501	2578.104050
701.414042	2577.496591
701.749533	2577.090778
702.084974	2574.050962
702.420366	2576.919379
702.755709	2576.473237
703.091002	2571.979048
703.426246	2577.509194
703.761440	2576.410223
704.096584	2575.041549
704.431679	2571.416960
704.766725	2574.839903
705.101721	2573.383010
705.436668	2572.863771
705.771565	2571.926116
706.106413	2574.718915
706.441212	2571.376630
706.775961	2571.860581
707.110661	2573.070458
707.445311	2574.887794
707.779913	2574.688668
708.114465	2573.612382
708.448967	2573.125911
708.783421	2575.205387
709.117825	2574.955850
709.452180	2576.720253
709.786485	2575.517938
710.120742	2578.724112
710.454949	2578.177147
710.789107	2577.698237
711.123216	2576.032136
711.457275	2579.187898
711.791286	2578.275449
712.125247	2577.453741
712.459159	2580.123032
712.793023	2582.588157
713.126837	2579.366859
713.460602	2580.405337
713.794318	2580.395255
714.127985	2579.951633
714.461602	2575.701940
714.795171	2575.507856
715.128691	2570.358317
715.462162	2575.356621
715.795584	2572.649522
716.128957	2570.875036
716.462281	2569.922258
716.795556	2572.490725
717.128782	2570.983420
717.461960	2568.102401
717.795088	2567.963769
718.128167	2565.778429
718.461198	2564.732390
718.794180	2567.583162
719.127113	2566.433779
719.459997	2566.527040
719.792833	2564.578634
720.125619	2568.107442
720.458357	2563.444375
720.791046	2563.209961
721.123686	2566.043090
721.456278	2564.737431
721.788821	2561.904302
722.121315	2561.947152
722.453761	2564.263562
722.786158	2561.669889
723.118506	2561.657286
723.450805	2562.920095
723.783056	2563.633418
724.115259	2560.505382
724.447412	2562.184086
724.779518	2564.329097
725.111574	2561.445557
725.443582	2564.992009
725.775542	2563.409087
726.107453	2564.810528
726.439315	2562.398335
726.771129	2567.721794
727.102895	2562.932698
727.434612	2565.654921
727.766281	2566.761454
728.097901	2564.971844
728.429473	2562.708366
728.760996	2562.910013
729.092471	2561.949673
729.423897	2567.280693
729.755276	2566.143913
730.086606	2568.667010
730.417887	2566.862277
730.749120	2564.084601
731.080305	2568.823286
731.411442	2569.176167
731.742530	2567.469736
732.073570	2571.295972
732.404562	2567.719273
732.735506	2568.351938
733.066401	2568.132648
733.397249	2568.021742
733.728048	2567.512586
734.058798	2563.197358
734.389501	2563.494786
734.720156	2563.517472
735.050762	2561.690053
735.381320	2560.339024
735.711831	2560.727193
736.042293	2559.585372
736.372707	2562.274827
736.703073	2562.398335
737.033391	2561.750547
737.363661	2561.417831
737.693883	2562.247101
738.024056	2564.316494
738.354182	2559.464384
738.684260	2562.867163
739.014290	2562.557132
739.344272	2561.679971
739.674207	2561.924467
740.004093	2562.141237
740.333931	2562.234498
740.663722	2564.152657
740.993464	2563.555280
741.323159	2564.636608
741.652806	2561.495969
741.982405	2560.575958
742.311956	2562.337842
742.641460	2560.296174
742.970915	2562.234498
743.300323	2561.619477
743.629683	2559.232491
743.958996	2559.391287
744.288260	2559.431616
744.617477	2559.716442
744.946647	2556.918601
745.275768	2556.323745
745.604842	2554.430792
745.933869	2553.430123
746.262847	2550.123126
746.591778	2556.643858
746.920662	2554.337530
747.249498	2556.265772
747.578286	2555.955741
747.907027	2556.863148
748.235720	2557.934394
748.564365	2560.359189
748.892963	2557.256358
749.221514	2556.338868
749.550017	2557.538663
749.878473	2559.207285
750.206881	2556.086811
750.535242	2559.179559
750.863555	2555.996070
751.191821	2556.348951
751.520039	2553.838456
751.848210	2556.555638
752.176334	2555.912891
752.504411	2556.860628
752.832440	2554.138405
753.160421	2554.171172
753.488356	2554.992880
753.816243	2557.306770
754.144082	2555.139074
754.471875	2555.953220
754.799620	2555.852397
755.127318	2552.401727
755.454969	2553.672098
755.782572	2555.696121
756.110129	2555.421378
756.437638	2555.928014
756.765100	2551.965668
757.092515	2556.338868
757.419882	2556.273333
757.747203	2552.792417
758.074477	2554.266954
758.401703	2554.377860
758.728882	2557.445402
759.056014	2554.796275
759.383099	2554.385421
759.710138	2559.618139
760.037129	2555.872562
760.364073	2558.100752
760.690970	2555.983467
761.017820	2558.267110
761.344623	2557.039589
761.671379	2558.262069
761.998088	2555.635628
762.324751	2560.306257
762.651366	2563.136864
762.977935	2574.451734
763.304456	2579.588670
763.630931	2586.699217
763.957359	2580.198650
764.283740	2573.398133
764.610074	2567.769685
764.936362	2564.419838
765.262602	2562.514282
765.588796	2560.669220
765.914943	2557.780638
766.241044	2556.359033
766.567097	2555.645710
766.893104	2555.617983
767.219064	2551.743857
767.544978	2551.595143
767.870845	2554.846687
768.196665	2550.410472
768.522438	2551.557334
768.848165	2552.588250
769.173846	2550.349978
769.499479	2551.796789
769.825066	2549.578681
770.150607	2550.029864
770.476101	2548.388969
770.801548	2553.102448
771.126949	2549.492982
771.452303	2549.331665
771.777611	2548.419216
772.102872	2547.063145
772.428087	2551.116233
772.753256	2545.437373
773.078378	2544.774462
773.403453	2551.267468
773.728482	2546.410316
774.053465	2546.972405
774.378401	2544.958464
774.703291	2546.475851
775.028135	2548.736808
775.352932	2547.937786
775.677683	2546.985008
776.002388	2548.157076
776.327046	2546.765717
776.651658	2546.541386
776.976224	2547.723537
777.300743	2546.541386
777.625216	2546.947199
777.949643	2547.289997
778.274024	2547.499205
778.598359	2543.100798
778.922647	2542.163144
779.246889	2544.628268
779.571086	2538.946888
779.895236	2544.091385
780.219339	2544.129194
780.543397	2545.520552
780.867409	2544.729091
781.191374	2546.735470
781.515294	2544.076262
781.839167	2545.344112
782.162995	2547.098433
782.486776	2546.034750
782.810511	2546.982487
783.134201	2545.984338
783.457844	2545.921324
783.781441	2544.285470
784.104993	2548.434339
784.428498	2545.361756
784.751958	2544.207332
785.075372	2545.349153
785.398739	2546.039791
785.722061	2545.399565
786.045337	2543.977959
786.368568	2548.053732
786.691752	2545.525593
787.014891	2548.734288
787.337983	2544.739173
787.661030	2549.165307
787.984031	2553.115051
788.306987	2550.153373
788.629897	2551.103630
788.952760	2550.833928
789.275579	2549.039278
789.598351	2549.117416
789.921078	2546.513660
790.243759	2549.301418
790.566395	2547.126160
790.888984	2546.034750
791.211529	2545.752445
791.534027	2542.914276
791.856480	2546.793444
792.178888	2545.621375
792.501249	2546.117929
792.823566	2544.691282
793.145836	2545.722198
793.468062	2545.487785
793.790241	2545.631458
794.112375	2547.060625
794.434464	2542.513504
794.756507	2545.213042
795.078505	2544.845038
795.400457	2544.839997
795.722364	2543.587270
796.044226	2546.264122
796.366042	2545.006355
796.687812	2547.032898
797.009538	2544.522404
797.331218	2545.661705
797.652852	2544.043494
797.974442	2547.547096
798.295986	2546.745553
798.617484	2547.015254
798.938938	2547.353012
799.260346	2547.174051
799.581709	2545.407126
799.903026	2545.893598
800.224299	2545.132383
800.545526	2542.752959
800.866708	2544.373690
801.187845	2548.396531
801.508936	2543.675490
801.829983	2545.636499
802.150984	2545.573484
802.471940	2543.738504
802.792851	2543.189019
803.113717	2544.540048
803.434538	2545.273536
803.755314	2543.662887
804.076045	2542.775644
804.396731	2542.768082
804.717372	2541.598535
805.037967	2543.614996
805.358518	2545.202960
805.679024	2542.508463
805.999485	2544.681200
806.319901	2543.695655
806.640272	2542.581560
806.960598	2542.155582
807.280879	2540.731456
807.601115	2544.746735
807.921306	2543.239430
808.241453	2542.705068
808.561554	2543.494008
808.881611	2545.402085
809.201623	2547.506767
809.521590	2543.355377
809.841513	2545.462579
810.161390	2544.829914
810.481223	2543.672969
810.801011	2546.674977
811.120755	2541.785057
811.440453	2546.100285
811.760107	2543.728422
812.079716	2540.739018
812.399281	2539.229192
812.718801	2542.372352
813.038276	2536.847247
813.357707	2542.722712
813.677093	2543.854451
813.996434	2545.318906
814.315731	2542.969728
814.634983	2543.209183
814.954191	2542.954605
815.273354	2545.432332
815.592473	2542.493339
815.911547	2545.455017
816.230577	2543.062990
816.549562	2543.783875
816.868502	2542.823535
817.187399	2547.169010
817.506250	2544.789585
817.825058	2545.659184
818.143821	2546.750594
818.462539	2547.665563
818.781213	2548.714123
819.099843	2548.754453
819.418429	2550.168496
819.736970	2554.503888
820.055466	2557.049671
820.373919	2559.817265
820.692327	2566.355641
821.010691	2572.523493
821.329011	2590.638879
821.647286	2624.328910
821.965517	2667.430776
822.283704	2691.807275
822.601847	2700.475539
822.919945	2682.130780
823.237999	2656.798982
823.556010	2634.370889
823.873976	2619.454115
824.191897	2602.820827
824.509775	2590.056626
824.827609	2580.397775
825.145398	2577.063052
825.463144	2576.213617
825.780845	2576.236303
826.098502	2581.133784
826.416116	2594.069384
826.733685	2605.820314
827.051210	2608.290479
827.368692	2604.930550
827.686129	2593.678695
828.003522	2582.767117
828.320872	2564.641649
828.638177	2565.584345
828.955439	2556.346430
829.272656	2552.540359
829.589830	2549.734957
829.906960	2549.750080
830.224046	2547.287477
830.541088	2549.608928
830.858086	2549.130018
831.175041	2550.226469
831.491952	2549.369473
831.808819	2548.270502
832.125642	2547.852086
832.442421	2551.806871
832.759157	2554.607232
833.075849	2561.700136
833.392497	2571.910993
833.709101	2578.678742
834.025662	2576.836200
834.342179	2571.132134
834.658653	2565.309602
834.975083	2559.650907
835.291469	2562.912533
835.607811	2550.879299
835.924110	2548.464586
836.240366	2547.625234
836.556578	2547.905018
836.872746	2545.633978
837.188871	2543.700696
837.504952	2541.054090
837.820990	2543.241951
838.136984	2541.517876
838.452935	2542.619368
838.768842	2538.863709
839.084706	2542.778165
839.400526	2544.872764
839.716303	2547.965512
840.032037	2552.416851
840.347727	2556.747202
840.663373	2549.593805
840.978977	2548.830070
841.294537	2546.783361
841.610054	2542.687424
841.925527	2543.468803
842.240957	2539.811446
842.556344	2539.191384
842.871687	2539.229192
843.186987	2541.515356
843.502244	2539.682896
843.817458	2541.928730
844.132629	2537.462268
844.447756	2540.237423
844.762840	2534.543440
845.077881	2534.601413
845.392879	2535.511341
845.707833	2537.749614
846.022745	2531.415404
846.337613	2538.276414
846.652438	2537.981507
846.967221	2540.297917
847.281960	2534.901362
847.596656	2538.044521
847.911309	2535.092926
848.225919	2538.369676
848.540485	2538.704912
848.855009	2537.578214
849.169490	2536.426311
849.483928	2540.139121
849.798323	2536.965714
850.112675	2538.795653
850.426984	2536.948070
850.741251	2538.127700
851.055474	2536.562422
851.369654	2539.047711
851.683792	2536.990920
851.997887	2539.423277
852.311938	2533.101670
852.625947	2536.597710
852.939914	2536.461599
853.253837	2541.318751
853.567718	2536.995961
853.881555	2535.579397
854.195350	2535.743234
854.509103	2533.751979
854.822812	2535.289531
855.136479	2539.052752
855.450103	2535.039993
855.763685	2536.406146
856.077224	2538.112577
856.390720	2537.104346
856.704173	2536.277597
857.017584	2538.896476
857.330953	2535.085364
857.644278	2538.203318
857.957561	2536.214582
858.270802	2537.497556
858.584000	2533.928419
858.897155	2537.749614
859.210268	2535.672658
859.523339	2537.167360
859.836367	2536.060827
860.149352	2535.130734
860.462295	2536.864891
860.775195	2534.717360
861.088054	2533.941022
861.400869	2533.283151
861.713642	2529.502286
862.026373	2535.909593
862.339062	2536.237267
862.651708	2536.277597
862.964312	2537.008564
863.276873	2537.598379
863.589392	2536.096115
863.901869	2538.994779
864.214303	2537.704243
864.526696	2535.317257
864.839045	2539.420756
865.151353	2536.408667
865.463619	2536.224665
865.775842	2538.636857
866.088023	2536.144006
866.400162	2540.134079
866.712258	2540.363452
867.024313	2540.013092
867.336325	2539.939995
867.648296	2539.766075
867.960224	2540.444110
868.272110	2538.001671
868.583954	2539.337577
868.895755	2537.195087
869.207515	2539.103163
869.519233	2538.856147
869.830909	2537.575694
870.142542	2538.039480
870.454134	2540.771785
870.765684	2539.304810
871.077191	2537.369007
871.388657	2541.147351
871.700081	2534.997144
872.011463	2539.955118
872.322803	2540.615510
872.634101	2540.315561
872.945357	2539.377906
873.256571	2541.117104
873.567744	2541.999306
873.878874	2539.730787
874.189963	2542.629451
874.501010	2543.335212
874.812015	2538.253729
875.122979	2543.027702
875.433900	2539.062834
875.744780	2544.151879
876.055618	2540.446631
876.366415	2540.431508
876.677169	2541.107022
876.987882	2541.316230
877.298554	2538.039480
877.609183	2539.148534
877.919771	2538.926723
878.230317	2542.498381
878.540822	2543.441076
878.851285	2546.841335
879.161707	2545.276056
879.472087	2550.738147
879.782425	2553.861141
880.092722	2563.031000
880.402977	2573.493915
880.713191	2590.951431
881.023363	2614.251644
881.333494	2630.736217
881.643583	2634.078502
881.953631	2632.450209
882.263637	2626.514251
882.573602	2618.642489
882.883526	2604.819645
883.193408	2597.003336
883.503248	2587.261306
883.813048	2581.658064
884.122806	2573.274625
884.432522	2566.524520
884.742197	2563.230126
885.051831	2560.268448
885.361424	2553.639331
885.670975	2553.001625
885.980485	2550.712941
886.289954	2548.210008
886.599382	2546.501057
886.908768	2549.513146
887.218113	2546.352343
887.527417	2543.884698
887.836680	2544.020809
888.145901	2542.803370
888.455082	2543.851930
888.764221	2539.556867
889.073319	2542.205994
889.382376	2540.761703
889.691392	2541.013761
890.000366	2542.894111
890.309300	2540.756662
890.618193	2541.298586
890.927044	2542.768082
891.235855	2543.834286
891.544625	2541.933771
891.853353	2543.090716
892.162041	2542.934440
892.470687	2544.315717
892.779293	2543.667928
893.087858	2545.873433
893.396381	2543.728422
893.704864	2551.680842
894.013306	2550.418033
894.321707	2560.412121
894.630068	2569.236661
894.938387	2571.890828
895.246665	2568.888821
895.554903	2567.285734
895.863100	2560.157542
896.171256	2558.723334
896.479371	2552.018600
896.787446	2551.290153
897.095480	2549.417364
897.403473	2549.929041
897.711425	2545.626417
898.019336	2549.505584
898.327207	2545.026519
898.635038	2546.821170
898.942827	2543.299924
899.250576	2541.802701
899.558284	2545.109698
899.865952	2541.951415
900.173579	2542.200953
900.481165	2541.590973
900.788711	2541.091899
901.096216	2538.278935
901.403681	2540.068544
901.711105	2540.386137
902.018489	2543.476364
902.325832	2542.742877
902.633135	2540.607948
902.940397	2541.273380
903.247619	2546.168341
903.554800	2551.277550
903.861941	2562.282389
904.169041	2578.058680
904.476101	2583.019175
904.783121	2584.798702
905.090100	2578.335943
905.397039	2569.763461
905.703938	2561.178376
906.010796	2557.203426
906.317614	2553.175544
906.624391	2547.514329
906.931129	2546.034750
907.237826	2542.974770
907.544483	2544.242620
907.851099	2539.067875
908.157675	2540.045859
908.464211	2538.382278
908.770707	2533.038655
909.077163	2535.813811
909.383578	2533.411701
909.689954	2533.376413
909.996289	2533.318439
910.302584	2537.789943
910.608839	2536.761548
910.915054	2539.148534
911.221229	2535.939839
911.527363	2538.273894
911.833458	2538.654501
912.139513	2538.883873
912.445527	2538.868750
912.751502	2536.426311
913.057436	2537.169881
913.363331	2540.703730
913.669186	2538.737680
913.975000	2543.234389
914.280775	2541.356559
914.586510	2548.343598
914.892205	2551.741336
915.197859	2558.604867
915.503475	2564.939077
915.809050	2576.173288
916.114585	2578.192270
916.420081	2582.008424
916.725536	2578.414081
917.030952	2575.452403
917.336328	2568.233471
917.641665	2564.079560
917.946961	2561.163253
918.252218	2554.997922
918.557435	2552.603373
918.862612	2549.019113
919.167750	2549.296377
919.472848	2546.664894
919.777906	2543.352856
920.082925	2545.344112
920.387904	2543.486447
920.692843	2541.230530
920.997743	2539.786240
921.302603	2539.544264
921.607423	2539.574511
921.912204	2542.261446
922.216946	2537.626105
922.521647	2538.354552
922.826310	2538.581404
923.130932	2538.830941
923.435516	2534.982020
923.740059	2536.983358
924.044564	2533.429345
924.349028	2535.904551
924.653454	2530.878521
924.957840	2532.955476
925.262186	2531.211237
925.566493	2533.366330
925.870761	2529.197296
926.174989	2534.238450
926.479178	2532.494211
926.783328	2533.043697
927.087438	2531.049920
927.391509	2535.302133
927.695541	2533.872966
927.999533	2532.564787
928.303486	2533.973789
928.607400	2533.482277
928.911275	2532.743748
929.215110	2534.510672
929.518906	2534.762730
929.822663	2534.450178
930.126381	2530.840712
930.430060	2532.821886
930.733699	2530.939015
931.037299	2532.489170
931.340861	2532.766433
931.644383	2536.577545
931.947866	2534.535878
932.251309	2533.535209
932.554714	2532.980682
932.858080	2533.197452
933.161407	2534.011598
933.464694	2532.332894
933.767943	2531.554036
934.071153	2531.738038
934.374323	2531.952287
934.677455	2534.462781
934.980548	2529.250228
935.283602	2533.570497
935.586617	2532.930271
935.889593	2534.861032
936.192530	2534.056968
936.495428	2533.872966
936.798287	2532.206865
937.101108	2532.494211
937.403890	2536.348173
937.706632	2534.495549
938.009336	2534.868594
938.312002	2534.331711
938.614628	2532.554705
938.917216	2534.992103
939.219765	2534.482946
939.522275	2537.321116
939.824747	2536.378420
940.127179	2533.686444
940.429573	2531.738038
940.731929	2530.739889
941.034246	2529.784591
941.336524	2533.784746
941.638763	2535.556712
941.940964	2534.883718
942.243126	2533.149561
942.545250	2536.451517
942.847335	2533.943543
943.149381	2533.744417
943.451389	2533.701567
943.753359	2533.366330
944.055290	2533.517565
944.357182	2535.443286
944.659036	2532.463964
944.960851	2531.722914
945.262628	2531.516227
945.564367	2532.874818
945.866067	2533.794828
946.167729	2533.424304
946.469352	2530.634025
946.770937	2535.513862
947.072484	2533.227699
947.373992	2532.249715
947.675462	2532.756351
947.976893	2532.428676
948.278286	2532.819365
948.579641	2533.535209
948.880958	2533.245343
949.182236	2530.011442
949.483476	2531.609488
949.784678	2531.163346
950.085841	2530.530681
950.386967	2533.832637
950.688054	2533.446989
950.989103	2533.091587
951.290114	2531.007070
951.591087	2531.254087
951.892021	2533.583100
952.192917	2531.725435
952.493776	2532.675692
952.794596	2534.442617
953.095378	2530.500434
953.396122	2535.791125
953.696828	2531.808614
953.997496	2536.403626
954.298126	2536.436393
954.598718	2534.271218
954.899272	2531.657379
955.199788	2529.819879
955.500266	2530.896165
955.800706	2531.117976
956.101108	2530.901206
956.401472	2528.909950
956.701798	2527.755526
957.002087	2527.644621
957.302337	2531.692667
957.602550	2529.540095
957.902724	2527.027079
958.202861	2529.479601
958.502960	2529.280475
958.803022	2529.487163
959.103045	2529.661082
959.403031	2530.510517
959.702979	2530.538243
960.002889	2532.963038
960.302762	2529.885414
960.602596	2531.717873
960.902393	2530.361803
961.202153	2530.576052
961.501875	2530.147554
961.801559	2527.848788
962.101205	2527.213602
962.400814	2529.872811
962.700385	2528.110928
962.999918	2528.733510
963.299414	2527.594209
963.598873	2528.703263
963.898293	2529.464477
964.197677	2528.829292
964.497022	2529.063706
964.796331	2531.823737
965.095601	2529.749303
965.394835	2529.348531
965.694030	2527.538757
965.993189	2529.156967
966.292309	2528.342821
966.591393	2528.778880
966.890439	2529.343490
967.189447	2528.632687
967.488419	2528.960362
967.787353	2529.358613
968.086249	2526.336441
968.385108	2528.771319
968.683930	2529.555218
968.982714	2527.939528
969.281462	2526.399456
969.580172	2529.537574
969.878844	2528.310053
970.177480	2529.477080
970.476078	2528.864580
970.774639	2531.496062
971.073162	2528.156298
971.371649	2526.228057
971.670098	2525.544980
971.968510	2525.464322
972.266885	2524.115813
972.565223	2528.630166
972.863524	2527.974816
973.161788	2529.141843
973.460014	2529.303160
973.758204	2528.655372
974.056356	2528.299971
974.354471	2528.788963
974.652550	2529.109076
974.950591	2528.307533
975.248595	2525.129085
975.546563	2530.467667
975.844493	2528.221833
976.142386	2528.297450
976.440243	2528.373067
976.738062	2528.781401
977.035845	2528.801566
977.333590	2529.172090
977.631299	2528.914992
977.928971	2529.600588
978.226606	2528.650331
978.524204	2525.618077
978.821765	2526.515402
979.119290	2527.271575
979.416777	2527.624456
979.714228	2528.723428
980.011642	2528.584796
980.309020	2532.000178
980.606360	2524.972809
980.903664	2529.777029
981.200931	2526.248221
981.498162	2530.550846
981.795356	2530.276103
982.092513	2529.794673
982.389633	2527.392563
982.686717	2532.335414
982.983764	2530.878521
983.280775	2530.477749
983.577749	2530.502955
983.874686	2530.500434
984.171587	2532.809283
984.468451	2528.756195
984.765279	2531.034797
985.062070	2530.119827
985.358824	2530.266021
985.655543	2526.104548
985.952224	2527.831143
986.248869	2531.238963
986.545478	2524.577079
986.842050	2527.049765
987.138586	2523.767973
987.435086	2527.264014
987.731549	2521.701100
988.027975	2528.468849
988.324366	2528.229395
988.620719	2528.499096
988.917037	2526.830474
989.213318	2528.478932
989.509563	2526.883407
989.805772	2525.295443
990.101944	2523.825947
990.398080	2527.140505
990.694180	2526.528005
990.990244	2526.094466
991.286271	2525.915505
991.582262	2529.648479
991.878217	2527.516071
992.174136	2527.427851
992.470019	2527.332069
992.765865	2527.271575
993.061676	2528.017666
993.357450	2525.688653
993.653188	2523.641945
993.948890	2526.323838
994.244556	2528.839374
994.540186	2527.621936
994.835780	2526.407018
995.131337	2525.262676
995.426859	2527.236287
995.722345	2529.436751
996.017795	2524.819054
996.313208	2529.542615
996.608586	2528.612522
996.903928	2529.565300
997.199234	2528.388191
997.494504	2527.735362
997.789738	2526.354085
998.084936	2524.549352
998.380099	2529.398942
998.675225	2526.293592
998.970316	2527.248890
999.265371	2529.028417
999.560390	2524.503982
999.855373	2525.870135
1000.150320	2525.834847
1000.445232	2527.947090
1000.740108	2529.272913
1001.034948	2528.635207
1001.329752	2525.237470
1001.624521	2525.464322
1001.919254	2522.958868
1002.213951	2522.744619
1002.508613	2522.976512
1002.803239	2525.887779
1003.097829	2521.748991
1003.392384	2526.603623
1003.686903	2526.212933
1003.981386	2529.837523
1004.275834	2525.119003
1004.570246	2526.185207
1004.864623	2526.298633
1005.158964	2525.310567
1005.453270	2526.391894
1005.747540	2524.451050
1006.041775	2526.732172
1006.335974	2528.630166
1006.630138	2525.580268
1006.924266	2530.361803
1007.218359	2527.448016
1007.512416	2524.012469
1007.806438	2526.593540
1008.100425	2526.306194
1008.394376	2523.480628
1008.688292	2526.361647
1008.982172	2524.113292
1009.276017	2526.616225
1009.569827	2527.410207
1009.863602	2526.371729
1010.157341	2526.709487
1010.451045	2525.923067
1010.744714	2522.515247
1011.038347	2525.943231
1011.331945	2526.686802
1011.625508	2526.974147
1011.919036	2528.864580
1012.212528	2523.473066
1012.505986	2525.779394
1012.799408	2525.900382
1013.092795	2523.979702
1013.386147	2524.947603
1013.679464	2525.867614
1013.972745	2525.487007
1014.265992	2522.888292
1014.559204	2526.885927
1014.852380	2526.638911
1015.145521	2526.636390
1015.438628	2525.688653
1015.731699	2528.743592
1016.024736	2527.200999
1016.317737	2524.841739
1016.610703	2525.544980
1016.903635	2522.250586
1017.196531	2521.277643
1017.489393	2521.806965
1017.782219	2521.910308
1018.075011	2524.824095
1018.367768	2524.224198
1018.660490	2523.155473
1018.953177	2523.155473
1019.245829	2523.155473
