Dividing Wavelength (nm)	Counts (n)	Blue Motor Position (mm): 0.000000	Red Motor Position (mm): 39.200000	
326.493990	2129.035545
326.888308	2129.035545
327.282561	2129.035545
327.676750	2096.192428
328.070874	2093.162694
328.464933	2100.424476
328.858929	2102.176277
329.252859	2115.174893
329.646726	2125.433641
330.040528	2136.783798
330.434265	2155.216778
330.827938	2172.374345
331.221547	2191.941583
331.615091	2210.364480
332.008571	2226.740668
332.401986	2247.064080
332.795338	2266.449837
333.188625	2288.104113
333.581847	2303.698923
333.975006	2324.556697
334.368100	2343.791219
334.761129	2361.031966
335.154095	2375.285828
335.546996	2397.005639
335.939833	2417.324010
336.332606	2432.175249
336.725315	2444.805860
337.117960	2454.971347
337.510540	2461.262707
337.903056	2475.415746
338.295508	2478.085037
338.687896	2491.313025
339.080220	2497.059940
339.472480	2508.284069
339.864676	2509.408247
340.256807	2513.920079
340.648875	2518.527694
341.040879	2519.384690
341.432818	2519.293949
341.824694	2523.896523
342.216506	2522.303518
342.608253	2522.636234
342.999937	2521.602798
343.391557	2524.539270
343.783113	2521.640607
344.174605	2519.392252
344.566033	2516.354957
344.957397	2516.760770
345.348697	2518.474762
345.739934	2512.581653
346.131106	2511.548217
346.522215	2511.770027
346.913260	2507.202742
347.304241	2506.789367
347.695159	2506.065962
348.086012	2503.263080
348.476802	2500.838285
348.867528	2503.041269
349.258191	2498.521875
349.648789	2496.525578
350.039324	2494.695639
350.429796	2494.620022
350.820203	2495.456853
351.210548	2493.455515
351.600828	2495.088849
351.991045	2493.735299
352.381198	2492.656492
352.771288	2491.260093
353.161314	2490.771101
353.551276	2489.775473
353.941175	2493.445433
354.331010	2490.221615
354.720782	2493.294198
355.110490	2491.217243
355.500135	2490.042654
355.889717	2492.008704
356.279235	2492.938797
356.668689	2494.869559
357.058080	2495.318222
357.447408	2492.200268
357.836672	2490.050216
358.225873	2494.526761
358.615010	2489.798158
359.004084	2495.764364
359.393095	2492.427120
359.782043	2492.900988
360.170927	2495.219919
360.559748	2496.160094
360.948505	2501.055055
361.337199	2498.373161
361.725830	2499.767040
362.114398	2498.378202
362.502903	2501.372647
362.891344	2501.218892
363.279722	2502.025477
363.668037	2501.823831
364.056289	2501.962463
364.444478	2501.344921
364.832603	2502.103615
365.220665	2503.076557
365.608665	2502.809376
365.996601	2505.642505
366.384474	2506.149141
366.772284	2508.513442
367.160031	2512.019564
367.547715	2511.273474
367.935336	2514.570388
368.322893	2516.334792
368.710388	2521.222191
369.097820	2530.142512
369.485189	2531.060002
369.872495	2536.716177
370.259738	2542.619368
370.646918	2550.349978
371.034035	2557.185782
371.421090	2568.669531
371.808081	2577.483988
372.195010	2582.686459
372.581875	2600.290168
372.968678	2611.393310
373.355418	2623.852521
373.742096	2643.460089
374.128710	2656.453663
374.515262	2672.542506
374.901751	2688.137315
375.288177	2701.168698
375.674540	2720.297356
376.060841	2740.610686
376.447079	2760.235897
376.833254	2781.350770
377.219367	2795.281999
377.605417	2831.575786
377.991404	2839.374451
378.377329	2861.734489
378.763191	2878.438352
379.148991	2917.797161
379.534727	2940.179884
379.920402	2969.232054
380.306013	2983.740494
380.691563	3032.296888
381.077049	3055.823953
381.462474	3075.534865
381.847835	3111.465689
382.233134	3134.405459
382.618371	3134.506282
383.003545	3199.713607
383.388657	3206.584700
383.773706	3242.767582
384.158693	3258.198554
384.543618	3284.321813
384.928480	3319.705672
385.313280	3365.413814
385.698017	3360.478524
386.082692	3417.592277
386.467305	3422.333482
386.851856	3455.463945
387.236344	3476.883808
387.620770	3509.265659
388.005133	3534.655431
388.389435	3560.161149
388.773674	3574.359558
389.157851	3615.364304
389.541965	3629.902992
389.926018	3597.836212
390.310008	3665.007066
390.693936	3683.581198
391.077802	3726.325141
391.461606	3713.351732
391.845348	3777.830610
392.229027	3775.423459
392.612645	3789.815953
392.996200	3871.280999
393.379694	3906.853902
393.763125	3973.573573
394.146494	3942.414201
394.529801	4004.024662
394.913047	4050.375552
395.296230	4018.268443
395.679351	4070.119231
396.062410	4092.895164
396.445408	4075.596444
396.828343	4109.193214
397.211217	4132.125423
397.594028	4049.810942
397.976778	4118.196715
398.359466	4146.626302
398.742092	4175.358358
399.124656	4096.996142
399.507158	4179.232485
399.889598	4203.374571
400.271977	4263.676853
400.654294	4236.920929
401.036549	4242.745982
401.418742	4213.293041
401.800874	4316.309020
402.182944	4336.579499
402.564952	4400.733223
402.946898	4388.931882
403.328783	4385.642529
403.710606	4298.284374
404.092367	4490.523735
404.474067	4452.299186
404.855705	4465.378460
405.237282	4392.735433
405.618797	4502.582175
406.000250	4535.878996
406.381642	4616.557622
406.762972	4578.731324
407.144240	4588.687603
407.525447	4591.319086
407.906593	4645.866891
408.287677	4691.985887
408.668700	4621.780258
409.049661	4669.855221
409.430560	4714.330801
409.811399	4639.462105
410.192176	4798.926404
410.572891	4741.056478
410.953545	4844.705122
411.334138	4723.233479
411.714669	4787.692192
412.095139	4686.748128
412.475547	4827.355991
412.855894	4811.708249
413.236180	4817.477850
413.616405	4775.222898
413.996568	4860.068038
414.376670	4798.351712
414.756711	4755.643057
415.136691	4790.676556
415.516609	4864.655488
415.896466	4901.637393
416.276262	4938.372281
416.655997	4919.596503
417.035670	5103.011324
417.415283	5191.962484
417.794834	5134.926869
418.174324	5087.635805
418.553753	4996.360674
418.933121	5180.256925
419.312428	5242.878138
419.691674	5187.664900
420.070859	5310.134692
420.449983	5226.993462
420.829045	5338.362633
421.208047	5249.333335
421.586988	5321.298327
421.965867	5332.676211
422.344686	5465.356860
422.723444	5319.339839
423.102141	5137.092045
423.480777	5436.576913
423.859352	5203.688208
424.237866	5460.857630
424.616319	5454.649449
424.994712	5562.446962
425.373044	5437.020534
425.751314	5581.792390
426.129524	5388.774171
426.507673	5582.306588
426.885762	5665.465462
427.263789	5595.978197
427.641756	5479.139375
428.019662	5602.141008
428.397508	5602.277119
428.775292	5553.526641
429.153016	5654.730325
429.530679	5575.274178
429.908282	5663.660729
430.285824	5535.025606
430.663305	5808.997194
431.040726	5544.510537
431.418086	5545.765784
431.795385	5649.510210
432.172624	5663.794319
432.549802	5654.397609
432.926920	5668.439743
433.303977	5674.433675
433.680974	5715.561928
434.057910	5729.916614
434.434786	5734.746039
434.811601	5702.754877
435.188355	5943.031393
435.565050	5820.301982
435.941683	5799.817253
436.318257	6011.049161
436.694770	5997.538869
437.071222	6030.565988
437.447614	5960.821625
437.823946	5875.462287
438.200218	6027.148086
438.576429	5894.210338
438.952580	5996.830587
439.328670	6036.396082
439.704700	5947.011384
440.080670	5932.046718
440.456580	6200.034457
440.832429	6086.497590
441.208218	5932.016472
441.583947	6086.555563
441.959616	6092.355411
442.335224	6018.421848
442.710773	6154.119628
443.086261	6180.966293
443.461689	5974.614222
443.837057	6126.985617
444.212365	6279.291478
444.587612	6171.483882
444.962800	6326.285114
445.337927	6310.672660
445.712995	5919.259832
446.088002	6495.249467
446.462949	6321.198590
446.837837	6256.145020
447.212664	6427.403098
447.587431	6574.372897
447.962139	7114.867769
448.336786	8045.016106
448.711374	7786.568751
449.085901	6860.710436
449.460369	6776.157683
449.834776	6709.712755
450.209124	7102.204390
450.583412	7255.309274
450.957640	7400.940647
451.331808	7163.174626
451.705917	6715.139557
452.079965	6642.897302
452.453954	6852.412697
452.827883	6723.187759
453.201752	6820.169477
453.575562	6624.071113
453.949311	6825.848337
454.323001	6712.321552
454.696632	6788.014477
455.070202	6926.973883
455.443713	7080.545073
455.817164	7183.742533
456.190556	7263.160871
456.563888	7341.757501
456.937160	7381.217132
457.310373	7039.217694
457.683526	7066.820532
458.056619	6953.429858
458.429653	6944.136491
458.802628	6874.934052
459.175542	6984.528736
459.548398	7344.812440
459.921194	7499.885894
460.293930	7504.160792
460.666607	8033.905403
461.039224	8348.964916
461.411782	8469.294737
461.784280	8490.525557
462.156719	8380.698979
462.529099	8261.606761
462.901419	7848.043102
463.273680	7743.575271
463.645882	7753.236642
464.018024	7626.174359
464.390106	7785.943648
464.762130	8176.116353
465.134094	8641.220769
465.505999	9660.095934
465.877845	10884.171267
466.249631	11534.986749
466.621358	11160.050932
466.993026	10523.731288
467.364634	10269.672257
467.736184	9906.073995
468.107674	9573.277183
468.479105	9608.025856
468.850477	9373.529023
469.221790	9142.538313
469.593043	8806.865522
469.964238	8673.751334
470.335373	8683.790792
470.706449	8742.341274
471.077467	8730.182011
471.448425	10032.458243
471.819324	11108.162335
472.190164	11136.294494
472.560945	9885.579184
472.931667	9098.922250
473.302330	8964.618350
473.672934	8605.736087
474.043479	8966.476015
474.413965	8906.874453
474.784393	8780.752345
475.154761	8938.487529
475.525070	9027.239563
475.895321	8858.829736
476.265513	9034.836582
476.635645	9205.000730
477.005719	9198.106952
477.375734	9319.019027
477.745691	9553.954440
478.115588	9688.689359
478.485427	9929.175083
478.855207	10463.280291
479.224928	11280.640373
479.594591	11911.770149
479.964194	11729.608055
480.333739	11663.218580
480.703226	11577.080384
481.072653	11668.922645
481.442022	11902.978377
481.811333	12098.325609
482.180584	11907.044068
482.549777	11611.554314
482.918912	11439.262799
483.287988	11459.697117
483.657005	11473.824950
484.025964	11155.493729
484.394864	11289.061621
484.763706	11253.846640
485.132489	11012.519044
485.501213	10968.842487
485.869879	11051.212420
486.238487	10889.640919
486.607036	11005.363126
486.975527	10779.582448
487.343959	10968.033382
487.712333	11021.525065
488.080648	10951.710126
488.448905	10994.338123
488.817104	10927.126939
489.185244	11194.179543
489.553326	11350.891373
489.921350	11884.978937
490.289315	12951.256072
490.657222	13296.330615
491.025070	13207.886091
491.392861	13083.306577
491.760593	12699.200901
492.128267	12348.581089
492.495883	12020.149916
492.863440	11689.858557
493.230939	11348.491783
493.598380	11290.531117
493.965763	11148.330249
494.333088	11048.883407
494.700354	10966.735285
495.067563	11029.159893
495.434713	10858.491629
495.801805	10989.317133
496.168839	10915.980948
496.535815	10847.978303
496.902733	10840.434216
497.269593	10781.288879
497.636395	10878.394105
498.003139	10869.617456
498.369825	10735.689122
498.736453	10891.622093
499.103023	10821.010651
499.469535	10842.334731
499.835989	10832.476755
500.202385	10794.819336
500.568723	10645.119752
500.935003	10867.298525
501.301226	10676.962200
501.667390	10933.317476
502.033497	11031.942610
502.399546	10894.182999
502.765537	10800.599019
503.131470	10874.426717
503.497345	11046.350228
503.863163	10656.013685
504.228923	10975.842129
504.594625	11034.942096
504.960269	10779.542119
505.325856	11005.799186
505.691385	10792.518049
506.056856	10949.063520
506.422270	10979.121400
506.787625	10862.113698
507.152924	10979.920423
507.518164	10962.588936
507.883347	10882.800073
508.248472	10795.472165
508.613540	11037.036696
508.978550	10917.372306
509.343503	10895.405478
509.708398	11010.333704
510.073236	11125.750921
510.438016	11127.003648
510.802738	11074.084135
511.167403	11128.261416
511.532010	11021.812411
511.896561	11261.005079
512.261053	11325.816673
512.625488	11193.110819
512.989866	11176.651452
513.354186	11164.096458
513.718449	11072.072715
514.082655	11266.376428
514.446803	11158.669656
514.810894	11278.374374
515.174927	11146.580969
515.538904	11166.319607
515.902822	11319.893317
516.266684	11207.919208
516.630488	11149.615743
516.994235	11200.969978
517.357925	11264.092786
517.721558	11358.737928
518.085133	11370.133457
518.448651	11382.504448
518.812112	11267.291398
519.175516	11286.195725
519.538863	11398.812581
519.902152	11315.918368
520.265385	11475.972482
520.628560	11386.665921
520.991678	11365.593898
521.354739	11431.486820
521.717743	11363.859741
522.080690	11336.408138
522.443580	11474.500465
522.806413	11421.336456
523.169189	11456.352311
523.531908	11515.701815
523.894569	11333.401089
524.257174	11337.713796
524.619722	11457.259719
524.982213	11400.289639
525.344647	11454.625716
525.707025	11406.074363
526.069345	11501.097593
526.431608	11419.186404
526.793815	11521.652897
527.155964	11313.107924
527.518057	11369.571368
527.880093	11318.640591
528.242072	11386.048379
528.603995	11296.159565
528.965860	11211.082532
529.327669	11260.805953
529.689421	11211.531195
530.051117	11183.651094
530.412755	11282.452668
530.774337	11178.534322
531.135862	11157.086733
531.497331	11179.721514
531.858743	11035.042919
532.220098	11202.371418
532.581396	11067.122302
532.942638	11051.446834
533.303824	11013.244970
533.664953	11021.794767
534.026025	10936.828640
534.387040	11036.159535
534.747999	11041.074660
535.108902	11098.609349
535.469748	10854.098264
535.830537	10958.031733
536.191270	10945.267531
536.551947	10962.435181
536.912567	10956.816815
537.273131	10888.292410
537.633638	10861.314676
537.994089	10849.115083
538.354483	10797.652464
538.714821	10943.666965
539.075103	10958.004006
539.435328	10913.369630
539.795497	10739.527960
540.155609	10898.465459
540.515665	10986.453758
540.875665	10725.377442
541.235609	10795.704058
541.595496	10786.645105
541.955328	10943.460278
542.315102	10823.107771
542.674821	10771.531726
543.034483	10776.766964
543.394090	10780.724270
543.753640	10707.612415
544.113134	10937.826788
544.472571	10779.259814
544.831953	10927.154665
545.191278	10729.526311
545.550548	10758.628892
545.909761	10893.492361
546.268918	10860.399706
546.628019	10950.782553
546.987064	10809.947838
547.346053	10727.996321
547.704986	10830.477938
548.063863	10819.336988
548.422684	10804.198403
548.781449	10722.181350
549.140158	10828.985756
549.498811	10691.941989
549.857408	10553.133817
550.215949	10776.761923
550.574434	10630.830601
550.932864	10727.351053
551.291237	10793.037288
551.649555	10732.271219
552.007817	10739.739689
552.366022	10703.057733
552.724173	10701.119409
553.082267	10678.161995
553.440305	10813.927829
553.798288	10617.126224
554.156215	10765.126940
554.514086	10736.664585
554.871902	10589.475496
555.229661	10620.196287
555.587365	10595.686197
555.945014	10491.646864
556.302606	10617.017840
556.660143	10501.683801
557.017625	10655.370938
557.375050	10550.197345
557.732421	10679.767602
558.089735	10595.504716
558.446994	10593.810888
558.804197	10627.296752
559.161345	10620.725608
559.518437	10469.662392
559.875474	10552.624661
560.232455	10574.984699
560.589381	10527.192040
560.946251	10518.715340
561.303065	10627.609304
561.659825	10548.616944
562.016528	10476.178083
562.373177	10361.333037
562.729770	10468.162649
563.086307	10374.571107
563.442789	10463.683584
563.799216	10335.590385
564.155587	10381.134689
564.511904	10337.440488
564.868164	10305.441764
565.224370	10325.422378
565.580520	10245.973793
565.936615	10248.506973
566.292654	10106.704356
566.648638	10234.366536
567.004567	10180.711015
567.360441	10157.904835
567.716260	10063.778931
568.072023	10154.509618
568.427732	10094.587943
568.783385	10003.355661
569.138982	10055.100585
569.494525	10067.975692
569.850013	9938.876783
570.205445	10017.203711
570.560823	9908.738245
570.916145	9814.256939
571.271412	9865.482624
571.626625	9809.934150
571.981782	9775.235888
572.336884	9748.106919
572.691931	9749.160520
573.046923	9682.017392
573.401860	9627.525039
573.756743	9552.966374
574.111570	9587.485675
574.466342	9560.046674
574.821059	9579.152647
575.175722	9463.932035
575.530330	9457.013052
575.884882	9449.776475
576.239380	9359.648206
576.593823	9332.178959
576.948211	9335.049896
577.302544	9207.934681
577.656823	9208.446358
578.011047	9204.821769
578.365216	9156.104058
578.719330	9068.861849
579.073389	9062.328514
579.427394	9010.298765
579.781344	8973.064803
580.135239	8916.387110
580.489080	8903.159123
580.842866	8798.368657
581.196597	8785.639744
581.550273	8809.701171
581.903895	8765.079398
582.257463	8812.504053
582.610975	8678.389196
582.964434	8694.195734
583.317837	8600.140406
583.671186	8577.573681
584.024481	8555.430412
584.377721	8463.119324
584.730906	8424.746061
585.084037	8428.799148
585.437113	8365.973769
585.790135	8362.139971
586.143103	8250.163341
586.496016	8215.901139
586.848874	8237.925940
587.201679	8216.284267
587.554428	8098.603572
587.907124	8114.049667
588.259765	8076.513235
588.612352	8049.870737
588.964884	7932.774816
589.317362	7914.329234
589.669786	7894.283086
590.022155	7926.433044
590.374470	7912.297649
590.726731	7853.482507
591.078937	7703.835855
591.431090	7771.223479
591.783188	7648.753688
592.135232	7626.859956
592.487222	7609.541072
592.839157	7630.408929
593.191038	7556.419914
593.542866	7488.220664
593.894639	7385.187041
594.246358	7409.203098
594.598022	7401.618682
594.949633	7298.821993
595.301190	7250.797441
595.652692	7257.945797
596.004141	7328.254770
596.355535	7133.031046
596.706876	7090.256856
597.058162	7014.957141
597.409395	7058.469860
597.760573	7085.245949
598.111698	6997.781930
598.462768	6963.161806
598.813785	6919.210506
599.164748	6865.575149
599.515657	6840.974319
599.866511	6745.303301
600.217312	6829.283883
600.568060	6700.041301
600.918753	6753.401915
601.269392	6712.442540
601.619978	6622.488190
601.970510	6648.944166
602.320988	6626.238809
602.671412	6640.858155
603.021783	6579.353557
603.372100	6537.388472
603.722363	6509.694894
604.072572	6476.587116
604.422728	6464.170754
604.772830	6388.210648
605.122878	6370.664912
605.472872	6349.444175
605.822813	6344.397980
606.172701	6289.746831
606.522534	6317.700029
606.872314	6299.932482
607.222041	6251.464308
607.571714	6266.953254
607.921333	6212.818823
608.270899	6192.782757
608.620411	6232.759107
608.969870	6140.889119
609.319276	6117.984637
609.668627	6103.203974
610.017926	6107.282267
610.367171	6106.929387
610.716362	6072.596608
611.065500	6043.405807
611.414585	6032.726123
611.763616	6007.969016
612.112594	5966.679445
612.461518	5952.203772
612.810389	5964.423529
613.159207	5905.757101
613.507971	5849.502865
613.856682	5894.215379
614.205340	5844.663358
614.553945	5867.956009
614.902496	5783.771260
615.250994	5790.448269
615.599439	5753.567187
615.947830	5737.012038
616.296169	5699.437798
616.644454	5684.861301
616.992686	5657.250902
617.340864	5666.445966
617.688990	5590.707671
618.037063	5620.437876
618.385082	5565.627931
618.733048	5583.163584
619.080961	5533.001583
619.428821	5524.671076
619.776628	5495.855841
620.124382	5447.334735
620.472083	5412.802831
620.819731	5408.895937
621.167326	5328.487013
621.514868	5311.919260
621.862357	5237.305142
622.209793	5226.796857
622.557176	5170.572868
622.904506	5129.421929
623.251783	5084.664045
623.599007	5035.379204
623.946179	5016.041338
624.293297	4974.056088
624.640363	4923.750414
624.987376	4886.418149
625.334336	4848.692675
625.681243	4803.965037
626.028097	4772.288947
626.374899	4753.125001
626.721647	4718.809866
627.068343	4676.378474
627.414987	4643.668948
627.761577	4604.824337
628.108115	4605.683853
628.454600	4538.389491
628.801032	4534.893451
629.147412	4515.855533
629.493739	4480.501921
629.840014	4441.347279
630.186236	4448.004123
630.532405	4383.794946
630.878521	4387.888363
631.224585	4353.989124
631.570597	4303.048265
631.916556	4298.985095
632.262462	4287.014875
632.608316	4249.269235
632.954117	4225.565730
633.299866	4204.592009
633.645562	4179.749203
633.991206	4142.101866
634.336797	4104.946042
634.682336	4071.087132
635.027823	4039.237122
635.373257	4022.417312
635.718639	3979.605313
636.063968	3970.105259
636.409245	3923.429215
636.754470	3903.562028
637.099642	3883.069738
637.444762	3844.477184
637.789829	3834.349506
638.134845	3804.455464
638.479808	3784.477371
638.824719	3773.694343
639.169577	3736.944332
639.514383	3729.054926
639.859137	3696.978064
640.203839	3692.221735
640.548489	3666.133764
640.893086	3651.857217
641.237632	3625.534832
641.582125	3619.324130
641.926566	3595.519802
642.270955	3593.687342
642.615292	3581.250816
642.959576	3574.994744
643.303809	3559.029410
643.647990	3550.361146
643.992118	3534.978065
644.336195	3515.632637
644.680219	3505.512520
645.024192	3496.133454
645.368112	3510.314219
645.711981	3503.609485
646.055797	3514.289169
646.399562	3494.573217
646.743274	3514.011906
647.086935	3521.104809
647.430544	3514.021988
647.774101	3503.700226
648.117606	3494.636231
648.461059	3478.786843
648.804460	3457.024182
649.147810	3428.274482
649.491108	3404.439906
649.834354	3387.748646
650.177548	3360.259234
650.520690	3329.306549
650.863781	3315.975218
651.206820	3311.692758
651.549807	3281.942388
651.892742	3261.024121
652.235626	3253.275867
652.578458	3243.102819
652.921238	3217.098027
653.263967	3217.478634
653.606644	3197.359389
653.949269	3188.013089
654.291843	3170.732014
654.634365	3172.292251
654.976836	3156.881444
655.319255	3150.547234
655.661622	3137.898979
656.003938	3128.915643
656.346203	3114.409723
656.688416	3111.919393
657.030577	3096.790890
657.372687	3086.748912
657.714746	3076.535534
658.056753	3077.906728
658.398708	3057.033830
658.740612	3053.633572
659.082465	3052.612738
659.424266	3045.313147
659.766016	3035.465253
660.107715	3029.221784
660.449362	3025.430837
660.790958	3018.022861
661.132503	3010.879546
661.473996	3011.441635
661.815438	3004.351252
662.156829	2994.674757
662.498168	2989.709221
662.839456	2980.894763
663.180693	2978.674135
663.521879	2973.396047
663.863013	2965.224336
664.204097	2960.399952
664.545129	2961.297278
664.886110	2958.285188
665.227040	2950.466358
665.567918	2950.204218
665.908746	2942.987807
666.249522	2940.691561
666.590248	2935.980603
666.930922	2934.495983
667.271545	2928.703697
667.612118	2926.626742
667.952639	2916.146183
668.293109	2913.030750
668.633528	2903.747465
668.973896	2896.793193
669.314213	2887.885475
669.654480	2884.066801
669.994695	2879.547406
670.334859	2872.046169
670.674973	2867.403267
671.015035	2863.390508
671.355047	2858.361957
671.695008	2853.383818
672.034918	2846.805112
672.374777	2845.633044
672.714585	2838.187259
673.054342	2838.918227
673.394049	2835.757423
673.733705	2834.146775
674.073310	2827.500013
674.412864	2823.875424
674.752368	2814.617345
675.091820	2811.247333
675.431223	2801.656538
675.770574	2798.364665
676.109875	2786.061729
676.449125	2784.148611
676.788324	2779.525873
677.127473	2773.547064
677.466571	2765.496342
677.805619	2764.094901
678.144616	2758.355547
678.483562	2756.044178
678.822458	2750.929927
679.161303	2747.529669
679.500098	2742.317116
679.838842	2738.964749
680.177535	2738.301837
680.516179	2736.345869
680.854771	2734.881414
681.193314	2740.978690
681.531805	2745.750142
681.870247	2754.178951
682.208638	2760.208171
682.546978	2759.855290
682.885268	2750.793816
683.223508	2744.031108
683.561697	2738.006930
683.899836	2736.509707
684.237925	2730.067112
684.575963	2728.164077
684.913951	2722.142418
685.251889	2725.434292
685.589776	2720.567058
685.927614	2716.627396
686.265401	2719.352140
686.603137	2723.979919
686.940824	2722.787686
687.278460	2723.561503
687.616046	2721.484548
687.953582	2725.371277
688.291068	2724.678119
688.628504	2726.724827
688.965889	2724.267265
689.303224	2715.977087
689.640510	2710.469627
689.977745	2704.246322
690.314930	2696.929087
690.652065	2693.397759
690.989150	2684.268230
691.326185	2680.358815
691.663170	2673.132321
692.000105	2666.021773
692.336990	2662.797955
692.673825	2659.359888
693.010610	2657.827378
693.347345	2646.706592
693.684030	2644.344812
694.020665	2645.446304
694.357251	2634.764099
694.693786	2636.336939
695.030272	2638.197125
695.366707	2634.433903
695.703093	2632.835857
696.039429	2632.871146
696.375716	2630.368213
696.711952	2626.204220
697.048139	2628.903757
697.384276	2625.702625
697.720363	2623.625669
698.056400	2625.248921
698.392388	2622.715741
698.728326	2623.996194
699.064214	2621.621811
699.400053	2619.386059
699.735842	2614.637292
700.071581	2616.071500
700.407270	2611.814246
700.742910	2611.554627
701.078501	2608.471961
701.414042	2608.529934
701.749533	2608.686210
702.084974	2602.493152
702.420366	2601.094232
702.755709	2600.587596
703.091002	2599.009715
703.426246	2600.159098
703.761440	2596.484097
704.096584	2599.377719
704.431679	2596.597523
704.766725	2592.829261
705.101721	2596.322780
705.436668	2593.214909
705.771565	2594.286154
706.106413	2593.257759
706.441212	2590.691811
706.775961	2593.938314
707.110661	2593.736668
707.445311	2593.638366
707.779913	2592.786411
708.114465	2597.754468
708.448967	2594.432347
708.783421	2596.468974
709.117825	2600.091043
709.452180	2595.241453
709.786485	2595.412852
710.120742	2600.310333
710.454949	2600.615323
710.789107	2598.525764
711.123216	2597.434355
711.457275	2601.845364
711.791286	2602.140272
712.125247	2603.957608
712.459159	2602.299068
712.793023	2606.775613
713.126837	2601.043821
713.460602	2602.974583
713.794318	2601.585745
714.127985	2599.314705
714.461602	2595.186000
714.795171	2593.897985
715.128691	2588.100658
715.462162	2590.568303
715.795584	2587.919177
716.128957	2589.184506
716.462281	2586.497571
716.795556	2583.644278
717.128782	2583.795513
717.461960	2582.026068
717.795088	2580.969946
718.128167	2580.846438
718.461198	2580.125553
718.794180	2579.679411
719.127113	2576.690007
719.459997	2575.223031
719.792833	2574.698751
720.125619	2575.684296
720.458357	2573.806467
720.791046	2572.460478
721.123686	2573.814028
721.456278	2573.589697
721.788821	2573.166240
722.121315	2572.137845
722.453761	2572.069789
722.786158	2569.420663
723.118506	2571.316137
723.450805	2572.974676
723.783056	2569.826476
724.115259	2574.643298
724.447412	2571.739593
724.779518	2571.890828
725.111574	2569.821434
725.443582	2572.339491
725.775542	2570.786815
726.107453	2572.798236
726.439315	2573.985427
726.771129	2577.438618
727.102895	2573.861919
727.434612	2573.753534
727.766281	2574.809656
728.097901	2573.463668
728.429473	2571.674058
728.760996	2570.549881
729.092471	2571.951322
729.423897	2576.803432
729.755276	2574.282856
730.086606	2575.419636
730.417887	2572.823442
730.749120	2578.219997
731.080305	2574.645819
731.411442	2576.911817
731.742530	2574.608010
732.073570	2574.408884
732.404562	2577.504153
732.735506	2577.415933
733.066401	2574.849985
733.397249	2581.012796
733.728048	2574.756724
734.058798	2570.673389
734.389501	2571.865622
734.720156	2569.713050
735.050762	2567.835220
735.381320	2569.163564
735.711831	2566.196845
736.042293	2565.584345
736.372707	2566.274983
736.703073	2568.762792
737.033391	2567.588203
737.363661	2565.044941
737.693883	2567.240364
738.024056	2567.293296
738.354182	2569.851681
738.684260	2566.189283
739.014290	2569.392936
739.344272	2568.528378
739.674207	2567.497462
740.004093	2570.660787
740.333931	2566.983265
740.663722	2570.373441
740.993464	2566.685837
741.323159	2568.107442
741.652806	2567.285734
741.982405	2569.725653
742.311956	2566.930333
742.641460	2566.673234
742.970915	2566.610219
743.300323	2565.118038
743.629683	2564.359344
743.958996	2563.245249
744.288260	2560.913716
744.617477	2562.262224
744.946647	2554.897098
745.275768	2560.954045
745.604842	2556.104455
745.933869	2560.656617
746.262847	2557.400031
746.591778	2559.078736
746.920662	2560.540670
747.249498	2560.984292
747.578286	2562.531926
747.907027	2561.871535
748.235720	2562.380691
748.564365	2561.707697
748.892963	2564.376988
749.221514	2561.012018
749.550017	2558.725855
749.878473	2563.036041
750.206881	2562.660475
750.535242	2561.972358
750.863555	2563.134344
751.191821	2561.564024
751.520039	2561.475804
751.848210	2559.540001
752.176334	2563.260373
752.504411	2560.402038
752.832440	2558.322562
753.160421	2560.611246
753.488356	2561.677450
753.816243	2558.506565
754.144082	2560.684343
754.471875	2559.938252
754.799620	2559.842470
755.127318	2558.264589
755.454969	2558.244425
755.782572	2562.229457
756.110129	2559.287943
756.437638	2559.718962
756.765100	2558.292316
757.092515	2561.697615
757.419882	2558.138560
757.747203	2558.562017
758.074477	2560.515464
758.401703	2557.072356
758.728882	2559.340876
759.056014	2560.780125
759.383099	2558.055381
759.710138	2561.858932
760.037129	2560.787687
760.364073	2561.311967
760.690970	2559.519837
761.017820	2559.194682
761.344623	2560.651576
761.671379	2562.383212
761.998088	2555.945658
762.324751	2566.239695
762.651366	2569.108111
762.977935	2580.135635
763.304456	2585.406162
763.630931	2590.575865
763.957359	2584.438260
764.283740	2582.845255
764.610074	2572.992320
764.936362	2568.515776
765.262602	2565.758264
765.588796	2564.422359
765.914943	2561.271637
766.241044	2559.008159
766.567097	2558.143602
766.893104	2558.246945
767.219064	2556.467418
767.544978	2557.241235
767.870845	2555.527243
768.196665	2557.034548
768.522438	2551.196892
768.848165	2553.510781
769.173846	2552.888199
769.499479	2552.530277
769.825066	2555.300391
770.150607	2553.442726
770.476101	2549.790410
770.801548	2554.461039
771.126949	2552.247972
771.452303	2550.939793
771.777611	2551.252344
772.102872	2552.641182
772.428087	2551.315359
772.753256	2551.232180
773.078378	2550.556665
773.403453	2549.200595
773.728482	2552.868034
774.053465	2549.926521
774.378401	2548.267981
774.703291	2550.349978
775.028135	2546.102806
775.352932	2547.957950
775.677683	2550.849052
776.002388	2551.055739
776.327046	2547.327806
776.651658	2549.671943
776.976224	2547.239586
777.300743	2548.620862
777.625216	2548.441901
777.949643	2549.344267
778.274024	2551.146480
778.598359	2546.533824
778.922647	2544.101467
779.246889	2545.097095
779.571086	2542.876467
779.895236	2547.521890
780.219339	2547.100954
780.543397	2548.058773
780.867409	2548.946016
781.191374	2549.906356
781.515294	2549.326623
781.839167	2548.870399
782.162995	2548.073897
782.486776	2551.209494
782.810511	2547.708413
783.134201	2548.789741
783.457844	2546.276725
783.781441	2548.638506
784.104993	2546.483413
784.428498	2546.208670
784.751958	2546.725388
785.075372	2546.571633
785.398739	2547.809236
785.722061	2548.078938
786.045337	2547.486602
786.368568	2550.294525
786.691752	2546.415357
787.014891	2547.912580
787.337983	2551.517005
787.661030	2550.420554
787.984031	2552.293342
788.306987	2553.599001
788.629897	2550.881819
788.952760	2553.576316
789.275579	2551.829556
789.598351	2551.501881
789.921078	2549.132539
790.243759	2549.190512
790.566395	2548.502395
790.888984	2551.310317
791.211529	2547.403423
791.534027	2550.513815
791.856480	2548.457024
792.178888	2547.564740
792.501249	2543.783875
792.823566	2548.920811
793.145836	2546.576674
793.468062	2549.548434
793.790241	2547.678166
794.112375	2546.591798
794.434464	2544.504760
794.756507	2549.394679
795.078505	2547.688248
795.400457	2545.792775
795.722364	2542.503422
796.044226	2546.264122
796.366042	2546.518701
796.687812	2547.511808
797.009538	2549.974412
797.331218	2548.729247
797.652852	2550.128167
797.974442	2549.528270
798.295986	2547.957950
798.617484	2547.768907
798.938938	2548.358722
799.260346	2548.449463
799.581709	2549.432488
799.903026	2551.862324
800.224299	2547.713454
800.545526	2547.131201
800.866708	2545.719678
801.187845	2546.024668
801.508936	2547.287477
801.829983	2548.058773
802.150984	2545.870913
802.471940	2547.726057
802.792851	2545.197918
803.113717	2544.232538
803.434538	2543.877136
803.755314	2546.914431
804.076045	2546.448125
804.396731	2544.061138
804.717372	2546.569112
805.037967	2548.260419
805.358518	2545.812939
805.679024	2547.284956
805.999485	2547.526932
806.319901	2547.630275
806.640272	2545.419729
806.960598	2544.915614
807.280879	2546.402754
807.601115	2548.199926
807.921306	2545.084493
808.241453	2547.673125
808.561554	2545.691952
808.881611	2549.301418
809.201623	2550.513815
809.521590	2549.210677
809.841513	2548.446942
810.161390	2546.155738
810.481223	2545.790254
810.801011	2547.055584
811.120755	2548.008362
811.440453	2546.808567
811.760107	2544.892929
812.079716	2543.269677
812.399281	2540.703730
812.718801	2544.512322
813.038276	2542.458051
813.357707	2547.156407
813.677093	2545.041643
813.996434	2545.112219
814.315731	2547.640357
814.634983	2546.778320
814.954191	2545.150027
815.273354	2542.616848
815.592473	2543.819163
815.911547	2546.390151
816.230577	2547.252189
816.549562	2549.971891
816.868502	2547.988197
817.187399	2548.557847
817.506250	2544.983669
817.825058	2546.785882
818.143821	2546.117929
818.462539	2547.345450
818.781213	2550.228990
819.099843	2549.785368
819.418429	2554.211502
819.736970	2558.236863
820.055466	2558.294836
820.373919	2559.887841
820.692327	2568.276321
821.010691	2575.875860
821.329011	2597.636001
821.647286	2633.279479
821.965517	2674.863957
822.283704	2702.045859
822.601847	2707.815459
822.919945	2690.599919
823.237999	2664.907678
823.556010	2641.854482
823.873976	2619.559979
824.191897	2606.362238
824.509775	2594.694487
824.827609	2585.136460
825.145398	2580.516242
825.463144	2581.315265
825.780845	2580.314596
826.098502	2584.960019
826.416116	2595.044848
826.733685	2607.191508
827.051210	2614.009668
827.368692	2610.435490
827.686129	2597.885538
828.003522	2585.312900
828.320872	2572.208421
828.638177	2565.894376
828.955439	2557.639486
829.272656	2556.704352
829.589830	2551.239741
829.906960	2553.130174
830.224046	2551.161603
830.541088	2553.624207
830.858086	2551.030533
831.175041	2551.406099
831.491952	2550.723023
831.808819	2547.852086
832.125642	2553.944320
832.442421	2550.970040
832.759157	2555.358364
833.075849	2565.208779
833.392497	2572.800756
833.709101	2579.571026
834.025662	2581.582446
834.342179	2574.512228
834.658653	2565.906978
834.975083	2562.264745
835.291469	2565.725497
835.607811	2554.791234
835.924110	2551.950544
836.240366	2551.275029
836.556578	2548.807385
836.872746	2550.735626
837.188871	2545.528114
837.504952	2547.058104
837.820990	2546.117929
838.136984	2542.049718
838.452935	2542.256405
838.768842	2546.203629
839.084706	2545.523073
839.400526	2550.047508
839.716303	2551.907694
840.032037	2558.937583
840.347727	2558.665361
840.663373	2553.551110
840.978977	2552.825184
841.294537	2548.537683
841.610054	2546.405275
841.925527	2547.300080
842.240957	2543.539379
842.556344	2542.904193
842.871687	2540.610468
843.186987	2542.347146
843.502244	2539.355221
843.817458	2537.948739
844.132629	2542.455531
844.447756	2542.944523
844.762840	2537.545447
845.077881	2534.929088
845.392879	2537.542926
845.707833	2538.306661
846.022745	2535.836496
846.337613	2537.764737
846.652438	2540.441590
846.967221	2541.028884
847.281960	2540.073586
847.596656	2540.383617
847.911309	2539.483771
848.225919	2540.292876
848.540485	2537.331198
848.855009	2539.773637
849.169490	2543.057949
849.483928	2540.960829
849.798323	2538.594007
850.112675	2540.466796
850.426984	2537.918492
850.741251	2540.449152
851.055474	2537.789943
851.369654	2540.701209
851.683792	2539.662732
851.997887	2538.714995
852.311938	2535.990251
852.625947	2538.498225
852.939914	2538.654501
853.253837	2541.533000
853.567718	2537.487474
853.881555	2539.133410
854.195350	2537.066537
854.509103	2538.445293
854.822812	2536.983358
855.136479	2539.282124
855.450103	2540.784388
855.763685	2539.589635
856.077224	2540.229861
856.390720	2538.629295
856.704173	2540.923020
857.017584	2538.336908
857.330953	2539.110725
857.644278	2540.877650
857.957561	2539.829090
858.270802	2540.832279
858.584000	2541.679193
858.897155	2543.506611
859.210268	2540.547454
859.523339	2542.480737
859.836367	2540.464275
860.149352	2539.519059
860.462295	2541.132228
860.775195	2534.939170
861.088054	2535.584438
861.400869	2534.500590
861.713642	2535.158461
862.026373	2538.031918
862.339062	2539.052752
862.651708	2540.338246
862.964312	2538.125180
863.276873	2541.580891
863.589392	2540.063503
863.901869	2537.598379
864.214303	2537.794984
864.526696	2537.061496
864.839045	2540.822197
865.151353	2538.228523
865.463619	2541.689275
865.775842	2541.454862
866.088023	2541.107022
866.400162	2539.642567
866.712258	2540.814635
867.024313	2538.447813
867.336325	2539.549306
867.648296	2540.116435
867.960224	2543.446117
868.272110	2541.535520
868.583954	2537.477391
868.895755	2539.251878
869.207515	2538.553678
869.519233	2539.267001
869.830909	2540.930582
870.142542	2540.860006
870.454134	2542.977290
870.765684	2543.259595
871.077191	2540.030736
871.388657	2539.372865
871.700081	2540.532331
872.011463	2538.619213
872.322803	2541.291024
872.634101	2546.057435
872.945357	2539.279604
873.256571	2544.663556
873.567744	2544.154400
873.878874	2543.814122
874.189963	2544.524924
874.501010	2543.486447
874.812015	2542.977290
875.122979	2542.637012
875.433900	2543.037784
875.744780	2542.642053
876.055618	2540.396219
876.366415	2544.719009
876.677169	2545.515511
876.987882	2545.155069
877.298554	2540.555016
877.609183	2544.643392
877.919771	2541.429656
878.230317	2545.913762
878.540822	2545.223124
878.851285	2550.349978
879.161707	2551.738816
879.472087	2554.519012
879.782425	2556.908519
880.092722	2563.275496
880.402977	2577.710840
880.713191	2596.458891
881.023363	2622.234311
881.333494	2633.859212
881.643583	2637.617392
881.953631	2633.919706
882.263637	2630.746299
882.573602	2622.602315
882.883526	2610.720316
883.193408	2604.408791
883.503248	2590.422110
883.813048	2582.240317
884.122806	2575.268401
884.432522	2573.503997
884.742197	2568.684654
885.051831	2560.815413
885.361424	2558.577141
885.670975	2555.494475
885.980485	2553.069680
886.289954	2551.630431
886.599382	2550.410472
886.908768	2550.392827
887.218113	2548.451983
887.527417	2548.063814
887.836680	2547.484082
888.145901	2548.842673
888.455082	2542.231199
888.764221	2545.278577
889.073319	2542.573998
889.382376	2545.714637
889.691392	2545.303783
890.000366	2542.533669
890.309300	2544.852599
890.618193	2544.414019
890.927044	2545.054246
891.235855	2544.628268
891.544625	2542.541230
891.853353	2545.616334
892.162041	2545.308824
892.470687	2546.601880
892.779293	2546.858979
893.087858	2549.235883
893.396381	2547.549617
893.704864	2552.210163
894.013306	2554.874413
894.321707	2568.460323
894.630068	2572.954512
894.938387	2576.692527
895.246665	2574.124059
895.554903	2571.464851
895.863100	2564.699622
896.171256	2564.606361
896.479371	2559.373643
896.787446	2558.894733
897.095480	2552.603373
897.403473	2550.705379
897.711425	2550.380225
898.019336	2548.023485
898.327207	2545.306303
898.635038	2548.956099
898.942827	2547.259750
899.250576	2547.201777
899.558284	2545.124822
899.865952	2546.049873
900.173579	2542.934440
900.481165	2544.474513
900.788711	2542.432846
901.096216	2544.416540
901.403681	2541.981662
901.711105	2546.503577
902.018489	2541.323792
902.325832	2546.208670
902.633135	2545.253371
902.940397	2548.746891
903.247619	2548.230173
903.554800	2554.440874
903.861941	2566.879921
904.169041	2578.628330
904.476101	2585.391038
904.783121	2584.118147
905.090100	2580.662436
905.397039	2571.762279
905.703938	2565.244067
906.010796	2560.144940
906.317614	2554.816440
906.624391	2550.884340
906.931129	2549.253527
907.237826	2545.480223
907.544483	2547.221942
907.851099	2544.845038
908.157675	2543.955274
908.464211	2542.770603
908.770707	2535.138296
909.077163	2540.043339
909.383578	2536.189377
909.689954	2534.815662
909.996289	2536.915303
910.302584	2538.858668
910.608839	2537.888245
910.915054	2538.750283
911.221229	2539.897145
911.527363	2539.327495
911.833458	2540.658359
912.139513	2541.101981
912.445527	2540.923020
912.751502	2541.346477
913.057436	2539.493853
913.363331	2540.960829
913.669186	2541.238092
913.975000	2544.396375
914.280775	2547.201777
914.586510	2548.880481
914.892205	2555.146636
915.197859	2559.570248
915.503475	2569.327401
915.809050	2576.316961
916.114585	2582.273084
916.420081	2585.380956
916.725536	2584.329875
917.030952	2580.589339
917.336328	2571.227916
917.641665	2565.206258
917.946961	2566.390929
918.252218	2559.396328
918.557435	2556.089331
918.862612	2555.638148
919.167750	2550.932231
919.472848	2550.120605
919.777906	2545.918803
920.082925	2544.847558
920.387904	2544.812270
920.692843	2543.647764
920.997743	2544.935778
921.302603	2544.134235
921.607423	2543.955274
921.912204	2541.837989
922.216946	2543.473844
922.521647	2541.091899
922.826310	2540.048380
923.130932	2539.599717
923.435516	2540.189532
923.740059	2541.628782
924.044564	2538.243647
924.349028	2539.413194
924.653454	2530.354241
924.957840	2540.655839
925.262186	2532.567307
925.566493	2534.767771
925.870761	2534.157792
926.174989	2537.328677
926.479178	2535.508821
926.783328	2536.728780
927.087438	2538.382278
927.391509	2537.053934
927.695541	2536.721218
927.999533	2536.277597
928.303486	2536.385982
928.607400	2536.640560
928.911275	2536.532175
929.215110	2535.987730
929.518906	2535.675179
929.822663	2534.871115
930.126381	2535.801208
930.430060	2535.561753
930.733699	2536.799356
931.037299	2536.506969
931.340861	2535.914634
931.644383	2540.154244
931.947866	2535.624767
932.251309	2535.309695
932.554714	2536.335570
932.858080	2533.958666
933.161407	2532.842050
933.464694	2537.943698
933.767943	2536.144006
934.071153	2535.707946
934.374323	2534.603934
934.677455	2535.410518
934.980548	2535.849099
935.283602	2535.770961
935.586617	2533.212575
935.889593	2533.366330
936.192530	2532.748789
936.495428	2535.123173
936.798287	2536.259953
937.101108	2536.348173
937.403890	2535.511341
937.706632	2537.500077
938.009336	2538.881353
938.312002	2535.894469
938.614628	2538.508307
938.917216	2539.420756
939.219765	2537.638708
939.522275	2538.213400
939.824747	2538.657021
940.127179	2534.772812
940.429573	2535.405477
940.731929	2535.823893
941.034246	2533.111752
941.336524	2535.309695
941.638763	2537.711805
941.940964	2537.346321
942.243126	2539.672814
942.545250	2537.094264
942.847335	2535.239119
943.149381	2536.743903
943.451389	2534.157792
943.753359	2536.864891
944.055290	2537.167360
944.357182	2535.700385
944.659036	2538.072247
944.960851	2532.917668
945.262628	2538.125180
945.564367	2533.124355
945.866067	2537.021167
946.167729	2536.595189
946.469352	2535.728111
946.770937	2534.321629
947.072484	2536.103677
947.373992	2534.535878
947.675462	2536.963194
947.976893	2533.537730
948.278286	2533.711649
948.579641	2535.770961
948.880958	2535.360107
949.182236	2536.091074
949.483476	2534.424973
949.784678	2537.157278
950.085841	2534.961856
950.386967	2537.275745
950.688054	2536.169212
950.989103	2536.643080
951.290114	2533.192411
951.591087	2535.649973
951.892021	2532.952956
952.192917	2536.862371
952.493776	2534.268697
952.794596	2536.136444
953.095378	2534.729963
953.396122	2534.452699
953.696828	2535.440765
953.997496	2535.481094
954.298126	2533.452030
954.598718	2536.728780
954.899272	2534.311547
955.199788	2532.501773
955.500266	2536.055786
955.800706	2529.015815
956.101108	2531.445651
956.401472	2532.169056
956.701798	2527.034641
957.002087	2529.774508
957.302337	2533.205013
957.602550	2533.993954
957.902724	2532.060672
958.202861	2532.579910
958.502960	2533.784746
958.803022	2535.276928
959.103045	2529.792152
959.403031	2531.876669
959.702979	2530.694519
960.002889	2532.068233
960.302762	2531.808614
960.602596	2530.266021
960.902393	2530.535723
961.202153	2532.158974
961.501875	2529.298119
961.801559	2533.625950
962.101205	2529.421628
962.400814	2532.380785
962.700385	2530.182842
962.999918	2531.642256
963.299414	2529.378778
963.598873	2529.870290
963.898293	2531.286854
964.197677	2530.364323
964.497022	2530.939015
964.796331	2530.956659
965.095601	2529.088911
965.394835	2532.030425
965.694030	2532.579910
965.993189	2531.211237
966.292309	2532.837009
966.591393	2530.999509
966.890439	2530.742410
967.189447	2533.305837
967.488419	2531.788449
967.787353	2532.330373
968.086249	2529.217461
968.385108	2532.196783
968.683930	2532.252235
968.982714	2532.229550
969.281462	2531.722914
969.580172	2531.730476
969.878844	2530.187883
970.177480	2528.778880
970.476078	2533.015970
970.774639	2532.411032
971.073162	2532.595034
971.371649	2530.066895
971.670098	2524.932480
971.968510	2530.465146
972.266885	2527.095135
972.565223	2530.019004
972.863524	2532.080836
973.161788	2531.085208
973.460014	2529.943387
973.758204	2532.564787
974.056356	2529.719056
974.354471	2531.974972
974.652550	2530.371885
974.950591	2531.899355
975.248595	2532.279962
975.546563	2530.812986
975.844493	2529.555218
976.142386	2532.108562
976.440243	2531.853984
976.738062	2531.249046
977.035845	2528.446164
977.333590	2530.709642
977.631299	2528.017666
977.928971	2529.968593
978.226606	2530.147554
978.524204	2529.930784
978.821765	2529.966072
979.119290	2532.862215
979.416777	2529.058664
979.714228	2530.102183
980.011642	2531.818696
980.309020	2534.051927
980.606360	2531.062523
980.903664	2530.694519
981.200931	2529.242667
981.498162	2530.823068
981.795356	2529.784591
982.092513	2532.426155
982.389633	2531.743079
982.686717	2533.285672
982.983764	2531.982534
983.280775	2535.322298
983.577749	2533.368851
983.874686	2534.409849
984.171587	2534.349355
984.468451	2533.391536
984.765279	2529.986237
985.062070	2533.711649
985.358824	2531.922040
985.655543	2532.078316
985.952224	2530.573531
986.248869	2528.773839
986.545478	2525.683612
986.842050	2529.159488
987.138586	2526.452388
987.435086	2525.960875
987.731549	2525.607995
988.027975	2530.097142
988.324366	2529.149405
988.620719	2528.267203
988.917037	2530.278624
989.213318	2532.325332
989.509563	2529.872811
989.805772	2529.918181
990.101944	2529.910619
990.398080	2528.730989
990.694180	2530.442461
990.990244	2530.964221
991.286271	2528.327697
991.582262	2530.238294
991.878217	2529.895496
992.174136	2528.733510
992.470019	2529.013294
992.765865	2529.976154
993.061676	2528.060516
993.357450	2528.337779
993.653188	2529.396422
993.948890	2528.662934
994.244556	2527.873993
994.540186	2529.444313
994.835780	2531.009591
995.131337	2528.872142
995.426859	2529.741741
995.722345	2528.683098
996.017795	2528.393232
996.313208	2531.281813
996.608586	2528.098325
996.903928	2529.900537
997.199234	2529.192255
997.494504	2529.570342
997.789738	2533.512524
998.084936	2529.255269
998.380099	2531.964890
998.675225	2528.075639
998.970316	2529.293078
999.265371	2531.319622
999.560390	2528.040351
999.855373	2529.051103
1000.150320	2527.649662
1000.445232	2527.511030
1000.740108	2529.424148
1001.034948	2528.549508
1001.329752	2530.913809
1001.624521	2527.523633
1001.919254	2526.999353
1002.213951	2527.011956
1002.508613	2526.344003
1002.803239	2527.894158
1003.097829	2525.945752
1003.392384	2528.536905
1003.686903	2527.480783
1003.981386	2530.749972
1004.275834	2528.650331
1004.570246	2531.745599
1004.864623	2530.155115
1005.158964	2529.310722
1005.453270	2526.260824
1005.747540	2527.755526
1006.041775	2526.928777
1006.335974	2528.778880
1006.630138	2527.216123
1006.924266	2528.133613
1007.218359	2527.473222
1007.512416	2529.038500
1007.806438	2527.306863
1008.100425	2529.963552
1008.394376	2528.559590
1008.688292	2529.978675
1008.982172	2526.570855
1009.276017	2526.517923
1009.569827	2527.198479
1009.863602	2528.869621
1010.157341	2528.289888
1010.451045	2528.809127
1010.744714	2526.044054
1011.038347	2526.878365
1011.331945	2528.249559
1011.625508	2527.120341
1011.919036	2526.631349
1012.212528	2526.777542
1012.505986	2528.035310
1012.799408	2527.969775
1013.092795	2527.296781
1013.386147	2526.424662
1013.679464	2528.667975
1013.972745	2528.725948
1014.265992	2527.735362
1014.559204	2529.847605
1014.852380	2525.855011
1015.145521	2526.706966
1015.438628	2528.526823
1015.731699	2527.866432
1016.024736	2527.374919
1016.317737	2528.899868
1016.610703	2528.887265
1016.903635	2524.632531
1017.196531	2525.620598
1017.489393	2529.096473
1017.782219	2524.745957
1018.075011	2525.000536
1018.367768	2527.180835
1018.660490	2529.615712
1018.953177	2529.615712
1019.245829	2529.615712
