Dividing Wavelength (nm)	Counts (n)	Blue Motor Position (mm): 0.000000	Red Motor Position (mm): 21.700000	
326.493990	2128.430607
326.888308	2128.430607
327.282561	2128.430607
327.676750	2096.628488
328.070874	2092.020873
328.464933	2097.208220
328.858929	2105.982348
329.252859	2110.932762
329.646726	2125.035389
330.040528	2140.592390
330.434265	2152.280305
330.827938	2172.613799
331.221547	2190.426717
331.615091	2209.814994
332.008571	2230.297202
332.401986	2250.048443
332.795338	2265.981010
333.188625	2287.370626
333.581847	2305.428039
333.975006	2324.793631
334.368100	2340.103615
334.761129	2360.709332
335.154095	2377.125849
335.546996	2394.417007
335.939833	2408.184398
336.332606	2424.676533
336.725315	2437.294541
337.117960	2447.192847
337.510540	2451.697117
337.903056	2467.228913
338.295508	2473.059007
338.687896	2480.270377
339.080220	2489.639362
339.472480	2496.429796
339.864676	2499.477174
340.256807	2506.229799
340.648875	2509.020078
341.040879	2511.210459
341.432818	2511.530573
341.824694	2511.233144
342.216506	2513.340347
342.608253	2515.477796
342.999937	2513.466376
343.391557	2513.781448
343.783113	2514.129287
344.174605	2513.937723
344.566033	2512.261540
344.957397	2508.082423
345.348697	2506.973369
345.739934	2508.286590
346.131106	2505.004799
346.522215	2499.288130
346.913260	2500.266114
347.304241	2500.316526
347.695159	2499.225116
348.086012	2495.260248
348.476802	2493.556338
348.867528	2491.338231
349.258191	2492.343941
349.648789	2490.050216
350.039324	2489.208343
350.429796	2489.276399
350.820203	2487.000318
351.210548	2487.234732
351.600828	2483.963023
351.991045	2484.000831
352.381198	2482.856489
352.771288	2481.374390
353.161314	2485.911429
353.551276	2482.599391
353.941175	2486.350009
354.331010	2483.471510
354.720782	2484.242807
355.110490	2482.896819
355.500135	2483.186685
355.889717	2482.591829
356.279235	2483.859679
356.668689	2483.690800
357.058080	2483.731130
357.447408	2480.688793
357.836672	2479.816674
358.225873	2480.850110
358.615010	2481.545789
359.004084	2484.681387
359.393095	2486.276912
359.782043	2488.835298
360.170927	2487.587612
360.559748	2488.132057
360.948505	2489.616677
361.337199	2491.885196
361.725830	2492.759836
362.114398	2492.230515
362.502903	2491.776811
362.891344	2493.994919
363.279722	2490.108189
363.668037	2495.991216
364.056289	2494.854436
364.444478	2495.378716
364.832603	2497.291833
365.220665	2496.102121
365.608665	2497.458192
365.996601	2496.878459
366.384474	2497.642194
366.772284	2499.315857
367.160031	2500.800477
367.547715	2503.336177
367.935336	2507.054028
368.322893	2507.268277
368.710388	2515.140039
369.097820	2522.532891
369.485189	2518.676408
369.872495	2528.388191
370.259738	2534.430014
370.646918	2542.936961
371.034035	2547.121119
371.421090	2557.679815
371.808081	2567.293296
372.195010	2575.641447
372.581875	2590.207861
372.968678	2605.553133
373.355418	2614.770883
373.742096	2631.746968
374.128710	2648.775986
374.515262	2664.224602
374.901751	2676.038546
375.288177	2688.172603
375.674540	2712.226469
376.060841	2733.774881
376.447079	2750.972777
376.833254	2773.163937
377.219367	2783.072324
377.605417	2823.204950
377.991404	2830.638132
378.377329	2856.075794
378.763191	2868.028370
379.148991	2907.140162
379.534727	2934.122938
379.920402	2960.145374
380.306013	2970.467136
380.691563	3022.285157
381.077049	3043.740308
381.462474	3062.251424
381.847835	3100.738113
382.233134	3121.734519
382.618371	3121.048922
383.003545	3189.653985
383.388657	3198.672609
383.773706	3229.695870
384.158693	3246.059455
384.543618	3274.693209
384.928480	3309.323416
385.313280	3353.551979
385.698017	3351.359077
386.082692	3408.351842
386.467305	3413.113212
386.851856	3443.513890
387.236344	3466.713280
387.620770	3497.741582
388.005133	3523.252341
388.389435	3550.272925
388.773674	3562.880851
389.157851	3603.671348
389.541965	3619.440077
389.926018	3584.744335
390.310008	3652.862927
390.693936	3671.268179
391.077802	3713.276114
391.461606	3700.660627
391.845348	3762.848301
392.229027	3762.611367
392.612645	3776.439252
392.996200	3854.395655
393.379694	3894.339237
393.763125	3958.475317
394.146494	3925.778393
394.529801	3986.544462
394.913047	4038.886762
395.296230	4002.179600
395.679351	4057.181109
396.062410	4080.468719
396.445408	4064.599167
396.828343	4095.012448
397.211217	4120.858444
397.594028	4041.354407
397.976778	4103.869756
398.359466	4134.855208
398.742092	4161.679187
399.124656	4085.003237
399.507158	4163.315042
399.889598	4190.663301
400.271977	4250.295110
400.654294	4220.557344
401.036549	4232.865321
401.418742	4197.753684
401.800874	4302.289571
402.182944	4322.945699
402.564952	4380.727404
402.946898	4378.058113
403.328783	4368.462277
403.710606	4282.261067
404.092367	4473.151919
404.474067	4438.153708
404.855705	4447.931026
405.237282	4375.315726
405.618797	4484.388651
406.000250	4518.184546
406.381642	4598.817802
406.762972	4561.616607
407.144240	4573.614553
407.525447	4571.966096
407.906593	4629.147904
408.287677	4672.093494
408.668700	4603.311991
409.049661	4651.069362
409.430560	4696.018810
409.811399	4619.307572
410.192176	4782.104073
410.572891	4719.165268
410.953545	4820.729394
411.334138	4700.709603
411.714669	4767.111682
412.095139	4663.997401
412.475547	4802.382115
412.855894	4786.855361
413.236180	4794.013799
413.616405	4754.833952
413.996568	4836.107434
414.376670	4777.894710
414.756711	4731.972319
415.136691	4759.991052
415.516609	4838.572558
415.896466	4873.296026
416.276262	4908.047220
416.655997	4885.689703
417.035670	5069.772477
417.415283	5154.279859
417.794834	5092.392134
418.174324	5044.173497
418.553753	4947.373261
418.933121	5126.165344
419.312428	5187.526269
419.691674	5117.451710
420.070859	5233.423454
420.449983	5140.986336
420.829045	5248.856946
421.208047	5147.015556
421.586988	5210.471080
421.965867	5206.579310
422.344686	5320.438810
422.723444	5170.527498
423.102141	4984.788705
423.480777	5252.438686
423.859352	5021.571484
424.237866	5248.254528
424.616319	5223.202514
424.994712	5308.443385
425.373044	5175.029248
425.751314	5288.127535
426.129524	5087.240075
426.507673	5236.256582
426.885762	5291.343791
427.263789	5199.977919
427.641756	5077.931584
428.019662	5153.874046
428.397508	5134.745388
428.775292	5053.882760
429.153016	5111.672027
429.530679	5021.047204
429.908282	5058.714706
430.285824	4921.615486
430.663305	5098.605356
431.040726	4855.263819
431.418086	4821.339374
431.795385	4865.152042
432.172624	4839.633721
432.549802	4795.165703
432.926920	4762.491464
433.303977	4726.046443
433.680974	4711.263259
434.057910	4676.018032
434.434786	4638.559738
434.811601	4574.496755
435.188355	4679.718239
435.565050	4553.606214
435.941683	4491.957943
436.318257	4565.115168
436.694770	4501.125282
437.071222	4472.655365
437.447614	4387.081779
437.823946	4289.548055
438.200218	4317.468485
438.576429	4199.245866
438.952580	4191.265719
439.328670	4166.740506
439.704700	4069.196699
440.080670	4015.760469
440.456580	4073.542174
440.832429	3976.225220
441.208218	3864.868652
441.583947	3873.698233
441.959616	3825.144359
442.335224	3753.151641
442.710773	3751.362032
443.086261	3707.819065
443.461689	3597.221191
443.837057	3597.342179
444.212365	3591.388576
444.587612	3522.276878
444.962800	3516.736649
445.337927	3467.376192
445.712995	3329.878720
446.088002	3420.402720
446.462949	3343.525124
446.837837	3289.496557
447.212664	3286.061011
447.587431	3267.083587
447.962139	3327.935356
448.336786	3448.257616
448.711374	3364.720655
449.085901	3172.350224
449.460369	3119.743263
449.834776	3077.510997
450.209124	3092.568924
450.583412	3076.969073
450.957640	3068.381467
451.331808	3006.667662
451.705917	2934.750561
452.079965	2896.780591
452.453954	2892.024262
452.827883	2859.344982
453.201752	2841.766479
453.575562	2808.588125
453.949311	2799.924902
454.323001	2777.602672
454.696632	2765.456012
455.070202	2755.295567
455.443713	2749.697365
455.817164	2736.613051
456.190556	2718.860627
456.563888	2711.266129
456.937160	2699.850436
457.310373	2678.077693
457.683526	2669.066630
458.056619	2656.093221
458.429653	2645.189205
458.802628	2635.676548
459.175542	2632.591362
459.548398	2630.847122
459.921194	2630.219499
460.293930	2621.959568
460.666607	2625.984929
461.039224	2629.768315
461.411782	2622.851852
461.784280	2619.287757
462.156719	2609.886005
462.529099	2605.757300
462.901419	2597.202462
463.273680	2592.161308
463.645882	2592.395721
464.018024	2583.634196
464.390106	2585.121336
464.762130	2586.719382
465.134094	2589.164342
465.505999	2598.341762
465.877845	2606.311827
466.249631	2610.450614
466.621358	2604.244953
466.993026	2601.464757
467.364634	2598.462750
467.736184	2588.284660
468.107674	2587.268868
468.479105	2586.570668
468.850477	2583.578743
469.221790	2583.533373
469.593043	2579.356777
469.964238	2575.129769
470.335373	2575.585994
470.706449	2574.280335
471.077467	2574.113977
471.448425	2586.752150
471.819324	2590.333889
472.190164	2591.281626
472.560945	2581.839545
472.931667	2580.647312
473.302330	2576.997517
473.672934	2573.138514
474.043479	2574.378637
474.413965	2576.475757
474.784393	2570.126424
475.154761	2574.686148
475.525070	2573.337639
475.895321	2572.430232
476.265513	2571.457289
476.635645	2579.200501
477.005719	2576.183371
477.375734	2576.674883
477.745691	2577.128587
478.115588	2581.781572
478.485427	2580.594380
478.855207	2582.124370
479.224928	2591.054774
479.594591	2591.929415
479.964194	2592.395721
480.333739	2594.699529
480.703226	2590.616194
481.072653	2591.856318
481.442022	2593.046030
481.811333	2593.114086
482.180584	2591.669795
482.549777	2586.608477
482.918912	2589.431523
483.287988	2589.529825
483.657005	2588.473704
484.025964	2589.423961
484.394864	2588.277099
484.763706	2590.507809
485.132489	2587.586461
485.501213	2586.021182
485.869879	2587.528487
486.238487	2584.229052
486.607036	2587.042016
486.975527	2583.898857
487.343959	2584.294587
487.712333	2584.062694
488.080648	2586.023703
488.448905	2587.367170
488.817104	2581.229566
489.185244	2587.357088
489.553326	2585.512026
489.921350	2588.806420
490.289315	2594.742378
490.657222	2595.992585
491.025070	2598.868563
491.392861	2595.062492
491.760593	2592.791452
492.128267	2593.172059
492.495883	2587.531008
492.863440	2589.996132
493.230939	2587.828436
493.598380	2583.805595
493.965763	2580.904411
494.333088	2581.524473
494.700354	2579.313927
495.067563	2580.894329
495.434713	2578.252764
495.801805	2584.362643
496.168839	2580.387693
496.535815	2581.582446
496.902733	2581.620255
497.269593	2580.806109
497.636395	2580.803588
498.003139	2581.443815
498.369825	2579.059349
498.736453	2583.293918
499.103023	2578.635892
499.469535	2577.801581
499.835989	2579.820563
500.202385	2579.276118
500.568723	2577.420974
500.935003	2578.880388
501.301226	2577.673032
501.667390	2577.713361
502.033497	2583.059504
502.399546	2580.211252
502.765537	2577.456262
503.131470	2576.821077
503.497345	2579.699575
503.863163	2577.030284
504.228923	2578.698906
504.594625	2580.614545
504.960269	2580.158320
505.325856	2579.840728
505.691385	2578.885429
506.056856	2577.859554
506.422270	2578.487178
506.787625	2575.434759
507.152924	2577.673032
507.518164	2579.641602
507.883347	2579.966757
508.248472	2582.895667
508.613540	2582.162179
508.978550	2577.146231
509.343503	2578.338464
509.708398	2578.610686
510.073236	2580.007086
510.438016	2581.239648
510.802738	2579.452559
511.167403	2579.681931
511.532010	2580.508681
511.896561	2583.266192
512.261053	2582.474731
512.625488	2580.014647
512.989866	2578.063721
513.354186	2579.671849
513.718449	2577.269739
514.082655	2580.072621
514.446803	2582.671336
514.810894	2584.763414
515.174927	2581.494226
515.538904	2583.288877
515.902822	2581.242168
516.266684	2582.436922
516.630488	2582.376428
516.994235	2582.540266
517.357925	2582.784762
517.721558	2584.400451
518.085133	2584.556727
518.448651	2581.743763
518.812112	2583.556058
519.175516	2583.432550
519.538863	2583.661922
519.902152	2584.007241
520.265385	2582.910790
520.628560	2584.559248
520.991678	2583.288877
521.354739	2583.172930
521.717743	2585.131419
522.080690	2582.767117
522.443580	2582.467169
522.806413	2586.190061
523.169189	2584.881882
523.531908	2585.852304
523.894569	2584.541604
524.257174	2583.838363
524.619722	2584.710482
524.982213	2584.677715
525.344647	2582.552868
525.707025	2585.524629
526.069345	2585.794330
526.431608	2584.213929
526.793815	2585.322982
527.155964	2587.906574
527.518057	2584.077817
527.880093	2586.411872
528.242072	2584.208887
528.603995	2584.423137
528.965860	2585.917839
529.327669	2588.340113
529.689421	2584.486151
530.051117	2585.796851
530.412755	2586.918508
530.774337	2586.681573
531.135862	2583.593867
531.497331	2581.804257
531.858743	2581.307703
532.220098	2582.658733
532.581396	2579.581108
532.942638	2581.121181
533.303824	2584.372725
533.664953	2581.446335
534.026025	2581.320306
534.387040	2586.689135
534.747999	2580.803588
535.108902	2586.686615
535.469748	2583.127560
535.830537	2584.856676
536.191270	2582.010944
536.551947	2584.118147
536.912567	2586.580750
537.273131	2583.976994
537.633638	2584.748291
537.994089	2586.394228
538.354483	2585.113775
538.714821	2585.408682
539.075103	2584.594536
539.435328	2583.881212
539.795497	2585.683425
540.155609	2584.586974
540.515665	2586.414392
540.875665	2585.033116
541.235609	2584.040009
541.595496	2585.108733
541.955328	2583.538414
542.315102	2583.896336
542.674821	2583.800554
543.034483	2586.996646
543.394090	2583.437591
543.753640	2584.322313
544.113134	2584.208887
544.472571	2586.426995
544.831953	2584.886923
545.191278	2583.939186
545.550548	2587.649475
545.909761	2585.587643
546.268918	2583.351891
546.628019	2585.668302
546.987064	2583.682087
547.346053	2585.554876
547.704986	2583.588826
548.063863	2583.578743
548.422684	2585.605287
548.781449	2586.157293
549.140158	2585.086048
549.498811	2588.229208
549.857408	2583.644278
550.215949	2584.087900
550.574434	2579.576067
550.932864	2580.657395
551.291237	2581.610173
551.649555	2585.459094
552.007817	2584.786100
552.366022	2586.994125
552.724173	2585.617890
553.082267	2584.828949
553.440305	2585.524629
553.798288	2585.970771
554.156215	2584.929772
554.514086	2583.858527
554.871902	2582.744432
555.229661	2584.634865
555.587365	2584.970102
555.945014	2586.300966
556.302606	2585.602767
556.660143	2585.257447
557.017625	2585.542273
557.375050	2581.340471
557.732421	2585.973291
558.089735	2586.948755
558.446994	2589.129054
558.804197	2585.075966
559.161345	2581.380800
559.518437	2586.731985
559.875474	2585.295256
560.232455	2586.006059
560.589381	2585.504464
560.946251	2587.853642
561.303065	2585.731316
561.659825	2583.777869
562.016528	2583.944227
562.373177	2585.050760
562.729770	2585.345668
563.086307	2583.760225
563.442789	2584.108064
563.799216	2586.215267
564.155587	2584.478589
564.511904	2582.830132
564.868164	2584.818867
565.224370	2585.509505
565.580520	2582.779720
565.936615	2583.480441
566.292654	2584.176120
566.648638	2583.001531
567.004567	2583.649319
567.360441	2582.888105
567.716260	2583.210739
568.072023	2585.696028
568.427732	2578.779565
568.783385	2580.024730
569.138982	2580.821232
569.494525	2583.477920
569.850013	2578.230079
570.205445	2581.297621
570.560823	2584.014803
570.916145	2582.111767
571.271412	2581.222004
571.626625	2581.627817
571.981782	2581.733681
572.336884	2581.965574
572.691931	2581.761407
573.046923	2582.878023
573.401860	2582.522622
573.756743	2580.155800
574.111570	2580.372569
574.466342	2581.736202
574.821059	2579.550861
575.175722	2580.377611
575.530330	2580.649833
575.884882	2581.514391
576.239380	2581.670667
576.593823	2580.944740
576.948211	2581.020358
577.302544	2582.285687
577.656823	2580.163362
578.011047	2581.854669
578.365216	2578.668659
578.719330	2575.318813
579.073389	2578.504822
579.427394	2580.155800
579.781344	2580.370049
580.135239	2577.937692
580.489080	2579.056828
580.842866	2579.669328
581.196597	2583.220821
581.550273	2581.224524
581.903895	2575.384348
582.257463	2580.485995
582.610975	2578.187229
582.964434	2577.224369
583.317837	2579.157651
583.671186	2577.791499
584.024481	2578.099009
584.377721	2576.843762
584.730906	2575.989286
585.084037	2578.267888
585.437113	2575.969122
585.790135	2576.788309
586.143103	2578.472054
586.496016	2578.333423
586.848874	2572.967114
587.201679	2574.350911
587.554428	2571.921075
587.907124	2575.427197
588.259765	2570.655745
588.612352	2576.332085
588.964884	2573.972825
589.317362	2576.327043
589.669786	2575.822928
590.022155	2578.472054
590.374470	2575.780078
590.726731	2575.873340
591.078937	2573.199007
591.431090	2574.005592
591.783188	2573.214131
592.135232	2575.364183
592.487222	2573.854358
592.839157	2570.970818
593.191038	2572.785633
593.542866	2573.022567
593.894639	2573.178843
594.246358	2573.267063
594.598022	2573.801425
594.949633	2570.713719
595.301190	2572.757907
595.652692	2572.727660
596.004141	2573.695561
596.355535	2575.061714
596.706876	2574.539954
597.058162	2573.987948
597.409395	2570.529717
597.760573	2574.635736
598.111698	2571.404357
598.462768	2571.910993
598.813785	2570.983420
599.164748	2571.749676
599.515657	2571.394274
599.866511	2571.127093
600.217312	2572.006775
600.568060	2571.684141
600.918753	2573.365366
601.269392	2570.015519
601.619978	2571.669017
601.970510	2571.520303
602.320988	2570.375961
602.671412	2571.643812
603.021783	2571.235478
603.372100	2573.377968
603.722363	2574.358473
604.072572	2569.778585
604.422728	2574.696230
604.772830	2566.209448
605.122878	2564.243398
605.472872	2566.854715
605.822813	2565.425548
606.172701	2570.756568
606.522534	2569.438307
606.872314	2573.541806
607.222041	2569.755899
607.571714	2570.391085
607.921333	2572.374779
608.270899	2568.263718
608.620411	2574.098853
608.969870	2571.250602
609.319276	2570.953173
609.668627	2573.347722
610.017926	2576.591704
610.367171	2576.886612
610.716362	2577.831828
611.065500	2576.243864
611.414585	2575.890984
611.763616	2577.007599
612.112594	2574.116497
612.461518	2573.269584
612.810389	2573.912331
613.159207	2570.713719
613.507971	2572.054666
613.856682	2572.808318
614.205340	2571.031311
614.553945	2571.280848
614.902496	2570.985941
615.250994	2571.754717
615.599439	2571.968966
615.947830	2571.961404
616.296169	2570.890159
616.644454	2568.624160
616.992686	2572.422670
617.340864	2570.348235
617.688990	2571.923596
618.037063	2572.097515
618.385082	2569.670200
618.733048	2573.251940
619.080961	2569.524006
619.428821	2573.849316
619.776628	2571.603482
620.124382	2571.820252
620.472083	2570.539799
620.819731	2573.055335
621.167326	2569.743297
621.514868	2571.981569
621.862357	2567.494942
622.209793	2570.577608
622.557176	2568.384706
622.904506	2565.022256
623.251783	2567.361351
623.599007	2563.867832
623.946179	2563.625856
624.293297	2564.639128
624.640363	2569.085426
624.987376	2564.765157
625.334336	2566.297668
625.681243	2565.279355
626.028097	2565.798594
626.374899	2566.685837
626.721647	2566.378326
627.068343	2569.274469
627.414987	2565.211299
627.761577	2564.417318
628.108115	2567.648697
628.454600	2566.310271
628.801032	2564.868501
629.147412	2565.735579
629.493739	2566.592575
629.840014	2568.606516
630.186236	2567.683985
630.532405	2563.504869
630.878521	2565.705332
631.224585	2567.565518
631.570597	2562.226936
631.916556	2564.087122
632.262462	2559.524878
632.608316	2564.162739
632.954117	2562.680640
633.299866	2565.634756
633.645562	2564.419838
633.991206	2563.678788
634.336797	2562.554611
634.682336	2561.407749
635.027823	2561.357337
635.373257	2562.423541
635.718639	2560.817934
636.063968	2558.274672
636.409245	2560.258366
636.754470	2563.504869
637.099642	2562.025290
637.444762	2561.488407
637.789829	2558.307439
638.134845	2560.364230
638.479808	2561.453119
638.824719	2560.051678
639.169577	2557.682336
639.514383	2557.765515
639.859137	2560.931360
640.203839	2555.960782
640.548489	2557.664692
640.893086	2557.473128
641.237632	2555.280226
641.582125	2557.851215
641.926566	2554.004814
642.270955	2557.616801
642.615292	2558.050340
642.959576	2560.638973
643.303809	2558.320042
643.647990	2558.751061
643.992118	2556.608570
644.336195	2559.424055
644.680219	2558.269630
645.024192	2558.728375
645.368112	2560.628890
645.711981	2558.746019
646.055797	2561.773232
646.399562	2557.936914
646.743274	2560.709549
647.086935	2559.114024
647.430544	2560.429765
647.774101	2560.202913
648.117606	2560.281051
648.461059	2557.463046
648.804460	2561.798438
649.147810	2559.776935
649.491108	2558.400700
649.834354	2560.318859
650.177548	2562.415979
650.520690	2557.715103
650.863781	2556.694270
651.206820	2562.231977
651.549807	2558.478838
651.892742	2559.197203
652.235626	2556.220401
652.578458	2558.146122
652.921238	2554.539177
653.263967	2558.791390
653.606644	2557.447922
653.949269	2558.899775
654.291843	2556.109496
654.634365	2559.537481
654.976836	2557.032027
655.319255	2558.277192
655.661622	2557.047151
656.003938	2554.950031
656.346203	2557.591595
656.688416	2555.880123
657.030577	2553.455328
657.372687	2559.103941
657.714746	2555.449105
658.056753	2555.295350
658.398708	2551.509443
658.740612	2554.214022
659.082465	2548.487271
659.424266	2553.825853
659.766016	2550.670091
660.107715	2556.842984
660.449362	2553.757798
660.790958	2557.609239
661.132503	2554.934907
661.473996	2555.335679
661.815438	2553.601522
662.156829	2557.107644
662.498168	2554.188816
662.839456	2557.372305
663.180693	2554.599670
663.521879	2555.496996
663.863013	2556.036399
664.204097	2554.849207
664.545129	2554.783672
664.886110	2556.938766
665.227040	2555.459187
665.567918	2555.033210
665.908746	2556.447253
666.249522	2556.026317
666.590248	2556.381718
666.930922	2556.467418
667.271545	2556.258210
667.612118	2556.986657
667.952639	2557.969682
668.293109	2558.322563
668.633528	2556.240566
668.973896	2556.117058
669.314213	2555.083621
669.654480	2555.013045
669.994695	2554.864331
670.334859	2556.742161
670.674973	2554.995401
671.015035	2557.883982
671.355047	2552.013558
671.695008	2553.573796
672.034918	2555.161759
672.374777	2559.116544
672.714585	2554.231666
673.054342	2554.148487
673.394049	2553.004145
673.733705	2557.052192
674.073310	2554.153528
674.412864	2556.742161
674.752368	2556.298539
675.091820	2555.239897
675.431223	2556.374157
675.770574	2557.742830
676.109875	2550.007179
676.449125	2552.832746
676.788324	2551.758980
677.127473	2553.654454
677.466571	2548.099102
677.805619	2554.156049
678.144616	2550.654968
678.483562	2555.728889
678.822458	2554.256872
679.161303	2556.051523
679.500098	2553.082283
679.838842	2554.645041
680.177535	2552.126984
680.516179	2553.354505
680.854771	2552.152190
681.193314	2555.892726
681.531805	2553.248641
681.870247	2554.587067
682.208638	2558.146122
682.546978	2555.766697
682.885268	2558.002449
683.223508	2553.886347
683.561697	2554.584547
683.899836	2554.889537
684.237925	2555.189485
684.575963	2555.212171
684.913951	2553.299053
685.251889	2554.743343
685.589776	2552.094217
685.927614	2554.400545
686.265401	2555.295350
686.603137	2552.484906
686.940824	2556.686708
687.278460	2553.737633
687.616046	2556.099414
687.953582	2556.263251
688.291068	2555.282747
688.628504	2553.283929
688.965889	2553.354505
689.303224	2553.722510
689.640510	2556.923642
689.977745	2553.346944
690.314930	2555.691080
690.652065	2554.549259
690.989150	2552.575647
691.326185	2553.276368
691.663170	2551.728733
692.000105	2552.666388
692.336990	2551.910215
692.673825	2554.430792
693.010610	2553.508261
693.347345	2548.704041
693.684030	2546.208670
694.020665	2547.998279
694.357251	2543.884698
694.693786	2550.410472
695.030272	2551.474155
695.366707	2552.784855
695.703093	2547.852086
696.039429	2553.805689
696.375716	2548.000800
696.711952	2548.265461
697.048139	2552.099258
697.384276	2548.421736
697.720363	2548.930893
698.056400	2550.496171
698.392388	2547.068187
698.728326	2549.931562
699.064214	2549.727395
699.400053	2550.647406
699.735842	2548.978784
700.071581	2552.205122
700.407270	2549.407282
700.742910	2549.235883
701.078501	2547.985677
701.414042	2547.365615
701.749533	2546.468289
702.084974	2547.468958
702.420366	2549.147662
702.755709	2546.617003
703.091002	2548.885523
703.426246	2545.235727
703.761440	2545.797816
704.096584	2545.359235
704.431679	2548.693959
704.766725	2548.295708
705.101721	2547.647919
705.436668	2546.064997
705.771565	2545.639019
706.106413	2549.223280
706.441212	2546.490974
706.775961	2550.077755
707.110661	2547.491643
707.445311	2547.645399
707.779913	2548.424257
708.114465	2549.251006
708.448967	2546.145655
708.783421	2547.668084
709.117825	2548.767055
709.452180	2547.726057
709.786485	2548.562889
710.120742	2549.051881
710.454949	2550.375183
710.789107	2548.923331
711.123216	2543.874616
711.457275	2547.867209
711.791286	2548.026006
712.125247	2548.003321
712.459159	2551.746377
712.793023	2551.466593
713.126837	2548.923331
713.460602	2548.699000
713.794318	2549.102292
714.127985	2549.379556
714.461602	2547.902498
714.795171	2550.617159
715.128691	2549.755122
715.462162	2546.639688
715.795584	2548.593136
716.128957	2547.637837
716.462281	2549.699669
716.795556	2548.572971
717.128782	2546.571633
717.461960	2546.208670
717.795088	2546.027188
718.128167	2544.872764
718.461198	2545.323947
718.794180	2546.622044
719.127113	2543.292362
719.459997	2546.674977
719.792833	2545.941489
720.125619	2544.091385
720.458357	2542.730274
720.791046	2544.610624
721.123686	2544.577857
721.456278	2545.109698
721.788821	2544.552651
722.121315	2547.418547
722.453761	2544.535007
722.786158	2547.736139
723.118506	2542.957126
723.450805	2545.500388
723.783056	2541.074255
724.115259	2544.315717
724.447412	2547.685728
724.779518	2548.068856
725.111574	2546.387631
725.443582	2544.744215
725.775542	2546.032229
726.107453	2544.739173
726.439315	2544.615665
726.771129	2551.161603
727.102895	2545.712116
727.434612	2546.319575
727.766281	2547.257230
728.097901	2542.016950
728.429473	2544.303114
728.760996	2543.645243
729.092471	2539.579553
729.423897	2546.223793
729.755276	2545.182795
730.086606	2545.437373
730.417887	2548.358722
730.749120	2547.181612
731.080305	2547.216901
731.411442	2548.880481
731.742530	2547.242106
732.073570	2547.489123
732.404562	2545.757487
732.735506	2546.712785
733.066401	2548.550286
733.397249	2549.210677
733.728048	2545.694472
734.058798	2546.511139
734.389501	2542.637012
734.720156	2543.816642
735.050762	2543.153731
735.381320	2544.739173
735.711831	2542.773123
736.042293	2543.083154
736.372707	2539.977804
736.703073	2545.732281
737.033391	2541.901004
737.363661	2545.465100
737.693883	2544.424101
738.024056	2544.953423
738.354182	2539.955118
738.684260	2545.502908
739.014290	2541.790098
739.344272	2544.325799
739.674207	2543.617517
740.004093	2546.362425
740.333931	2547.181613
740.663722	2545.510470
740.993464	2543.559543
741.323159	2544.126673
741.652806	2543.514173
741.982405	2545.185316
742.311956	2546.967363
742.641460	2542.324461
742.970915	2543.373021
743.300323	2541.558205
743.629683	2544.363607
743.958996	2541.432177
744.288260	2542.881508
744.617477	2543.073072
744.946647	2540.229861
745.275768	2543.536858
745.604842	2538.397402
745.933869	2542.969728
746.262847	2538.798174
746.591778	2542.359749
746.920662	2540.020653
747.249498	2543.443597
747.578286	2544.222455
747.907027	2544.131714
748.235720	2543.519214
748.564365	2540.902855
748.892963	2539.768596
749.221514	2542.160623
749.550017	2542.987372
749.878473	2543.312527
750.206881	2540.774306
750.535242	2542.924358
750.863555	2541.827907
751.191821	2541.689275
751.520039	2541.096940
751.848210	2542.011909
752.176334	2541.570808
752.504411	2540.736497
752.832440	2542.377393
753.160421	2544.550130
753.488356	2539.919830
753.816243	2542.208514
754.144082	2543.433515
754.471875	2541.928730
754.799620	2540.441590
755.127318	2539.519059
755.454969	2540.287835
755.782572	2543.844369
756.110129	2540.804553
756.437638	2542.538710
756.765100	2541.454862
757.092515	2542.203473
757.419882	2542.954605
757.747203	2539.539223
758.074477	2544.025850
758.401703	2542.200953
758.728882	2541.263298
759.056014	2541.848072
759.383099	2540.325643
759.710138	2544.403937
760.037129	2541.832948
760.364073	2541.210366
760.690970	2541.225489
761.017820	2544.076262
761.344623	2543.798998
761.671379	2546.833773
761.998088	2538.198276
762.324751	2539.292207
762.651366	2543.849410
762.977935	2550.239072
763.304456	2548.706562
763.630931	2556.235525
763.957359	2551.852242
764.283740	2548.774617
764.610074	2547.211859
764.936362	2547.839483
765.262602	2546.556509
765.588796	2543.441076
765.914943	2541.311189
766.241044	2544.955943
766.567097	2538.115097
766.893104	2541.235572
767.219064	2539.914789
767.544978	2540.406302
767.870845	2541.328833
768.196665	2539.496373
768.522438	2538.289017
768.848165	2537.517721
769.173846	2541.255736
769.499479	2539.909748
769.825066	2539.980324
770.150607	2541.006199
770.476101	2538.112577
770.801548	2540.106353
771.126949	2541.149872
771.452303	2539.307330
771.777611	2539.667773
772.102872	2538.578883
772.428087	2537.379089
772.753256	2539.939995
773.078378	2541.502753
773.403453	2536.736342
773.728482	2536.721218
774.053465	2538.447813
774.378401	2537.096784
774.703291	2538.026877
775.028135	2538.712474
775.352932	2539.037628
775.677683	2538.215920
776.002388	2536.486805
776.327046	2538.155427
776.651658	2537.275745
776.976224	2537.512679
777.300743	2534.971938
777.625216	2538.556198
777.949643	2540.267670
778.274024	2540.134079
778.598359	2534.445137
778.922647	2533.194931
779.246889	2535.463450
779.571086	2533.535209
779.895236	2536.577545
780.219339	2536.743903
780.543397	2537.285828
780.867409	2535.259284
781.191374	2540.610468
781.515294	2540.668442
781.839167	2537.086702
782.162995	2540.098791
782.486776	2533.855322
782.810511	2539.302289
783.134201	2537.558050
783.457844	2536.854809
783.781441	2535.450847
784.104993	2537.608461
784.428498	2538.898997
784.751958	2538.311702
785.075372	2540.350849
785.398739	2538.205838
785.722061	2534.200641
786.045337	2538.352032
786.368568	2537.941178
786.691752	2537.830272
787.014891	2538.457896
787.337983	2535.649973
787.661030	2538.064686
787.984031	2535.521424
788.306987	2538.720036
788.629897	2539.708102
788.952760	2538.278935
789.275579	2539.322454
789.598351	2541.585932
789.921078	2538.939326
790.243759	2539.566950
790.566395	2538.130221
790.888984	2535.569315
791.211529	2540.590304
791.534027	2541.222969
791.856480	2538.490663
792.178888	2538.034439
792.501249	2536.696013
792.823566	2538.026877
793.145836	2536.040663
793.468062	2536.958153
793.790241	2535.513862
794.112375	2538.422608
794.434464	2537.643749
794.756507	2536.287679
795.078505	2540.159285
795.400457	2536.733821
795.722364	2532.030425
796.044226	2535.080323
796.366042	2536.196938
796.687812	2533.741896
797.009538	2537.011085
797.331218	2540.285314
797.652852	2538.142824
797.974442	2537.038811
798.295986	2537.666435
798.617484	2537.684079
798.938938	2540.164326
799.260346	2536.249870
799.581709	2537.424459
799.903026	2537.616023
800.224299	2534.301464
800.545526	2536.552340
800.866708	2535.647453
801.187845	2536.257432
801.508936	2537.661393
801.829983	2532.935312
802.150984	2533.394057
802.471940	2537.169881
802.792851	2537.421939
803.113717	2539.987886
803.434538	2536.373379
803.755314	2536.726259
804.076045	2538.205838
804.396731	2537.187525
804.717372	2535.982689
805.037967	2538.636857
805.358518	2536.353214
805.679024	2536.491846
805.999485	2534.994623
806.319901	2535.755837
806.640272	2538.878832
806.960598	2536.852288
807.280879	2537.467309
807.601115	2536.033101
807.921306	2537.043852
808.241453	2537.580735
808.561554	2534.031763
808.881611	2534.601413
809.201623	2536.471681
809.521590	2536.489325
809.841513	2533.578059
810.161390	2535.594520
810.481223	2537.424459
810.801011	2537.686599
811.120755	2538.243647
811.440453	2537.159799
811.760107	2535.798687
812.079716	2531.286854
812.399281	2534.780374
812.718801	2534.273738
813.038276	2532.194262
813.357707	2535.193749
813.677093	2537.038811
813.996434	2535.350024
814.315731	2535.798687
814.634983	2535.496218
814.954191	2538.478060
815.273354	2534.513193
815.592473	2535.201310
815.911547	2538.979655
816.230577	2535.957483
816.549562	2537.774819
816.868502	2538.790612
817.187399	2536.033101
817.506250	2537.356404
817.825058	2536.264994
818.143821	2534.089736
818.462539	2537.033770
818.781213	2538.480581
819.099843	2538.518390
819.418429	2540.076106
819.736970	2543.315047
820.055466	2541.023843
820.373919	2543.544420
820.692327	2545.124822
821.010691	2550.349978
821.329011	2559.237532
821.647286	2576.548854
821.965517	2595.879159
822.283704	2607.410798
822.601847	2609.313834
822.919945	2600.305292
823.237999	2591.044692
823.556010	2579.858372
823.873976	2569.826476
824.191897	2563.875393
824.509775	2556.827860
824.827609	2554.992880
825.145398	2550.095399
825.463144	2552.336192
825.780845	2550.922149
826.098502	2553.462890
826.416116	2556.532953
826.733685	2564.802966
827.051210	2569.208934
827.368692	2565.075188
827.686129	2557.962120
828.003522	2552.583209
828.320872	2542.999975
828.638177	2542.911755
828.955439	2541.651467
829.272656	2537.389171
829.589830	2536.781712
829.906960	2538.029398
830.224046	2539.514017
830.541088	2537.928575
830.858086	2534.818183
831.175041	2538.843544
831.491952	2535.798687
831.808819	2536.106197
832.125642	2540.421425
832.442421	2538.730118
832.759157	2542.009389
833.075849	2543.504091
833.392497	2547.070707
833.709101	2551.421223
834.025662	2548.336037
834.342179	2550.675132
834.658653	2545.817980
834.975083	2543.912424
835.291469	2545.182795
835.607811	2540.310520
835.924110	2535.460930
836.240366	2538.694830
836.556578	2536.980838
836.872746	2537.537885
837.188871	2536.292720
837.504952	2536.126362
837.820990	2534.697195
838.136984	2534.581248
838.452935	2536.766589
838.768842	2537.225334
839.084706	2534.898841
839.400526	2534.906403
839.716303	2537.600900
840.032037	2541.348998
840.347727	2540.688606
840.663373	2537.883204
840.978977	2538.697351
841.294537	2535.992772
841.610054	2534.578728
841.925527	2535.647452
842.240957	2535.894469
842.556344	2538.662062
842.871687	2534.044366
843.186987	2535.972607
843.502244	2534.467822
843.817458	2532.736186
844.132629	2531.044879
844.447756	2533.792308
844.762840	2527.884076
845.077881	2532.335414
845.392879	2530.497914
845.707833	2532.537061
846.022745	2527.034641
846.337613	2533.381454
846.652438	2534.412370
846.967221	2533.741896
847.281960	2531.647297
847.596656	2536.542257
847.911309	2534.551002
848.225919	2535.072761
848.540485	2536.741383
848.855009	2532.872297
849.169490	2532.839530
849.483928	2533.729293
849.798323	2533.502442
850.112675	2531.019673
850.426984	2531.763243
850.741251	2532.678213
851.055474	2531.397760
851.369654	2532.675692
851.683792	2532.451361
851.997887	2534.470343
852.311938	2533.570497
852.625947	2532.141330
852.939914	2529.688809
853.253837	2535.912113
853.567718	2533.789787
853.881555	2531.155784
854.195350	2530.966741
854.509103	2531.301978
854.822812	2532.194262
855.136479	2532.169056
855.450103	2532.879859
855.763685	2536.965714
856.077224	2529.035979
856.390720	2531.846422
856.704173	2532.650487
857.017584	2533.290713
857.330953	2531.445651
857.644278	2532.466484
857.957561	2535.528985
858.270802	2532.106042
858.584000	2533.764582
858.897155	2532.501773
859.210268	2532.935312
859.523339	2535.430683
859.836367	2533.247863
860.149352	2533.620909
860.462295	2534.041845
860.775195	2530.013963
861.088054	2527.810979
861.400869	2530.591175
861.713642	2526.530526
862.026373	2533.560415
862.339062	2532.665610
862.651708	2532.350538
862.964312	2531.498583
863.276873	2531.319622
863.589392	2530.165198
863.901869	2531.632173
864.214303	2531.891793
864.526696	2533.948584
864.839045	2533.573018
865.151353	2533.789787
865.463619	2532.773995
865.775842	2534.230888
866.088023	2534.397246
866.400162	2535.052596
866.712258	2533.023532
867.024313	2532.060672
867.336325	2531.649818
867.648296	2532.300126
867.960224	2534.326670
868.272110	2534.014119
868.583954	2532.902544
868.895755	2534.145189
869.207515	2531.952287
869.519233	2532.431196
869.830909	2532.045548
870.142542	2534.863553
870.454134	2533.489839
870.765684	2532.385826
871.077191	2533.530168
871.388657	2534.412370
871.700081	2533.154602
872.011463	2535.410518
872.322803	2532.564787
872.634101	2535.561753
872.945357	2533.010929
873.256571	2534.682072
873.567744	2533.041176
873.878874	2536.121321
874.189963	2534.293903
874.501010	2533.585621
874.812015	2532.748789
875.122979	2537.989068
875.433900	2532.234591
875.744780	2534.021680
876.055618	2531.990095
876.366415	2535.773481
876.677169	2533.484797
876.987882	2534.467823
877.298554	2530.407173
877.609183	2532.748789
877.919771	2532.214427
878.230317	2532.206865
878.540822	2537.043852
878.851285	2534.641742
879.161707	2537.895807
879.472087	2537.104346
879.782425	2538.452855
880.092722	2540.963349
880.402977	2547.300080
880.713191	2559.766853
881.023363	2567.237843
881.333494	2576.301838
881.643583	2578.046077
881.953631	2577.123546
882.263637	2572.430232
882.573602	2572.100036
882.883526	2565.715415
883.193408	2559.983623
883.503248	2555.030689
883.813048	2554.672767
884.122806	2550.846531
884.432522	2547.940306
884.742197	2541.754810
885.051831	2543.080634
885.361424	2539.768596
885.670975	2538.016795
885.980485	2537.416897
886.289954	2537.777340
886.599382	2537.570653
886.908768	2538.778009
887.218113	2537.694161
887.527417	2534.525796
887.836680	2535.604603
888.145901	2535.039993
888.455082	2535.977648
888.764221	2532.957997
889.073319	2536.239788
889.382376	2534.649304
889.691392	2534.349355
890.000366	2534.495549
890.309300	2534.485467
890.618193	2537.084181
890.927044	2532.829448
891.235855	2533.998995
891.544625	2533.328522
891.853353	2537.250539
892.162041	2533.966228
892.470687	2537.568132
892.779293	2535.697864
893.087858	2532.816845
893.396381	2531.614529
893.704864	2538.331867
894.013306	2535.465971
894.321707	2545.016437
894.630068	2545.795295
894.938387	2548.623383
895.246665	2545.480223
895.554903	2544.759338
895.863100	2543.519214
896.171256	2543.052908
896.479371	2538.936805
896.787446	2537.958822
897.095480	2538.606610
897.403473	2539.191384
897.711425	2536.655683
898.019336	2536.786753
898.327207	2536.068389
898.635038	2536.874973
898.942827	2534.664428
899.250576	2534.530837
899.558284	2535.347504
899.865952	2534.651825
900.173579	2536.572504
900.481165	2533.817514
900.788711	2534.084695
901.096216	2535.319778
901.403681	2532.849612
901.711105	2536.643080
902.018489	2533.593182
902.325832	2534.447658
902.633135	2533.081505
902.940397	2535.113090
903.247619	2535.644932
903.554800	2537.545447
903.861941	2540.338246
904.169041	2551.466593
904.476101	2552.419371
904.783121	2553.490617
905.090100	2548.688918
905.397039	2544.716488
905.703938	2544.996272
906.010796	2541.996786
906.317614	2539.582073
906.624391	2539.675334
906.931129	2534.767771
907.237826	2532.562266
907.544483	2534.951773
907.851099	2531.276772
908.157675	2533.946063
908.464211	2533.938501
908.770707	2527.616894
909.077163	2531.380116
909.383578	2526.875845
909.689954	2528.337779
909.996289	2528.277286
910.302584	2532.905065
910.608839	2531.478418
910.915054	2532.557225
911.221229	2530.762574
911.527363	2530.981865
911.833458	2531.783408
912.139513	2533.245343
912.445527	2531.879190
912.751502	2531.009591
913.057436	2531.911958
913.363331	2533.706608
913.669186	2529.792152
913.975000	2534.175436
914.280775	2534.495549
914.586510	2534.069571
914.892205	2538.404964
915.197859	2539.667773
915.503475	2543.725902
915.809050	2547.834442
916.114585	2550.380225
916.420081	2551.665719
916.725536	2550.503733
917.030952	2547.410985
917.336328	2544.688762
917.641665	2546.150697
917.946961	2541.679193
918.252218	2540.723894
918.557435	2538.999820
918.862612	2539.120808
919.167750	2533.320960
919.472848	2535.919675
919.777906	2535.395395
920.082925	2534.165353
920.387904	2534.190559
920.692843	2532.589993
920.997743	2533.615867
921.302603	2533.661238
921.607423	2531.072605
921.912204	2532.287523
922.216946	2532.143851
922.521647	2532.249715
922.826310	2533.068902
923.130932	2531.284334
923.435516	2531.801052
923.740059	2531.717873
924.044564	2530.422297
924.349028	2532.597554
924.653454	2527.710156
924.957840	2529.008253
925.262186	2527.233767
925.566493	2530.797863
925.870761	2524.108251
926.174989	2529.797193
926.479178	2532.690816
926.783328	2532.103521
927.087438	2528.622605
927.391509	2529.693850
927.695541	2531.133099
927.999533	2529.651000
928.303486	2530.376926
928.607400	2529.204858
928.911275	2531.712832
929.215110	2529.361134
929.518906	2529.565300
929.822663	2528.700742
930.126381	2527.064888
930.430060	2531.279293
930.733699	2528.350382
931.037299	2531.859025
931.340861	2529.247708
931.644383	2528.549508
931.947866	2530.603778
932.251309	2527.253931
932.554714	2529.298119
932.858080	2532.809283
933.161407	2528.831812
933.464694	2528.471370
933.767943	2530.477749
934.071153	2529.739220
934.374323	2529.063706
934.677455	2531.964890
934.980548	2530.460105
935.283602	2529.305681
935.586617	2529.651000
935.889593	2528.292409
936.192530	2529.038500
936.495428	2530.424817
936.798287	2529.406504
937.101108	2528.567152
937.403890	2529.189734
937.706632	2530.079498
938.009336	2532.045548
938.312002	2530.565969
938.614628	2530.528161
938.917216	2532.698377
939.219765	2528.514220
939.522275	2532.889941
939.824747	2533.023532
940.127179	2528.879703
940.429573	2527.314425
940.731929	2529.167049
941.034246	2524.027593
941.336524	2526.621267
941.638763	2529.202337
941.940964	2534.218285
942.243126	2532.731145
942.545250	2530.694519
942.847335	2530.366844
943.149381	2531.160826
943.451389	2529.025897
943.753359	2530.747451
944.055290	2528.990609
944.357182	2527.606812
944.659036	2532.801721
944.960851	2529.005732
945.262628	2528.002543
945.564367	2530.853315
945.866067	2529.252749
946.167729	2530.455064
946.469352	2530.233253
946.770937	2528.257121
947.072484	2530.780218
947.373992	2530.356762
947.675462	2530.076977
947.976893	2531.085208
948.278286	2526.812830
948.579641	2527.964734
948.880958	2526.671678
949.182236	2529.842564
949.483476	2528.849457
949.784678	2527.057326
950.085841	2527.367357
950.386967	2532.557225
950.688054	2527.556401
950.989103	2529.164529
951.290114	2531.513706
951.591087	2530.518078
951.892021	2528.201668
952.192917	2530.162677
952.493776	2526.747295
952.794596	2531.170908
953.095378	2526.701925
953.396122	2528.665454
953.696828	2526.270906
953.997496	2529.769467
954.298126	2525.965917
954.598718	2527.934487
954.899272	2532.554705
955.199788	2530.412214
955.500266	2527.803417
955.800706	2526.747295
956.101108	2524.713190
956.401472	2525.161853
956.701798	2524.614887
957.002087	2525.550021
957.302337	2527.684950
957.602550	2525.671009
957.902724	2526.515402
958.202861	2528.236956
958.502960	2531.823737
958.803022	2525.935670
959.103045	2530.195445
959.403031	2528.405835
959.702979	2527.390043
960.002889	2527.591689
960.302762	2527.765608
960.602596	2528.272244
960.902393	2526.951462
961.202153	2529.409025
961.501875	2529.033459
961.801559	2526.984230
962.101205	2527.332069
962.400814	2528.108407
962.700385	2528.630166
962.999918	2528.592358
963.299414	2524.630011
963.598873	2530.024045
963.898293	2525.373581
964.197677	2526.195289
964.497022	2528.045393
964.796331	2526.926256
965.095601	2525.968437
965.394835	2529.272913
965.694030	2527.632018
965.993189	2527.977337
966.292309	2527.581606
966.591393	2530.197965
966.890439	2528.012625
967.189447	2528.607481
967.488419	2526.071781
967.787353	2529.056144
968.086249	2530.477749
968.385108	2527.642100
968.683930	2526.550690
968.982714	2526.880886
969.281462	2524.693025
969.580172	2528.995650
969.878844	2528.063037
970.177480	2528.524302
970.476078	2529.043541
970.774639	2527.667306
971.073162	2527.440454
971.371649	2524.715710
971.670098	2523.919208
971.968510	2524.244363
972.266885	2525.386184
972.565223	2527.410207
972.863524	2528.292409
973.161788	2528.093283
973.460014	2523.354599
973.758204	2527.505989
974.056356	2526.845598
974.354471	2528.632687
974.652550	2526.802748
974.950591	2525.560104
975.248595	2528.078160
975.546563	2529.270393
975.844493	2530.013963
976.142386	2526.223015
976.440243	2527.984899
976.738062	2526.797707
977.035845	2524.970289
977.333590	2525.555062
977.631299	2527.528674
977.928971	2526.084384
978.226606	2525.474404
978.524204	2527.422810
978.821765	2524.201513
979.119290	2529.487162
979.416777	2523.974661
979.714228	2524.806451
980.011642	2528.413397
980.309020	2528.410876
980.606360	2527.395084
980.903664	2527.579086
981.200931	2526.316277
981.498162	2528.264683
981.795356	2527.700073
982.092513	2528.181504
982.389633	2527.379960
982.686717	2528.683098
982.983764	2525.779394
983.280775	2527.649662
983.577749	2529.083870
983.874686	2529.857687
984.171587	2531.072605
984.468451	2527.725279
984.765279	2526.288550
985.062070	2527.553880
985.358824	2527.626977
985.655543	2530.019004
985.952224	2528.385670
986.248869	2527.594209
986.545478	2525.013138
986.842050	2524.211595
987.138586	2524.163704
987.435086	2521.517098
987.731549	2523.392407
988.027975	2525.907943
988.324366	2524.004908
988.620719	2525.557583
988.917037	2526.921215
989.213318	2527.916843
989.509563	2525.116482
989.805772	2525.353416
990.101944	2528.015146
990.398080	2528.960362
990.694180	2524.972809
990.990244	2523.851153
991.286271	2526.344003
991.582262	2526.157480
991.878217	2528.146216
992.174136	2530.084539
992.470019	2528.935156
992.765865	2527.112779
993.061676	2526.898530
993.357450	2524.463653
993.653188	2528.307533
993.948890	2525.948273
994.244556	2525.590351
994.540186	2525.174455
994.835780	2527.470701
995.131337	2524.652696
995.426859	2527.256452
995.722345	2527.463139
996.017795	2526.749816
996.313208	2527.059847
996.608586	2529.325846
996.903928	2528.247039
997.199234	2526.810310
997.494504	2528.017666
997.789738	2528.904909
998.084936	2526.812830
998.380099	2525.209743
998.675225	2529.051103
998.970316	2525.255114
999.265371	2526.742254
999.560390	2526.288550
999.855373	2525.391225
1000.150320	2527.206040
1000.445232	2525.439116
1000.740108	2526.351565
1001.034948	2526.790145
1001.329752	2526.374250
1001.624521	2526.994312
1001.919254	2521.963240
1002.213951	2524.390556
1002.508613	2524.594723
1002.803239	2526.308715
1003.097829	2520.765966
1003.392384	2526.182686
1003.686903	2525.797038
1003.981386	2526.593540
1004.275834	2527.697553
1004.570246	2525.237470
1004.864623	2523.878879
1005.158964	2527.337110
1005.453270	2525.683612
1005.747540	2527.069929
1006.041775	2526.964065
1006.335974	2525.078673
1006.630138	2525.582789
1006.924266	2525.192099
1007.218359	2525.494569
1007.512416	2525.600433
1007.806438	2525.948273
1008.100425	2526.679240
1008.394376	2527.732841
1008.688292	2527.208561
1008.982172	2525.209743
1009.276017	2526.676719
1009.569827	2527.937008
1009.863602	2527.009435
1010.157341	2527.334590
1010.451045	2525.441637
1010.744714	2525.550021
1011.038347	2525.849970
1011.331945	2525.600433
1011.625508	2526.170083
1011.919036	2527.122861
1012.212528	2526.318797
1012.505986	2526.323838
1012.799408	2528.012625
1013.092795	2524.856863
1013.386147	2522.928621
1013.679464	2524.304856
1013.972745	2525.156811
1014.265992	2524.977850
1014.559204	2526.485155
1014.852380	2526.490197
1015.145521	2526.303674
1015.438628	2525.741585
1015.731699	2527.672347
1016.024736	2527.067409
1016.317737	2525.718900
1016.610703	2527.445495
1016.903635	2520.612211
1017.196531	2521.602798
1017.489393	2525.086235
1017.782219	2521.990967
1018.075011	2523.263858
1018.367768	2524.632531
1018.660490	2526.205371
1018.953177	2526.205371
1019.245829	2526.205371
