Dividing Wavelength (nm)	Counts (n)	Blue Motor Position (mm): 0.000000	Red Motor Position (mm): 21.400000	
326.493990	2129.330453
326.888308	2129.330453
327.282561	2129.330453
327.676750	2096.436924
328.070874	2092.182190
328.464933	2096.862901
328.858929	2103.610486
329.252859	2113.584408
329.646726	2125.892386
330.040528	2139.238840
330.434265	2154.422796
330.827938	2173.294355
331.221547	2192.188600
331.615091	2208.887422
332.008571	2227.741337
332.401986	2246.184399
332.795338	2267.720208
333.188625	2284.751746
333.581847	2308.798050
333.975006	2324.612150
334.368100	2341.469768
334.761129	2360.613550
335.154095	2375.714326
335.546996	2395.309291
335.939833	2410.019378
336.332606	2422.788621
336.725315	2436.994592
337.117960	2446.063628
337.510540	2456.110648
337.903056	2465.424179
338.295508	2472.839717
338.687896	2481.500419
339.080220	2491.192037
339.472480	2497.730414
339.864676	2503.555467
340.256807	2505.816425
340.648875	2506.580159
341.040879	2513.458814
341.432818	2512.654750
341.824694	2514.719102
342.216506	2514.656088
342.608253	2516.153311
342.999937	2516.518794
343.391557	2513.148783
343.783113	2512.364883
344.174605	2512.798423
344.566033	2509.156189
344.957397	2508.775582
345.348697	2510.116529
345.739934	2503.638646
346.131106	2502.963132
346.522215	2502.179232
346.913260	2500.863491
347.304241	2498.327791
347.695159	2498.998264
348.086012	2495.953407
348.476802	2493.636997
348.867528	2490.274547
349.258191	2491.930566
349.648789	2490.393014
350.039324	2486.168528
350.429796	2489.097438
350.820203	2485.361943
351.210548	2486.549135
351.600828	2486.811275
351.991045	2486.050060
352.381198	2481.928917
352.771288	2482.974957
353.161314	2482.995121
353.551276	2486.760863
353.941175	2481.815491
354.331010	2484.620893
354.720782	2483.670636
355.110490	2482.518732
355.500135	2483.431181
355.889717	2484.459576
356.279235	2484.910760
356.668689	2483.776500
357.058080	2486.274392
357.447408	2481.152579
357.836672	2481.618886
358.225873	2481.606283
358.615010	2478.818525
359.004084	2485.666933
359.393095	2486.211377
359.782043	2487.721203
360.170927	2486.163486
360.559748	2488.830257
360.948505	2487.227170
361.337199	2491.539877
361.725830	2491.151708
362.114398	2490.811430
362.502903	2490.173724
362.891344	2493.342089
363.279722	2491.368478
363.668037	2495.534991
364.056289	2496.394508
364.444478	2494.183962
364.832603	2496.447440
365.220665	2491.950731
365.608665	2493.505927
365.996601	2498.731083
366.384474	2499.419200
366.772284	2502.373317
367.160031	2496.419714
367.547715	2501.481032
367.935336	2505.813904
368.322893	2506.895232
368.710388	2511.364214
369.097820	2519.722448
369.485189	2520.970133
369.872495	2528.357944
370.259738	2534.175436
370.646918	2541.396888
371.034035	2549.976932
371.421090	2558.025134
371.808081	2567.356310
372.195010	2577.927610
372.581875	2591.947059
372.968678	2605.512804
373.355418	2615.577467
373.742096	2629.110445
374.128710	2646.204997
374.515262	2662.974396
374.901751	2678.065090
375.288177	2690.912470
375.674540	2715.178064
376.060841	2732.144068
376.447079	2751.197109
376.833254	2772.211158
377.219367	2783.158024
377.605417	2821.488437
377.991404	2829.791218
378.377329	2852.703262
378.763191	2867.645242
379.148991	2909.098650
379.534727	2934.347269
379.920402	2961.148563
380.306013	2974.631129
380.691563	3022.174251
381.077049	3043.203425
381.462474	3063.383163
381.847835	3101.854729
382.233134	3120.312914
382.618371	3121.825260
383.003545	3192.713965
383.388657	3199.237218
383.773706	3231.916498
384.158693	3247.907038
384.543618	3273.228754
384.928480	3308.985658
385.313280	3357.920139
385.698017	3352.430322
386.082692	3408.492994
386.467305	3414.217224
386.851856	3448.020681
387.236344	3467.129175
387.620770	3498.838033
388.005133	3524.137063
388.389435	3550.267884
388.773674	3561.905388
389.157851	3604.571193
389.541965	3621.559882
389.926018	3584.923296
390.310008	3654.367711
390.693936	3674.290351
391.077802	3716.837690
391.461606	3705.568190
391.845348	3767.360133
392.229027	3767.523971
392.612645	3781.039304
392.996200	3857.140563
393.379694	3896.141450
393.763125	3962.140236
394.146494	3929.463477
394.529801	3989.856500
394.913047	4041.016649
395.296230	4006.578007
395.679351	4061.892067
396.062410	4082.185232
396.445408	4062.595308
396.828343	4100.121658
397.211217	4118.806694
397.594028	4039.716032
397.976778	4106.770940
398.359466	4136.049961
398.742092	4162.884023
399.124656	4086.263526
399.507158	4165.502903
399.889598	4188.001572
400.271977	4253.070265
400.654294	4222.205801
401.036549	4232.451946
401.418742	4201.612688
401.800874	4302.889468
402.182944	4323.769928
402.564952	4388.936923
402.946898	4377.823700
403.328783	4369.281464
403.710606	4286.583856
404.092367	4477.434379
404.474067	4437.997432
404.855705	4449.241726
405.237282	4377.669944
405.618797	4486.921831
406.000250	4521.413405
406.381642	4600.496506
406.762972	4562.534097
407.144240	4575.661262
407.525447	4571.862752
407.906593	4632.671671
408.287677	4676.933001
408.668700	4603.042289
409.049661	4651.941481
409.430560	4692.565619
409.811399	4620.295638
410.192176	4783.979383
410.572891	4720.105443
410.953545	4820.825176
411.334138	4704.659347
411.714669	4771.124440
412.095139	4664.466228
412.475547	4808.033248
412.855894	4787.649343
413.236180	4795.715189
413.616405	4748.257767
413.996568	4834.905119
414.376670	4776.107621
414.756711	4731.185899
415.136691	4758.249333
415.516609	4834.340510
415.896466	4870.077249
416.276262	4903.338782
416.655997	4879.675606
417.035670	5055.954674
417.415283	5141.918950
417.794834	5076.416717
418.174324	5027.550293
418.553753	4928.766362
418.933121	5102.842446
419.312428	5161.614738
419.691674	5095.878092
420.070859	5206.077715
420.449983	5106.968630
420.829045	5212.729517
421.208047	5109.098518
421.586988	5164.387373
421.965867	5159.704141
422.344686	5267.773876
422.723444	5120.015136
423.102141	4932.075880
423.480777	5196.325603
423.859352	4958.758707
424.237866	5182.999313
424.616319	5153.042256
424.994712	5234.124174
425.373044	5095.023616
425.751314	5196.892733
426.129524	4999.251775
426.507673	5141.424917
426.885762	5191.579356
427.263789	5096.934213
427.641756	4971.117096
428.019662	5036.735275
428.397508	5011.070761
428.775292	4927.445580
429.153016	4976.221264
429.530679	4887.754055
429.908282	4915.498045
430.285824	4779.616264
430.663305	4943.335297
431.040726	4706.869893
431.418086	4670.412269
431.795385	4698.632648
432.172624	4668.224408
432.549802	4618.468220
432.926920	4583.966563
433.303977	4541.225140
433.680974	4524.246534
434.057910	4487.869568
434.434786	4442.562197
434.811601	4374.720869
435.188355	4465.464159
435.565050	4342.414635
435.941683	4283.637302
436.318257	4340.166280
436.694770	4277.582876
437.071222	4243.703802
437.447614	4153.295748
437.823946	4064.435330
438.200218	4083.506015
438.576429	3974.138182
438.952580	3961.986481
439.328670	3932.200823
439.704700	3847.446424
440.080670	3795.303249
440.456580	3839.478880
440.832429	3748.637288
441.208218	3650.002072
441.583947	3652.313441
441.959616	3606.549846
442.335224	3537.914537
442.710773	3535.953528
443.086261	3493.055829
443.461689	3404.712129
443.837057	3392.822567
444.212365	3388.114130
444.587612	3325.311435
444.962800	3316.698624
445.337927	3270.587189
445.712995	3157.163748
446.088002	3224.032134
446.462949	3163.313956
446.837837	3115.090278
447.212664	3110.646501
447.587431	3089.768563
447.962139	3135.600213
448.336786	3221.193964
448.711374	3153.493788
449.085901	3009.289062
449.460369	2963.139819
449.834776	2931.136054
450.209124	2940.058896
450.583412	2923.584406
450.957640	2915.127870
451.331808	2869.084491
451.705917	2812.232879
452.079965	2790.790331
452.453954	2782.127108
452.827883	2759.081473
453.201752	2745.021695
453.575562	2721.812223
453.949311	2714.958774
454.323001	2701.398070
454.696632	2690.925073
455.070202	2684.303518
455.443713	2674.679955
455.817164	2664.713594
456.190556	2656.483910
456.563888	2651.596512
456.937160	2640.682413
457.310373	2630.353089
457.683526	2622.748509
458.056619	2614.440687
458.429653	2610.289297
458.802628	2601.212699
459.175542	2600.295209
459.548398	2601.744541
459.921194	2599.423090
460.293930	2596.862184
460.666607	2600.133892
461.039224	2601.061465
461.411782	2599.168512
461.784280	2598.737493
462.156719	2593.272882
462.529099	2585.509505
462.901419	2583.147725
463.273680	2580.112950
463.645882	2577.330233
464.018024	2574.464337
464.390106	2574.691189
464.762130	2576.765624
465.134094	2579.528176
465.505999	2589.108889
465.877845	2595.359920
466.249631	2600.753954
466.621358	2593.845053
466.993026	2591.289188
467.364634	2588.365319
467.736184	2581.837025
468.107674	2579.558423
468.479105	2577.244533
468.850477	2579.384503
469.221790	2580.279308
469.593043	2572.896538
469.964238	2574.819738
470.335373	2571.169943
470.706449	2570.839747
471.077467	2571.943760
471.448425	2580.513722
471.819324	2587.329362
472.190164	2586.512695
472.560945	2579.702096
472.931667	2573.352763
473.302330	2570.910324
473.672934	2574.920562
474.043479	2574.524831
474.413965	2572.483164
474.784393	2567.497463
475.154761	2570.083574
475.525070	2570.844789
475.895321	2568.437638
476.265513	2568.987123
476.635645	2573.075499
477.005719	2574.116498
477.375734	2576.306879
477.745691	2576.667321
478.115588	2578.401478
478.485427	2576.357290
478.855207	2580.556572
479.224928	2586.759711
479.594591	2589.930597
479.964194	2589.272727
480.333739	2589.585278
480.703226	2587.704928
481.072653	2589.164342
481.442022	2589.524784
481.811333	2591.563931
482.180584	2591.553849
482.549777	2588.249372
482.918912	2587.843559
483.287988	2588.904722
483.657005	2588.834146
484.025964	2586.794999
484.394864	2585.927921
484.763706	2585.590164
485.132489	2583.724937
485.501213	2587.735175
485.869879	2582.530183
486.238487	2586.081676
486.607036	2586.928590
486.975527	2584.874320
487.343959	2586.948755
487.712333	2585.348188
488.080648	2583.495564
488.448905	2587.062181
488.817104	2583.987077
489.185244	2584.188723
489.553326	2586.913467
489.921350	2589.335741
490.289315	2596.093408
490.657222	2598.356886
491.025070	2594.898654
491.392861	2595.853953
491.760593	2593.945876
492.128267	2591.783221
492.495883	2586.608477
492.863440	2587.147880
493.230939	2584.705441
493.598380	2584.097982
493.965763	2579.407188
494.333088	2581.143866
494.700354	2577.410892
495.067563	2579.941551
495.434713	2575.323854
495.801805	2581.184195
496.168839	2579.238310
496.535815	2580.740574
496.902733	2580.319637
497.269593	2581.406006
497.636395	2579.117322
498.003139	2579.407188
498.369825	2578.305696
498.736453	2577.758731
499.103023	2578.386355
499.469535	2579.374421
499.835989	2579.260995
500.202385	2580.107909
500.568723	2576.952147
500.935003	2578.754359
501.301226	2576.226220
501.667390	2577.617579
502.033497	2577.211766
502.399546	2579.863413
502.765537	2577.070614
503.131470	2576.926941
503.497345	2578.169585
503.863163	2579.999524
504.228923	2577.115984
504.594625	2579.510532
504.960269	2579.344174
505.325856	2579.639082
505.691385	2575.540623
506.056856	2581.675708
506.422270	2577.622620
506.787625	2576.455593
507.152924	2579.515573
507.518164	2577.259657
507.883347	2575.938875
508.248472	2577.584811
508.613540	2577.307548
508.978550	2579.444997
509.343503	2577.698237
509.708398	2580.228897
510.073236	2579.427353
510.438016	2580.942220
510.802738	2576.319482
511.167403	2579.823084
511.532010	2579.281160
511.896561	2580.405337
512.261053	2582.676377
512.625488	2576.654718
512.989866	2576.397620
513.354186	2580.044894
513.718449	2575.346539
514.082655	2581.103537
514.446803	2580.561613
514.810894	2581.602611
515.174927	2581.285018
515.538904	2581.842066
515.902822	2584.213929
516.266684	2582.315934
516.630488	2579.434915
516.994235	2583.588826
517.357925	2581.935327
517.721558	2583.346850
518.085133	2583.114957
518.448651	2584.486151
518.812112	2582.142014
519.175516	2584.561768
519.538863	2582.247879
519.902152	2585.297777
520.265385	2582.885585
520.628560	2585.204515
520.991678	2583.606470
521.354739	2582.850297
521.717743	2583.326686
522.080690	2582.580595
522.443580	2582.736871
522.806413	2583.283836
523.169189	2583.732498
523.531908	2584.483630
523.894569	2580.748135
524.257174	2583.084710
524.619722	2582.525142
524.982213	2587.014290
525.344647	2584.818867
525.707025	2585.481779
526.069345	2585.380956
526.431608	2586.076635
526.793815	2583.082190
527.155964	2583.077148
527.518057	2586.283322
527.880093	2584.891964
528.242072	2583.558579
528.603995	2585.554876
528.965860	2584.304669
529.327669	2583.011613
529.689421	2581.592529
530.051117	2585.978332
530.412755	2583.044381
530.774337	2585.559917
531.135862	2584.224011
531.497331	2581.647981
531.858743	2579.210583
532.220098	2582.252920
532.581396	2582.570512
532.942638	2579.901222
533.303824	2585.007910
533.664953	2580.836356
534.026025	2582.870461
534.387040	2586.447160
534.747999	2584.292067
535.108902	2583.223342
535.469748	2582.018506
535.830537	2585.622931
536.191270	2585.408682
536.551947	2586.114444
536.912567	2582.762076
537.273131	2582.963723
537.633638	2582.063877
537.994089	2583.848445
538.354483	2583.488002
538.714821	2587.009248
539.075103	2583.309042
539.435328	2585.244845
539.795497	2581.073290
540.155609	2584.745770
540.515665	2584.740729
540.875665	2580.445666
541.235609	2583.876171
541.595496	2583.435070
541.955328	2582.235276
542.315102	2581.290059
542.674821	2584.576892
543.034483	2587.614187
543.394090	2582.373907
543.753640	2586.742067
544.113134	2583.881212
544.472571	2583.588826
544.831953	2587.369691
545.191278	2584.927252
545.550548	2583.392221
545.909761	2582.888105
546.268918	2584.211408
546.628019	2583.036819
546.987064	2586.434557
547.346053	2585.065884
547.704986	2583.397262
548.063863	2584.166038
548.422684	2588.829105
548.781449	2582.600759
549.140158	2584.123188
549.498811	2582.986408
549.857408	2582.608321
550.215949	2580.445666
550.574434	2578.789647
550.932864	2584.115626
551.291237	2580.415419
551.649555	2584.062694
552.007817	2585.136460
552.366022	2584.322313
552.724173	2584.279464
553.082267	2584.960019
553.440305	2585.784248
553.798288	2584.040009
554.156215	2584.292067
554.514086	2583.563620
554.871902	2583.724937
555.229661	2583.316603
555.587365	2584.471028
555.945014	2583.510688
556.302606	2584.173599
556.660143	2586.353898
557.017625	2584.879361
557.375050	2583.596387
557.732421	2585.696028
558.089735	2584.662591
558.446994	2583.311562
558.804197	2583.631675
559.161345	2584.040009
559.518437	2584.357602
559.875474	2585.927921
560.232455	2586.152252
560.589381	2585.401120
560.946251	2584.473548
561.303065	2583.540935
561.659825	2582.757035
562.016528	2584.773497
562.373177	2583.548496
562.729770	2582.636047
563.086307	2586.779876
563.442789	2584.750812
563.799216	2583.780389
564.155587	2584.307190
564.511904	2584.652509
564.868164	2584.279464
565.224370	2584.526480
565.580520	2583.084710
565.936615	2584.271902
566.292654	2580.801068
566.648638	2583.503126
567.004567	2583.069587
567.360441	2583.094793
567.716260	2583.034299
568.072023	2582.447004
568.427732	2578.136818
568.783385	2579.404668
569.138982	2575.500294
569.494525	2581.209401
569.850013	2578.658577
570.205445	2584.471027
570.560823	2581.821901
570.916145	2578.580439
571.271412	2580.488516
571.626625	2579.886098
571.981782	2579.944071
572.336884	2582.741912
572.691931	2579.986921
573.046923	2578.779565
573.401860	2581.489185
573.756743	2579.157651
574.111570	2580.884247
574.466342	2581.413568
574.821059	2580.896849
575.175722	2581.952971
575.530330	2577.123546
575.884882	2580.422981
576.239380	2579.450038
576.593823	2580.884247
576.948211	2578.025912
577.302544	2578.925758
577.656823	2578.943402
578.011047	2581.905080
578.365216	2578.159503
578.719330	2578.895511
579.073389	2578.328382
579.427394	2577.138669
579.781344	2576.596745
580.135239	2577.431056
580.489080	2576.276632
580.842866	2575.097002
581.196597	2581.310224
581.550273	2578.542631
581.903895	2577.378124
582.257463	2582.658733
582.610975	2576.478278
582.964434	2578.822415
583.317837	2575.732187
583.671186	2577.123546
584.024481	2577.967939
584.377721	2578.409040
584.730906	2576.188412
585.084037	2576.074986
585.437113	2577.214287
585.790135	2574.479461
586.143103	2575.273442
586.496016	2574.756724
586.848874	2571.167422
587.201679	2573.677917
587.554428	2569.798749
587.907124	2575.545665
588.259765	2574.008113
588.612352	2573.708164
588.964884	2573.330078
589.317362	2574.928123
589.669786	2573.521641
590.022155	2573.607341
590.374470	2574.736559
590.726731	2573.768658
591.078937	2575.762434
591.431090	2573.141034
591.783188	2574.303020
592.135232	2575.591035
592.487222	2575.054152
592.839157	2574.333267
593.191038	2574.542475
593.542866	2575.379307
593.894639	2571.432083
594.246358	2572.916703
594.598022	2572.606672
594.949633	2572.291600
595.301190	2573.864440
595.652692	2574.418967
596.004141	2572.024419
596.355535	2573.294789
596.706876	2572.084912
597.058162	2570.285221
597.409395	2570.549881
597.760573	2574.819738
598.111698	2572.031980
598.462768	2570.217165
598.813785	2573.597259
599.164748	2572.215982
599.515657	2573.428380
599.866511	2569.476115
600.217312	2571.500139
600.568060	2570.343194
600.918753	2575.031467
601.269392	2570.965776
601.619978	2571.036353
601.970510	2570.592731
602.320988	2571.149778
602.671412	2570.713719
603.021783	2572.979717
603.372100	2572.851168
603.722363	2567.565518
604.072572	2571.129614
604.422728	2571.588359
604.772830	2567.807493
605.122878	2565.082750
605.472872	2563.908161
605.822813	2564.986968
606.172701	2565.962431
606.522534	2568.097360
606.872314	2572.407546
607.222041	2568.251115
607.571714	2572.432752
607.921333	2570.459140
608.270899	2570.524675
608.620411	2570.529717
608.969870	2571.185067
609.319276	2572.296641
609.668627	2575.437280
610.017926	2574.126580
610.367171	2578.257805
610.716362	2578.104050
611.065500	2574.146744
611.414585	2571.928637
611.763616	2575.530541
612.112594	2573.919893
612.461518	2571.936198
612.810389	2570.985941
613.159207	2572.342011
613.507971	2570.421332
613.856682	2570.587690
614.205340	2568.679613
614.553945	2572.778071
614.902496	2569.198852
615.250994	2571.578277
615.599439	2572.135324
615.947830	2569.718091
616.296169	2569.680282
616.644454	2569.924778
616.992686	2571.283369
617.340864	2572.326888
617.688990	2567.043759
618.037063	2572.452917
618.385082	2567.706670
618.733048	2571.013667
619.080961	2569.524006
619.428821	2571.192628
619.776628	2569.087947
620.124382	2571.379151
620.472083	2571.298492
620.819731	2570.933009
621.167326	2570.204562
621.514868	2568.563667
621.862357	2567.991496
622.209793	2567.855384
622.557176	2571.122052
622.904506	2565.896896
623.251783	2565.657441
623.599007	2564.782801
623.946179	2561.730382
624.293297	2563.625856
624.640363	2568.208265
624.987376	2567.520148
625.334336	2567.411763
625.681243	2567.268090
626.028097	2564.124931
626.374899	2566.252297
626.721647	2565.019735
627.068343	2566.590055
627.414987	2564.581155
627.761577	2565.060065
628.108115	2566.159036
628.454600	2563.648542
628.801032	2564.213151
629.147412	2564.860939
629.493739	2563.278017
629.840014	2566.017884
630.186236	2565.445713
630.532405	2564.563511
630.878521	2564.646690
631.224585	2565.889334
631.570597	2563.409087
631.916556	2561.506051
632.262462	2563.192317
632.608316	2561.503531
632.954117	2561.616957
633.299866	2561.180897
633.645562	2561.246432
633.991206	2562.599982
634.336797	2561.274158
634.682336	2563.618295
635.027823	2560.379353
635.373257	2560.921277
635.718639	2559.991184
636.063968	2560.215516
636.409245	2559.696277
636.754470	2559.300546
637.099642	2560.112172
637.444762	2559.671071
637.789829	2558.672923
638.134845	2560.699467
638.479808	2557.710062
638.824719	2559.635783
639.169577	2558.103272
639.514383	2559.030845
639.859137	2558.385577
640.203839	2558.526729
640.548489	2561.208623
640.893086	2556.414486
641.237632	2553.394835
641.582125	2556.006152
641.926566	2556.527912
642.270955	2558.720814
642.615292	2555.963302
642.959576	2558.430947
643.303809	2561.090156
643.647990	2560.717111
643.992118	2558.617470
644.336195	2558.083108
644.680219	2557.551266
645.024192	2558.047820
645.368112	2558.403221
645.711981	2557.672254
646.055797	2561.475804
646.399562	2559.212326
646.743274	2559.711400
647.086935	2559.116544
647.430544	2559.207285
647.774101	2560.966648
648.117606	2561.390105
648.461059	2560.049158
648.804460	2562.514282
649.147810	2556.530432
649.491108	2560.772563
649.834354	2557.883982
650.177548	2558.433468
650.520690	2556.134702
650.863781	2557.397511
651.206820	2561.465722
651.549807	2558.536812
651.892742	2555.928014
652.235626	2554.997922
652.578458	2557.584033
652.921238	2553.538508
653.263967	2555.759136
653.606644	2557.140412
653.949269	2559.552604
654.291843	2555.116389
654.634365	2557.120247
654.976836	2556.394321
655.319255	2555.960782
655.661622	2558.012532
656.003938	2554.478683
656.346203	2557.407593
656.688416	2556.974054
657.030577	2554.839125
657.372687	2553.795606
657.714746	2554.072870
658.056753	2555.365926
658.398708	2549.712272
658.740612	2554.435833
659.082465	2549.445091
659.424266	2553.004145
659.766016	2551.958106
660.107715	2552.341233
660.449362	2555.552448
660.790958	2555.688560
661.132503	2552.069011
661.473996	2558.748540
661.815438	2556.200237
662.156829	2554.796275
662.498168	2552.394166
662.839456	2554.768549
663.180693	2556.727037
663.521879	2555.391132
663.863013	2556.222922
664.204097	2551.489278
664.545129	2556.326266
664.886110	2555.035730
665.227040	2557.858776
665.567918	2557.405073
665.908746	2555.698642
666.249522	2557.694939
666.590248	2555.076059
666.930922	2555.718807
667.271545	2554.496327
667.612118	2556.724517
667.952639	2556.679146
668.293109	2556.525391
668.633528	2554.322407
668.973896	2557.442881
669.314213	2555.418858
669.654480	2555.759136
669.994695	2555.065977
670.334859	2557.775597
670.674973	2554.967675
671.015035	2555.907850
671.355047	2553.856100
671.695008	2554.695452
672.034918	2555.035730
672.374777	2556.059084
672.714585	2557.833571
673.054342	2556.646379
673.394049	2557.294167
673.733705	2555.439022
674.073310	2555.486913
674.412864	2555.975905
674.752368	2553.004145
675.091820	2554.771070
675.431223	2554.314845
675.770574	2554.269475
676.109875	2551.849721
676.449125	2550.912066
676.788324	2550.675132
677.127473	2552.658826
677.466571	2550.317210
677.805619	2551.890050
678.144616	2556.142263
678.483562	2554.186296
678.822458	2551.935421
679.161303	2553.299053
679.500098	2553.762839
679.838842	2553.631769
680.177535	2555.111348
680.516179	2555.136553
680.854771	2555.113868
681.193314	2554.871893
681.531805	2554.760987
681.870247	2555.539846
682.208638	2556.878272
682.546978	2557.538663
682.885268	2555.736451
683.223508	2553.218394
683.561697	2552.575647
683.899836	2557.337017
684.237925	2551.595143
684.575963	2555.307953
684.913951	2554.584547
685.251889	2555.260062
685.589776	2555.728889
685.927614	2553.861141
686.265401	2550.929710
686.603137	2556.469938
686.940824	2556.041440
687.278460	2555.635627
687.616046	2555.479352
687.953582	2553.674619
688.291068	2554.604712
688.628504	2551.940462
688.965889	2552.852911
689.303224	2555.756615
689.640510	2553.677139
689.977745	2552.724361
690.314930	2552.215205
690.652065	2555.985988
690.989150	2553.634289
691.326185	2551.174206
691.663170	2554.004814
692.000105	2551.469114
692.336990	2552.598332
692.673825	2552.789896
693.010610	2551.713610
693.347345	2548.043650
693.684030	2547.300080
694.020665	2547.547096
694.357251	2546.188505
694.693786	2548.482230
695.030272	2550.145811
695.366707	2549.515667
695.703093	2550.690256
696.039429	2548.953578
696.375716	2546.816129
696.711952	2551.915256
697.048139	2549.641696
697.384276	2549.621531
697.720363	2544.792106
698.056400	2545.404606
698.392388	2550.095399
698.728326	2545.855789
699.064214	2546.170861
699.400053	2549.767724
699.735842	2547.030378
700.071581	2549.210677
700.407270	2546.395192
700.742910	2547.741181
701.078501	2545.293700
701.414042	2547.635316
701.749533	2545.601211
702.084974	2545.780172
702.420366	2545.018958
702.755709	2545.384441
703.091002	2547.305121
703.426246	2547.726057
703.761440	2546.778320
704.096584	2548.913249
704.431679	2547.232024
704.766725	2547.171530
705.101721	2544.603062
705.436668	2549.006510
705.771565	2546.795964
706.106413	2546.801005
706.441212	2546.977446
706.775961	2546.932075
707.110661	2545.328988
707.445311	2548.953578
707.779913	2544.764379
708.114465	2546.443083
708.448967	2547.088351
708.783421	2548.323434
709.117825	2546.264122
709.452180	2547.670604
709.786485	2550.092879
710.120742	2547.925183
710.454949	2549.818136
710.789107	2548.182282
711.123216	2546.369987
711.457275	2548.877961
711.791286	2545.959133
712.125247	2547.410985
712.459159	2550.990204
712.793023	2550.632282
713.126837	2548.280584
713.460602	2550.697817
713.794318	2548.451983
714.127985	2549.603887
714.461602	2549.195553
714.795171	2549.881150
715.128691	2551.267468
715.462162	2547.184133
715.795584	2546.927034
716.128957	2547.859648
716.462281	2547.287477
716.795556	2547.811757
717.128782	2546.548948
717.461960	2546.990049
717.795088	2548.202446
718.128167	2544.855120
718.461198	2542.241282
718.794180	2544.983669
719.127113	2543.892260
719.459997	2547.836962
719.792833	2545.510470
720.125619	2545.576005
720.458357	2546.193546
720.791046	2545.843186
721.123686	2544.096426
721.456278	2544.625748
721.788821	2544.260264
722.121315	2545.961653
722.453761	2544.744215
722.786158	2542.263967
723.118506	2543.095757
723.450805	2546.468289
723.783056	2543.662887
724.115259	2544.323278
724.447412	2542.732794
724.779518	2547.209339
725.111574	2544.101467
725.443582	2545.051725
725.775542	2545.192877
726.107453	2545.482744
726.439315	2543.635161
726.771129	2548.449463
727.102895	2548.457024
727.434612	2547.834442
727.766281	2542.425284
728.097901	2543.609955
728.429473	2540.602907
728.760996	2545.661705
729.092471	2542.470654
729.423897	2547.295038
729.755276	2546.117929
730.086606	2545.969215
730.417887	2546.395193
730.749120	2546.604400
731.080305	2546.304452
731.411442	2547.050542
731.742530	2543.529297
732.073570	2548.336037
732.404562	2547.668084
732.735506	2546.952240
733.066401	2545.092054
733.397249	2546.180943
733.728048	2545.449976
734.058798	2547.274874
734.389501	2542.692465
734.720156	2542.949564
735.050762	2545.293700
735.381320	2543.491488
735.711831	2543.032743
736.042293	2544.663556
736.372707	2542.848741
736.703073	2544.439225
737.033391	2546.490974
737.363661	2544.966025
737.693883	2546.022147
738.024056	2547.418547
738.354182	2543.330171
738.684260	2544.663556
739.014290	2544.179605
739.344272	2545.374359
739.674207	2545.664225
740.004093	2543.146169
740.333931	2546.128011
740.663722	2543.897301
740.993464	2545.757487
741.323159	2544.441745
741.652806	2543.700696
741.982405	2544.930737
742.311956	2543.317568
742.641460	2543.899821
742.970915	2543.874616
743.300323	2542.999975
743.629683	2545.059287
743.958996	2543.045346
744.288260	2544.005686
744.617477	2543.524255
744.946647	2539.224151
745.275768	2541.835469
745.604842	2538.127700
745.933869	2544.262784
746.262847	2539.140972
746.591778	2543.804039
746.920662	2542.155582
747.249498	2541.563247
747.578286	2542.947043
747.907027	2542.155582
748.235720	2541.296065
748.564365	2541.646426
748.892963	2543.569626
749.221514	2544.572815
749.550017	2543.529297
749.878473	2541.817825
750.206881	2542.886549
750.535242	2543.010058
750.863555	2543.811601
751.191821	2539.866898
751.520039	2542.246323
751.848210	2544.913093
752.176334	2545.616334
752.504411	2542.488298
752.832440	2538.843544
753.160421	2545.074410
753.488356	2543.304965
753.816243	2538.523431
754.144082	2544.119112
754.471875	2542.024512
754.799620	2544.179605
755.127318	2540.292876
755.454969	2540.882691
755.782572	2541.991745
756.110129	2540.658359
756.437638	2541.865716
756.765100	2541.651467
757.092515	2541.485109
757.419882	2542.170706
757.747203	2541.593493
758.074477	2541.621220
758.401703	2541.321271
758.728882	2541.112063
759.056014	2543.330171
759.383099	2539.730787
759.710138	2541.084337
760.037129	2542.173226
760.364073	2541.197763
760.690970	2543.075593
761.017820	2546.092723
761.344623	2540.446631
761.671379	2542.122815
761.998088	2541.855633
762.324751	2541.164995
762.651366	2541.177598
762.977935	2548.424257
763.304456	2548.774617
763.630931	2554.302242
763.957359	2552.802499
764.283740	2551.010369
764.610074	2547.322765
764.936362	2548.058773
765.262602	2545.293700
765.588796	2545.286139
765.914943	2543.073072
766.241044	2541.482588
766.567097	2542.518545
766.893104	2540.809594
767.219064	2542.856302
767.544978	2540.217258
767.870845	2543.766231
768.196665	2541.122146
768.522438	2538.720036
768.848165	2540.691127
769.173846	2540.754141
769.499479	2540.310520
769.825066	2539.735828
770.150607	2541.507794
770.476101	2538.198276
770.801548	2539.589635
771.126949	2538.813297
771.452303	2541.752290
771.777611	2537.391692
772.102872	2538.326826
772.428087	2538.830941
772.753256	2537.258101
773.078378	2538.578883
773.403453	2539.617361
773.728482	2539.350180
774.053465	2541.447300
774.378401	2536.706095
774.703291	2539.887063
775.028135	2539.206507
775.352932	2537.172402
775.677683	2539.158616
776.002388	2537.137113
776.327046	2537.953780
776.651658	2536.917823
776.976224	2535.581918
777.300743	2539.241795
777.625216	2538.972093
777.949643	2538.674665
778.274024	2539.277083
778.598359	2533.825075
778.922647	2532.529499
779.246889	2534.997144
779.571086	2532.481608
779.895236	2537.986548
780.219339	2536.547298
780.543397	2537.036290
780.867409	2538.407484
781.191374	2538.699871
781.515294	2538.430169
781.839167	2537.205169
782.162995	2538.142824
782.486776	2538.006713
782.810511	2539.282124
783.134201	2535.899510
783.457844	2538.155427
783.781441	2536.257432
784.104993	2537.250539
784.428498	2537.890766
784.751958	2537.598379
785.075372	2539.120807
785.398739	2536.789274
785.722061	2540.111394
786.045337	2537.061496
786.368568	2539.879501
786.691752	2536.847247
787.014891	2537.084181
787.337983	2537.210210
787.661030	2538.384799
787.984031	2536.771630
788.306987	2539.657690
788.629897	2538.828421
788.952760	2540.426466
789.275579	2539.191384
789.598351	2538.301620
789.921078	2539.879501
790.243759	2539.098122
790.566395	2537.260622
790.888984	2535.468492
791.211529	2539.128369
791.534027	2535.279448
791.856480	2534.611495
792.178888	2536.809438
792.501249	2537.366486
792.823566	2535.884387
793.145836	2534.709798
793.468062	2534.818183
793.790241	2535.783564
794.112375	2540.028215
794.434464	2538.793133
794.756507	2539.390509
795.078505	2540.126518
795.400457	2535.556712
795.722364	2535.458409
796.044226	2536.653163
796.366042	2535.249201
796.687812	2533.157123
797.009538	2540.250026
797.331218	2539.821528
797.652852	2538.218441
797.974442	2536.244829
798.295986	2536.622916
798.617484	2538.835982
798.938938	2536.587628
799.260346	2537.454706
799.581709	2538.382278
799.903026	2539.549306
800.224299	2538.334388
800.545526	2535.012267
800.866708	2535.876825
801.187845	2537.142155
801.508936	2535.687782
801.829983	2534.271217
802.150984	2536.882535
802.471940	2536.854809
802.792851	2538.629295
803.113717	2537.908410
803.434538	2538.175591
803.755314	2536.524613
804.076045	2535.324819
804.396731	2532.806762
804.717372	2535.735673
805.037967	2534.624098
805.358518	2534.906403
805.679024	2537.537885
805.999485	2534.495549
806.319901	2537.575694
806.640272	2535.518903
806.960598	2537.467309
807.280879	2534.724921
807.601115	2539.604758
807.921306	2535.390354
808.241453	2534.493028
808.561554	2536.582587
808.881611	2536.943029
809.201623	2536.731301
809.521590	2536.650642
809.841513	2535.718029
810.161390	2537.759696
810.481223	2538.639377
810.801011	2537.134593
811.120755	2534.372041
811.440453	2537.011085
811.760107	2535.954963
812.079716	2532.484128
812.399281	2531.261649
812.718801	2533.404139
813.038276	2529.603109
813.357707	2537.452186
813.677093	2535.909593
813.996434	2535.218954
814.315731	2534.089736
814.634983	2537.144675
814.954191	2536.890097
815.273354	2537.308513
815.592473	2535.123173
815.911547	2536.703574
816.230577	2539.506456
816.549562	2538.213400
816.868502	2537.263142
817.187399	2537.232895
817.506250	2535.108049
817.825058	2537.999151
818.143821	2535.891948
818.462539	2539.178781
818.781213	2538.135262
819.099843	2540.371014
819.418429	2539.332536
819.736970	2542.142979
820.055466	2538.541075
820.373919	2544.204811
820.692327	2546.291849
821.010691	2550.007179
821.329011	2558.239383
821.647286	2574.870150
821.965517	2593.701380
822.283704	2605.033894
822.601847	2607.355345
822.919945	2599.859150
823.237999	2588.330031
823.556010	2577.158834
823.873976	2571.684141
824.191897	2562.519323
824.509775	2559.560166
824.827609	2552.426933
825.145398	2548.958619
825.463144	2551.138918
825.780845	2549.442570
826.098502	2553.866183
826.416116	2557.147974
826.733685	2562.267265
827.051210	2565.286917
827.368692	2560.636452
827.686129	2557.231153
828.003522	2552.197561
828.320872	2545.157589
828.638177	2542.984852
828.955439	2539.650129
829.272656	2538.722556
829.589830	2536.360776
829.906960	2539.256919
830.224046	2537.542926
830.541088	2542.722712
830.858086	2537.111908
831.175041	2539.113246
831.491952	2539.173740
831.808819	2536.199459
832.125642	2539.924872
832.442421	2539.892104
832.759157	2541.376724
833.075849	2543.743546
833.392497	2548.273022
833.709101	2552.200081
834.025662	2550.539021
834.342179	2551.020451
834.658653	2544.471992
834.975083	2545.951571
835.291469	2544.671118
835.607811	2540.363452
835.924110	2537.061496
836.240366	2539.589635
836.556578	2537.137113
836.872746	2533.688964
837.188871	2536.708615
837.504952	2536.668286
837.820990	2533.227699
838.136984	2535.198790
838.452935	2537.701723
838.768842	2535.483615
839.084706	2534.929088
839.400526	2534.190559
839.716303	2538.805735
840.032037	2541.283462
840.347727	2541.419574
840.663373	2540.998637
840.978977	2540.171888
841.294537	2536.678368
841.610054	2534.162833
841.925527	2535.216434
842.240957	2535.833975
842.556344	2534.450178
842.871687	2537.482433
843.186987	2535.503780
843.502244	2531.778367
843.817458	2533.386495
844.132629	2535.173584
844.447756	2534.974458
844.762840	2530.046731
845.077881	2530.555887
845.392879	2529.151926
845.707833	2531.407842
846.022745	2528.156298
846.337613	2531.135620
846.652438	2532.514375
846.967221	2536.207021
847.281960	2530.603778
847.596656	2533.633512
847.911309	2533.026053
848.225919	2533.066382
848.540485	2532.640404
848.855009	2532.262318
849.169490	2531.634694
849.483928	2533.406660
849.798323	2532.269879
850.112675	2532.854653
850.426984	2534.551002
850.741251	2534.140147
851.055474	2530.636546
851.369654	2532.595034
851.683792	2532.189221
851.997887	2532.106042
852.311938	2533.240302
852.625947	2532.267359
852.939914	2534.031763
853.253837	2534.094777
853.567718	2534.155271
853.881555	2533.326001
854.195350	2533.827596
854.509103	2530.709642
854.822812	2533.436907
855.136479	2533.323481
855.450103	2534.107380
855.763685	2530.419776
856.077224	2531.521268
856.390720	2534.041845
856.704173	2530.883562
857.017584	2533.598223
857.330953	2530.623943
857.644278	2533.840199
857.957561	2535.760878
858.270802	2532.998326
858.584000	2531.732997
858.897155	2535.415559
859.210268	2531.370033
859.523339	2534.523275
859.836367	2531.546474
860.149352	2534.487987
860.462295	2530.964221
860.775195	2528.607481
861.088054	2528.431041
861.400869	2532.194262
861.713642	2525.653365
862.026373	2533.305837
862.339062	2532.549663
862.651708	2535.914634
862.964312	2533.701567
863.276873	2533.038655
863.589392	2530.996988
863.901869	2532.408511
864.214303	2533.900693
864.526696	2533.172246
864.839045	2534.525796
865.151353	2531.526309
865.463619	2534.208203
865.775842	2534.800539
866.088023	2531.440610
866.400162	2532.264838
866.712258	2534.493028
867.024313	2533.605785
867.336325	2532.837009
867.648296	2532.801721
867.960224	2531.226361
868.272110	2534.490508
868.583954	2535.176105
868.895755	2532.015301
869.207515	2532.930271
869.519233	2535.223996
869.830909	2534.175436
870.142542	2535.055117
870.454134	2534.326670
870.765684	2533.883049
871.077191	2534.636701
871.388657	2533.585621
871.700081	2531.173428
872.011463	2532.907585
872.322803	2531.070085
872.634101	2535.309695
872.945357	2533.084026
873.256571	2536.025539
873.567744	2531.566638
873.878874	2534.699716
874.189963	2534.508152
874.501010	2533.787267
874.812015	2535.584438
875.122979	2533.487318
875.433900	2534.213244
875.744780	2533.353727
876.055618	2532.098480
876.366415	2534.780374
876.677169	2536.413708
876.987882	2532.693336
877.298554	2531.128058
877.609183	2534.924047
877.919771	2534.556043
878.230317	2536.093595
878.540822	2536.670807
878.851285	2535.145858
879.161707	2535.826413
879.472087	2538.621733
879.782425	2539.879501
880.092722	2542.601724
880.402977	2547.665563
880.713191	2559.280382
881.023363	2568.220868
881.333494	2576.773186
881.643583	2577.751169
881.953631	2574.555078
882.263637	2573.894687
882.573602	2570.063410
882.883526	2565.370096
883.193408	2556.038920
883.503248	2554.226625
883.813048	2552.431974
884.122806	2548.210008
884.432522	2545.639019
884.742197	2542.906714
885.051831	2542.470654
885.361424	2539.317413
885.670975	2538.190715
885.980485	2539.395550
886.289954	2539.637526
886.599382	2538.624254
886.908768	2536.552340
887.218113	2536.441434
887.527417	2535.097967
887.836680	2535.337422
888.145901	2532.650487
888.455082	2534.359438
888.764221	2534.684592
889.073319	2536.532175
889.382376	2534.495549
889.691392	2534.999664
890.000366	2535.004705
890.309300	2532.143851
890.618193	2535.869263
890.927044	2533.643594
891.235855	2536.191897
891.544625	2532.158974
891.853353	2534.326670
892.162041	2535.367668
892.470687	2536.000333
892.779293	2536.088553
893.087858	2534.125024
893.396381	2532.605116
893.704864	2537.696682
894.013306	2535.680220
894.321707	2547.247148
894.630068	2546.715306
894.938387	2544.497198
895.246665	2545.845707
895.554903	2545.220604
895.863100	2544.769420
896.171256	2543.685572
896.479371	2540.391178
896.787446	2539.783719
897.095480	2537.069058
897.403473	2538.621733
897.711425	2536.804397
898.019336	2536.501928
898.327207	2534.283820
898.635038	2537.285827
898.942827	2533.706608
899.250576	2536.295241
899.558284	2534.881197
899.865952	2533.782226
900.173579	2534.916485
900.481165	2531.390198
900.788711	2534.271217
901.096216	2532.537061
901.403681	2534.319108
901.711105	2535.211393
902.018489	2534.253573
902.325832	2534.074613
902.633135	2534.712318
902.940397	2534.256094
903.247619	2535.337422
903.554800	2539.819007
903.861941	2543.531817
904.169041	2546.589277
904.476101	2553.117571
904.783121	2550.463404
905.090100	2550.544062
905.397039	2547.539534
905.703938	2541.414533
906.010796	2541.764893
906.317614	2538.125180
906.624391	2535.997813
906.931129	2535.067720
907.237826	2533.469674
907.544483	2534.959335
907.851099	2533.300795
908.157675	2535.281969
908.464211	2532.269879
908.770707	2528.796524
909.077163	2531.634694
909.383578	2527.674868
909.689954	2530.863397
909.996289	2525.555062
910.302584	2533.326001
910.608839	2530.145033
910.915054	2533.487318
911.221229	2529.383819
911.527363	2532.504293
911.833458	2530.394570
912.139513	2533.530168
912.445527	2533.194931
912.751502	2530.525640
913.057436	2534.679551
913.363331	2533.116793
913.669186	2532.290044
913.975000	2535.108049
914.280775	2535.791125
914.586510	2538.183153
914.892205	2538.011754
915.197859	2541.898483
915.503475	2543.042825
915.809050	2546.964843
916.114585	2549.026675
916.420081	2552.981460
916.725536	2551.191850
917.030952	2550.692776
917.336328	2547.373176
917.641665	2544.711447
917.946961	2540.988555
918.252218	2540.015612
918.557435	2539.186342
918.862612	2538.778009
919.167750	2537.484953
919.472848	2534.263656
919.777906	2532.035466
920.082925	2535.355066
920.387904	2533.845240
920.692843	2534.480425
920.997743	2531.498583
921.302603	2533.441948
921.607423	2532.121165
921.912204	2532.597554
922.216946	2534.440096
922.521647	2534.641742
922.826310	2533.492359
923.130932	2532.900024
923.435516	2531.790970
923.740059	2533.348686
924.044564	2531.266690
924.349028	2530.208048
924.653454	2526.454908
924.957840	2529.335928
925.262186	2529.303160
925.566493	2530.752492
925.870761	2525.003056
926.174989	2530.298788
926.479178	2529.088911
926.783328	2531.438089
927.087438	2530.583613
927.391509	2532.141330
927.695541	2532.463964
927.999533	2531.974972
928.303486	2529.424148
928.607400	2531.047400
928.911275	2529.887934
929.215110	2530.523120
929.518906	2529.809796
929.822663	2527.954652
930.126381	2527.939528
930.430060	2530.041689
930.733699	2531.823737
931.037299	2530.462626
931.340861	2530.218130
931.644383	2530.644107
931.947866	2530.959179
932.251309	2531.125538
932.554714	2529.759385
932.858080	2529.406504
933.161407	2530.049251
933.464694	2528.796524
933.767943	2531.564118
934.071153	2528.610002
934.374323	2527.979858
934.677455	2528.688140
934.980548	2529.550177
935.283602	2529.756864
935.586617	2532.610157
935.889593	2528.007584
936.192530	2528.635207
936.495428	2529.371216
936.798287	2531.483459
937.101108	2531.334745
937.403890	2533.091588
937.706632	2530.137471
938.009336	2530.029087
938.312002	2533.431865
938.614628	2528.630166
938.917216	2531.480939
939.219765	2529.643438
939.522275	2531.924560
939.824747	2531.942204
940.127179	2527.957172
940.429573	2525.159332
940.731929	2529.537574
941.034246	2523.299146
941.336524	2530.480270
941.638763	2530.439941
941.940964	2530.283665
942.243126	2525.507172
942.545250	2533.573018
942.847335	2527.768129
943.149381	2530.807945
943.451389	2530.122348
943.753359	2530.702081
944.055290	2528.511699
944.357182	2529.766947
944.659036	2530.074457
944.960851	2530.475229
945.262628	2530.976823
945.564367	2530.013963
945.866067	2530.959179
946.167729	2530.989426
946.469352	2531.135620
946.770937	2529.351051
947.072484	2529.086391
947.373992	2529.303160
947.675462	2529.136802
947.976893	2532.511855
948.278286	2527.684950
948.579641	2527.087573
948.880958	2530.283665
949.182236	2530.555887
949.483476	2529.121679
949.784678	2528.438602
950.085841	2530.606299
950.386967	2531.208717
950.688054	2528.806607
950.989103	2527.838705
951.290114	2525.313087
951.591087	2529.356092
951.892021	2528.627646
952.192917	2529.303160
952.493776	2530.709642
952.794596	2530.278624
953.095378	2531.004550
953.396122	2532.458923
953.696828	2529.840043
953.997496	2531.362472
954.298126	2530.515558
954.598718	2530.349200
954.899272	2526.580937
955.199788	2528.791483
955.500266	2527.901720
955.800706	2528.413397
956.101108	2523.861235
956.401472	2523.460463
956.701798	2524.720752
957.002087	2525.068591
957.302337	2530.099663
957.602550	2528.899868
957.902724	2528.514220
958.202861	2526.807789
958.502960	2526.618746
958.803022	2528.851977
959.103045	2529.013294
959.403031	2530.848274
959.702979	2528.312574
960.002889	2526.565814
960.302762	2526.485155
960.602596	2530.109745
960.902393	2525.736544
961.202153	2530.069416
961.501875	2528.443644
961.801559	2529.156967
962.101205	2529.472039
962.400814	2527.143026
962.700385	2526.701925
962.999918	2527.992460
963.299414	2529.018335
963.598873	2527.495907
963.898293	2525.734023
964.197677	2529.676206
964.497022	2527.082532
964.796331	2527.049765
965.095601	2528.741072
965.394835	2529.298119
965.694030	2527.828623
965.993189	2530.417255
966.292309	2527.039682
966.591393	2525.635721
966.890439	2526.553211
967.189447	2529.043541
967.488419	2529.325846
967.787353	2527.437933
968.086249	2526.528005
968.385108	2527.747964
968.683930	2525.968437
968.982714	2526.298633
969.281462	2528.481452
969.580172	2527.168232
969.878844	2528.219312
970.177480	2529.451874
970.476078	2529.272913
970.774639	2528.554549
971.073162	2528.506658
971.371649	2527.448016
971.670098	2521.955679
971.968510	2524.345186
972.266885	2521.259999
972.565223	2529.053623
972.863524	2527.921884
973.161788	2527.251411
973.460014	2527.516071
973.758204	2525.751668
974.056356	2527.649662
974.354471	2527.984899
974.652550	2528.980527
974.950591	2528.597399
975.248595	2526.931298
975.546563	2525.398787
975.844493	2527.490866
976.142386	2528.627646
976.440243	2529.580424
976.738062	2528.151257
977.035845	2525.711338
977.333590	2527.435413
977.631299	2529.714014
977.928971	2527.891637
978.226606	2525.628159
978.524204	2527.843746
978.821765	2526.170083
979.119290	2529.494724
979.416777	2525.867614
979.714228	2527.163191
980.011642	2527.080012
980.309020	2530.530681
980.606360	2526.782583
980.903664	2527.286699
981.200931	2526.326359
981.498162	2527.896678
981.795356	2528.476411
982.092513	2527.632018
982.389633	2525.776873
982.686717	2527.722759
982.983764	2526.875845
983.280775	2527.700073
983.577749	2529.991278
983.874686	2526.119672
984.171587	2528.375588
984.468451	2528.423479
984.765279	2529.305681
985.062070	2525.804600
985.358824	2526.200330
985.655543	2528.950280
985.952224	2527.458098
986.248869	2523.536080
986.545478	2524.957686
986.842050	2525.023221
987.138586	2524.017511
987.435086	2524.347706
987.731549	2522.532891
988.027975	2527.120341
988.324366	2524.871986
988.620719	2526.797707
988.917037	2529.013294
989.213318	2525.560104
989.509563	2525.623118
989.805772	2529.547656
990.101944	2526.137316
990.398080	2525.875176
990.694180	2526.485155
990.990244	2526.520443
991.286271	2526.470032
991.582262	2526.898530
991.878217	2525.063550
992.174136	2526.160001
992.470019	2527.387522
992.765865	2524.970289
993.061676	2526.500279
993.357450	2526.142357
993.653188	2527.087573
993.948890	2528.002543
994.244556	2526.737213
994.540186	2528.201668
994.835780	2526.172604
995.131337	2528.521782
995.426859	2523.987264
995.722345	2525.988602
996.017795	2529.852646
996.313208	2530.008922
996.608586	2525.550021
996.903928	2526.011287
997.199234	2526.719569
997.494504	2528.552028
997.789738	2528.234436
998.084936	2527.972296
998.380099	2526.918695
998.675225	2526.633869
998.970316	2527.014477
999.265371	2526.522964
999.560390	2524.627490
999.855373	2527.720238
1000.150320	2526.686802
1000.445232	2527.639580
1000.740108	2527.417769
1001.034948	2526.757378
1001.329752	2527.145547
1001.624521	2527.458098
1001.919254	2525.643283
1002.213951	2525.660927
1002.508613	2523.566327
1002.803239	2525.176976
1003.097829	2520.899557
1003.392384	2528.990609
1003.686903	2524.884589
1003.981386	2528.383150
1004.275834	2527.352234
1004.570246	2524.793848
1004.864623	2526.661596
1005.158964	2527.359796
1005.453270	2526.056657
1005.747540	2526.724610
1006.041775	2525.960875
1006.335974	2531.022194
1006.630138	2525.101359
1006.924266	2528.771319
1007.218359	2527.226205
1007.512416	2526.026410
1007.806438	2526.762419
1008.100425	2525.038344
1008.394376	2528.446164
1008.688292	2524.985412
1008.982172	2527.846267
1009.276017	2525.439116
1009.569827	2526.608664
1009.863602	2526.076822
1010.157341	2524.050278
1010.451045	2525.902902
1010.744714	2527.659744
1011.038347	2527.004394
1011.331945	2523.402490
1011.625508	2528.226874
1011.919036	2526.039013
1012.212528	2524.304856
1012.505986	2524.753519
1012.799408	2529.842564
1013.092795	2525.376102
1013.386147	2525.363499
1013.679464	2523.989784
1013.972745	2524.748478
1014.265992	2527.662265
1014.559204	2528.153777
1014.852380	2525.774353
1015.145521	2525.630680
1015.438628	2522.895854
1015.731699	2526.598581
1016.024736	2526.722090
1016.317737	2524.947603
1016.610703	2524.819054
1016.903635	2524.987933
1017.196531	2525.431554
1017.489393	2525.950793
1017.782219	2522.079187
1018.075011	2523.452901
1018.367768	2524.173786
1018.660490	2527.851308
1018.953177	2527.851308
1019.245829	2527.851308
