Dividing Wavelength (nm)	Counts (n)	Blue Motor Position (mm): 0.000000	Red Motor Position (mm): 48.600000	
326.493990	2127.964300
326.888308	2127.964300
327.282561	2127.964300
327.676750	2096.976327
328.070874	2093.134968
328.464933	2097.377099
328.858929	2103.557553
329.252859	2111.668770
329.646726	2125.174021
330.040528	2139.228758
330.434265	2154.195944
330.827938	2171.902997
331.221547	2191.558456
331.615091	2207.402802
332.008571	2226.997767
332.401986	2247.101889
332.795338	2267.062337
333.188625	2286.120419
333.581847	2305.266722
333.975006	2325.146512
334.368100	2343.521518
334.761129	2359.708663
335.154095	2378.928062
335.546996	2398.243243
335.939833	2424.931111
336.332606	2440.130190
336.725315	2454.442026
337.117960	2457.738940
337.510540	2469.033646
337.903056	2482.024699
338.295508	2486.458394
338.687896	2497.538850
339.080220	2505.781137
339.472480	2513.269771
339.864676	2516.954854
340.256807	2520.488703
340.648875	2523.702438
341.040879	2524.080525
341.432818	2529.245187
341.824694	2529.192255
342.216506	2529.504807
342.608253	2530.558408
342.999937	2528.882224
343.391557	2528.191586
343.783113	2527.279137
344.174605	2528.531864
344.566033	2526.338962
344.957397	2525.187058
345.348697	2519.225894
345.739934	2520.622293
346.131106	2517.569875
346.522215	2518.593229
346.913260	2514.053670
347.304241	2515.094668
347.695159	2511.243227
348.086012	2512.437980
348.476802	2507.003616
348.867528	2509.090654
349.258191	2505.929851
349.648789	2504.115035
350.039324	2500.523213
350.429796	2502.206958
350.820203	2501.531444
351.210548	2500.293841
351.600828	2500.636639
351.991045	2498.221926
352.381198	2497.672441
352.771288	2497.007008
353.161314	2496.921309
353.551276	2498.582369
353.941175	2498.350476
354.331010	2497.377533
354.720782	2498.037924
355.110490	2497.566576
355.500135	2497.553973
355.889717	2494.756133
356.279235	2498.138747
356.668689	2498.615136
357.058080	2499.706546
357.447408	2498.758809
357.836672	2495.421565
358.225873	2498.663027
358.615010	2495.252687
359.004084	2503.242916
359.393095	2502.164109
359.782043	2501.957421
360.170927	2500.838285
360.559748	2503.560508
360.948505	2503.159737
361.337199	2505.826507
361.725830	2507.348935
362.114398	2506.776764
362.502903	2505.793739
362.891344	2506.640653
363.279722	2509.632578
363.668037	2509.640140
364.056289	2509.879595
364.444478	2510.787002
364.832603	2509.705675
365.220665	2511.238186
365.608665	2511.114677
365.996601	2512.193484
366.384474	2512.674914
366.772284	2516.241531
367.160031	2515.719771
367.547715	2517.927797
367.935336	2519.959382
368.322893	2523.309228
368.710388	2525.920546
369.097820	2535.680220
369.485189	2534.714839
369.872495	2545.724719
370.259738	2549.288815
370.646918	2554.466080
371.034035	2563.767009
371.421090	2574.287897
371.808081	2583.906418
372.195010	2593.930753
372.581875	2608.058586
372.968678	2619.524691
373.355418	2630.020373
373.742096	2646.295738
374.128710	2661.346103
374.515262	2678.412929
374.901751	2692.001360
375.288177	2701.438400
375.674540	2729.046279
376.060841	2747.862385
376.447079	2764.092380
376.833254	2785.058539
377.219367	2799.047741
377.605417	2836.039728
377.991404	2844.539113
378.377329	2868.287989
378.763191	2884.959085
379.148991	2923.788572
379.534727	2949.805967
379.920402	2974.880667
380.306013	2987.216370
380.691563	3040.342570
381.077049	3061.487690
381.462474	3076.296079
381.847835	3116.683283
382.233134	3135.819503
382.618371	3136.610964
383.003545	3206.488918
383.388657	3214.680793
383.773706	3245.620875
384.158693	3261.802979
384.543618	3290.845066
384.928480	3328.177331
385.313280	3369.446737
385.698017	3370.462529
386.082692	3423.966816
386.467305	3429.007970
386.851856	3463.398721
387.236344	3484.657267
387.620770	3513.107019
388.005133	3541.347563
388.389435	3565.721541
388.773674	3580.237544
389.157851	3621.915283
389.541965	3638.830875
389.926018	3599.809824
390.310008	3672.750279
390.693936	3693.436653
391.077802	3731.651120
391.461606	3719.829614
391.845348	3784.401754
392.229027	3783.557361
392.612645	3794.660502
392.996200	3876.564129
393.379694	3915.214655
393.763125	3977.404850
394.146494	3946.409315
394.529801	4008.062627
394.913047	4058.552303
395.296230	4025.000904
395.679351	4077.849840
396.062410	4100.204837
396.445408	4083.942074
396.828343	4115.071199
397.211217	4137.625322
397.594028	4061.652613
397.976778	4125.884474
398.359466	4151.740553
398.742092	4179.731559
399.124656	4102.727934
399.507158	4184.041746
399.889598	4212.030232
400.271977	4271.750261
400.654294	4243.822269
401.036549	4249.198659
401.418742	4218.397209
401.800874	4326.149352
402.182944	4346.601313
402.564952	4407.269079
402.946898	4398.936052
403.328783	4395.336668
403.710606	4304.444664
404.092367	4500.684181
404.474067	4461.499292
404.855705	4468.871979
405.237282	4399.130136
405.618797	4509.140716
406.000250	4539.959810
406.381642	4619.279845
406.762972	4588.513683
407.144240	4596.408130
407.525447	4597.030713
407.906593	4652.947191
408.287677	4695.340775
408.668700	4627.691011
409.049661	4679.125903
409.430560	4716.180905
409.811399	4644.432682
410.192176	4806.125172
410.572891	4747.277262
410.953545	4850.275597
411.334138	4726.860589
411.714669	4799.201147
412.095139	4688.071431
412.475547	4832.371939
412.855894	4812.897962
413.236180	4823.638140
413.616405	4776.246253
413.996568	4862.210529
414.376670	4804.696004
414.756711	4763.913070
415.136691	4791.788130
415.516609	4870.472980
415.896466	4909.718362
416.276262	4943.292447
416.655997	4923.069858
417.035670	5103.467549
417.415283	5196.179409
417.794834	5140.509947
418.174324	5092.976908
418.553753	5000.040716
418.933121	5188.670611
419.312428	5254.765179
419.691674	5192.340571
420.070859	5319.128110
420.449983	5226.970777
420.829045	5346.940156
421.208047	5256.678297
421.586988	5320.312782
421.965867	5335.751315
422.344686	5467.509433
422.723444	5321.343697
423.102141	5141.480369
423.480777	5443.873983
423.859352	5209.306574
424.237866	5466.763342
424.616319	5458.095078
424.994712	5568.889557
425.373044	5442.885917
425.751314	5588.161888
426.129524	5393.187702
426.507673	5585.442186
426.885762	5669.274054
427.263789	5603.542449
427.641756	5482.015353
428.019662	5602.733343
428.397508	5611.699036
428.775292	5557.325150
429.153016	5658.112939
429.530679	5582.407411
429.908282	5670.612480
430.285824	5539.197161
430.663305	5814.527340
431.040726	5546.133789
431.418086	5545.148243
431.795385	5655.894831
432.172624	5665.215925
432.549802	5655.587321
432.926920	5673.138098
433.303977	5684.014387
433.680974	5715.546805
434.057910	5735.794599
434.434786	5745.345065
434.811601	5711.271906
435.188355	5949.973062
435.565050	5820.680068
435.941683	5803.741791
436.318257	6016.387743
436.694770	6001.488613
437.071222	6035.380290
437.447614	5961.529907
437.823946	5879.848091
438.200218	6032.035484
438.576429	5898.825515
438.952580	5999.078941
439.328670	6038.402462
439.704700	5949.975582
440.080670	5934.569816
440.456580	6208.226332
440.832429	6091.198466
441.208218	5936.238438
441.583947	6090.021357
441.959616	6096.438745
442.335224	6027.591707
442.710773	6163.309651
443.086261	6189.175812
443.461689	5976.570189
443.837057	6132.150279
444.212365	6284.120903
444.587612	6178.682650
444.962800	6335.291135
445.337927	6316.049051
445.712995	5922.675213
446.088002	6501.704665
446.462949	6327.961297
446.837837	6259.633498
447.212664	6433.941475
447.587431	6573.866262
447.962139	7114.905577
448.336786	8045.588277
448.711374	7792.124103
449.085901	6864.266970
449.460369	6783.119517
449.834776	6716.278858
450.209124	7107.716892
450.583412	7257.136692
450.957640	7402.868888
451.331808	7168.344329
451.705917	6722.378654
452.079965	6645.803527
452.453954	6855.959148
452.827883	6731.692186
453.201752	6825.805487
453.575562	6623.514065
453.949311	6829.117525
454.323001	6716.535957
454.696632	6794.764582
455.070202	6930.011178
455.443713	7085.518171
455.817164	7181.766401
456.190556	7272.313086
456.563888	7337.626275
456.937160	7381.885085
457.310373	7044.087448
457.683526	7068.355563
458.056619	6957.656866
458.429653	6939.296983
458.802628	6877.673919
459.175542	6988.092832
459.548398	7340.724064
459.921194	7503.139959
460.293930	7509.892584
460.666607	8041.235241
461.039224	8347.397117
461.411782	8470.396229
461.784280	8491.629569
462.156719	8388.399342
462.529099	8261.828571
462.901419	7849.603339
463.273680	7743.696258
463.645882	7758.234946
464.018024	7626.562528
464.390106	7791.544370
464.762130	8175.702978
465.134094	8646.072879
465.505999	9662.861007
465.877845	10891.596887
466.249631	11538.636545
466.621358	11152.443831
466.993026	10527.144149
467.364634	10273.349779
467.736184	9907.465353
468.107674	9578.267925
468.479105	9612.068862
468.850477	9365.397642
469.221790	9147.224065
469.593043	8818.845824
469.964238	8674.260491
470.335373	8697.530457
470.706449	8749.194722
471.077467	8722.879899
471.448425	10040.874449
471.819324	11119.361259
472.190164	11141.297840
472.560945	9895.656451
472.931667	9104.233105
473.302330	8964.222619
473.672934	8610.295810
474.043479	8967.272517
474.413965	8910.304958
474.784393	8788.019169
475.154761	8946.820556
475.525070	9034.420686
475.895321	8856.808233
476.265513	9035.370944
476.635645	9208.355618
477.005719	9205.774547
477.375734	9316.949633
477.745691	9555.726406
478.115588	9683.456641
478.485427	9935.733624
478.855207	10469.768256
479.224928	11279.266659
479.594591	11915.107393
479.964194	11724.672766
480.333739	11660.355204
480.703226	11582.713873
481.072653	11676.801969
481.442022	11911.049264
481.811333	12108.682660
482.180584	11907.989284
482.549777	11613.797628
482.918912	11452.460540
483.287988	11462.908332
483.657005	11472.489044
484.025964	11156.499439
484.394864	11291.425922
484.763706	11263.550862
485.132489	11010.850422
485.501213	10978.110648
485.869879	11058.491847
486.238487	10900.560058
486.607036	11003.717189
486.975527	10779.095977
487.343959	10973.308949
487.712333	11025.079079
488.080648	10954.850765
488.448905	10998.928093
488.817104	10935.442322
489.185244	11202.038702
489.553326	11354.914213
489.921350	11897.506205
490.289315	12954.984006
490.657222	13300.933188
491.025070	13209.935320
491.392861	13090.210437
491.760593	12712.852345
492.128267	12354.648118
492.495883	12027.913293
492.863440	11691.784278
493.230939	11350.293996
493.598380	11285.270673
493.965763	11156.774182
494.333088	11052.628985
494.700354	10977.336831
495.067563	11032.272805
495.434713	10867.356498
495.801805	10993.987763
496.168839	10916.366596
496.535815	10854.128511
496.902733	10853.805877
497.269593	10783.895155
497.636395	10889.557740
498.003139	10877.398477
498.369825	10746.434341
498.736453	10904.557693
499.103023	10826.316465
499.469535	10849.669610
499.835989	10841.092087
500.202385	10807.911212
500.568723	10654.826493
500.935003	10878.903261
501.301226	10680.072592
501.667390	10940.251583
502.033497	11037.815554
502.399546	10894.291383
502.765537	10801.297218
503.131470	10880.246729
503.497345	11056.692155
503.863163	10669.990284
504.228923	10972.499844
504.594625	11043.494414
504.960269	10795.094079
505.325856	11010.242963
505.691385	10806.030862
506.056856	10965.658998
506.422270	10984.119704
506.787625	10870.303053
507.152924	10989.927113
507.518164	10964.370984
507.883347	10891.677545
508.248472	10807.916253
508.613540	11042.544156
508.978550	10921.127966
509.343503	10897.905891
509.708398	11023.481033
510.073236	11131.074380
510.438016	11131.276026
510.802738	11080.088150
511.167403	11142.495114
511.532010	11036.950996
511.896561	11259.442321
512.261053	11337.746564
512.625488	11211.001874
512.989866	11181.337204
513.354186	11170.758343
513.718449	11076.579507
514.082655	11272.314908
514.446803	11171.585092
514.810894	11289.545571
515.174927	11152.665642
515.538904	11179.809734
515.902822	11333.658188
516.266684	11218.896321
516.630488	11157.459779
516.994235	11220.711136
517.357925	11284.849737
517.721558	11370.153621
518.085133	11390.464430
518.448651	11396.349977
518.812112	11276.975454
519.175516	11298.125615
519.538863	11415.511403
519.902152	11334.772283
520.265385	11486.563946
520.628560	11404.511605
520.991678	11377.362471
521.354739	11443.056268
521.717743	11374.698222
522.080690	11358.485871
522.443580	11489.853299
522.806413	11449.012391
523.169189	11472.720937
523.531908	11532.750998
523.894569	11346.223264
524.257174	11355.239368
524.619722	11472.544497
524.982213	11420.547516
525.344647	11472.799075
525.707025	11420.071127
526.069345	11522.063751
526.431608	11437.884044
526.793815	11538.215608
527.155964	11331.646768
527.518057	11389.609955
527.880093	11342.596154
528.242072	11404.410782
528.603995	11311.915692
528.965860	11235.141439
529.327669	11287.796291
529.689421	11238.027500
530.051117	11205.887623
530.412755	11307.650875
530.774337	11204.455936
531.135862	11182.022801
531.497331	11206.815196
531.858743	11061.577033
532.220098	11222.614172
532.581396	11098.115316
532.942638	11070.008363
533.303824	11037.187930
533.664953	11057.362628
534.026025	10966.251334
534.387040	11062.852445
534.747999	11069.194216
535.108902	11123.374017
535.469748	10884.299817
535.830537	10989.894346
536.191270	10965.043978
536.551947	10981.140382
536.912567	10989.733029
537.273131	10911.605226
537.633638	10893.338605
537.994089	10886.805270
538.354483	10828.632875
538.714821	10971.574792
539.075103	10982.597275
539.435328	10945.270052
539.795497	10769.555593
540.155609	10930.854872
540.515665	11027.420695
540.875665	10759.382545
541.235609	10823.672380
541.595496	10825.444345
541.955328	10976.200051
542.315102	10860.792916
542.674821	10808.934567
543.034483	10807.759978
543.394090	10814.489918
543.753640	10738.285316
544.113134	10963.035078
544.472571	10816.032511
544.831953	10957.562905
545.191278	10763.702814
545.550548	10797.571806
545.909761	10930.186919
546.268918	10906.148177
546.628019	10996.846097
546.987064	10860.671928
547.346053	10777.452561
547.704986	10875.976872
548.063863	10863.414316
548.422684	10854.562050
548.781449	10769.885789
549.140158	10867.142249
549.498811	10754.785013
549.857408	10611.389391
550.215949	10835.372898
550.574434	10687.094919
550.932864	10787.645774
551.291237	10843.879845
551.649555	10796.924017
552.007817	10809.158898
552.366022	10768.635583
552.724173	10764.489234
553.082267	10745.597510
553.440305	10882.237985
553.798288	10682.459578
554.156215	10843.519403
554.514086	10816.947481
554.871902	10663.877885
555.229661	10695.458193
555.587365	10678.093939
555.945014	10568.814327
556.302606	10697.837618
556.660143	10592.331309
557.017625	10750.132027
557.375050	10638.036931
557.732421	10777.298806
558.089735	10691.495847
558.446994	10692.557009
558.804197	10729.901877
559.161345	10738.643238
559.518437	10579.640204
559.875474	10667.426858
560.232455	10698.180417
560.589381	10645.767540
560.946251	10644.010698
561.303065	10753.532286
561.659825	10684.750783
562.016528	10613.093301
562.373177	10488.692748
562.729770	10612.132962
563.086307	10526.667760
563.442789	10619.261153
563.799216	10492.927317
564.155587	10543.124607
564.511904	10500.020221
564.868164	10483.575977
565.224370	10501.673719
565.580520	10425.375856
565.936615	10437.212485
566.292654	10302.369181
566.648638	10434.709552
567.004567	10388.963601
567.360441	10366.618687
567.716260	10288.143045
568.072023	10380.408763
568.427732	10331.736423
568.783385	10234.091793
569.138982	10304.431013
569.494525	10325.724847
569.850013	10205.231188
570.205445	10282.600296
570.560823	10183.216469
570.916145	10097.158932
571.271412	10169.456639
571.626625	10114.835738
571.981782	10087.936141
572.336884	10063.662985
572.691931	10073.273945
573.046923	10009.687351
573.401860	9968.811155
573.756743	9904.334797
574.111570	9952.072003
574.466342	9934.417883
574.821059	9962.519795
575.175722	9854.669349
575.530330	9863.693015
575.884882	9852.572229
576.239380	9781.766703
576.593823	9759.845245
576.948211	9777.083471
577.302544	9660.975616
577.656823	9674.382564
578.011047	9669.742182
578.365216	9645.421135
578.719330	9569.506400
579.073389	9574.108973
579.427394	9525.358495
579.781344	9496.860852
580.135239	9449.990724
580.489080	9465.666192
580.842866	9358.609728
581.196597	9366.073157
581.550273	9404.332994
581.903895	9374.116318
582.257463	9443.580897
582.610975	9315.286052
582.964434	9345.343932
583.317837	9263.919215
583.671186	9249.378007
584.024481	9241.123118
584.377721	9166.798866
584.730906	9140.673086
585.084037	9171.109052
585.437113	9108.704609
585.790135	9129.953072
586.143103	9027.080766
586.496016	9001.625460
586.848874	9055.548162
587.201679	9051.474910
587.554428	8930.945962
587.907124	8981.158375
588.259765	8949.131925
588.612352	8954.629303
588.964884	8830.546342
589.317362	8851.976287
589.669786	8848.465124
590.022155	8891.814006
590.374470	8910.103312
590.726731	8848.281122
591.078937	8696.494500
591.431090	8813.948343
591.783188	8686.765073
592.135232	8674.109256
592.487222	8677.683434
592.839157	8725.871824
593.191038	8663.111979
593.542866	8603.291127
593.894639	8509.843258
594.246358	8561.578100
594.598022	8576.547806
594.949633	8471.190211
595.301190	8446.536448
595.652692	8481.663208
596.004141	8586.751101
596.355535	8364.116103
596.706876	8343.137342
597.058162	8277.582177
597.409395	8350.386521
597.760573	8416.758353
598.111698	8317.936614
598.462768	8308.670973
598.813785	8273.284593
599.164748	8240.537258
599.515657	8236.547185
599.866511	8142.837176
600.217312	8273.347608
600.568060	8127.960731
600.918753	8233.996361
601.269392	8196.749796
601.619978	8109.149665
601.970510	8181.202877
602.320988	8179.216663
602.671412	8228.763643
603.021783	8167.034714
603.372100	8145.345150
603.722363	8146.587794
604.072572	8121.442519
604.422728	8133.846278
604.772830	8057.477838
605.122878	8069.639622
605.472872	8061.500679
605.822813	8092.191224
606.172701	8034.621247
606.522534	8109.328626
606.872314	8111.924821
607.222041	8084.624452
607.571714	8136.777709
607.921333	8093.832119
608.270899	8098.361596
608.620411	8193.851132
608.969870	8096.887059
609.319276	8090.913291
609.668627	8106.737473
610.017926	8138.509345
610.367171	8183.665481
610.716362	8160.980289
611.065500	8148.783217
611.414585	8173.273142
611.763616	8171.039911
612.112594	8147.538052
612.461518	8163.626894
612.810389	8222.636121
613.159207	8163.427769
613.507971	8108.832073
613.856682	8228.869508
614.205340	8185.465173
614.553945	8263.960979
614.902496	8160.776122
615.250994	8214.595480
615.599439	8196.366668
615.947830	8210.486940
616.296169	8187.632869
616.644454	8198.252060
616.992686	8195.542439
617.340864	8254.428158
617.688990	8152.939648
618.037063	8250.916994
618.385082	8194.461112
618.733048	8277.609903
619.080961	8216.508598
619.428821	8237.762103
619.776628	8245.190243
620.124382	8199.096453
620.472083	8177.174995
620.819731	8205.788585
621.167326	8101.630784
621.514868	8106.540868
621.862357	7995.070874
622.209793	8007.255343
622.557176	7948.833411
622.904506	7919.070439
623.251783	7848.947989
623.599007	7799.945453
623.946179	7809.566495
624.293297	7764.309537
624.640363	7684.495468
624.987376	7663.577200
625.334336	7616.455015
625.681243	7561.082981
626.028097	7553.243987
626.374899	7529.943774
626.721647	7519.327104
627.068343	7450.434695
627.414987	7421.369923
627.761577	7381.872482
628.108115	7424.623988
628.454600	7307.853220
628.801032	7357.564038
629.147412	7319.556259
629.493739	7310.547717
629.840014	7249.038078
630.186236	7301.703013
630.532405	7186.154725
630.878521	7234.927889
631.224585	7197.988834
631.570597	7114.681246
631.916556	7146.871534
632.262462	7145.631410
632.608316	7111.336441
632.954117	7082.642193
633.299866	7068.216931
633.645562	7060.435910
633.991206	6981.771225
634.336797	6928.546723
634.682336	6883.448560
635.027823	6848.646955
635.373257	6840.807961
635.718639	6769.962105
636.063968	6783.366533
636.409245	6680.753847
636.754470	6674.558268
637.099642	6640.885881
637.444762	6578.947745
637.789829	6587.616009
638.134845	6531.397061
638.479808	6518.317787
638.824719	6515.638414
639.169577	6447.257683
639.514383	6468.357432
639.859137	6396.447893
640.203839	6408.518936
640.548489	6388.941615
640.893086	6372.782196
641.237632	6340.430592
641.582125	6359.690320
641.926566	6331.144786
642.270955	6345.746488
642.615292	6341.274985
642.959576	6359.176122
643.303809	6347.397466
643.647990	6350.732189
643.992118	6342.711714
644.336195	6287.044772
644.680219	6315.086191
645.024192	6304.517412
645.368112	6401.557102
645.711981	6423.362613
646.055797	6496.494632
646.399562	6455.016018
646.743274	6576.868269
647.086935	6630.864068
647.430544	6623.655218
647.774101	6651.799979
648.117606	6656.523541
648.461059	6647.948538
648.804460	6608.118381
649.147810	6521.168560
649.491108	6486.545915
649.834354	6466.008254
650.177548	6378.531632
650.520690	6295.718077
650.863781	6273.022803
651.206820	6291.435617
651.549807	6216.035079
651.892742	6152.501417
652.235626	6162.603890
652.578458	6144.574203
652.921238	6051.892589
653.263967	6095.997644
653.606644	6029.325864
653.949269	6036.350712
654.291843	5976.376105
654.634365	6025.179515
654.976836	5980.298123
655.319255	5980.189738
655.661622	5955.311643
656.003938	5955.014215
656.346203	5910.389922
656.688416	5947.215550
657.030577	5895.856275
657.372687	5864.727150
657.714746	5857.808166
658.056753	5897.141769
658.398708	5836.410989
658.740612	5830.427139
659.082465	5875.926073
659.424266	5873.486155
659.766016	5870.539600
660.107715	5842.241083
660.449362	5859.774216
660.790958	5853.417321
661.132503	5838.757646
661.473996	5878.378595
661.815438	5862.236820
662.156829	5859.002920
662.498168	5856.076530
662.839456	5829.008054
663.180693	5862.345205
663.521879	5863.459300
663.863013	5856.121900
664.204097	5874.275095
664.545129	5912.209778
664.886110	5910.858749
665.227040	5943.064160
665.567918	5912.527371
665.908746	5937.294560
666.249522	5944.208502
666.590248	5927.854999
666.930922	5955.823321
667.271545	5970.450228
667.612118	5975.254448
667.952639	5948.964831
668.293109	5961.978569
668.633528	5926.607313
668.973896	5928.026398
669.314213	5911.935035
669.654480	5899.133025
669.994695	5891.253702
670.334859	5882.746754
670.674973	5875.071598
671.015035	5881.310026
671.355047	5877.771136
671.695008	5862.032653
672.034918	5838.258572
672.374777	5850.163257
672.714585	5830.585936
673.054342	5835.236400
673.394049	5831.929403
673.733705	5862.866964
674.073310	5845.941290
674.412864	5804.235824
674.752368	5795.585204
675.091820	5804.034178
675.431223	5738.489096
675.770574	5737.808540
676.109875	5694.462179
676.449125	5699.228590
676.788324	5661.745090
677.127473	5610.980671
677.466571	5602.882057
677.805619	5588.708853
678.144616	5572.577161
678.483562	5550.872473
678.822458	5524.913052
679.161303	5517.908368
679.500098	5506.870762
679.838842	5489.284697
680.177535	5492.770655
680.516179	5511.254045
680.854771	5521.711919
681.193314	5599.146562
681.531805	5705.953489
681.870247	5857.974524
682.208638	5963.062418
682.546978	5972.607842
682.885268	5950.315860
683.223508	5872.752667
683.561697	5812.130271
683.899836	5786.125479
684.237925	5737.793417
684.575963	5703.798396
684.913951	5661.427498
685.251889	5724.537703
685.589776	5696.004772
685.927614	5664.613507
686.265401	5733.430298
686.603137	5719.897321
686.940824	5795.922962
687.278460	5820.513710
687.616046	5827.767931
687.953582	5897.582870
688.291068	5878.895313
688.628504	5944.445436
688.965889	5906.578809
689.303224	5847.378019
689.640510	5800.114681
689.977745	5725.089709
690.314930	5628.062621
690.652065	5571.112706
690.989150	5478.794056
691.326185	5400.361263
691.663170	5343.781873
692.000105	5268.698928
692.336990	5191.879305
692.673825	5172.095297
693.010610	5101.693063
693.347345	5033.007342
693.684030	5016.684085
694.020665	4974.567766
694.357251	4885.505701
694.693786	4896.490375
695.030272	4858.941340
695.366707	4827.630734
695.703093	4792.534221
696.039429	4809.885872
696.375716	4799.589316
696.711952	4771.986478
697.048139	4758.503912
697.384276	4735.627156
697.720363	4746.800873
698.056400	4760.414509
698.392388	4706.496848
698.728326	4686.995144
699.064214	4666.701980
699.400053	4659.598994
699.735842	4627.784272
700.071581	4604.584882
700.407270	4574.809307
700.742910	4560.560485
701.078501	4502.821630
701.414042	4503.562679
701.749533	4471.979851
702.084974	4410.981889
702.420366	4462.568016
702.755709	4407.453081
703.091002	4346.500490
703.426246	4401.300353
703.761440	4358.074979
704.096584	4316.145182
704.431679	4340.763657
704.766725	4322.733970
705.101721	4305.387360
705.436668	4341.310622
705.771565	4289.374135
706.106413	4316.228361
706.441212	4350.286397
706.775961	4357.825442
707.110661	4337.007997
707.445311	4366.360116
707.779913	4387.822828
708.114465	4403.326897
708.448967	4424.749280
708.783421	4484.202128
709.117825	4526.923386
709.452180	4528.886916
709.786485	4577.196293
710.120742	4660.728212
710.454949	4648.115245
710.789107	4706.509451
711.123216	4782.981234
711.457275	4781.582314
711.791286	4852.894476
712.125247	4870.846025
712.459159	4772.667033
712.793023	4845.730997
713.126837	4807.362775
713.460602	4801.555366
713.794318	4716.485894
714.127985	4729.839911
714.461602	4642.131396
714.795171	4614.503352
715.128691	4544.965676
715.462162	4490.233869
715.795584	4438.466260
716.128957	4424.497222
716.462281	4369.987226
716.795556	4347.236499
717.128782	4307.373575
717.461960	4234.838933
717.795088	4247.328391
718.128167	4208.992937
718.461198	4148.305006
718.794180	4143.498266
719.127113	4124.389772
719.459997	4099.030248
719.792833	4057.602046
720.125619	4047.618040
720.458357	4010.837782
720.791046	4019.168289
721.123686	3992.563599
721.456278	3953.494657
721.788821	3964.512099
722.121315	3940.629632
722.453761	3912.560488
722.786158	3927.182354
723.118506	3946.931075
723.450805	3903.511617
723.783056	3924.966767
724.115259	3942.262966
724.447412	3944.922175
724.779518	3938.920681
725.111574	3944.004685
725.443582	3972.209941
725.775542	3958.800471
726.107453	4007.145137
726.439315	4007.634129
726.771129	4020.756252
727.102895	4057.690266
727.434612	4108.651290
727.766281	4117.193525
728.097901	4120.825677
728.429473	4125.710555
728.760996	4133.519302
729.092471	4129.128457
729.423897	4108.923512
729.755276	4115.643370
730.086606	4116.949029
730.417887	4152.504287
730.749120	4218.755131
731.080305	4281.691416
731.411442	4309.309378
731.742530	4279.629584
732.073570	4282.843320
732.404562	4335.863656
732.735506	4329.393335
733.066401	4293.437305
733.397249	4231.670567
733.728048	4150.613855
734.058798	4068.972368
734.389501	3997.531656
734.720156	3936.447995
735.050762	3891.236407
735.381320	3879.097308
735.711831	3831.589475
736.042293	3802.630566
736.372707	3825.908094
736.703073	3796.346768
737.033391	3787.363432
737.363661	3807.230619
737.693883	3827.375070
738.024056	3838.253880
738.354182	3832.237263
738.684260	3896.363260
739.014290	3914.957556
739.344272	3915.133997
739.674207	3957.827529
740.004093	3964.985967
740.333931	3957.504895
740.663722	3959.118064
740.993464	3955.632106
741.323159	3930.302829
741.652806	3903.317532
741.982405	3874.855177
742.311956	3840.351000
742.641460	3829.545287
742.970915	3805.171308
743.300323	3769.056482
743.629683	3735.000967
743.958996	3722.594687
744.288260	3699.720452
744.617477	3663.230060
744.946647	3650.087772
745.275768	3625.577682
745.604842	3626.356540
745.933869	3575.266966
746.262847	3564.466294
746.591778	3604.304012
746.920662	3576.433993
747.249498	3545.090619
747.578286	3587.829522
747.907027	3608.619240
748.235720	3606.741410
748.564365	3628.607415
748.892963	3629.605563
749.221514	3611.696864
749.550017	3589.934203
749.878473	3588.646188
750.206881	3556.922207
750.535242	3554.439439
750.863555	3556.289542
751.191821	3548.642112
751.520039	3531.756767
751.848210	3508.869929
752.176334	3544.218500
752.504411	3551.414747
752.832440	3510.475536
753.160421	3491.382166
753.488356	3500.529340
753.816243	3512.920496
754.144082	3469.334680
754.471875	3459.101138
754.799620	3476.677120
755.127318	3468.754947
755.454969	3467.469453
755.782572	3474.479177
756.110129	3447.861885
756.437638	3440.169084
756.765100	3449.033953
757.092515	3461.825881
757.419882	3467.348465
757.747203	3445.295938
758.074477	3445.076648
758.401703	3459.907722
758.728882	3480.853716
759.056014	3490.683966
759.383099	3492.715551
759.710138	3487.311434
760.037129	3506.447654
760.364073	3537.055020
760.690970	3521.225797
761.017820	3497.613032
761.344623	3515.940147
761.671379	3559.679718
761.998088	3613.829272
762.324751	3742.547574
762.651366	3987.068742
762.977935	4462.837718
763.304456	4906.582765
763.630931	5008.908106
763.957359	4646.171881
764.283740	4304.288388
764.610074	4106.617184
764.936362	3909.008995
765.262602	3749.224583
765.588796	3634.818117
765.914943	3551.878533
766.241044	3462.909729
766.567097	3431.019390
766.893104	3382.432749
767.219064	3352.463090
767.544978	3325.727330
767.870845	3271.741614
768.196665	3249.318561
768.522438	3254.974736
768.848165	3253.661515
769.173846	3216.309086
769.499479	3201.110007
769.825066	3183.100485
770.150607	3167.026766
770.476101	3181.812470
770.801548	3176.831810
771.126949	3133.155253
771.452303	3116.403499
771.777611	3121.311062
772.102872	3125.802730
772.428087	3101.809359
772.753256	3092.639500
773.078378	3085.337388
773.403453	3050.172820
773.728482	3037.506921
774.053465	3058.757905
774.378401	3047.503529
774.703291	3012.303672
775.028135	3016.674353
775.352932	3011.643281
775.677683	2999.547032
776.002388	2996.529902
776.327046	2999.884790
776.651658	2988.007831
776.976224	2973.857312
777.300743	2976.362766
777.625216	2967.450006
777.949643	2961.887093
778.274024	2964.425313
778.598359	2953.294446
778.922647	2957.985239
779.246889	2957.753346
779.571086	2941.639298
779.895236	2933.051693
780.219339	2947.113991
780.543397	2960.820888
780.867409	2963.928760
781.191374	2957.047585
781.515294	2950.282356
781.839167	2953.619600
782.162995	2946.221707
782.486776	2952.152624
782.810511	2949.011986
783.134201	2935.554625
783.457844	2944.248095
783.781441	2931.708225
784.104993	2913.890267
784.428498	2913.802047
784.751958	2928.139088
785.075372	2924.426278
785.398739	2906.235275
785.722061	2922.306473
786.045337	2939.874894
786.368568	2920.595001
786.691752	2912.007396
787.014891	2959.157308
787.337983	2990.520846
787.661030	3016.853313
787.984031	3084.722368
788.306987	3131.532002
788.629897	3124.328193
788.952760	3107.957046
789.275579	3096.228801
789.598351	3035.979451
789.921078	2988.617811
790.243759	2980.773775
790.566395	2962.514716
790.888984	2938.244081
791.211529	2919.228849
791.534027	2912.478744
791.856480	2902.777043
792.178888	2884.739795
792.501249	2879.572612
792.823566	2877.510780
793.145836	2877.533465
793.468062	2870.813607
793.790241	2864.726414
794.112375	2871.547095
794.434464	2885.697614
794.756507	2889.831360
795.078505	2893.576937
795.400457	2910.288362
795.722364	2946.007458
796.044226	2969.461426
796.366042	2974.119452
796.687812	2963.197793
797.009538	2980.304948
797.331218	2968.833803
797.652852	2953.985084
797.974442	2939.201900
798.295986	2931.917433
798.617484	2927.697987
798.938938	2914.782551
799.260346	2896.664644
799.581709	2891.442009
799.903026	2886.574775
800.224299	2880.159906
800.545526	2869.195397
800.866708	2856.443798
801.187845	2843.908969
801.508936	2844.962570
801.829983	2853.519929
802.150984	2838.149451
802.471940	2826.600167
802.792851	2827.494972
803.113717	2825.985147
803.434538	2832.241218
803.755314	2824.558500
804.076045	2818.761173
804.396731	2817.573981
804.717372	2819.126657
805.037967	2811.398568
805.358518	2819.945844
805.679024	2833.700632
805.999485	2827.668892
806.319901	2832.553770
806.640272	2823.459528
806.960598	2828.775425
807.280879	2835.301199
807.601115	2846.104392
807.921306	2832.634428
808.241453	2825.496155
808.561554	2836.662310
808.881611	2838.225068
809.201623	2834.108966
809.521590	2830.217195
809.841513	2828.200734
810.161390	2827.734427
810.481223	2824.624035
810.801011	2815.008034
811.120755	2812.328661
811.440453	2812.719350
811.760107	2812.250523
812.079716	2814.312355
812.399281	2803.015129
812.718801	2793.822585
813.038276	2789.761936
813.357707	2797.059006
813.677093	2803.050417
813.996434	2797.550518
814.315731	2791.559107
814.634983	2789.754374
814.954191	2790.316462
815.273354	2805.442445
815.592473	2814.098106
815.911547	2816.422078
816.230577	2821.576657
816.549562	2834.139213
816.868502	2829.027483
817.187399	2840.733042
817.506250	2857.620907
817.825058	2851.725278
818.143821	2862.442771
818.462539	2880.038919
818.781213	2906.179822
819.099843	2941.914041
819.418429	2999.355468
819.736970	3065.492886
820.055466	3137.110038
820.373919	3241.812283
820.692327	3381.149776
821.010691	3554.310890
821.329011	3999.853108
821.647286	4900.256117
821.965517	6297.353932
822.283704	7055.624129
822.601847	7046.786986
822.919945	6401.264716
823.237999	5894.573301
823.556010	5305.756450
823.873976	4742.951952
824.191897	4329.292512
824.509775	4028.809495
824.827609	3760.708331
825.145398	3631.730410
825.463144	3616.478399
825.780845	3710.581618
826.098502	3814.487360
826.416116	4096.585288
826.733685	4421.558230
827.051210	4489.412161
827.368692	4374.241960
827.686129	4101.326493
828.003522	3775.098305
828.320872	3512.461751
828.638177	3313.152172
828.955439	3179.455731
829.272656	3097.007660
829.589830	3023.742050
829.906960	2970.845223
830.224046	2927.839139
830.541088	2893.559293
830.858086	2877.052035
831.175041	2857.530167
831.491952	2861.835312
831.808819	2872.237733
832.125642	2897.204048
832.442421	2941.876232
832.759157	3024.931763
833.075849	3201.404915
833.392497	3486.600632
833.709101	3694.013866
834.025662	3645.061741
834.342179	3485.741115
834.658653	3308.718477
834.975083	3157.327586
835.291469	3055.135836
835.607811	2970.751962
835.924110	2910.358938
836.240366	2858.528315
836.556578	2818.289825
836.872746	2796.754016
837.188871	2772.153185
837.504952	2752.495206
837.820990	2746.276942
838.136984	2730.873697
838.452935	2725.923284
838.768842	2720.579661
839.084706	2740.522465
839.400526	2821.112871
839.716303	2951.724126
840.032037	3038.593289
840.347727	3021.907070
840.663373	2960.614201
840.978977	2884.840618
841.294537	2810.133238
841.610054	2763.227822
841.925527	2737.822927
842.240957	2718.966492
842.556344	2694.020342
842.871687	2678.770851
843.186987	2670.851199
843.502244	2666.329284
843.817458	2663.259221
844.132629	2648.440749
844.447756	2640.407671
844.762840	2635.046403
845.077881	2635.825262
845.392879	2635.767288
845.707833	2630.073305
846.022745	2622.186420
846.337613	2625.919394
846.652438	2621.755401
846.967221	2624.573406
847.281960	2624.207923
847.596656	2622.420834
847.911309	2622.491410
848.225919	2618.440843
848.540485	2614.957405
848.855009	2616.008486
849.169490	2615.650564
849.483928	2613.992024
849.798323	2614.735595
850.112675	2612.242744
850.426984	2613.485388
850.741251	2612.104112
851.055474	2613.059411
851.369654	2614.191150
851.683792	2615.862292
851.997887	2610.795933
852.311938	2610.826180
852.625947	2614.798609
852.939914	2614.833897
853.253837	2616.946141
853.567718	2612.688886
853.881555	2612.988835
854.195350	2615.217025
854.509103	2616.031171
854.822812	2613.863475
855.136479	2611.332816
855.450103	2614.052518
855.763685	2615.925307
856.077224	2611.300048
856.390720	2608.406426
856.704173	2609.979266
857.017584	2615.763990
857.330953	2617.979577
857.644278	2621.425206
857.957561	2616.363887
858.270802	2613.702158
858.584000	2613.215687
858.897155	2619.691049
859.210268	2621.659619
859.523339	2614.745677
859.836367	2606.669748
860.149352	2610.737960
860.462295	2613.019082
860.775195	2608.383741
861.088054	2609.165120
861.400869	2606.110180
861.713642	2605.427104
862.026373	2605.976590
862.339062	2608.618154
862.651708	2615.380862
862.964312	2615.065790
863.276873	2614.075203
863.589392	2616.885647
863.901869	2620.938734
864.214303	2627.242697
864.526696	2629.685136
864.839045	2631.779736
865.151353	2634.570014
865.463619	2631.000877
865.775842	2633.811321
866.088023	2634.126393
866.400162	2633.561784
866.712258	2633.418111
867.024313	2630.965589
867.336325	2624.865793
867.648296	2630.494242
867.960224	2635.051445
868.272110	2633.818882
868.583954	2627.673716
868.895755	2628.117337
869.207515	2631.580610
869.519233	2640.997486
869.830909	2635.908441
870.142542	2632.835857
870.454134	2632.780405
870.765684	2639.603607
871.077191	2642.169554
871.388657	2645.652991
871.700081	2643.407157
872.011463	2639.656539
872.322803	2646.273053
872.634101	2648.183650
872.945357	2654.767397
873.256571	2661.169663
873.567744	2657.524908
873.878874	2657.585402
874.189963	2657.353509
874.501010	2659.818633
874.812015	2667.710560
875.122979	2665.832730
875.433900	2659.458191
875.744780	2658.545742
876.055618	2664.421207
876.366415	2669.432114
876.677169	2667.892041
876.987882	2662.717297
877.298554	2660.882317
877.609183	2671.196518
877.919771	2679.970646
878.230317	2684.734536
878.540822	2695.603264
878.851285	2711.356870
879.161707	2735.456106
879.472087	2775.213166
879.782425	2824.717296
880.092722	2938.745676
880.402977	3129.986888
880.713191	3396.694173
881.023363	3697.207437
881.333494	3891.518712
881.643583	4066.146801
881.953631	4068.841298
882.263637	3889.267836
882.573602	3669.153415
882.883526	3530.526726
883.193408	3414.406268
883.503248	3307.571615
883.813048	3188.938141
884.122806	3075.078640
884.432522	2989.936073
884.742197	2921.260434
885.051831	2881.193343
885.361424	2844.866788
885.670975	2808.820018
885.980485	2777.940430
886.289954	2758.700866
886.599382	2743.406005
886.908768	2729.200034
887.218113	2714.139587
887.527417	2697.871783
887.836680	2688.961544
888.145901	2688.638910
888.455082	2678.770851
888.764221	2667.556805
889.073319	2657.890392
889.382376	2656.443581
889.691392	2660.473983
890.000366	2660.746206
890.309300	2657.822337
890.618193	2661.199910
890.927044	2661.565393
891.235855	2660.703356
891.544625	2661.782163
891.853353	2660.592451
892.162041	2668.302895
892.470687	2688.112109
892.779293	2700.848585
893.087858	2712.581870
893.396381	2735.572052
893.704864	2777.113681
894.013306	2847.906604
894.321707	2943.481840
894.630068	2996.739110
894.938387	3019.507481
895.246665	3010.229237
895.554903	2965.806590
895.863100	2921.134405
896.171256	2862.861187
896.479371	2802.069913
896.787446	2760.402256
897.095480	2738.987434
897.403473	2731.997874
897.711425	2720.486399
898.019336	2697.705425
898.327207	2682.592046
898.635038	2684.858045
898.942827	2680.247909
899.250576	2672.446724
899.558284	2659.775784
899.865952	2653.161790
900.173579	2651.170534
900.481165	2652.244300
900.788711	2642.401447
901.096216	2637.292237
901.403681	2633.657566
901.711105	2635.243008
902.018489	2628.989457
902.325832	2634.794346
902.633135	2634.728811
902.940397	2651.067190
903.247619	2689.395083
903.554800	2758.161463
903.861941	2888.946638
904.169041	3021.118130
904.476101	3087.928542
904.783121	3080.956626
905.090100	3020.883716
905.397039	2945.483178
905.703938	2867.534337
906.010796	2801.462454
906.317614	2750.824063
906.624391	2713.527087
906.931129	2684.885771
907.237826	2662.087153
907.544483	2643.134935
907.851099	2627.429220
908.157675	2619.746502
908.464211	2613.848352
908.770707	2601.840323
909.077163	2598.747575
909.383578	2593.905547
909.689954	2592.289857
909.996289	2588.178796
910.302584	2590.981678
910.608839	2587.122674
910.915054	2586.953796
911.221229	2588.587130
911.527363	2594.235742
911.833458	2590.495206
912.139513	2589.199630
912.445527	2592.872110
912.751502	2599.884355
913.057436	2604.365941
913.363331	2609.840634
913.669186	2623.935700
913.975000	2637.942546
914.280775	2655.309321
914.586510	2671.430931
914.892205	2707.765048
915.197859	2777.980759
915.503475	2865.850591
915.809050	2934.942125
916.114585	2953.818726
916.420081	2965.829275
916.725536	2973.391006
917.030952	2944.311110
917.336328	2898.970972
917.641665	2847.112622
917.946961	2797.542957
918.252218	2759.930908
918.557435	2733.437124
918.862612	2711.079606
919.167750	2691.908098
919.472848	2676.608196
919.777906	2658.782676
920.082925	2645.295069
920.387904	2636.220992
920.692843	2630.063223
920.997743	2625.077522
921.302603	2619.043261
921.607423	2611.355501
921.912204	2605.666559
922.216946	2605.573297
922.521647	2602.094901
922.826310	2598.419900
923.130932	2592.083170
923.435516	2584.735688
923.740059	2581.705955
924.044564	2582.071438
924.349028	2580.609504
924.653454	2571.916034
924.957840	2568.649366
925.262186	2569.065261
925.566493	2571.217834
925.870761	2567.704150
926.174989	2566.451423
926.479178	2562.287430
926.783328	2561.644683
927.087438	2559.063612
927.391509	2560.084446
927.695541	2558.720814
927.999533	2557.263920
928.303486	2555.955741
928.607400	2555.711245
928.911275	2555.496996
929.215110	2555.108827
929.518906	2555.907850
929.822663	2552.699155
930.126381	2553.921635
930.430060	2553.266285
930.733699	2555.219732
931.037299	2555.706204
931.340861	2554.624876
931.644383	2555.005483
931.947866	2555.381049
932.251309	2555.907850
932.554714	2557.954558
932.858080	2556.507747
933.161407	2554.188816
933.464694	2554.433312
933.767943	2555.786862
934.071153	2552.694114
934.374323	2552.437015
934.677455	2551.297715
934.980548	2554.463559
935.283602	2550.400389
935.586617	2549.611449
935.889593	2551.827036
936.192530	2553.208312
936.495428	2551.852242
936.798287	2551.925338
937.101108	2555.885165
937.403890	2559.802141
937.706632	2559.923129
938.009336	2561.720300
938.312002	2566.494273
938.614628	2568.667010
938.917216	2574.403843
939.219765	2573.584656
939.522275	2578.245202
939.824747	2576.866447
940.127179	2569.372772
940.429573	2567.192473
940.731929	2569.433266
941.034246	2567.585683
941.336524	2566.206927
941.638763	2566.637946
941.940964	2567.227761
942.243126	2561.624518
942.545250	2564.616443
942.847335	2561.874055
943.149381	2558.594785
943.451389	2560.470094
943.753359	2559.398849
944.055290	2557.463046
944.357182	2558.040258
944.659036	2557.168138
944.960851	2556.719476
945.262628	2555.116389
945.564367	2555.597819
945.866067	2553.689742
946.167729	2554.614794
946.469352	2556.094372
946.770937	2555.630586
947.072484	2554.576985
947.373992	2556.008673
947.675462	2554.829043
947.976893	2554.143446
948.278286	2554.587068
948.579641	2553.339382
948.880958	2551.776624
949.182236	2553.167983
949.483476	2554.246790
949.784678	2551.393497
950.085841	2551.703527
950.386967	2555.139074
950.688054	2551.390976
950.989103	2556.555638
951.290114	2556.447253
951.591087	2554.723179
951.892021	2557.578992
952.192917	2558.690567
952.493776	2559.298026
952.794596	2558.579661
953.095378	2560.449929
953.396122	2563.134344
953.696828	2559.371123
953.997496	2558.476318
954.298126	2555.159238
954.598718	2555.552448
954.899272	2553.505740
955.199788	2549.787889
955.500266	2551.885009
955.800706	2545.961653
956.101108	2543.433515
956.401472	2546.634647
956.701798	2541.419574
957.002087	2541.321271
957.302337	2544.000644
957.602550	2546.964843
957.902724	2540.527289
958.202861	2540.549975
958.502960	2541.064172
958.803022	2541.795140
959.103045	2542.226158
959.403031	2542.760521
959.702979	2537.374048
960.002889	2539.677855
960.302762	2537.731970
960.602596	2539.609799
960.902393	2537.505118
961.202153	2540.038297
961.501875	2532.428676
961.801559	2538.838503
962.101205	2538.198276
962.400814	2538.979655
962.700385	2536.494366
962.999918	2539.115766
963.299414	2536.562422
963.598873	2533.870446
963.898293	2536.166691
964.197677	2535.967566
964.497022	2538.278935
964.796331	2537.689120
965.095601	2536.529654
965.394835	2539.957639
965.694030	2535.803728
965.993189	2538.031918
966.292309	2534.853471
966.591393	2536.015457
966.890439	2538.445293
967.189447	2534.341794
967.488419	2536.612833
967.787353	2537.326157
968.086249	2537.033770
968.385108	2536.201979
968.683930	2535.065199
968.982714	2537.805066
969.281462	2534.838347
969.580172	2537.510159
969.878844	2537.442103
970.177480	2535.783564
970.476078	2534.147709
970.774639	2538.004192
971.073162	2535.178625
971.371649	2533.431865
971.670098	2533.167205
971.968510	2534.762730
972.266885	2530.215609
972.565223	2539.829090
972.863524	2535.057638
973.161788	2538.946888
973.460014	2536.365817
973.758204	2538.132741
974.056356	2536.065868
974.354471	2537.525282
974.652550	2537.333718
974.950591	2538.969573
975.248595	2536.569984
975.546563	2536.486805
975.844493	2536.696012
976.142386	2535.372710
976.440243	2535.876825
976.738062	2537.774819
977.035845	2534.954294
977.333590	2535.551671
977.631299	2534.772812
977.928971	2535.317257
978.226606	2535.687782
978.524204	2536.267514
978.821765	2535.039993
979.119290	2535.859181
979.416777	2535.203831
979.714228	2535.478574
980.011642	2536.612833
980.309020	2539.491332
980.606360	2533.555374
980.903664	2535.387833
981.200931	2535.430683
981.498162	2538.790612
981.795356	2540.199614
982.092513	2542.546272
982.389633	2542.606765
982.686717	2548.099102
982.983764	2550.521377
983.280775	2552.719320
983.577749	2552.835267
983.874686	2551.839639
984.171587	2547.776469
984.468451	2543.332692
984.765279	2543.226827
985.062070	2540.678524
985.358824	2539.324974
985.655543	2537.530323
985.952224	2533.956145
986.248869	2539.506456
986.545478	2531.135620
986.842050	2536.524613
987.138586	2529.603109
987.435086	2533.930940
987.731549	2530.500434
988.027975	2533.111752
988.324366	2532.461443
988.620719	2535.491177
988.917037	2534.510672
989.213318	2530.160157
989.509563	2534.177956
989.805772	2531.763243
990.101944	2533.656197
990.398080	2530.545805
990.694180	2532.436237
990.990244	2531.944725
991.286271	2530.616381
991.582262	2531.415404
991.878217	2527.982378
992.174136	2532.726104
992.470019	2532.315250
992.765865	2533.502442
993.061676	2532.567307
993.357450	2533.449509
993.653188	2531.770805
993.948890	2534.145189
994.244556	2530.553367
994.540186	2533.759540
994.835780	2536.065868
995.131337	2535.367668
995.426859	2534.765251
995.722345	2534.649304
996.017795	2536.141486
996.313208	2537.515200
996.608586	2536.585107
996.903928	2537.366486
997.199234	2534.992103
997.494504	2534.619057
997.789738	2534.324150
998.084936	2534.614016
998.380099	2531.758202
998.675225	2532.516896
998.970316	2531.559077
999.265371	2533.436907
999.560390	2533.136958
999.855373	2533.018491
1000.150320	2532.829447
1000.445232	2534.198121
1000.740108	2534.775333
1001.034948	2532.335414
1001.329752	2531.485980
1001.624521	2530.376926
1001.919254	2527.566483
1002.213951	2531.596885
1002.508613	2527.037162
1002.803239	2529.225023
1003.097829	2526.379291
1003.392384	2530.628984
1003.686903	2530.097142
1003.981386	2530.013963
1004.275834	2531.175949
1004.570246	2531.007070
1004.864623	2530.167718
1005.158964	2530.510517
1005.453270	2528.597399
1005.747540	2532.443799
1006.041775	2528.829292
1006.335974	2530.102183
1006.630138	2530.601257
1006.924266	2532.012781
1007.218359	2528.978006
1007.512416	2531.712832
1007.806438	2528.667975
1008.100425	2530.051772
1008.394376	2528.436082
1008.688292	2528.965403
1008.982172	2529.804755
1009.276017	2532.373223
1009.569827	2528.602440
1009.863602	2533.000847
1010.157341	2526.762419
1010.451045	2529.741741
1010.744714	2526.074301
1011.038347	2529.275434
1011.331945	2528.978006
1011.625508	2529.091432
1011.919036	2530.437420
1012.212528	2531.453213
1012.505986	2528.796524
1012.799408	2527.803417
1013.092795	2526.039013
1013.386147	2528.115969
1013.679464	2529.444313
1013.972745	2529.759385
1014.265992	2530.576052
1014.559204	2526.459950
1014.852380	2531.123017
1015.145521	2528.804086
1015.438628	2530.639066
1015.731699	2530.407173
1016.024736	2528.536905
1016.317737	2531.198634
1016.610703	2530.381967
1016.903635	2525.003056
1017.196531	2526.313756
1017.489393	2526.991791
1017.782219	2524.007428
1018.075011	2528.504138
1018.367768	2530.394570
1018.660490	2529.872811
1018.953177	2529.872811
1019.245829	2529.872811
