Dividing Wavelength (nm)	Counts (n)	Blue Motor Position (mm): 0.000000	Red Motor Position (mm): 15.800000	
326.493990	2127.160236
326.888308	2127.160236
327.282561	2127.160236
327.676750	2097.266193
328.070874	2096.855339
328.464933	2096.583117
328.858929	2105.488315
329.252859	2115.731940
329.646726	2122.499689
330.040528	2136.519138
330.434265	2154.964720
330.827938	2172.754952
331.221547	2190.462005
331.615091	2208.602597
332.008571	2227.975751
332.401986	2251.417116
332.795338	2269.197266
333.188625	2287.335338
333.581847	2306.892494
333.975006	2323.830771
334.368100	2342.677124
334.761129	2361.906606
335.154095	2374.960674
335.546996	2393.895248
335.939833	2410.014337
336.332606	2425.304157
336.725315	2437.128183
337.117960	2445.753597
337.510540	2455.914043
337.903056	2467.596917
338.295508	2471.985241
338.687896	2479.282311
339.080220	2490.045175
339.472480	2496.959117
339.864676	2498.322749
340.256807	2504.838441
340.648875	2506.733915
341.040879	2510.552589
341.432818	2512.198525
341.824694	2510.272805
342.216506	2514.938393
342.608253	2511.555778
342.999937	2513.211797
343.391557	2512.465707
343.783113	2512.332116
344.174605	2513.559637
344.566033	2509.425891
344.957397	2509.680469
345.348697	2507.893380
345.739934	2506.544871
346.131106	2504.762823
346.522215	2503.008502
346.913260	2499.920795
347.304241	2498.973058
347.695159	2496.923829
348.086012	2497.468274
348.476802	2496.999447
348.867528	2492.258241
349.258191	2492.885865
349.648789	2489.609115
350.039324	2490.582058
350.429796	2486.725575
350.820203	2483.358084
351.210548	2485.966881
351.600828	2485.697180
351.991045	2483.179123
352.381198	2481.477734
352.771288	2481.765080
353.161314	2481.134935
353.551276	2483.095944
353.941175	2479.294914
354.331010	2483.532004
354.720782	2482.806078
355.110490	2482.793475
355.500135	2481.255923
355.889717	2482.402786
356.279235	2484.406644
356.668689	2482.730461
357.058080	2483.859679
357.447408	2482.382621
357.836672	2482.349853
358.225873	2482.002014
358.615010	2480.703917
359.004084	2489.437716
359.393095	2485.571151
359.782043	2486.319762
360.170927	2486.962509
360.559748	2488.275730
360.948505	2489.475524
361.337199	2491.610453
361.725830	2490.574496
362.114398	2490.677840
362.502903	2490.088025
362.891344	2492.444764
363.279722	2490.014928
363.668037	2494.347800
364.056289	2492.192706
364.444478	2494.388129
364.832603	2495.527430
365.220665	2494.738489
365.608665	2497.311998
365.996601	2495.000629
366.384474	2497.143119
366.772284	2502.078409
367.160031	2498.834427
367.547715	2500.946670
367.935336	2504.646877
368.322893	2506.673421
368.710388	2509.909842
369.097820	2519.727489
369.485189	2517.814371
369.872495	2527.493386
370.259738	2534.440096
370.646918	2542.150541
371.034035	2547.224462
371.421090	2558.012532
371.808081	2568.374623
372.195010	2577.355439
372.581875	2592.504106
372.968678	2605.170005
373.355418	2615.920266
373.742096	2633.327370
374.128710	2647.114926
374.515262	2658.369302
374.901751	2675.960408
375.288177	2688.706966
375.674540	2712.889381
376.060841	2729.671382
376.447079	2749.185688
376.833254	2766.912906
377.219367	2780.483692
377.605417	2820.023982
377.991404	2827.805003
378.377329	2849.310565
378.763191	2866.548791
379.148991	2905.078330
379.534727	2928.411310
379.920402	2957.377780
380.306013	2968.286837
380.691563	3020.518232
381.077049	3042.437169
381.462474	3059.703121
381.847835	3099.750047
382.233134	3119.637399
382.618371	3115.375104
383.003545	3187.408151
383.388657	3193.752443
383.773706	3227.560941
384.158693	3241.986203
384.543618	3269.286572
384.928480	3307.949701
385.313280	3349.461083
385.698017	3345.564271
386.082692	3403.051068
386.467305	3406.811769
386.851856	3440.254784
387.236344	3462.546766
387.620770	3493.915346
388.005133	3519.673122
388.389435	3545.052811
388.773674	3557.232238
389.157851	3597.417796
389.541965	3615.349180
389.926018	3579.748552
390.310008	3653.051970
390.693936	3668.135102
391.077802	3709.535578
391.461606	3697.214998
391.845348	3758.775048
392.229027	3756.602311
392.612645	3773.855660
392.996200	3848.091692
393.379694	3885.436559
393.763125	3950.578349
394.146494	3919.819749
394.529801	3978.655056
394.913047	4023.433105
395.296230	3987.318279
395.679351	4039.985733
396.062410	4061.473652
396.445408	4042.148388
396.828343	4062.512129
397.211217	4084.297476
397.594028	4000.523581
397.976778	4054.446283
398.359466	4074.636104
398.742092	4091.960030
399.124656	4008.372658
399.507158	4073.895055
399.889598	4082.898556
400.271977	4128.105103
400.654294	4087.138166
401.036549	4072.299530
401.418742	4029.023744
401.800874	4103.693315
402.182944	4096.360957
402.564952	4136.622132
402.946898	4103.002677
403.328783	4073.620312
403.710606	3973.092142
404.092367	4105.692133
404.474067	4047.809604
404.855705	4028.701111
405.237282	3942.078964
405.618797	3993.473527
406.000250	3989.377590
406.381642	4014.674100
406.762972	3949.877629
407.144240	3924.472734
407.525447	3886.293556
407.906593	3889.033423
408.287677	3879.351887
408.668700	3795.777118
409.049661	3785.422588
409.430560	3767.100514
409.811399	3688.060263
410.192176	3732.021645
410.572891	3659.711334
410.953545	3672.838499
411.334138	3569.933425
411.714669	3557.506981
412.095139	3474.297696
412.475547	3492.130778
412.855894	3443.440793
413.236180	3398.892117
413.616405	3343.971266
413.996568	3336.243177
414.376670	3280.094806
414.756711	3226.875344
415.136691	3200.336190
415.516609	3183.655012
415.896466	3159.782628
416.276262	3131.113586
416.655997	3090.839808
417.035670	3097.882300
417.415283	3084.797985
417.794834	3037.910213
418.174324	2999.655417
418.553753	2951.671194
418.933121	2953.070114
419.312428	2929.986671
419.691674	2892.714900
420.070859	2883.454300
420.449983	2845.484330
420.829045	2831.023780
421.208047	2799.725776
421.586988	2782.268260
421.965867	2761.357554
422.344686	2752.568302
422.723444	2726.717266
423.102141	2694.345496
423.480777	2696.838347
423.859352	2669.268276
424.237866	2668.524706
424.616319	2655.435350
424.994712	2647.344298
425.373044	2633.796197
425.751314	2623.539970
426.129524	2609.293669
426.507673	2604.612958
426.885762	2601.633636
427.263789	2589.744074
427.641756	2581.126222
428.019662	2577.794019
428.397508	2571.474933
428.775292	2571.096846
429.153016	2564.639128
429.530679	2561.138047
429.908282	2560.729713
430.285824	2552.152190
430.663305	2553.946841
431.040726	2550.297046
431.418086	2546.246478
431.795385	2547.874771
432.172624	2543.589790
432.549802	2542.979811
432.926920	2543.897301
433.303977	2543.625078
433.680974	2539.945036
434.057910	2541.396888
434.434786	2540.302958
434.811601	2541.638864
435.188355	2541.258257
435.565050	2538.977135
435.941683	2540.136600
436.318257	2535.130734
436.694770	2534.525796
437.071222	2538.641898
437.447614	2533.983872
437.823946	2536.852288
438.200218	2538.399923
438.576429	2538.256250
438.952580	2536.640560
439.328670	2536.580066
439.704700	2536.640560
440.080670	2538.435211
440.456580	2540.794471
440.832429	2540.202135
441.208218	2533.991433
441.583947	2537.258101
441.959616	2536.602751
442.335224	2537.495035
442.710773	2535.907072
443.086261	2537.116949
443.461689	2536.055786
443.837057	2536.693492
444.212365	2537.616023
444.587612	2539.897145
444.962800	2539.410674
445.337927	2536.993441
445.712995	2537.517721
446.088002	2539.186342
446.462949	2539.531662
446.837837	2539.282124
447.212664	2537.086702
447.587431	2540.081147
447.962139	2541.832948
448.336786	2544.230017
448.711374	2543.786395
449.085901	2543.647764
449.460369	2540.244985
449.834776	2539.922351
450.209124	2539.471168
450.583412	2540.151723
450.957640	2542.148020
451.331808	2541.417053
451.705917	2541.177598
452.079965	2538.034439
452.453954	2540.943185
452.827883	2543.151210
453.201752	2541.689275
453.575562	2540.396219
453.949311	2542.062321
454.323001	2542.231199
454.696632	2540.915458
455.070202	2542.395037
455.443713	2543.481406
455.817164	2539.571991
456.190556	2542.097609
456.563888	2540.257588
456.937160	2536.728780
457.310373	2542.198432
457.683526	2540.123997
458.056619	2540.829759
458.429653	2548.199926
458.802628	2542.261446
459.175542	2541.545603
459.548398	2542.697506
459.921194	2547.030378
460.293930	2545.364277
460.666607	2547.894936
461.039224	2549.944165
461.411782	2549.341747
461.784280	2551.597663
462.156719	2549.034237
462.529099	2551.592622
462.901419	2544.986190
463.273680	2550.244113
463.645882	2548.278063
464.018024	2544.988711
464.390106	2549.649257
464.762130	2552.051367
465.134094	2552.069011
465.505999	2556.873231
465.877845	2558.937583
466.249631	2562.426062
466.621358	2562.325239
466.993026	2562.368088
467.364634	2562.746175
467.736184	2556.532953
468.107674	2556.868190
468.479105	2553.452808
468.850477	2554.130843
469.221790	2556.343910
469.593043	2553.924156
469.964238	2552.283260
470.335373	2553.357026
470.706449	2553.825853
471.077467	2555.126471
471.448425	2558.536812
471.819324	2564.210630
472.190164	2562.935218
472.560945	2559.222408
472.931667	2556.699311
473.302330	2557.969682
473.672934	2553.969526
474.043479	2555.572613
474.413965	2556.069167
474.784393	2551.693445
475.154761	2553.805689
475.525070	2554.284598
475.895321	2553.833415
476.265513	2551.585060
476.635645	2555.202088
477.005719	2556.074208
477.375734	2556.832902
477.745691	2560.374312
478.115588	2560.011349
478.485427	2560.318859
478.855207	2562.904971
479.224928	2562.973027
479.594591	2568.969479
479.964194	2566.068295
480.333739	2567.691547
480.703226	2567.530230
481.072653	2565.221382
481.442022	2568.679613
481.811333	2567.192473
482.180584	2568.142730
482.549777	2567.721794
482.918912	2564.608881
483.287988	2567.079047
483.657005	2563.714077
484.025964	2564.044272
484.394864	2565.274314
484.763706	2563.043603
485.132489	2560.238201
485.501213	2564.182904
485.869879	2563.784653
486.238487	2562.862122
486.607036	2564.523182
486.975527	2561.894220
487.343959	2562.264745
487.712333	2563.512430
488.080648	2560.223077
488.448905	2561.057388
488.817104	2560.747358
489.185244	2561.576627
489.553326	2564.621484
489.921350	2565.085270
490.289315	2567.840261
490.657222	2571.094326
491.025070	2568.621640
491.392861	2570.796898
491.760593	2566.920250
492.128267	2569.062741
492.495883	2565.594427
492.863440	2563.482183
493.230939	2562.615105
493.598380	2565.420507
493.965763	2559.066133
494.333088	2558.690567
494.700354	2557.934394
495.067563	2561.511092
495.434713	2555.827191
495.801805	2563.071329
496.168839	2561.564024
496.535815	2562.037893
496.902733	2560.434806
497.269593	2566.307750
497.636395	2562.423541
498.003139	2563.479663
498.369825	2562.521844
498.736453	2560.281051
499.103023	2561.100238
499.469535	2562.617626
499.835989	2563.320867
500.202385	2563.898079
500.568723	2564.192986
500.935003	2563.502348
501.301226	2561.269117
501.667390	2562.415979
502.033497	2563.023438
502.399546	2563.555280
502.765537	2563.109138
503.131470	2564.843295
503.497345	2562.726010
503.863163	2564.969324
504.228923	2562.688202
504.594625	2562.040413
504.960269	2566.108625
505.325856	2565.533933
505.691385	2562.925136
506.056856	2564.586196
506.422270	2562.121072
506.787625	2565.039900
507.152924	2559.872717
507.518164	2564.349262
507.883347	2563.613253
508.248472	2563.114179
508.613540	2562.557132
508.978550	2565.624674
509.343503	2563.706515
509.708398	2561.221226
510.073236	2564.198027
510.438016	2565.702812
510.802738	2564.195507
511.167403	2566.547205
511.532010	2564.235836
511.896561	2566.164077
512.261053	2568.127607
512.625488	2563.129303
512.989866	2560.311298
513.354186	2564.326577
513.718449	2559.119065
514.082655	2565.206258
514.446803	2562.216854
514.810894	2564.336659
515.174927	2564.969324
515.538904	2564.122410
515.902822	2565.221382
516.266684	2562.892368
516.630488	2564.487894
516.994235	2561.732903
517.357925	2565.092832
517.721558	2566.365723
518.085133	2564.102245
518.448651	2564.833213
518.812112	2565.932184
519.175516	2566.395970
519.538863	2564.233315
519.902152	2563.913202
520.265385	2565.319684
520.628560	2563.187276
520.991678	2563.583007
521.354739	2567.847823
521.717743	2561.392625
522.080690	2565.962431
522.443580	2564.608881
522.806413	2566.920250
523.169189	2567.333625
523.531908	2563.945970
523.894569	2566.579972
524.257174	2566.602658
524.619722	2567.643656
524.982213	2566.073337
525.344647	2564.225754
525.707025	2564.256001
526.069345	2565.947308
526.431608	2565.954869
526.793815	2563.557801
527.155964	2565.659962
527.518057	2564.399673
527.880093	2565.123079
528.242072	2564.795404
528.603995	2566.826989
528.965860	2564.694581
529.327669	2566.337997
529.689421	2564.223233
530.051117	2565.367575
530.412755	2566.000240
530.774337	2566.917730
531.135862	2562.186607
531.497331	2565.274314
531.858743	2560.681822
532.220098	2564.495455
532.581396	2560.344065
532.942638	2560.828016
533.303824	2562.360527
533.664953	2564.722307
534.026025	2563.633418
534.387040	2564.480332
534.747999	2568.077195
535.108902	2565.952349
535.469748	2563.353634
535.830537	2564.361865
536.191270	2561.024621
536.551947	2568.903944
536.912567	2564.167780
537.273131	2562.342883
537.633638	2562.153839
537.994089	2563.751885
538.354483	2564.278686
538.714821	2565.415466
539.075103	2562.221895
539.435328	2565.433110
539.795497	2563.981258
540.155609	2562.862122
540.515665	2565.105435
540.875665	2565.009653
541.235609	2563.550239
541.595496	2563.882955
541.955328	2564.351782
542.315102	2562.284909
542.674821	2562.310115
543.034483	2564.616443
543.394090	2565.944787
543.753640	2565.791032
544.113134	2562.315156
544.472571	2565.564180
544.831953	2564.513099
545.191278	2563.393963
545.550548	2563.068809
545.909761	2561.090156
546.268918	2562.237018
546.628019	2564.576114
546.987064	2562.486556
547.346053	2565.387740
547.704986	2564.966803
548.063863	2565.206258
548.422684	2564.712225
548.781449	2562.322718
549.140158	2566.101063
549.498811	2565.203737
549.857408	2563.661144
550.215949	2557.609239
550.574434	2560.200392
550.932864	2561.795918
551.291237	2562.337842
551.649555	2562.728531
552.007817	2563.202399
552.366022	2564.069478
552.724173	2564.361865
553.082267	2564.606361
553.440305	2562.892368
553.798288	2562.171483
554.156215	2563.404046
554.514086	2564.051834
554.871902	2567.711712
555.229661	2560.336503
555.587365	2563.736762
555.945014	2563.404046
556.302606	2565.760785
556.660143	2563.943449
557.017625	2564.961762
557.375050	2563.020918
557.732421	2561.715259
558.089735	2564.916392
558.446994	2564.876062
558.804197	2564.777760
559.161345	2564.722307
559.518437	2562.819272
559.875474	2564.601320
560.232455	2561.216185
560.589381	2566.048131
560.946251	2566.287586
561.303065	2564.069478
561.659825	2567.512586
562.016528	2563.893038
562.373177	2563.688871
562.729770	2562.826833
563.086307	2564.492935
563.442789	2564.760116
563.799216	2563.071329
564.155587	2563.502348
564.511904	2564.308933
564.868164	2563.996381
565.224370	2564.568552
565.580520	2559.333314
565.936615	2561.369940
566.292654	2561.087635
566.648638	2564.548387
567.004567	2563.404046
567.360441	2561.606874
567.716260	2563.729200
568.072023	2562.244580
568.427732	2558.635114
568.783385	2562.501679
569.138982	2559.444219
569.494525	2561.518654
569.850013	2559.570248
570.205445	2563.519992
570.560823	2564.981927
570.916145	2560.543191
571.271412	2561.317008
571.626625	2562.562173
571.981782	2562.975547
572.336884	2563.338511
572.691931	2564.235836
573.046923	2560.268448
573.401860	2559.837429
573.756743	2561.828685
574.111570	2559.310629
574.466342	2562.572255
574.821059	2561.392625
575.175722	2559.706359
575.530330	2559.729044
575.884882	2562.645352
576.239380	2564.230795
576.593823	2564.069478
576.948211	2563.056206
577.302544	2561.218705
577.656823	2561.826164
578.011047	2564.750034
578.365216	2562.201730
578.719330	2560.099569
579.073389	2560.734755
579.427394	2559.171997
579.781344	2559.814744
580.135239	2561.218705
580.489080	2560.679302
580.842866	2558.798952
581.196597	2561.437996
581.550273	2559.441699
581.903895	2559.454302
582.257463	2558.614949
582.610975	2560.349106
582.964434	2561.120403
583.317837	2561.344734
583.671186	2562.662996
584.024481	2560.822975
584.377721	2560.674261
584.730906	2561.211144
585.084037	2562.456309
585.437113	2560.744837
585.790135	2563.018397
586.143103	2558.188972
586.496016	2559.134188
586.848874	2555.111348
587.201679	2556.323745
587.554428	2555.000442
587.907124	2557.170659
588.259765	2554.352654
588.612352	2560.490259
588.964884	2558.972871
589.317362	2560.051678
589.669786	2557.896585
590.022155	2560.780125
590.374470	2558.128478
590.726731	2556.084290
591.078937	2558.937583
591.431090	2562.226936
591.783188	2558.047820
592.135232	2557.342058
592.487222	2558.637635
592.839157	2560.906154
593.191038	2560.079405
593.542866	2559.129147
593.894639	2559.194682
594.246358	2559.250135
594.598022	2558.635114
594.949633	2558.869528
595.301190	2556.474980
595.652692	2560.293654
596.004141	2559.902964
596.355535	2560.512944
596.706876	2557.097562
597.058162	2555.519681
597.409395	2556.013714
597.760573	2556.064126
598.111698	2557.485731
598.462768	2556.658982
598.813785	2559.638304
599.164748	2558.340207
599.515657	2560.449929
599.866511	2557.440361
600.217312	2555.875082
600.568060	2557.745350
600.918753	2560.659137
601.269392	2558.423386
601.619978	2558.251986
601.970510	2559.250135
602.320988	2557.382387
602.671412	2554.501368
603.021783	2555.590257
603.372100	2555.930535
603.722363	2555.945658
604.072572	2557.412634
604.422728	2555.008004
604.772830	2553.886347
605.122878	2549.460214
605.472872	2552.638662
605.822813	2550.138249
606.172701	2555.345761
606.522534	2556.268292
606.872314	2557.818447
607.222041	2554.745864
607.571714	2559.529919
607.921333	2556.530432
608.270899	2556.785011
608.620411	2558.292316
608.969870	2556.885834
609.319276	2559.597974
609.668627	2559.265258
610.017926	2565.859087
610.367171	2562.443706
610.716362	2564.999571
611.065500	2563.764488
611.414585	2560.959086
611.763616	2562.642831
612.112594	2561.450598
612.461518	2560.182748
612.810389	2557.712583
613.159207	2554.564382
613.507971	2559.043448
613.856682	2561.619477
614.205340	2558.935063
614.553945	2560.102090
614.902496	2558.415824
615.250994	2559.746688
615.599439	2556.341389
615.947830	2556.689229
616.296169	2558.781308
616.644454	2556.870710
616.992686	2558.486400
617.340864	2557.584033
617.688990	2558.380536
618.037063	2560.031514
618.385082	2556.643858
618.733048	2560.626370
619.080961	2559.386246
619.428821	2556.033879
619.776628	2558.194013
620.124382	2559.575289
620.472083	2556.520350
620.819731	2559.126627
621.167326	2556.051523
621.514868	2559.666030
621.862357	2558.582182
622.209793	2557.321893
622.557176	2557.546225
622.904506	2553.611604
623.251783	2552.815102
623.599007	2551.789227
623.946179	2552.202602
624.293297	2551.786707
624.640363	2555.368446
624.987376	2553.503219
625.334336	2554.496327
625.681243	2554.234187
626.028097	2553.911553
626.374899	2554.229146
626.721647	2552.774773
627.068343	2557.331976
627.414987	2555.726368
627.761577	2554.420709
628.108115	2553.029351
628.454600	2555.900288
628.801032	2552.477345
629.147412	2555.038251
629.493739	2556.162428
629.840014	2555.300391
630.186236	2551.481717
630.532405	2554.231666
630.878521	2553.808209
631.224585	2554.977757
631.570597	2552.852911
631.916556	2553.893909
632.262462	2552.023641
632.608316	2556.011193
632.954117	2553.341903
633.299866	2551.166645
633.645562	2556.696790
633.991206	2554.544218
634.336797	2552.484906
634.682336	2552.994063
635.027823	2550.687735
635.373257	2553.165462
635.718639	2552.989022
636.063968	2552.081614
636.409245	2552.157231
636.754470	2553.079763
637.099642	2550.339895
637.444762	2552.542880
637.789829	2549.787889
638.134845	2552.169834
638.479808	2550.476007
638.824719	2552.283260
639.169577	2551.637993
639.514383	2551.136398
639.859137	2551.907694
640.203839	2550.402910
640.548489	2549.661860
640.893086	2548.086500
641.237632	2545.691952
641.582125	2547.030378
641.926566	2544.474513
642.270955	2549.747560
642.615292	2548.530121
642.959576	2550.541542
643.303809	2550.758311
643.647990	2552.308466
643.992118	2549.477858
644.336195	2550.087838
644.680219	2548.441901
645.024192	2548.588094
645.368112	2550.849052
645.711981	2548.318393
646.055797	2549.704710
646.399562	2551.338044
646.743274	2553.750236
647.086935	2552.633620
647.430544	2552.303425
647.774101	2550.566747
648.117606	2552.893240
648.461059	2550.102961
648.804460	2548.759494
649.147810	2550.476007
649.491108	2551.224618
649.834354	2550.821326
650.177548	2550.821326
650.520690	2551.602704
650.863781	2548.396531
651.206820	2552.137067
651.549807	2549.140101
651.892742	2550.465924
652.235626	2550.329813
652.578458	2548.215049
652.921238	2547.910059
653.263967	2551.184289
653.606644	2550.004659
653.949269	2546.629606
654.291843	2550.412992
654.634365	2550.390307
654.976836	2547.095913
655.319255	2552.242931
655.661622	2546.727909
656.003938	2547.504246
656.346203	2547.993238
656.688416	2548.169679
657.030577	2550.362581
657.372687	2549.709751
657.714746	2547.872251
658.056753	2548.333516
658.398708	2545.308824
658.740612	2544.653474
659.082465	2546.511139
659.424266	2545.573484
659.766016	2547.902497
660.107715	2546.506098
660.449362	2545.797816
660.790958	2551.370811
661.132503	2546.785882
661.473996	2549.563558
661.815438	2548.217570
662.156829	2548.441901
662.498168	2546.617003
662.839456	2549.583722
663.180693	2547.448794
663.521879	2545.833104
663.863013	2547.305121
664.204097	2547.410985
664.545129	2548.857796
664.886110	2546.889226
665.227040	2547.410985
665.567918	2547.453835
665.908746	2547.224462
666.249522	2548.295707
666.590248	2546.450645
666.930922	2549.697148
667.271545	2546.284287
667.612118	2551.423743
667.952639	2547.479041
668.293109	2548.262940
668.633528	2546.581715
668.973896	2545.712116
669.314213	2546.894267
669.654480	2550.201264
669.994695	2546.662374
670.334859	2546.997610
670.674973	2548.555327
671.015035	2546.213711
671.355047	2549.815615
671.695008	2547.252189
672.034918	2547.678166
672.374777	2549.611449
672.714585	2546.947199
673.054342	2550.332334
673.394049	2547.438711
673.733705	2550.332334
674.073310	2551.312838
674.412864	2549.934082
674.752368	2549.860986
675.091820	2548.704041
675.431223	2546.720347
675.770574	2550.236552
676.109875	2544.625748
676.449125	2545.684390
676.788324	2545.891077
677.127473	2544.008206
677.466571	2539.836651
677.805619	2549.470296
678.144616	2546.990049
678.483562	2548.827549
678.822458	2547.789072
679.161303	2549.435008
679.500098	2545.472661
679.838842	2548.789741
680.177535	2547.499205
680.516179	2546.173382
680.854771	2544.905532
681.193314	2542.770603
681.531805	2546.455686
681.870247	2546.841335
682.208638	2548.149514
682.546978	2549.682025
682.885268	2547.705893
683.223508	2548.048691
683.561697	2547.748742
683.899836	2547.272353
684.237925	2546.080120
684.575963	2546.808567
684.913951	2548.701520
685.251889	2550.173537
685.589776	2546.662374
685.927614	2548.215049
686.265401	2545.633978
686.603137	2549.059442
686.940824	2548.613300
687.278460	2548.441901
687.616046	2547.642878
687.953582	2549.800492
688.291068	2550.402910
688.628504	2548.736808
688.965889	2547.542055
689.303224	2548.973743
689.640510	2545.908721
689.977745	2548.388969
690.314930	2548.799823
690.652065	2546.347302
690.989150	2549.001469
691.326185	2545.666746
691.663170	2542.130376
692.000105	2545.901159
692.336990	2545.215562
692.673825	2546.357384
693.010610	2546.972405
693.347345	2543.708257
693.684030	2540.285314
694.020665	2543.375541
694.357251	2540.620551
694.693786	2542.999975
695.030272	2543.020140
695.366707	2544.716488
695.703093	2545.293700
696.039429	2546.422919
696.375716	2544.189688
696.711952	2545.729760
697.048139	2542.758000
697.384276	2547.058104
697.720363	2544.267826
698.056400	2543.816642
698.392388	2543.975439
698.728326	2545.875954
699.064214	2543.693134
699.400053	2544.441745
699.735842	2545.931406
700.071581	2543.163813
700.407270	2544.661036
700.742910	2542.707588
701.078501	2542.049718
701.414042	2545.603731
701.749533	2545.482744
702.084974	2543.441076
702.420366	2545.744884
702.755709	2543.662887
703.091002	2542.082485
703.426246	2542.974770
703.761440	2543.773793
704.096584	2540.093750
704.431679	2541.684234
704.766725	2547.501726
705.101721	2542.389996
705.436668	2542.863864
705.771565	2539.075437
706.106413	2543.877136
706.441212	2541.722043
706.775961	2545.301262
707.110661	2543.720860
707.445311	2543.347815
707.779913	2543.582229
708.114465	2544.424101
708.448967	2542.137938
708.783421	2545.359235
709.117825	2543.632640
709.452180	2541.774975
709.786485	2541.780016
710.120742	2543.907383
710.454949	2544.192208
710.789107	2544.706406
711.123216	2540.449152
711.457275	2542.332023
711.791286	2542.652136
712.125247	2540.678524
712.459159	2542.553833
712.793023	2545.621375
713.126837	2546.349822
713.460602	2546.387631
713.794318	2544.217414
714.127985	2548.146993
714.461602	2541.996786
714.795171	2546.007024
715.128691	2546.251520
715.462162	2543.123484
715.795584	2544.169523
716.128957	2543.118443
716.462281	2544.018288
716.795556	2541.638864
717.128782	2543.806560
717.461960	2542.276570
717.795088	2541.989224
718.128167	2542.125335
718.461198	2541.361600
718.794180	2543.332692
719.127113	2540.567619
719.459997	2543.607434
719.792833	2544.502239
720.125619	2543.741025
720.458357	2541.805222
720.791046	2540.784388
721.123686	2539.604758
721.456278	2541.918648
721.788821	2541.220448
722.121315	2541.265818
722.453761	2540.872608
722.786158	2541.822866
723.118506	2539.221631
723.450805	2542.821014
723.783056	2539.206507
724.115259	2542.289173
724.447412	2543.173895
724.779518	2543.239430
725.111574	2540.345808
725.443582	2543.592311
725.775542	2541.636343
726.107453	2542.059800
726.439315	2544.088865
726.771129	2546.369987
727.102895	2538.901517
727.434612	2541.197763
727.766281	2541.001158
728.097901	2539.876981
728.429473	2541.177598
728.760996	2538.198276
729.092471	2539.019984
729.423897	2541.394368
729.755276	2542.271529
730.086606	2542.347146
730.417887	2543.481406
730.749120	2542.316899
731.080305	2542.440407
731.411442	2544.751776
731.742530	2542.808412
732.073570	2544.850079
732.404562	2544.303114
732.735506	2543.166333
733.066401	2541.558205
733.397249	2543.413350
733.728048	2542.205994
734.058798	2543.378062
734.389501	2540.602907
734.720156	2543.178936
735.050762	2543.236910
735.381320	2542.952084
735.711831	2539.980324
736.042293	2541.734646
736.372707	2541.417053
736.703073	2539.894625
737.033391	2539.093081
737.363661	2543.665408
737.693883	2541.583411
738.024056	2541.583411
738.354182	2542.231199
738.684260	2541.210366
739.014290	2539.483771
739.344272	2544.053577
739.674207	2539.370345
740.004093	2543.373021
740.333931	2540.842362
740.663722	2543.940151
740.993464	2540.668442
741.323159	2542.823535
741.652806	2541.122146
741.982405	2541.361600
742.311956	2542.369831
742.641460	2540.610468
742.970915	2540.683565
743.300323	2542.793288
743.629683	2540.718853
743.958996	2541.578370
744.288260	2540.766744
744.617477	2539.819007
744.946647	2535.039993
745.275768	2537.202648
745.604842	2536.524613
745.933869	2538.664583
746.262847	2534.442617
746.591778	2542.407640
746.920662	2539.798843
747.249498	2539.332536
747.578286	2538.125180
747.907027	2539.745911
748.235720	2541.540561
748.564365	2541.064172
748.892963	2540.822197
749.221514	2539.856816
749.550017	2539.022505
749.878473	2540.053421
750.206881	2541.555685
750.535242	2538.447813
750.863555	2539.423277
751.191821	2540.804553
751.520039	2541.149872
751.848210	2539.453524
752.176334	2540.872608
752.504411	2542.223638
752.832440	2539.014943
753.160421	2539.546785
753.488356	2539.125849
753.816243	2541.079296
754.144082	2537.046373
754.471875	2539.229192
754.799620	2538.314223
755.127318	2537.860519
755.454969	2540.504604
755.782572	2540.171888
756.110129	2539.887063
756.437638	2541.280942
756.765100	2539.783719
757.092515	2537.971424
757.419882	2537.873122
757.747203	2535.690302
758.074477	2539.052752
758.401703	2537.167360
758.728882	2539.098122
759.056014	2537.999151
759.383099	2540.164326
759.710138	2542.541230
760.037129	2538.105015
760.364073	2539.808925
760.690970	2540.814635
761.017820	2539.418236
761.344623	2539.652649
761.671379	2539.236754
761.998088	2534.518234
762.324751	2540.940664
762.651366	2538.226003
762.977935	2543.486447
763.304456	2541.492670
763.630931	2547.219421
763.957359	2546.659853
764.283740	2541.774975
764.610074	2543.640202
764.936362	2544.139276
765.262602	2540.058462
765.588796	2539.274563
765.914943	2538.977135
766.241044	2539.783719
766.567097	2538.122659
766.893104	2538.215920
767.219064	2535.866743
767.544978	2540.003009
767.870845	2536.736342
768.196665	2539.463606
768.522438	2538.004192
768.848165	2538.498225
769.173846	2540.615510
769.499479	2539.191384
769.825066	2536.927906
770.150607	2538.901517
770.476101	2536.801877
770.801548	2539.451003
771.126949	2537.835313
771.452303	2537.026208
771.777611	2538.190715
772.102872	2542.314378
772.428087	2535.783564
772.753256	2538.271373
773.078378	2538.220962
773.403453	2537.426980
773.728482	2538.662062
774.053465	2537.479912
774.378401	2538.296579
774.703291	2536.300282
775.028135	2536.680889
775.352932	2534.493028
775.677683	2538.672145
776.002388	2537.547967
776.327046	2537.099305
776.651658	2537.300951
776.976224	2537.220292
777.300743	2536.229706
777.625216	2534.364479
777.949643	2535.934798
778.274024	2538.026877
778.598359	2536.060827
778.922647	2531.485980
779.246889	2534.518234
779.571086	2530.283665
779.895236	2533.033614
780.219339	2537.590817
780.543397	2535.513862
780.867409	2537.764737
781.191374	2537.873122
781.515294	2535.546629
781.839167	2536.524613
782.162995	2536.141486
782.486776	2536.590148
782.810511	2536.080992
783.134201	2534.873635
783.457844	2537.353883
783.781441	2538.563760
784.104993	2536.885056
784.428498	2537.386651
784.751958	2535.430683
785.075372	2534.868594
785.398739	2537.961342
785.722061	2536.993441
786.045337	2535.465971
786.368568	2537.217772
786.691752	2536.980838
787.014891	2536.693492
787.337983	2536.277597
787.661030	2539.887063
787.984031	2536.212062
788.306987	2537.137113
788.629897	2537.951260
788.952760	2533.573018
789.275579	2537.573173
789.598351	2538.790612
789.921078	2537.520241
790.243759	2536.998482
790.566395	2537.769778
790.888984	2535.607123
791.211529	2537.802546
791.534027	2540.668442
791.856480	2536.287679
792.178888	2537.288348
792.501249	2535.508821
792.823566	2537.152237
793.145836	2535.173584
793.468062	2536.333049
793.790241	2533.565456
794.112375	2538.062165
794.434464	2535.849099
794.756507	2536.484284
795.078505	2537.043852
795.400457	2536.711136
795.722364	2533.164684
796.044226	2533.757020
796.366042	2535.027391
796.687812	2535.571835
797.009538	2535.937319
797.331218	2537.676517
797.652852	2533.988913
797.974442	2537.910931
798.295986	2539.040149
798.617484	2536.567463
798.938938	2535.266845
799.260346	2535.937319
799.581709	2536.862371
799.903026	2538.546116
800.224299	2536.882535
800.545526	2535.445806
800.866708	2539.030067
801.187845	2536.769109
801.508936	2535.382792
801.829983	2535.130734
802.150984	2534.924047
802.471940	2537.868081
802.792851	2534.235929
803.113717	2537.091743
803.434538	2534.424973
803.755314	2538.178112
804.076045	2536.353214
804.396731	2538.087371
804.717372	2536.517052
805.037967	2536.065868
805.358518	2535.566794
805.679024	2534.598892
805.999485	2533.076464
806.319901	2539.332536
806.640272	2536.716177
806.960598	2534.563604
807.280879	2535.062679
807.601115	2535.297092
807.921306	2534.929088
808.241453	2535.798687
808.561554	2537.331198
808.881611	2536.403626
809.201623	2535.372710
809.521590	2539.914789
809.841513	2535.198790
810.161390	2539.118287
810.481223	2533.603265
810.801011	2537.721887
811.120755	2534.745086
811.440453	2537.719367
811.760107	2536.519572
812.079716	2533.094108
812.399281	2532.902544
812.718801	2535.687782
813.038276	2531.959848
813.357707	2533.865405
813.677093	2535.634850
813.996434	2532.695857
814.315731	2535.604603
814.634983	2532.814324
814.954191	2538.077289
815.273354	2533.779705
815.592473	2531.997657
815.911547	2535.087884
816.230577	2535.823893
816.549562	2534.205682
816.868502	2536.421270
817.187399	2535.196269
817.506250	2537.056455
817.825058	2537.971424
818.143821	2536.585107
818.462539	2536.136444
818.781213	2539.882022
819.099843	2535.808769
819.418429	2538.354552
819.736970	2538.200797
820.055466	2536.849768
820.373919	2538.155427
820.692327	2541.449821
821.010691	2542.505942
821.329011	2546.382590
821.647286	2561.594271
821.965517	2571.721949
822.283704	2579.392065
822.601847	2581.151428
822.919945	2571.240519
823.237999	2569.821434
823.556010	2560.477656
823.873976	2556.608570
824.191897	2551.632951
824.509775	2548.779658
824.827609	2548.164638
825.145398	2543.657846
825.463144	2544.056097
825.780845	2542.999975
826.098502	2544.623227
826.416116	2549.377035
826.733685	2551.199412
827.051210	2553.442726
827.368692	2553.679660
827.686129	2548.346119
828.003522	2545.530635
828.320872	2539.587114
828.638177	2537.797505
828.955439	2533.217616
829.272656	2535.095446
829.589830	2533.721732
829.906960	2536.922864
830.224046	2537.779861
830.541088	2534.379602
830.858086	2537.210210
831.175041	2536.703574
831.491952	2534.835827
831.808819	2538.503266
832.125642	2535.160981
832.442421	2534.954294
832.759157	2539.307330
833.075849	2540.461754
833.392497	2542.372352
833.709101	2544.852599
834.025662	2543.945192
834.342179	2543.173895
834.658653	2540.171888
834.975083	2536.423790
835.291469	2542.992414
835.607811	2537.679038
835.924110	2537.643749
836.240366	2535.604603
836.556578	2536.398584
836.872746	2536.854809
837.188871	2535.435724
837.504952	2536.166691
837.820990	2534.581248
838.136984	2536.126362
838.452935	2532.169056
838.768842	2534.956814
839.084706	2536.108718
839.400526	2535.198790
839.716303	2538.162988
840.032037	2536.665766
840.347727	2538.914120
840.663373	2536.527134
840.978977	2538.876312
841.294537	2536.385982
841.610054	2534.472864
841.925527	2535.332380
842.240957	2532.348017
842.556344	2535.576876
842.871687	2535.135775
843.186987	2535.198790
843.502244	2531.788449
843.817458	2533.646114
844.132629	2533.741896
844.447756	2533.431865
844.762840	2531.909437
845.077881	2528.935156
845.392879	2529.398942
845.707833	2532.138809
846.022745	2529.759385
846.337613	2533.245343
846.652438	2532.806762
846.967221	2534.881197
847.281960	2532.766433
847.596656	2534.220806
847.911309	2533.706608
848.225919	2534.084695
848.540485	2531.533871
848.855009	2533.704088
849.169490	2532.579910
849.483928	2530.538243
849.798323	2535.115611
850.112675	2533.232740
850.426984	2534.523275
850.741251	2534.578728
851.055474	2532.806762
851.369654	2534.782895
851.683792	2530.802904
851.997887	2532.557225
852.311938	2534.752648
852.625947	2532.532019
852.939914	2533.494880
853.253837	2533.653676
853.567718	2532.128727
853.881555	2532.801721
854.195350	2534.006557
854.509103	2532.239632
854.822812	2532.685775
855.136479	2527.929446
855.450103	2534.641742
855.763685	2530.560928
856.077224	2529.784591
856.390720	2531.034797
856.704173	2531.455733
857.017584	2532.532019
857.330953	2532.048069
857.644278	2532.632843
857.957561	2532.083357
858.270802	2534.835827
858.584000	2535.236598
858.897155	2531.523789
859.210268	2531.702750
859.523339	2533.073943
859.836367	2535.957483
860.149352	2533.905734
860.462295	2534.798018
860.775195	2530.545805
861.088054	2527.795855
861.400869	2530.457585
861.713642	2525.774353
862.026373	2529.769467
862.339062	2533.328522
862.651708	2529.033459
862.964312	2532.952956
863.276873	2532.330373
863.589392	2532.607637
863.901869	2531.788449
864.214303	2532.660569
864.526696	2532.128727
864.839045	2532.680733
865.151353	2531.102852
865.463619	2534.034283
865.775842	2532.998326
866.088023	2532.910106
866.400162	2532.665610
866.712258	2529.461957
867.024313	2534.682072
867.336325	2533.472195
867.648296	2531.690147
867.960224	2531.506145
868.272110	2535.055117
868.583954	2531.538912
868.895755	2534.946732
869.207515	2534.074612
869.519233	2535.092926
869.830909	2532.310209
870.142542	2534.087215
870.454134	2531.536392
870.765684	2531.334745
871.077191	2532.476567
871.388657	2536.093595
871.700081	2532.998326
872.011463	2534.203162
872.322803	2531.843902
872.634101	2535.796167
872.945357	2534.306506
873.256571	2531.493542
873.567744	2533.625950
873.878874	2531.543953
874.189963	2532.766433
874.501010	2534.112421
874.812015	2533.275590
875.122979	2533.820034
875.433900	2533.320960
875.744780	2534.785415
876.055618	2535.430683
876.366415	2532.206865
876.677169	2534.031763
876.987882	2529.315763
877.298554	2528.862059
877.609183	2529.144364
877.919771	2529.391381
878.230317	2533.709129
878.540822	2535.186187
878.851285	2535.546629
879.161707	2536.355735
879.472087	2536.375899
879.782425	2535.556712
880.092722	2537.633667
880.402977	2544.182126
880.713191	2546.196067
881.023363	2554.445915
881.333494	2559.940773
881.643583	2561.075033
881.953631	2559.555125
882.263637	2557.599157
882.573602	2554.587067
882.883526	2553.271326
883.193408	2548.721685
883.503248	2546.858979
883.813048	2543.226827
884.122806	2540.819676
884.432522	2541.197763
884.742197	2540.469316
885.051831	2536.539737
885.361424	2538.692309
885.670975	2538.967052
885.980485	2534.566125
886.289954	2534.147709
886.599382	2535.211393
886.908768	2536.040663
887.218113	2535.017308
887.527417	2534.906403
887.836680	2533.235260
888.145901	2531.148223
888.455082	2535.032432
888.764221	2534.911444
889.073319	2533.217616
889.382376	2533.114273
889.691392	2533.852802
890.000366	2533.542771
890.309300	2531.884231
890.618193	2534.039324
890.927044	2534.976979
891.235855	2531.279293
891.544625	2533.446989
891.853353	2534.092257
892.162041	2531.450692
892.470687	2532.756351
892.779293	2533.414221
893.087858	2533.353727
893.396381	2529.645959
893.704864	2530.737369
894.013306	2533.726773
894.321707	2539.171219
894.630068	2542.447969
894.938387	2540.557536
895.246665	2538.604089
895.554903	2539.695499
895.863100	2539.614841
896.171256	2536.494366
896.479371	2537.147196
896.787446	2536.262473
897.095480	2535.413039
897.403473	2530.744930
897.711425	2534.588810
898.019336	2535.302133
898.327207	2535.077802
898.635038	2533.610826
898.942827	2532.080836
899.250576	2533.305837
899.558284	2533.394057
899.865952	2534.982020
900.173579	2534.072092
900.481165	2531.506145
900.788711	2531.556556
901.096216	2530.787780
901.403681	2532.519417
901.711105	2532.000178
902.018489	2530.555887
902.325832	2535.045035
902.633135	2533.895652
902.940397	2533.091587
903.247619	2534.200641
903.554800	2534.172915
903.861941	2539.771116
904.169041	2541.941333
904.476101	2541.875798
904.783121	2544.245140
905.090100	2543.325130
905.397039	2540.101312
905.703938	2538.568801
906.010796	2537.926054
906.317614	2536.945550
906.624391	2535.617206
906.931129	2531.682585
907.237826	2532.567308
907.544483	2534.719880
907.851099	2528.680578
908.157675	2533.840199
908.464211	2531.697708
908.770707	2528.274765
909.077163	2530.155115
909.383578	2527.080012
909.689954	2527.750485
909.996289	2528.015146
910.302584	2531.077647
910.608839	2532.922709
910.915054	2533.192411
911.221229	2531.662420
911.527363	2533.268028
911.833458	2530.288706
912.139513	2532.630322
912.445527	2531.138140
912.751502	2531.874149
913.057436	2530.124868
913.363331	2531.775846
913.669186	2533.222657
913.975000	2533.807431
914.280775	2533.063861
914.586510	2532.884900
914.892205	2534.845909
915.197859	2533.721732
915.503475	2540.078627
915.809050	2542.994934
916.114585	2543.514173
916.420081	2542.631971
916.725536	2544.827394
917.030952	2543.836807
917.336328	2537.762217
917.641665	2536.925385
917.946961	2540.575180
918.252218	2535.516383
918.557435	2536.159130
918.862612	2534.490508
919.167750	2534.372041
919.472848	2533.928419
919.777906	2534.314067
920.082925	2533.691485
920.387904	2532.552184
920.692843	2533.222657
920.997743	2531.927081
921.302603	2532.892462
921.607423	2532.131248
921.912204	2530.359282
922.216946	2532.559746
922.521647	2533.545291
922.826310	2530.278624
923.130932	2533.494880
923.435516	2531.886752
923.740059	2530.699560
924.044564	2529.212420
924.349028	2529.976154
924.653454	2528.688140
924.957840	2528.105886
925.262186	2525.587830
925.566493	2528.899868
925.870761	2525.945752
926.174989	2530.439941
926.479178	2529.499765
926.783328	2530.477749
927.087438	2532.166536
927.391509	2529.698891
927.695541	2530.089580
927.999533	2530.046731
928.303486	2529.033459
928.607400	2529.600588
928.911275	2530.003881
929.215110	2527.511030
929.518906	2528.667975
929.822663	2528.725948
930.126381	2530.119827
930.430060	2530.691998
930.733699	2526.669157
931.037299	2531.813655
931.340861	2531.153264
931.644383	2531.241484
931.947866	2529.497245
932.251309	2530.185362
932.554714	2526.225536
932.858080	2529.870290
933.161407	2530.155115
933.464694	2530.749972
933.767943	2529.255269
934.071153	2530.762574
934.374323	2529.131761
934.677455	2535.108049
934.980548	2530.714683
935.283602	2529.666123
935.586617	2529.945908
935.889593	2531.022194
936.192530	2529.086391
936.495428	2530.812986
936.798287	2529.870290
937.101108	2528.599919
937.403890	2531.496062
937.706632	2532.574869
938.009336	2529.794673
938.312002	2530.845753
938.614628	2528.766278
938.917216	2530.427338
939.219765	2532.872297
939.522275	2530.518078
939.824747	2531.455733
940.127179	2529.134282
940.429573	2526.142357
940.731929	2529.587986
941.034246	2525.754188
941.336524	2529.857687
941.638763	2529.199817
941.940964	2529.928263
942.243126	2532.025383
942.545250	2530.840712
942.847335	2527.886596
943.149381	2531.077647
943.451389	2530.994468
943.753359	2531.851464
944.055290	2529.724097
944.357182	2529.436751
944.659036	2528.889786
944.960851	2529.172090
945.262628	2531.508665
945.564367	2530.545805
945.866067	2525.461801
946.167729	2531.750641
946.469352	2530.891124
946.770937	2530.681916
947.072484	2528.305012
947.373992	2529.295599
947.675462	2530.278624
947.976893	2528.491535
948.278286	2528.728469
948.579641	2530.412214
948.880958	2529.167049
949.182236	2529.532533
949.483476	2529.948428
949.784678	2530.003881
950.085841	2531.468336
950.386967	2530.933974
950.688054	2528.746113
950.989103	2531.566638
951.290114	2531.075126
951.591087	2527.032121
951.892021	2528.965403
952.192917	2528.947759
952.493776	2529.898017
952.794596	2529.479601
953.095378	2529.784591
953.396122	2532.622760
953.696828	2528.756195
953.997496	2529.149405
954.298126	2530.543284
954.598718	2529.993798
954.899272	2530.349200
955.199788	2529.023376
955.500266	2528.466329
955.800706	2525.393746
956.101108	2525.875176
956.401472	2525.366019
956.701798	2525.366019
957.002087	2527.742923
957.302337	2529.784591
957.602550	2530.046731
957.902724	2526.701925
958.202861	2529.903058
958.502960	2529.131761
958.803022	2530.346679
959.103045	2528.458767
959.403031	2529.822399
959.702979	2530.442461
960.002889	2529.275434
960.302762	2527.889117
960.602596	2528.229395
960.902393	2528.655372
961.202153	2529.809796
961.501875	2527.594209
961.801559	2528.952800
962.101205	2528.849457
962.400814	2526.838036
962.700385	2526.028931
962.999918	2526.888448
963.299414	2527.324507
963.598873	2527.954652
963.898293	2527.561442
964.197677	2530.248377
964.497022	2527.304343
964.796331	2529.940866
965.095601	2526.230577
965.394835	2529.575383
965.694030	2527.420289
965.993189	2529.424148
966.292309	2528.249559
966.591393	2526.762419
966.890439	2525.993643
967.189447	2526.238139
967.488419	2526.399456
967.787353	2528.486493
968.086249	2529.640918
968.385108	2527.881555
968.683930	2529.098994
968.982714	2526.475073
969.281462	2527.291740
969.580172	2527.836185
969.878844	2526.926256
970.177480	2526.848118
970.476078	2530.046731
970.774639	2531.622091
971.073162	2528.299971
971.371649	2525.300484
971.670098	2525.809641
971.968510	2527.732841
972.266885	2523.284023
972.565223	2528.811648
972.863524	2528.264683
973.161788	2527.692512
973.460014	2527.949611
973.758204	2529.262831
974.056356	2527.538757
974.354471	2528.126051
974.652550	2529.711494
974.950591	2528.698222
975.248595	2526.996832
975.546563	2525.855011
975.844493	2528.642769
976.142386	2530.424817
976.440243	2527.369878
976.738062	2528.879703
977.035845	2528.146216
977.333590	2524.143539
977.631299	2527.140505
977.928971	2529.451874
978.226606	2527.558921
978.524204	2529.542615
978.821765	2526.893489
979.119290	2529.043541
979.416777	2530.344159
979.714228	2528.559590
980.011642	2525.875176
980.309020	2529.313243
980.606360	2525.691174
980.903664	2527.765608
981.200931	2529.101514
981.498162	2527.226205
981.795356	2527.397604
982.092513	2530.230733
982.389633	2529.489683
982.686717	2527.780732
982.983764	2530.152595
983.280775	2527.034641
983.577749	2532.907585
983.874686	2530.568490
984.171587	2529.051103
984.468451	2527.745444
984.765279	2529.285516
985.062070	2529.870290
985.358824	2527.672347
985.655543	2529.749302
985.952224	2529.882893
986.248869	2527.324508
986.545478	2524.622449
986.842050	2526.422141
987.138586	2524.282171
987.435086	2524.569517
987.731549	2520.808816
988.027975	2529.673685
988.324366	2526.863242
988.620719	2526.898530
988.917037	2525.345855
989.213318	2525.497089
989.509563	2530.424817
989.805772	2527.881555
990.101944	2529.343490
990.398080	2527.934487
990.694180	2528.925074
990.990244	2528.778880
991.286271	2524.889630
991.582262	2529.572862
991.878217	2527.148067
992.174136	2528.814168
992.470019	2525.665968
992.765865	2528.143695
993.061676	2527.337110
993.357450	2528.433561
993.653188	2526.830474
993.948890	2527.884076
994.244556	2528.539426
994.540186	2528.524302
994.835780	2530.160157
995.131337	2530.608819
995.426859	2523.820906
995.722345	2527.231246
996.017795	2525.686132
996.313208	2530.422297
996.608586	2526.797707
996.903928	2530.119827
997.199234	2529.661082
997.494504	2528.461288
997.789738	2527.911802
998.084936	2528.045392
998.380099	2526.311236
998.675225	2527.516071
998.970316	2527.619415
999.265371	2526.154960
999.560390	2526.827954
999.855373	2529.928263
1000.150320	2524.919877
1000.445232	2530.263500
1000.740108	2526.414579
1001.034948	2527.367357
1001.329752	2528.156298
1001.624521	2526.522964
1001.919254	2522.386697
1002.213951	2524.821575
1002.508613	2524.128416
1002.803239	2528.105886
1003.097829	2521.242355
1003.392384	2525.555062
1003.686903	2528.577234
1003.981386	2527.871473
1004.275834	2528.390712
1004.570246	2528.932636
1004.864623	2526.356606
1005.158964	2528.327697
1005.453270	2527.899199
1005.747540	2528.204189
1006.041775	2525.514733
1006.335974	2528.794004
1006.630138	2526.948942
1006.924266	2529.154446
1007.218359	2531.037317
1007.512416	2525.943231
1007.806438	2527.175793
1008.100425	2526.986750
1008.394376	2524.206554
1008.688292	2526.890968
1008.982172	2525.350896
1009.276017	2525.645803
1009.569827	2526.525485
1009.863602	2527.871473
1010.157341	2527.410207
1010.451045	2526.999353
1010.744714	2524.546832
1011.038347	2526.704446
1011.331945	2526.235618
1011.625508	2526.215454
1011.919036	2527.377440
1012.212528	2525.005577
1012.505986	2528.299971
1012.799408	2525.161853
1013.092795	2526.747295
1013.386147	2527.750485
1013.679464	2527.871473
1013.972745	2529.225022
1014.265992	2526.240659
1014.559204	2529.063706
1014.852380	2525.918026
1015.145521	2526.104548
1015.438628	2525.111441
1015.731699	2528.786442
1016.024736	2527.032121
1016.317737	2530.996988
1016.610703	2530.134951
1016.903635	2524.020031
1017.196531	2521.501975
1017.489393	2525.426513
1017.782219	2524.698066
1018.075011	2524.740916
1018.367768	2525.660927
1018.660490	2526.399456
1018.953177	2526.399456
1019.245829	2526.399456
