Dividing Wavelength (nm)	Counts (n)	Blue Motor Position (mm): 0.000000	Red Motor Position (mm): 7.600000	
326.493990	2126.588065
326.888308	2126.588065
327.282561	2126.588065
327.676750	2096.225195
328.070874	2093.414752
328.464933	2096.573035
328.858929	2102.035125
329.252859	2113.970057
329.646726	2125.363064
330.040528	2136.682975
330.434265	2153.848104
330.827938	2172.293686
331.221547	2188.564010
331.615091	2208.746270
332.008571	2226.924670
332.401986	2247.802609
332.795338	2266.157450
333.188625	2284.731582
333.581847	2303.590538
333.975006	2324.397901
334.368100	2343.425736
334.761129	2360.260669
335.154095	2376.168030
335.546996	2394.167470
335.939833	2406.803122
336.332606	2419.920204
336.725315	2436.692123
337.117960	2442.476847
337.510540	2450.880451
337.903056	2465.938377
338.295508	2470.180508
338.687896	2480.620738
339.080220	2488.487458
339.472480	2492.953921
339.864676	2497.793428
340.256807	2501.919613
340.648875	2507.283400
341.040879	2508.649553
341.432818	2508.475633
341.824694	2511.628875
342.216506	2510.759276
342.608253	2510.817249
342.999937	2512.687517
343.391557	2510.723988
343.783113	2510.502177
344.174605	2507.134686
344.566033	2507.482526
344.957397	2506.234840
345.348697	2505.365241
345.739934	2502.396002
346.131106	2504.493122
346.522215	2498.821824
346.913260	2496.472646
347.304241	2496.497852
347.695159	2492.714466
348.086012	2494.420896
348.476802	2493.221102
348.867528	2490.327479
349.258191	2487.832108
349.648789	2489.299084
350.039324	2486.032416
350.429796	2487.396048
350.820203	2483.602580
351.210548	2482.795996
351.600828	2481.487816
351.991045	2482.435553
352.381198	2481.051756
352.771288	2481.515543
353.161314	2479.431025
353.551276	2480.587970
353.941175	2480.343474
354.331010	2478.291725
354.720782	2480.275419
355.110490	2478.594194
355.500135	2476.734008
355.889717	2480.671149
356.279235	2477.467496
356.668689	2480.252733
357.058080	2478.286683
357.447408	2476.534883
357.836672	2480.020840
358.225873	2478.760552
358.615010	2479.259626
359.004084	2483.708444
359.393095	2484.199957
359.782043	2481.195429
360.170927	2484.653661
360.559748	2484.918321
360.948505	2484.971253
361.337199	2485.225832
361.725830	2485.092241
362.114398	2487.638024
362.502903	2485.422437
362.891344	2488.852942
363.279722	2485.813126
363.668037	2488.762201
364.056289	2489.851090
364.444478	2489.304125
364.832603	2489.873776
365.220665	2492.522902
365.608665	2489.674650
365.996601	2493.505927
366.384474	2491.408807
366.772284	2492.543067
367.160031	2493.941987
367.547715	2497.934581
367.935336	2498.521875
368.322893	2501.677637
368.710388	2506.176867
369.097820	2511.621313
369.485189	2512.773217
369.872495	2519.984587
370.259738	2528.524302
370.646918	2535.029911
371.034035	2541.028884
371.421090	2551.020451
371.808081	2563.593089
372.195010	2567.966290
372.581875	2582.683938
372.968678	2595.213726
373.355418	2602.170519
373.742096	2620.845473
374.128710	2635.084212
374.515262	2643.190387
374.901751	2657.323262
375.288177	2663.362565
375.674540	2681.367046
376.060841	2694.852132
376.447079	2709.055583
376.833254	2721.252655
377.219367	2723.664847
377.605417	2749.931779
377.991404	2751.628127
378.377329	2759.875455
378.763191	2766.307967
379.148991	2785.938220
379.534727	2797.399284
379.920402	2805.606282
380.306013	2803.990592
380.691563	2825.791062
381.077049	2824.951710
381.462474	2826.764005
381.847835	2837.418483
382.233134	2833.168791
382.618371	2820.086997
383.003545	2840.120542
383.388657	2829.085456
383.773706	2826.995898
384.158693	2816.114567
384.543618	2813.011737
384.928480	2813.165492
385.313280	2813.291521
385.698017	2793.996505
386.082692	2795.191258
386.467305	2779.936727
386.851856	2765.677823
387.236344	2760.004004
387.620770	2748.653847
388.005133	2738.236302
388.389435	2728.002760
388.773674	2709.645398
389.157851	2703.515355
389.541965	2689.488344
389.926018	2668.592762
390.310008	2665.694098
390.693936	2654.832932
391.077802	2642.434214
391.461606	2630.509365
391.845348	2619.328086
392.229027	2611.743670
392.612645	2600.554829
392.996200	2597.446958
393.379694	2589.129054
393.763125	2582.855338
394.146494	2569.869325
394.529801	2565.193655
394.913047	2562.789025
395.296230	2551.663198
395.679351	2547.521890
396.062410	2542.427804
396.445408	2535.128214
396.828343	2535.357586
397.211217	2525.063550
397.594028	2524.319980
397.976778	2521.323014
398.359466	2524.566996
398.742092	2515.019051
399.124656	2518.154649
399.507158	2520.526512
399.889598	2518.401665
400.271977	2516.397807
400.654294	2516.473424
401.036549	2516.725482
401.418742	2513.219359
401.800874	2515.117353
402.182944	2512.359842
402.564952	2515.124915
402.946898	2518.862931
403.328783	2513.627693
403.710606	2515.618948
404.092367	2515.785306
404.474067	2517.940400
404.855705	2515.818074
405.237282	2514.240193
405.618797	2515.608866
406.000250	2517.058198
406.381642	2517.330420
406.762972	2513.168948
407.144240	2515.369411
407.525447	2515.739936
407.906593	2515.145080
408.287677	2516.105420
408.668700	2515.966788
409.049661	2513.151303
409.430560	2517.433764
409.811399	2517.035513
410.192176	2517.506860
410.572891	2518.257992
410.953545	2518.172293
411.334138	2518.303363
411.714669	2516.218846
412.095139	2518.358815
412.475547	2517.579957
412.855894	2519.223373
413.236180	2518.618435
413.616405	2519.939217
413.996568	2518.068949
414.376670	2521.973323
414.756711	2515.450070
415.136691	2518.600791
415.516609	2517.012827
415.896466	2515.891171
416.276262	2517.905112
416.655997	2514.582991
417.035670	2515.989473
417.415283	2515.543331
417.794834	2514.736746
418.174324	2517.774042
418.553753	2518.252951
418.933121	2519.924094
419.312428	2519.888806
419.691674	2520.763446
420.070859	2517.857221
420.449983	2519.432581
420.829045	2521.320493
421.208047	2521.716224
421.586988	2521.038189
421.965867	2520.213960
422.344686	2520.430730
422.723444	2522.046419
423.102141	2521.476769
423.480777	2522.812675
423.859352	2519.775380
424.237866	2520.851666
424.616319	2522.220339
424.994712	2524.841739
425.373044	2521.365864
425.751314	2520.604649
426.129524	2523.493231
426.507673	2521.217150
426.885762	2521.905267
427.263789	2522.351409
427.641756	2521.058353
428.019662	2525.739065
428.397508	2520.990298
428.775292	2523.004239
429.153016	2522.439629
429.530679	2520.186234
429.908282	2524.037675
430.285824	2522.369053
430.663305	2522.084228
431.040726	2521.106244
431.418086	2523.115144
431.795385	2527.354754
432.172624	2523.468025
432.549802	2524.226718
432.926920	2520.680267
433.303977	2526.822913
433.680974	2525.396266
434.057910	2525.928108
434.434786	2523.634383
434.811601	2527.006915
435.188355	2524.866945
435.565050	2523.936852
435.941683	2528.463808
436.318257	2521.638086
436.694770	2522.679084
437.071222	2520.521470
437.447614	2524.078004
437.823946	2521.174300
438.200218	2527.478263
438.576429	2525.991122
438.952580	2523.367202
439.328670	2525.499610
439.704700	2526.454908
440.080670	2523.634383
440.456580	2527.228726
440.832429	2528.115969
441.208218	2528.315094
441.583947	2526.699404
441.959616	2526.157480
442.335224	2525.855011
442.710773	2526.336441
443.086261	2525.918026
443.461689	2523.740247
443.837057	2526.727131
444.212365	2526.943900
444.587612	2528.378109
444.962800	2526.926256
445.337927	2529.804755
445.712995	2526.626308
446.088002	2527.773170
446.462949	2526.223015
446.837837	2529.905578
447.212664	2527.377440
447.587431	2527.425331
447.962139	2529.817358
448.336786	2530.387008
448.711374	2528.884745
449.085901	2530.565969
449.460369	2526.533046
449.834776	2525.396266
450.209124	2529.008253
450.583412	2528.627646
450.957640	2529.091432
451.331808	2531.886752
451.705917	2528.141174
452.079965	2530.253418
452.453954	2528.080681
452.827883	2530.361803
453.201752	2528.695701
453.575562	2528.327697
453.949311	2529.335928
454.323001	2527.145547
454.696632	2527.793335
455.070202	2531.004550
455.443713	2529.230064
455.817164	2529.154446
456.190556	2526.265865
456.563888	2529.444313
456.937160	2524.975330
457.310373	2529.204858
457.683526	2529.119158
458.056619	2528.466329
458.429653	2526.601102
458.802628	2533.303316
459.175542	2529.852646
459.548398	2530.225692
459.921194	2531.937163
460.293930	2532.002698
460.666607	2530.119827
461.039224	2531.740558
461.411782	2534.233409
461.784280	2532.080836
462.156719	2531.614529
462.529099	2533.701567
462.901419	2532.196783
463.273680	2531.264169
463.645882	2533.328522
464.018024	2531.385157
464.390106	2530.225692
464.762130	2533.736855
465.134094	2534.409849
465.505999	2533.613347
465.877845	2536.539737
466.249631	2534.225847
466.621358	2532.668131
466.993026	2537.676517
467.364634	2538.538554
467.736184	2536.723739
468.107674	2532.675692
468.479105	2536.554860
468.850477	2530.492873
469.221790	2534.263656
469.593043	2534.049407
469.964238	2535.125693
470.335373	2533.356248
470.706449	2533.096629
471.077467	2534.051927
471.448425	2536.696012
471.819324	2536.023018
472.190164	2538.140303
472.560945	2534.364479
472.931667	2534.520755
473.302330	2531.985054
473.672934	2535.695343
474.043479	2535.110570
474.413965	2532.285003
474.784393	2530.697039
475.154761	2529.391381
475.525070	2529.693850
475.895321	2532.053110
476.265513	2531.884231
476.635645	2534.704757
477.005719	2534.132586
477.375734	2535.105528
477.745691	2536.547298
478.115588	2534.964376
478.485427	2533.835158
478.855207	2536.607792
479.224928	2535.443286
479.594591	2537.028729
479.964194	2534.135106
480.333739	2538.185673
480.703226	2538.737680
481.072653	2536.789274
481.442022	2539.183822
481.811333	2535.891948
482.180584	2535.992772
482.549777	2537.401774
482.918912	2538.722556
483.287988	2536.504449
483.657005	2536.789274
484.025964	2535.937319
484.394864	2538.127700
484.763706	2538.170550
485.132489	2538.929244
485.501213	2537.545447
485.869879	2533.888090
486.238487	2537.076620
486.607036	2537.207690
486.975527	2539.173740
487.343959	2535.372710
487.712333	2537.875643
488.080648	2538.319264
488.448905	2537.777340
488.817104	2537.056455
489.185244	2538.198276
489.553326	2536.391023
489.921350	2537.104346
490.289315	2540.403781
490.657222	2538.914120
491.025070	2537.679037
491.392861	2540.663401
491.760593	2538.752803
492.128267	2539.776157
492.495883	2537.389171
492.863440	2537.021167
493.230939	2535.042514
493.598380	2537.684079
493.965763	2534.014119
494.333088	2536.625436
494.700354	2535.418080
495.067563	2534.412370
495.434713	2532.625281
495.801805	2537.694161
496.168839	2537.845396
496.535815	2537.318595
496.902733	2536.262473
497.269593	2538.432690
497.636395	2540.827238
498.003139	2539.130890
498.369825	2537.593338
498.736453	2538.137783
499.103023	2539.168698
499.469535	2539.589635
499.835989	2536.849768
500.202385	2539.587114
500.568723	2534.931609
500.935003	2540.310520
501.301226	2539.027546
501.667390	2536.091074
502.033497	2539.055272
502.399546	2540.373534
502.765537	2539.045190
503.131470	2538.926723
503.497345	2539.685417
503.863163	2539.584594
504.228923	2538.483102
504.594625	2540.383617
504.960269	2539.324974
505.325856	2539.710623
505.691385	2538.331867
506.056856	2540.146682
506.422270	2536.973276
506.787625	2538.818338
507.152924	2538.717515
507.518164	2541.533000
507.883347	2538.253729
508.248472	2539.118287
508.613540	2539.390509
508.978550	2538.248688
509.343503	2537.237937
509.708398	2541.341436
510.073236	2540.131559
510.438016	2538.311702
510.802738	2539.370345
511.167403	2542.523586
511.532010	2539.327495
511.896561	2540.640715
512.261053	2540.282793
512.625488	2535.874304
512.989866	2531.765764
513.354186	2537.124511
513.718449	2533.361289
514.082655	2535.039993
514.446803	2539.808925
514.810894	2540.194573
515.174927	2542.100129
515.538904	2538.475540
515.902822	2539.577032
516.266684	2541.974101
516.630488	2539.763555
516.994235	2538.619213
517.357925	2540.116435
517.721558	2540.509645
518.085133	2540.305479
518.448651	2541.275901
518.812112	2540.161806
519.175516	2539.403112
519.538863	2539.690458
519.902152	2539.642567
520.265385	2540.975952
520.628560	2541.311189
520.991678	2542.095088
521.354739	2540.582742
521.717743	2541.832948
522.080690	2539.135931
522.443580	2541.338915
522.806413	2542.231199
523.169189	2543.022661
523.531908	2541.091899
523.894569	2540.612989
524.257174	2543.529297
524.619722	2542.664739
524.982213	2541.412012
525.344647	2539.811446
525.707025	2540.796991
526.069345	2539.130890
526.431608	2539.541744
526.793815	2540.514687
527.155964	2540.408822
527.518057	2539.957639
527.880093	2542.384955
528.242072	2540.796991
528.603995	2543.557023
528.965860	2543.037784
529.327669	2540.434028
529.689421	2539.317413
530.051117	2543.993083
530.412755	2539.027546
530.774337	2543.700696
531.135862	2541.361600
531.497331	2540.176929
531.858743	2537.116949
532.220098	2537.487474
532.581396	2538.886394
532.942638	2537.331198
533.303824	2541.797660
533.664953	2540.033256
534.026025	2543.148689
534.387040	2540.033256
534.747999	2543.357897
535.108902	2538.853626
535.469748	2540.280273
535.830537	2539.950077
536.191270	2539.748431
536.551947	2541.926210
536.912567	2539.796322
537.273131	2540.650798
537.633638	2542.248843
537.994089	2540.471837
538.354483	2541.336395
538.714821	2545.518032
539.075103	2543.715819
539.435328	2539.970242
539.795497	2539.602238
540.155609	2541.565767
540.515665	2540.055942
540.875665	2541.122146
541.235609	2540.318082
541.595496	2540.668442
541.955328	2541.452341
542.315102	2540.635674
542.674821	2544.434184
543.034483	2541.038967
543.394090	2543.826725
543.753640	2542.606765
544.113134	2543.355377
544.472571	2543.496529
544.831953	2543.430994
545.191278	2542.389996
545.550548	2540.670962
545.909761	2543.897301
546.268918	2542.566436
546.628019	2541.863195
546.987064	2542.316899
547.346053	2545.318906
547.704986	2541.525438
548.063863	2542.357228
548.422684	2541.507794
548.781449	2538.546116
549.140158	2543.310006
549.498811	2541.570808
549.857408	2544.897970
550.215949	2539.778678
550.574434	2537.822710
550.932864	2539.143493
551.291237	2536.431352
551.649555	2544.323278
552.007817	2538.949408
552.366022	2540.854964
552.724173	2541.580891
553.082267	2543.622558
553.440305	2541.570808
553.798288	2542.150541
554.156215	2540.328164
554.514086	2541.101981
554.871902	2541.848072
555.229661	2540.998637
555.587365	2541.659028
555.945014	2542.364790
556.302606	2543.241951
556.660143	2542.148020
557.017625	2543.680531
557.375050	2544.121632
557.732421	2542.047197
558.089735	2544.106509
558.446994	2541.948895
558.804197	2543.491488
559.161345	2541.769934
559.518437	2542.659698
559.875474	2539.892104
560.232455	2543.516694
560.589381	2542.072403
560.946251	2546.216232
561.303065	2542.027033
561.659825	2543.957795
562.016528	2543.042825
562.373177	2542.269008
562.729770	2540.086188
563.086307	2543.539379
563.442789	2539.075437
563.799216	2541.147351
564.155587	2543.816642
564.511904	2544.592980
564.868164	2542.485778
565.224370	2544.156920
565.580520	2542.425284
565.936615	2542.664739
566.292654	2545.349153
566.648638	2541.767413
567.004567	2543.526776
567.360441	2541.921168
567.716260	2540.222300
568.072023	2541.515356
568.427732	2538.188194
568.783385	2539.196425
569.138982	2538.712474
569.494525	2539.345139
569.850013	2538.430169
570.205445	2542.379913
570.560823	2540.665921
570.916145	2545.941489
571.271412	2541.863195
571.626625	2541.666590
571.981782	2541.502753
572.336884	2543.546941
572.691931	2542.090047
573.046923	2544.217414
573.401860	2545.303783
573.756743	2540.638195
574.111570	2542.422763
574.466342	2541.217928
574.821059	2541.739687
575.175722	2541.074255
575.530330	2542.694986
575.884882	2540.348328
576.239380	2540.965870
576.593823	2542.679862
576.948211	2541.215407
577.302544	2542.639533
577.656823	2543.347815
578.011047	2544.519883
578.365216	2542.954605
578.719330	2544.134235
579.073389	2544.600542
579.427394	2543.335212
579.781344	2541.792619
580.135239	2541.185160
580.489080	2541.512835
580.842866	2543.657846
581.196597	2541.621220
581.550273	2541.422094
581.903895	2541.664070
582.257463	2542.503422
582.610975	2545.739842
582.964434	2542.689944
583.317837	2542.269008
583.671186	2543.529297
584.024481	2542.508463
584.377721	2541.013761
584.730906	2544.300593
585.084037	2544.219935
585.437113	2542.614327
585.790135	2540.391178
586.143103	2541.696837
586.496016	2542.667259
586.848874	2535.518903
587.201679	2543.133566
587.554428	2538.934285
587.907124	2540.214738
588.259765	2536.766589
588.612352	2541.749769
588.964884	2541.762372
589.317362	2542.324461
589.669786	2541.585932
590.022155	2542.319420
590.374470	2539.755993
590.726731	2542.145500
591.078937	2542.155582
591.431090	2540.144162
591.783188	2541.245654
592.135232	2543.423432
592.487222	2539.662732
592.839157	2541.384286
593.191038	2541.006199
593.542866	2542.548792
593.894639	2539.836651
594.246358	2542.558874
594.598022	2542.205994
594.949633	2540.187012
595.301190	2540.623071
595.652692	2541.666590
596.004141	2541.548123
596.355535	2542.604245
596.706876	2541.210366
597.058162	2539.413194
597.409395	2541.802701
597.760573	2542.216076
598.111698	2541.827907
598.462768	2542.253885
598.813785	2542.548792
599.164748	2538.180632
599.515657	2539.272042
599.866511	2543.602393
600.217312	2540.260108
600.568060	2541.233051
600.918753	2544.832435
601.269392	2542.694986
601.619978	2541.946374
601.970510	2540.187012
602.320988	2540.358411
602.671412	2542.684903
603.021783	2540.408822
603.372100	2541.089378
603.722363	2540.948226
604.072572	2543.791437
604.422728	2540.779347
604.772830	2541.107022
605.122878	2537.610982
605.472872	2538.168029
605.822813	2535.962525
606.172701	2541.611137
606.522534	2541.391847
606.872314	2541.727084
607.222041	2541.293545
607.571714	2541.739687
607.921333	2543.778834
608.270899	2538.735159
608.620411	2543.105840
608.969870	2543.665408
609.319276	2542.725233
609.668627	2545.008875
610.017926	2548.552806
610.367171	2548.683876
610.716362	2548.928372
611.065500	2547.627755
611.414585	2545.724719
611.763616	2545.737322
612.112594	2545.613814
612.461518	2543.133566
612.810389	2545.298742
613.159207	2542.495860
613.507971	2542.115253
613.856682	2544.852599
614.205340	2542.478216
614.553945	2544.151879
614.902496	2539.854295
615.250994	2541.810263
615.599439	2542.148020
615.947830	2539.660211
616.296169	2537.555529
616.644454	2542.876467
616.992686	2541.459903
617.340864	2537.865560
617.688990	2540.713812
618.037063	2540.146682
618.385082	2544.141797
618.733048	2542.306817
619.080961	2539.703061
619.428821	2542.631971
619.776628	2541.777496
620.124382	2542.188350
620.472083	2540.373534
620.819731	2539.967721
621.167326	2543.060469
621.514868	2543.259595
621.862357	2539.982845
622.209793	2538.226003
622.557176	2543.189019
622.904506	2538.566281
623.251783	2537.976466
623.599007	2540.552495
623.946179	2539.284645
624.293297	2538.606610
624.640363	2542.884029
624.987376	2540.315561
625.334336	2540.776827
625.681243	2541.031405
626.028097	2539.652649
626.374899	2541.578370
626.721647	2536.890097
627.068343	2540.733977
627.414987	2538.513348
627.761577	2542.475695
628.108115	2540.292876
628.454600	2540.141641
628.801032	2537.515200
629.147412	2541.117104
629.493739	2540.040818
629.840014	2540.166847
630.186236	2538.493184
630.532405	2539.390509
630.878521	2541.827907
631.224585	2539.844213
631.570597	2540.129038
631.916556	2540.439069
632.262462	2538.026877
632.608316	2542.599204
632.954117	2540.658359
633.299866	2540.486960
633.645562	2541.464944
633.991206	2542.516025
634.336797	2540.113915
634.682336	2538.641898
635.027823	2537.363965
635.373257	2540.509645
635.718639	2539.922351
636.063968	2539.098122
636.409245	2540.096271
636.754470	2538.883873
637.099642	2539.829090
637.444762	2541.074255
637.789829	2537.396733
638.134845	2536.880015
638.479808	2541.288504
638.824719	2539.032587
639.169577	2540.391178
639.514383	2538.359593
639.859137	2537.679037
640.203839	2540.338246
640.548489	2536.489325
640.893086	2537.837834
641.237632	2531.339787
641.582125	2537.689120
641.926566	2532.463964
642.270955	2538.800694
642.615292	2540.796991
642.959576	2540.527289
643.303809	2539.672814
643.647990	2535.700385
643.992118	2537.525282
644.336195	2539.758513
644.680219	2541.164995
645.024192	2540.181970
645.368112	2537.812628
645.711981	2538.689789
646.055797	2539.166178
646.399562	2539.130890
646.743274	2537.951260
647.086935	2541.653987
647.430544	2537.043852
647.774101	2539.982845
648.117606	2542.102650
648.461059	2538.651980
648.804460	2542.894111
649.147810	2539.768596
649.491108	2539.602238
649.834354	2537.132072
650.177548	2540.058462
650.520690	2539.156096
650.863781	2539.042670
651.206820	2540.161806
651.549807	2538.641898
651.892742	2535.292051
652.235626	2537.318595
652.578458	2537.646270
652.921238	2538.558719
653.263967	2539.965201
653.606644	2538.223482
653.949269	2538.107536
654.291843	2536.696012
654.634365	2540.955787
654.976836	2536.179294
655.319255	2539.975283
655.661622	2537.948739
656.003938	2538.442772
656.346203	2538.394881
656.688416	2538.341949
657.030577	2537.800025
657.372687	2539.829090
657.714746	2537.890766
658.056753	2539.151054
658.398708	2534.208203
658.740612	2537.225334
659.082465	2533.189890
659.424266	2533.673841
659.766016	2531.546474
660.107715	2538.778009
660.449362	2536.597710
660.790958	2536.915303
661.132503	2537.240457
661.473996	2537.013605
661.815438	2536.711136
662.156829	2541.074255
662.498168	2538.687268
662.839456	2538.137783
663.180693	2536.348173
663.521879	2536.950591
663.863013	2539.337577
664.204097	2539.788760
664.545129	2536.751465
664.886110	2541.243133
665.227040	2537.512679
665.567918	2539.420756
665.908746	2539.133410
666.249522	2537.424459
666.590248	2536.696012
666.930922	2534.979500
667.271545	2539.241795
667.612118	2538.566281
667.952639	2538.009233
668.293109	2539.042670
668.633528	2535.660055
668.973896	2536.459078
669.314213	2536.474202
669.654480	2540.265149
669.994695	2538.780530
670.334859	2537.898328
670.674973	2537.416898
671.015035	2536.524613
671.355047	2535.685261
671.695008	2539.745911
672.034918	2536.217103
672.374777	2540.055942
672.714585	2536.554860
673.054342	2538.672145
673.394049	2537.129552
673.733705	2539.519059
674.073310	2539.216589
674.412864	2535.760878
674.752368	2539.443441
675.091820	2540.575180
675.431223	2537.242978
675.770574	2537.895807
676.109875	2533.288193
676.449125	2534.911444
676.788324	2532.083357
677.127473	2535.657535
677.466571	2533.051258
677.805619	2536.685930
678.144616	2537.348842
678.483562	2537.432021
678.822458	2537.822710
679.161303	2540.141641
679.500098	2533.658717
679.838842	2540.252547
680.177535	2538.261291
680.516179	2538.452855
680.854771	2538.909079
681.193314	2539.017464
681.531805	2538.704912
681.870247	2536.655683
682.208638	2539.415715
682.546978	2539.065355
682.885268	2537.409336
683.223508	2540.318082
683.561697	2536.474202
683.899836	2539.327495
684.237925	2536.920344
684.575963	2537.343801
684.913951	2539.844213
685.251889	2538.210879
685.589776	2537.235416
685.927614	2536.895138
686.265401	2538.283976
686.603137	2537.999151
686.940824	2537.527803
687.278460	2538.714995
687.616046	2536.723739
687.953582	2539.324974
688.291068	2538.677186
688.628504	2537.454706
688.965889	2539.370345
689.303224	2538.624254
689.640510	2538.281455
689.977745	2537.114428
690.314930	2540.799512
690.652065	2538.422608
690.989150	2538.276414
691.326185	2537.573173
691.663170	2536.355735
692.000105	2540.003009
692.336990	2536.590148
692.673825	2538.820859
693.010610	2540.552495
693.347345	2534.530837
693.684030	2532.905065
694.020665	2537.053934
694.357251	2532.214427
694.693786	2535.148378
695.030272	2537.217772
695.366707	2536.635519
695.703093	2533.736855
696.039429	2536.890097
696.375716	2537.323636
696.711952	2535.763399
697.048139	2537.026208
697.384276	2538.667104
697.720363	2536.322967
698.056400	2538.357073
698.392388	2537.492515
698.728326	2539.577032
699.064214	2539.703061
699.400053	2536.927906
699.735842	2536.920344
700.071581	2535.448327
700.407270	2536.144006
700.742910	2539.972762
701.078501	2536.640560
701.414042	2535.972607
701.749533	2534.306506
702.084974	2538.599048
702.420366	2533.036135
702.755709	2536.844727
703.091002	2539.713143
703.426246	2535.050076
703.761440	2535.869263
704.096584	2539.077958
704.431679	2533.502442
704.766725	2539.534182
705.101721	2535.095446
705.436668	2535.776002
705.771565	2536.406146
706.106413	2537.956301
706.441212	2535.281969
706.775961	2537.303472
707.110661	2535.972607
707.445311	2535.705426
707.779913	2536.998482
708.114465	2535.229037
708.448967	2536.388502
708.783421	2534.782895
709.117825	2538.210879
709.452180	2537.679038
709.786485	2537.679038
710.120742	2536.075951
710.454949	2535.811290
710.789107	2532.879859
711.123216	2532.128727
711.457275	2533.522606
711.791286	2531.889272
712.125247	2536.219623
712.459159	2535.806249
712.793023	2536.864891
713.126837	2534.563604
713.460602	2537.285828
713.794318	2535.932278
714.127985	2538.553678
714.461602	2538.006713
714.795171	2536.012936
715.128691	2538.016795
715.462162	2537.366486
715.795584	2536.887576
716.128957	2536.459078
716.462281	2533.721732
716.795556	2535.352545
717.128782	2535.738193
717.461960	2534.503111
717.795088	2533.106711
718.128167	2538.775488
718.461198	2537.424459
718.794180	2536.925385
719.127113	2536.055786
719.459997	2537.094264
719.792833	2533.179808
720.125619	2536.123842
720.458357	2532.713501
720.791046	2534.175436
721.123686	2535.604603
721.456278	2535.773481
721.788821	2535.670138
722.121315	2538.906558
722.453761	2536.973276
722.786158	2535.745755
723.118506	2537.200128
723.450805	2535.009747
723.783056	2536.829603
724.115259	2533.061341
724.447412	2535.201310
724.779518	2533.411701
725.111574	2535.430683
725.443582	2538.052083
725.775542	2535.788605
726.107453	2536.040662
726.439315	2537.159799
726.771129	2539.831610
727.102895	2536.179294
727.434612	2534.543440
727.766281	2533.744417
728.097901	2533.817514
728.429473	2534.697195
728.760996	2531.859025
729.092471	2528.050434
729.423897	2535.009747
729.755276	2537.913451
730.086606	2536.683410
730.417887	2535.234078
730.749120	2534.135106
731.080305	2536.779192
731.411442	2536.103677
731.742530	2535.735673
732.073570	2535.528985
732.404562	2535.871784
732.735506	2533.898172
733.066401	2534.976979
733.397249	2534.934129
733.728048	2534.586290
734.058798	2537.212731
734.389501	2536.363296
734.720156	2536.224665
735.050762	2536.837165
735.381320	2537.053934
735.711831	2535.823893
736.042293	2535.861702
736.372707	2533.941022
736.703073	2535.428162
737.033391	2534.273738
737.363661	2536.791794
737.693883	2534.941691
738.024056	2538.042001
738.354182	2533.426824
738.684260	2535.576876
739.014290	2534.795498
739.344272	2534.767771
739.674207	2536.587628
740.004093	2537.946219
740.333931	2535.677699
740.663722	2535.297092
740.993464	2538.354552
741.323159	2533.308357
741.652806	2533.585621
741.982405	2537.389171
742.311956	2532.612678
742.641460	2531.919519
742.970915	2535.027391
743.300323	2533.101670
743.629683	2532.839530
743.958996	2534.049407
744.288260	2535.947401
744.617477	2533.701567
744.946647	2533.550333
745.275768	2533.499921
745.604842	2529.219981
745.933869	2533.331042
746.262847	2529.010773
746.591778	2533.719211
746.920662	2533.872966
747.249498	2532.095960
747.578286	2534.901362
747.907027	2534.051927
748.235720	2532.685775
748.564365	2532.872297
748.892963	2535.455889
749.221514	2534.881197
749.550017	2535.186187
749.878473	2535.828934
750.206881	2535.017308
750.535242	2532.716022
750.863555	2534.709798
751.191821	2537.016126
751.520039	2533.348686
751.848210	2533.305837
752.176334	2533.946063
752.504411	2535.647452
752.832440	2533.976310
753.160421	2534.886238
753.488356	2534.225847
753.816243	2538.394881
754.144082	2536.832124
754.471875	2535.987730
754.799620	2534.614016
755.127318	2532.158974
755.454969	2535.186187
755.782572	2534.775333
756.110129	2535.481094
756.437638	2534.866074
756.765100	2534.193080
757.092515	2533.371372
757.419882	2532.353058
757.747203	2534.530837
758.074477	2533.547812
758.401703	2534.855991
758.728882	2534.724921
759.056014	2534.452699
759.383099	2532.337935
759.710138	2534.566125
760.037129	2532.887421
760.364073	2536.917823
760.690970	2534.419932
761.017820	2536.650642
761.344623	2534.903882
761.671379	2534.094777
761.998088	2531.793490
762.324751	2531.995137
762.651366	2531.662420
762.977935	2534.913965
763.304456	2531.279293
763.630931	2537.023687
763.957359	2534.482946
764.283740	2536.620395
764.610074	2535.849099
764.936362	2535.065199
765.262602	2535.866743
765.588796	2534.790456
765.914943	2533.041176
766.241044	2533.973789
766.567097	2534.835827
766.893104	2534.271217
767.219064	2533.888090
767.544978	2535.299613
767.870845	2533.063861
768.196665	2533.368851
768.522438	2531.065044
768.848165	2532.854653
769.173846	2536.559901
769.499479	2533.845240
769.825066	2533.177287
770.150607	2531.405322
770.476101	2533.295754
770.801548	2534.765251
771.126949	2534.094777
771.452303	2530.883562
771.777611	2532.106042
772.102872	2535.697864
772.428087	2533.615867
772.753256	2534.752648
773.078378	2533.021011
773.403453	2532.501773
773.728482	2531.859025
774.053465	2531.526309
774.378401	2533.416742
774.703291	2534.480425
775.028135	2531.982534
775.352932	2535.337422
775.677683	2531.823737
776.002388	2534.795497
776.327046	2532.862215
776.651658	2534.432534
776.976224	2531.012112
777.300743	2532.269879
777.625216	2536.310364
777.949643	2533.119314
778.274024	2532.804242
778.598359	2530.712163
778.922647	2530.455064
779.246889	2530.936494
779.571086	2530.649148
779.895236	2530.855836
780.219339	2534.298944
780.543397	2531.370033
780.867409	2532.600075
781.191374	2532.194262
781.515294	2534.392205
781.839167	2531.364992
782.162995	2533.746937
782.486776	2535.523944
782.810511	2534.480425
783.134201	2534.450178
783.457844	2533.628470
783.781441	2534.588810
784.104993	2530.097142
784.428498	2532.925229
784.751958	2531.276772
785.075372	2531.158305
785.398739	2533.472195
785.722061	2530.626463
786.045337	2533.338604
786.368568	2532.431196
786.691752	2531.780887
787.014891	2532.153933
787.337983	2531.717873
787.661030	2533.305837
787.984031	2531.869108
788.306987	2532.244674
788.629897	2536.176774
788.952760	2531.879190
789.275579	2531.027235
789.598351	2534.684592
789.921078	2531.415404
790.243759	2533.383974
790.566395	2534.359438
790.888984	2531.155784
791.211529	2534.780374
791.534027	2533.056299
791.856480	2532.297606
792.178888	2532.355579
792.501249	2531.337266
792.823566	2534.223327
793.145836	2533.510003
793.468062	2532.320291
793.790241	2533.184849
794.112375	2532.882380
794.434464	2531.841381
794.756507	2533.893131
795.078505	2533.121834
795.400457	2529.865249
795.722364	2529.053623
796.044226	2529.661082
796.366042	2529.245187
796.687812	2529.111597
797.009538	2532.489170
797.331218	2532.153933
797.652852	2531.896834
797.974442	2533.857843
798.295986	2530.906247
798.617484	2530.762574
798.938938	2530.671834
799.260346	2533.174767
799.581709	2532.161495
799.903026	2533.154602
800.224299	2534.087215
800.545526	2531.919519
800.866708	2532.595034
801.187845	2532.784077
801.508936	2531.561597
801.829983	2530.439941
802.150984	2531.548994
802.471940	2532.574869
802.792851	2532.781557
803.113717	2530.132430
803.434538	2532.786598
803.755314	2532.456402
804.076045	2531.556556
804.396731	2531.309540
804.717372	2532.058151
805.037967	2534.069571
805.358518	2528.559590
805.679024	2530.830630
805.999485	2532.786598
806.319901	2530.271062
806.640272	2530.182842
806.960598	2530.838192
807.280879	2531.813655
807.601115	2530.346679
807.921306	2529.852646
808.241453	2533.837678
808.561554	2532.519417
808.881611	2533.504962
809.201623	2531.778367
809.521590	2534.399767
809.841513	2533.444468
810.161390	2533.492359
810.481223	2532.952956
810.801011	2531.896834
811.120755	2534.074613
811.440453	2532.085877
811.760107	2534.969417
812.079716	2528.978006
812.399281	2528.720907
812.718801	2531.972451
813.038276	2525.635721
813.357707	2531.407842
813.677093	2533.545291
813.996434	2531.745599
814.315731	2531.299457
814.634983	2532.476567
814.954191	2531.175949
815.273354	2534.624098
815.592473	2531.919519
815.911547	2534.951773
816.230577	2531.957328
816.549562	2530.881042
816.868502	2532.564787
817.187399	2530.346679
817.506250	2531.168387
817.825058	2533.935981
818.143821	2530.863398
818.462539	2531.828778
818.781213	2531.044879
819.099843	2534.974458
819.418429	2532.224509
819.736970	2531.301978
820.055466	2533.658717
820.373919	2531.304498
820.692327	2531.904396
821.010691	2534.687113
821.329011	2535.748276
821.647286	2538.457896
821.965517	2540.055942
822.283704	2542.700027
822.601847	2538.561239
822.919945	2539.960160
823.237999	2538.800694
823.556010	2537.616023
823.873976	2531.629653
824.191897	2533.323481
824.509775	2532.368182
824.827609	2532.322812
825.145398	2534.614016
825.463144	2535.644932
825.780845	2532.461443
826.098502	2535.239119
826.416116	2535.652494
826.733685	2533.900693
827.051210	2535.201310
827.368692	2537.568132
827.686129	2538.137782
828.003522	2532.756351
828.320872	2527.450536
828.638177	2530.079498
828.955439	2530.452543
829.272656	2530.099663
829.589830	2526.608664
829.906960	2532.221988
830.224046	2530.258459
830.541088	2531.785929
830.858086	2532.355579
831.175041	2532.032945
831.491952	2531.954807
831.808819	2531.574200
832.125642	2534.273738
832.442421	2531.642256
832.759157	2531.967410
833.075849	2531.707791
833.392497	2532.073274
833.709101	2535.460930
834.025662	2531.372554
834.342179	2531.188552
834.658653	2532.345497
834.975083	2532.438758
835.291469	2536.925385
835.607811	2531.543953
835.924110	2531.954807
836.240366	2533.625950
836.556578	2531.755682
836.872746	2534.500590
837.188871	2533.242822
837.504952	2532.499252
837.820990	2531.417924
838.136984	2530.397091
838.452935	2532.158974
838.768842	2529.782070
839.084706	2532.234591
839.400526	2531.385157
839.716303	2531.864067
840.032037	2532.141330
840.347727	2531.927081
840.663373	2532.363141
840.978977	2530.949097
841.294537	2532.405991
841.610054	2532.403470
841.925527	2532.905065
842.240957	2531.717873
842.556344	2529.993798
842.871687	2530.124868
843.186987	2532.753830
843.502244	2530.775177
843.817458	2529.318284
844.132629	2529.882893
844.447756	2531.891793
844.762840	2527.269055
845.077881	2530.273583
845.392879	2527.742923
845.707833	2530.611340
846.022745	2527.188396
846.337613	2531.085208
846.652438	2531.657379
846.967221	2531.977493
847.281960	2529.734179
847.596656	2532.186700
847.911309	2531.594365
848.225919	2529.731658
848.540485	2532.957997
848.855009	2530.931453
849.169490	2530.515558
849.483928	2532.010260
849.798323	2531.967410
850.112675	2530.747451
850.426984	2530.195445
850.741251	2533.078985
851.055474	2532.058151
851.369654	2528.378109
851.683792	2530.596216
851.997887	2531.337266
852.311938	2530.810465
852.625947	2528.809127
852.939914	2532.045548
853.253837	2533.774664
853.567718	2531.125537
853.881555	2529.272913
854.195350	2530.765095
854.509103	2534.430014
854.822812	2532.297606
855.136479	2531.992616
855.450103	2529.630835
855.763685	2531.150743
856.077224	2528.121010
856.390720	2531.017153
856.704173	2527.904240
857.017584	2531.042358
857.330953	2531.450692
857.644278	2530.031607
857.957561	2534.384643
858.270802	2529.739220
858.584000	2532.577390
858.897155	2531.506145
859.210268	2531.574200
859.523339	2531.574200
859.836367	2530.500434
860.149352	2530.598737
860.462295	2533.182328
860.775195	2527.044723
861.088054	2526.379291
861.400869	2526.089425
861.713642	2527.417769
862.026373	2529.744261
862.339062	2529.953469
862.651708	2530.001360
862.964312	2528.572193
863.276873	2529.832482
863.589392	2531.087729
863.901869	2531.075126
864.214303	2531.228881
864.526696	2527.392563
864.839045	2528.032790
865.151353	2531.236443
865.463619	2530.235774
865.775842	2528.879703
866.088023	2530.165198
866.400162	2530.689478
866.712258	2530.691998
867.024313	2529.255269
867.336325	2529.419107
867.648296	2530.162677
867.960224	2526.701925
868.272110	2527.876514
868.583954	2531.274252
868.895755	2532.068233
869.207515	2529.905578
869.519233	2530.500434
869.830909	2527.248890
870.142542	2531.284334
870.454134	2528.645290
870.765684	2531.538912
871.077191	2529.898017
871.388657	2527.478263
871.700081	2529.280475
872.011463	2529.396422
872.322803	2532.030425
872.634101	2530.669313
872.945357	2529.603109
873.256571	2531.107893
873.567744	2529.754344
873.878874	2528.801566
874.189963	2527.906761
874.501010	2531.254087
874.812015	2531.211237
875.122979	2531.475898
875.433900	2529.088911
875.744780	2528.514220
876.055618	2530.112266
876.366415	2528.347862
876.677169	2531.460774
876.987882	2529.250228
877.298554	2527.513551
877.609183	2524.982892
877.919771	2528.773839
878.230317	2530.308871
878.540822	2531.440610
878.851285	2531.155784
879.161707	2531.233922
879.472087	2530.828109
879.782425	2531.264169
880.092722	2532.428676
880.402977	2530.399611
880.713191	2532.589993
881.023363	2534.354397
881.333494	2532.249715
881.643583	2533.820034
881.953631	2534.666948
882.263637	2533.893131
882.573602	2534.621578
882.883526	2531.054961
883.193408	2533.129396
883.503248	2531.438089
883.813048	2531.677544
884.122806	2529.411545
884.432522	2530.432379
884.742197	2529.411545
885.051831	2531.165867
885.361424	2531.238963
885.670975	2529.708973
885.980485	2529.910619
886.289954	2531.790970
886.599382	2531.241484
886.908768	2530.230733
887.218113	2528.899868
887.527417	2529.787111
887.836680	2531.899355
888.145901	2531.097811
888.455082	2528.985568
888.764221	2530.845753
889.073319	2527.594209
889.382376	2529.116638
889.691392	2527.637059
890.000366	2529.804755
890.309300	2531.165867
890.618193	2530.399611
890.927044	2529.058664
891.235855	2531.085208
891.544625	2529.497245
891.853353	2530.397091
892.162041	2529.474560
892.470687	2531.052441
892.779293	2531.465815
893.087858	2528.589837
893.396381	2525.895340
893.704864	2528.115969
894.013306	2525.776873
894.321707	2529.860208
894.630068	2529.696370
894.938387	2531.047400
895.246665	2531.853984
895.554903	2530.507996
895.863100	2531.208717
896.171256	2530.336597
896.479371	2530.132430
896.787446	2532.980682
897.095480	2528.156298
897.403473	2529.328366
897.711425	2532.479087
898.019336	2528.960362
898.327207	2528.052954
898.635038	2531.891793
898.942827	2530.455064
899.250576	2530.223171
899.558284	2528.501617
899.865952	2526.764939
900.173579	2529.444313
900.481165	2530.707122
900.788711	2528.279806
901.096216	2529.225022
901.403681	2529.587986
901.711105	2528.302491
902.018489	2527.984899
902.325832	2529.721576
902.633135	2528.113448
902.940397	2530.659231
903.247619	2530.818027
903.554800	2527.873993
903.861941	2530.828109
904.169041	2531.715353
904.476101	2531.140661
904.783121	2532.491690
905.090100	2530.266021
905.397039	2533.580579
905.703938	2529.698891
906.010796	2529.850126
906.317614	2532.108563
906.624391	2529.272913
906.931129	2527.606812
907.237826	2528.932636
907.544483	2529.023376
907.851099	2527.783252
908.157675	2528.254600
908.464211	2524.990453
908.770707	2524.297295
909.077163	2525.106400
909.383578	2526.432223
909.689954	2528.650331
909.996289	2524.325021
910.302584	2530.092101
910.608839	2528.070598
910.915054	2528.103366
911.221229	2528.617563
911.527363	2529.958510
911.833458	2529.507327
912.139513	2530.114786
912.445527	2527.725279
912.751502	2530.208047
913.057436	2529.409025
913.363331	2527.001874
913.669186	2526.424662
913.975000	2530.608819
914.280775	2529.708973
914.586510	2527.826102
914.892205	2529.018335
915.197859	2531.556556
915.503475	2528.292409
915.809050	2535.400436
916.114585	2529.842564
916.420081	2529.330887
916.725536	2528.657893
917.030952	2530.513037
917.336328	2530.094622
917.641665	2530.147554
917.946961	2529.966072
918.252218	2528.383150
918.557435	2529.809796
918.862612	2529.938346
919.167750	2530.250897
919.472848	2528.799045
919.777906	2526.157480
920.082925	2527.788294
920.387904	2527.722759
920.692843	2527.866432
920.997743	2526.550690
921.302603	2527.508510
921.607423	2528.362985
921.912204	2528.610002
922.216946	2530.152595
922.521647	2528.582275
922.826310	2531.344828
923.130932	2525.799558
923.435516	2529.522451
923.740059	2530.840712
924.044564	2530.903727
924.349028	2528.211751
924.653454	2523.523478
924.957840	2528.070598
925.262186	2525.381143
925.566493	2527.894158
925.870761	2524.022552
926.174989	2526.805269
926.479178	2528.138654
926.783328	2530.238294
927.087438	2529.088911
927.391509	2530.165198
927.695541	2526.689322
927.999533	2528.821730
928.303486	2526.986750
928.607400	2528.463808
928.911275	2525.842408
929.215110	2530.056813
929.518906	2526.054137
929.822663	2528.040351
930.126381	2527.899199
930.430060	2525.895340
930.733699	2527.808458
931.037299	2528.118489
931.340861	2526.533046
931.644383	2528.244518
931.947866	2526.487676
932.251309	2528.849457
932.554714	2527.377440
932.858080	2528.660413
933.161407	2528.357944
933.464694	2528.496576
933.767943	2528.783922
934.071153	2530.729807
934.374323	2530.891124
934.677455	2528.410876
934.980548	2527.702594
935.283602	2529.363654
935.586617	2525.607995
935.889593	2526.359127
936.192530	2529.051103
936.495428	2525.537418
936.798287	2526.959024
937.101108	2527.475742
937.403890	2528.622605
937.706632	2529.724097
938.009336	2527.107738
938.312002	2528.675537
938.614628	2526.366688
938.917216	2528.796524
939.219765	2526.444826
939.522275	2527.407687
939.824747	2528.509179
940.127179	2524.347706
940.429573	2524.950124
940.731929	2526.321318
941.034246	2523.001718
941.336524	2528.733510
941.638763	2528.000022
941.940964	2525.834847
942.243126	2526.354085
942.545250	2528.514220
942.847335	2525.839888
943.149381	2529.550177
943.451389	2530.286185
943.753359	2527.284178
944.055290	2526.651513
944.357182	2530.853315
944.659036	2526.565814
944.960851	2532.970600
945.262628	2526.535567
945.564367	2527.810979
945.866067	2527.349713
946.167729	2530.959179
946.469352	2528.184024
946.770937	2528.990609
947.072484	2528.932636
947.373992	2527.684950
947.675462	2529.696370
947.976893	2528.640249
948.278286	2527.085053
948.579641	2524.125895
948.880958	2525.950793
949.182236	2528.965403
949.483476	2527.861390
949.784678	2527.689991
950.085841	2526.260824
950.386967	2530.056813
950.688054	2527.972296
950.989103	2529.466998
951.290114	2528.594878
951.591087	2527.253931
951.892021	2525.953314
952.192917	2527.574045
952.493776	2528.032790
952.794596	2528.942718
953.095378	2526.091945
953.396122	2529.008253
953.696828	2524.569517
953.997496	2525.597912
954.298126	2530.356762
954.598718	2527.997502
954.899272	2527.397604
955.199788	2528.678057
955.500266	2526.533046
955.800706	2523.611698
956.101108	2525.476925
956.401472	2525.008097
956.701798	2523.931811
957.002087	2523.508354
957.302337	2525.607995
957.602550	2528.456247
957.902724	2527.508510
958.202861	2527.984899
958.502960	2526.540608
958.803022	2526.346524
959.103045	2527.369878
959.403031	2528.219312
959.702979	2526.948942
960.002889	2530.122348
960.302762	2528.705784
960.602596	2527.090094
960.902393	2525.857532
961.202153	2527.311905
961.501875	2531.017153
961.801559	2526.021369
962.101205	2528.705784
962.400814	2527.599250
962.700385	2526.853160
962.999918	2528.730989
963.299414	2528.030269
963.598873	2528.952800
963.898293	2527.488345
964.197677	2527.586648
964.497022	2525.519774
964.796331	2527.390043
965.095601	2526.071781
965.394835	2528.388191
965.694030	2526.928777
965.993189	2527.589168
966.292309	2525.504651
966.591393	2528.325177
966.890439	2529.971113
967.189447	2527.437933
967.488419	2524.388035
967.787353	2525.817202
968.086249	2526.162522
968.385108	2524.793848
968.683930	2523.957017
968.982714	2528.698222
969.281462	2525.824764
969.580172	2528.728469
969.878844	2527.934487
970.177480	2527.344672
970.476078	2525.509692
970.774639	2527.296781
971.073162	2524.715710
971.371649	2526.573376
971.670098	2524.057840
971.968510	2523.788138
972.266885	2522.495082
972.565223	2526.979188
972.863524	2524.433406
973.161788	2526.641431
973.460014	2528.569672
973.758204	2524.975330
974.056356	2526.898530
974.354471	2526.066740
974.652550	2526.787625
974.950591	2523.009280
975.248595	2530.644107
975.546563	2528.441123
975.844493	2526.326359
976.142386	2527.279137
976.440243	2527.843746
976.738062	2527.768129
977.035845	2527.929446
977.333590	2529.013294
977.631299	2525.464322
977.928971	2530.250897
978.226606	2526.648993
978.524204	2525.779394
978.821765	2526.147398
979.119290	2526.588499
979.416777	2525.981040
979.714228	2527.223684
980.011642	2526.160001
980.309020	2529.835002
980.606360	2525.048427
980.903664	2528.816689
981.200931	2527.143026
981.498162	2525.766791
981.795356	2529.570342
982.092513	2527.140505
982.389633	2524.347706
982.686717	2528.655372
982.983764	2526.976668
983.280775	2528.249559
983.577749	2526.359127
983.874686	2529.958510
984.171587	2524.730834
984.468451	2526.840557
984.765279	2526.843077
985.062070	2527.536236
985.358824	2523.692356
985.655543	2528.214271
985.952224	2525.794517
986.248869	2526.361647
986.545478	2521.191944
986.842050	2524.400638
987.138586	2522.958868
987.435086	2521.983405
987.731549	2522.164887
988.027975	2527.904240
988.324366	2527.374919
988.620719	2526.603623
988.917037	2524.929959
989.213318	2524.960206
989.509563	2528.317615
989.805772	2526.701925
990.101944	2527.117820
990.398080	2524.899713
990.694180	2526.606143
990.990244	2525.434075
991.286271	2526.706966
991.582262	2524.546832
991.878217	2527.707635
992.174136	2528.673016
992.470019	2529.124199
992.765865	2525.781914
993.061676	2525.426513
993.357450	2527.566483
993.653188	2526.913653
993.948890	2523.591533
994.244556	2523.815864
994.540186	2526.298633
994.835780	2525.161852
995.131337	2528.463808
995.426859	2527.906761
995.722345	2525.431554
996.017795	2525.849970
996.313208	2526.442306
996.608586	2522.053981
996.903928	2529.111597
997.199234	2526.817872
997.494504	2525.189579
997.789738	2527.062367
998.084936	2527.541277
998.380099	2522.714372
998.675225	2527.226205
998.970316	2524.453570
999.265371	2525.935670
999.560390	2526.621267
999.855373	2527.085053
1000.150320	2522.565658
1000.445232	2526.696884
1000.740108	2525.905423
1001.034948	2527.170752
1001.329752	2524.148581
1001.624521	2525.723941
1001.919254	2521.040709
1002.213951	2523.563807
1002.508613	2521.209588
1002.803239	2525.297964
1003.097829	2521.166738
1003.392384	2524.327542
1003.686903	2524.748478
1003.981386	2525.658406
1004.275834	2523.987264
1004.570246	2525.423993
1004.864623	2524.529188
1005.158964	2527.334590
1005.453270	2525.822244
1005.747540	2523.450381
1006.041775	2528.410876
1006.335974	2524.750998
1006.630138	2524.703107
1006.924266	2527.357275
1007.218359	2524.705628
1007.512416	2526.170083
1007.806438	2525.565145
1008.100425	2526.530526
1008.394376	2525.799558
1008.688292	2524.236801
1008.982172	2520.604649
1009.276017	2526.432223
1009.569827	2525.423993
1009.863602	2526.643952
1010.157341	2523.742768
1010.451045	2524.887110
1010.744714	2527.112779
1011.038347	2525.507172
1011.331945	2524.327542
1011.625508	2528.239477
1011.919036	2524.927439
1012.212528	2524.246883
1012.505986	2525.020700
1012.799408	2526.936339
1013.092795	2524.294774
1013.386147	2526.207892
1013.679464	2526.712007
1013.972745	2525.386184
1014.265992	2526.069260
1014.559204	2529.640918
1014.852380	2527.979858
1015.145521	2525.812161
1015.438628	2524.405679
1015.731699	2526.487676
1016.024736	2524.486338
1016.317737	2528.904909
1016.610703	2523.710000
1016.903635	2525.600433
1017.196531	2520.360153
1017.489393	2521.489372
1017.782219	2521.806965
1018.075011	2523.997346
1018.367768	2525.164373
1018.660490	2526.868283
1018.953177	2526.868283
1019.245829	2526.868283
