Dividing Wavelength (nm)	Counts (n)	Blue Motor Position (mm): 0.000000	Red Motor Position (mm): 4.500000	
326.493990	2129.156533
326.888308	2129.156533
327.282561	2129.156533
327.676750	2095.693353
328.070874	2093.379464
328.464933	2096.941039
328.858929	2105.773141
329.252859	2113.387803
329.646726	2126.767026
330.040528	2137.623151
330.434265	2153.638896
330.827938	2174.630261
331.221547	2188.407734
331.615091	2208.915148
332.008571	2227.716132
332.401986	2247.485016
332.795338	2266.722059
333.188625	2285.409617
333.581847	2305.034829
333.975006	2324.407983
334.368100	2341.555468
334.761129	2359.068436
335.154095	2378.058463
335.546996	2393.640669
335.939833	2406.523338
336.332606	2420.736871
336.725315	2434.489139
337.117960	2443.240582
337.510540	2450.114195
337.903056	2461.671040
338.295508	2471.816363
338.687896	2479.506643
339.080220	2486.894454
339.472480	2493.054744
339.864676	2499.252842
340.256807	2501.828872
340.648875	2505.854233
341.040879	2508.412619
341.432818	2511.013854
341.824694	2511.177692
342.216506	2514.799761
342.608253	2510.131652
342.999937	2513.158865
343.391557	2513.269771
343.783113	2510.053514
344.174605	2508.205932
344.566033	2508.067300
344.957397	2508.473113
345.348697	2502.065806
345.739934	2501.150837
346.131106	2502.184273
346.522215	2502.025477
346.913260	2494.879641
347.304241	2498.519354
347.695159	2497.213696
348.086012	2490.980309
348.476802	2489.720020
348.867528	2487.383446
349.258191	2488.192551
349.648789	2486.508805
350.039324	2483.947899
350.429796	2484.643578
350.820203	2484.527632
351.210548	2483.393372
351.600828	2480.277939
351.991045	2478.798361
352.381198	2480.643423
352.771288	2477.522949
353.161314	2479.612507
353.551276	2482.342292
353.941175	2478.689976
354.331010	2477.711992
354.720782	2478.390027
355.110490	2477.459934
355.500135	2478.886581
355.889717	2478.029585
356.279235	2477.306179
356.668689	2478.919348
357.058080	2479.857003
357.447408	2478.765593
357.836672	2477.545634
358.225873	2479.148721
358.615010	2478.153093
359.004084	2481.371870
359.393095	2482.445635
359.782043	2481.175265
360.170927	2482.450677
360.559748	2482.816160
360.948505	2482.785913
361.337199	2482.337251
361.725830	2483.678198
362.114398	2486.009731
362.502903	2485.170379
362.891344	2486.155925
363.279722	2486.312200
363.668037	2486.907057
364.056289	2485.545945
364.444478	2486.894454
364.832603	2489.586430
365.220665	2488.915956
365.608665	2489.107520
365.996601	2489.873776
366.384474	2492.631287
366.772284	2493.019456
367.160031	2495.655979
367.547715	2494.388129
367.935336	2495.235043
368.322893	2500.944149
368.710388	2498.884838
369.097820	2507.653925
369.485189	2504.291476
369.872495	2508.969666
370.259738	2513.690707
370.646918	2515.014010
371.034035	2517.975688
371.421090	2523.271420
371.808081	2525.295443
372.195010	2531.039838
372.581875	2534.414890
372.968678	2539.176260
373.355418	2536.892618
373.742096	2540.325643
374.128710	2543.685572
374.515262	2546.468289
374.901751	2552.074052
375.288177	2548.978784
375.674540	2554.448436
376.060841	2555.071018
376.447079	2556.779969
376.833254	2560.628890
377.219367	2552.447098
377.605417	2557.889023
377.991404	2554.135884
378.377329	2555.393652
378.763191	2552.137067
379.148991	2561.415310
379.534727	2556.230484
379.920402	2557.243756
380.306013	2552.716799
380.691563	2553.815771
381.077049	2550.372663
381.462474	2550.791079
381.847835	2553.218394
382.233134	2545.921324
382.618371	2539.725746
383.003545	2543.713299
383.388657	2539.342618
383.773706	2538.780530
384.158693	2534.903882
384.543618	2528.952800
384.928480	2524.955165
385.313280	2526.036493
385.698017	2522.696728
386.082692	2523.808303
386.467305	2517.562313
386.851856	2516.561644
387.236344	2516.110461
387.620770	2513.534431
388.005133	2513.458814
388.389435	2514.119205
388.773674	2512.090141
389.157851	2513.680625
389.541965	2508.825993
389.926018	2509.481343
390.310008	2508.465551
390.693936	2506.653256
391.077802	2507.036384
391.461606	2507.890859
391.845348	2506.315499
392.229027	2507.306086
392.612645	2506.413801
392.996200	2507.948833
393.379694	2507.951353
393.763125	2508.407578
394.146494	2506.486898
394.529801	2508.223576
394.913047	2505.418173
395.296230	2507.923627
395.679351	2508.553771
396.062410	2505.675272
396.445408	2508.757938
396.828343	2508.558812
397.211217	2503.943636
397.594028	2503.643687
397.976778	2503.532782
398.359466	2506.791888
398.742092	2504.084788
399.124656	2508.145438
399.507158	2511.114677
399.889598	2511.528052
400.271977	2509.849348
400.654294	2508.566374
401.036549	2510.771879
401.418742	2508.155520
401.800874	2510.020747
402.182944	2509.201559
402.564952	2511.059225
402.946898	2512.773217
403.328783	2508.105108
403.710606	2510.892867
404.092367	2511.646519
404.474067	2511.492764
404.855705	2509.231806
405.237282	2513.509225
405.618797	2512.266581
406.000250	2512.332116
406.381642	2511.583505
406.762972	2508.836076
407.144240	2510.991169
407.525447	2511.664163
407.906593	2513.995697
408.287677	2513.047960
408.668700	2511.699451
409.049661	2514.565347
409.430560	2513.443690
409.811399	2511.810357
410.192176	2514.671211
410.572891	2514.746829
410.953545	2513.398320
411.334138	2515.566016
411.714669	2513.229441
412.095139	2513.892353
412.475547	2514.499812
412.855894	2515.777745
413.236180	2516.092817
413.616405	2516.123064
413.996568	2514.661129
414.376670	2515.767662
414.756711	2515.046777
415.136691	2517.247241
415.516609	2515.329082
415.896466	2515.122395
416.276262	2517.106089
416.655997	2512.768176
417.035670	2514.774555
417.415283	2513.534431
417.794834	2514.479647
418.174324	2515.697086
418.553753	2519.024248
418.933121	2518.396624
419.312428	2518.162210
419.691674	2516.218846
420.070859	2519.679598
420.449983	2517.844618
420.829045	2520.181192
421.208047	2520.317304
421.586988	2520.791172
421.965867	2520.536594
422.344686	2518.260513
422.723444	2520.045081
423.102141	2516.622138
423.480777	2521.842253
423.859352	2516.201202
424.237866	2517.910153
424.616319	2519.679598
424.994712	2518.121881
425.373044	2519.961902
425.751314	2519.838394
426.129524	2521.058353
426.507673	2520.965092
426.885762	2519.548528
427.263789	2519.246058
427.641756	2520.521470
428.019662	2520.166069
428.397508	2521.875020
428.775292	2519.916532
429.153016	2520.803775
429.530679	2524.083046
429.908282	2521.164217
430.285824	2518.936028
430.663305	2520.208919
431.040726	2519.538445
431.418086	2520.508867
431.795385	2523.851153
432.172624	2519.793024
432.549802	2522.243024
432.926920	2522.134640
433.303977	2520.642458
433.680974	2520.702952
434.057910	2525.882738
434.434786	2520.690349
434.811601	2522.522808
435.188355	2521.023065
435.565050	2523.412572
435.941683	2524.594723
436.318257	2521.456604
436.694770	2516.954854
437.071222	2518.878054
437.447614	2518.583147
437.823946	2519.735050
438.200218	2521.285205
438.576429	2520.297139
438.952580	2518.487365
439.328670	2522.318642
439.704700	2522.215298
440.080670	2525.227387
440.456580	2523.982222
440.832429	2523.369722
441.208218	2525.333252
441.583947	2525.272758
441.959616	2525.166894
442.335224	2524.849301
442.710773	2522.868127
443.086261	2521.489372
443.461689	2523.525998
443.837057	2522.820237
444.212365	2522.729496
444.587612	2522.280833
444.962800	2524.972809
445.337927	2524.498941
445.712995	2523.762932
446.088002	2522.575741
446.462949	2524.153622
446.837837	2525.855011
447.212664	2523.830988
447.587431	2525.492048
447.962139	2526.467511
448.336786	2528.128572
448.711374	2524.287212
449.085901	2528.405835
449.460369	2526.127233
449.834776	2527.155629
450.209124	2526.028931
450.583412	2525.960875
450.957640	2528.718387
451.331808	2525.686133
451.705917	2527.374919
452.079965	2528.458767
452.453954	2527.382481
452.827883	2528.274765
453.201752	2527.352234
453.575562	2525.547501
453.949311	2526.122192
454.323001	2527.122861
454.696632	2526.250742
455.070202	2526.999353
455.443713	2526.016328
455.817164	2524.440968
456.190556	2524.193951
456.563888	2521.880061
456.937160	2523.551204
457.310373	2528.282327
457.683526	2526.248221
458.056619	2529.121679
458.429653	2527.253931
458.802628	2526.288550
459.175542	2528.920033
459.548398	2528.723428
459.921194	2527.354754
460.293930	2529.688809
460.666607	2527.899199
461.039224	2525.817202
461.411782	2528.257121
461.784280	2528.279806
462.156719	2528.284847
462.529099	2528.282327
462.901419	2529.340969
463.273680	2528.405835
463.645882	2527.294261
464.018024	2529.267872
464.390106	2528.236956
464.762130	2528.574714
465.134094	2532.980682
465.505999	2529.580424
465.877845	2529.749303
466.249631	2529.761905
466.621358	2530.376926
466.993026	2532.877338
467.364634	2531.107893
467.736184	2529.507327
468.107674	2531.090249
468.479105	2530.898686
468.850477	2530.676875
469.221790	2531.420445
469.593043	2530.003881
469.964238	2530.419776
470.335373	2532.274921
470.706449	2528.809127
471.077467	2529.346010
471.448425	2531.077647
471.819324	2531.097811
472.190164	2528.277286
472.560945	2529.335928
472.931667	2529.610671
473.302330	2528.463808
473.672934	2530.979344
474.043479	2530.049251
474.413965	2531.725435
474.784393	2527.019518
475.154761	2530.097142
475.525070	2527.145547
475.895321	2528.126051
476.265513	2526.134795
476.635645	2528.947759
477.005719	2530.507996
477.375734	2532.663089
477.745691	2529.648479
478.115588	2531.440610
478.485427	2529.371216
478.855207	2532.549663
479.224928	2531.990095
479.594591	2532.577390
479.964194	2532.766433
480.333739	2530.886083
480.703226	2531.044879
481.072653	2530.634025
481.442022	2533.976310
481.811333	2533.618388
482.180584	2530.891124
482.549777	2534.208203
482.918912	2533.510003
483.287988	2531.357431
483.657005	2531.932122
484.025964	2529.784591
484.394864	2528.728469
484.763706	2534.921526
485.132489	2531.402801
485.501213	2535.060158
485.869879	2534.430014
486.238487	2532.892462
486.607036	2531.657379
486.975527	2531.997657
487.343959	2531.496062
487.712333	2531.491021
488.080648	2530.709642
488.448905	2534.924047
488.817104	2534.404808
489.185244	2532.635363
489.553326	2531.949766
489.921350	2532.007739
490.289315	2533.235260
490.657222	2531.727955
491.025070	2533.021011
491.392861	2533.167205
491.760593	2535.556712
492.128267	2531.254087
492.495883	2535.208872
492.863440	2536.728780
493.230939	2533.205013
493.598380	2534.863553
493.965763	2527.596730
494.333088	2529.305681
494.700354	2529.872811
495.067563	2529.966072
495.434713	2529.842564
495.801805	2531.667462
496.168839	2533.842719
496.535815	2529.827440
496.902733	2532.857174
497.269593	2532.216947
497.636395	2533.346166
498.003139	2535.516383
498.369825	2534.692154
498.736453	2531.259128
499.103023	2533.653676
499.469535	2534.382123
499.835989	2531.518748
500.202385	2532.703419
500.568723	2535.382792
500.935003	2532.794159
501.301226	2533.230219
501.667390	2533.399098
502.033497	2538.132741
502.399546	2533.751979
502.765537	2534.883718
503.131470	2535.095446
503.497345	2534.220806
503.863163	2534.520755
504.228923	2535.791125
504.594625	2534.344314
504.960269	2535.907072
505.325856	2535.778523
505.691385	2531.143182
506.056856	2536.383461
506.422270	2534.782895
506.787625	2535.055117
507.152924	2535.218954
507.518164	2536.741383
507.883347	2534.603934
508.248472	2533.953625
508.613540	2535.264325
508.978550	2534.182997
509.343503	2534.775333
509.708398	2534.447658
510.073236	2534.556043
510.438016	2536.857329
510.802738	2533.363810
511.167403	2535.163502
511.532010	2535.776002
511.896561	2537.747093
512.261053	2536.864891
512.625488	2531.120496
512.989866	2530.926412
513.354186	2531.821217
513.718449	2532.358100
514.082655	2534.614016
514.446803	2534.765251
514.810894	2535.801208
515.174927	2534.631660
515.538904	2535.486136
515.902822	2535.647453
516.266684	2536.083512
516.630488	2532.897503
516.994235	2534.059489
517.357925	2534.535878
517.721558	2536.456558
518.085133	2532.887421
518.448651	2535.100487
518.812112	2532.927750
519.175516	2536.000333
519.538863	2537.704243
519.902152	2535.975128
520.265385	2538.082330
520.628560	2533.368851
520.991678	2534.939170
521.354739	2535.435724
521.717743	2537.154758
522.080690	2538.001671
522.443580	2536.849768
522.806413	2536.542257
523.169189	2533.071423
523.531908	2536.002854
523.894569	2535.899510
524.257174	2536.567463
524.619722	2535.208872
524.982213	2537.852957
525.344647	2534.964376
525.707025	2538.936805
526.069345	2534.800539
526.431608	2536.335570
526.793815	2535.120652
527.155964	2538.334388
527.518057	2535.455889
527.880093	2536.811959
528.242072	2535.886907
528.603995	2537.061496
528.965860	2535.032432
529.327669	2534.349355
529.689421	2536.693492
530.051117	2536.479243
530.412755	2534.024201
530.774337	2537.331198
531.135862	2536.658204
531.497331	2534.505631
531.858743	2528.539426
532.220098	2534.992102
532.581396	2531.180990
532.942638	2532.365661
533.303824	2535.912113
533.664953	2537.391692
534.026025	2536.630478
534.387040	2534.016639
534.747999	2536.532175
535.108902	2535.181146
535.469748	2535.662576
535.830537	2537.855478
536.191270	2537.759696
536.551947	2536.338091
536.912567	2535.670138
537.273131	2536.234747
537.633638	2537.127031
537.994089	2537.374048
538.354483	2534.503111
538.714821	2536.091074
539.075103	2538.344470
539.435328	2536.927906
539.795497	2536.345652
540.155609	2538.687268
540.515665	2536.539737
540.875665	2539.435880
541.235609	2536.847247
541.595496	2537.782381
541.955328	2534.591331
542.315102	2537.127031
542.674821	2537.704243
543.034483	2538.243647
543.394090	2534.215765
543.753640	2537.810107
544.113134	2536.685930
544.472571	2537.419418
544.831953	2537.028729
545.191278	2535.697864
545.550548	2537.618544
545.909761	2535.145858
546.268918	2536.882535
546.628019	2536.721218
546.987064	2538.909079
547.346053	2537.263142
547.704986	2537.668955
548.063863	2535.317257
548.422684	2536.673327
548.781449	2535.997813
549.140158	2536.527134
549.498811	2541.449821
549.857408	2534.949253
550.215949	2534.140148
550.574434	2533.787267
550.932864	2534.931609
551.291237	2531.589324
551.649555	2537.177443
552.007817	2538.120138
552.366022	2536.494366
552.724173	2537.631147
553.082267	2535.256763
553.440305	2537.396733
553.798288	2536.348173
554.156215	2536.512010
554.514086	2537.011085
554.871902	2536.897659
555.229661	2539.317413
555.587365	2537.651311
555.945014	2538.339429
556.302606	2539.193904
556.660143	2538.581404
557.017625	2538.261291
557.375050	2538.092412
557.732421	2535.176105
558.089735	2537.210210
558.446994	2539.667773
558.804197	2539.004861
559.161345	2535.382792
559.518437	2536.443955
559.875474	2536.872453
560.232455	2536.698533
560.589381	2535.342463
560.946251	2538.594007
561.303065	2538.684748
561.659825	2536.020498
562.016528	2536.617875
562.373177	2537.563091
562.729770	2538.160468
563.086307	2537.507638
563.442789	2537.353883
563.799216	2540.751621
564.155587	2538.858668
564.511904	2535.471012
564.868164	2537.487474
565.224370	2538.762886
565.580520	2537.689120
565.936615	2537.563091
566.292654	2538.223482
566.648638	2540.607948
567.004567	2536.101156
567.360441	2536.282638
567.716260	2536.295241
568.072023	2537.918492
568.427732	2531.745599
568.783385	2536.741383
569.138982	2534.863553
569.494525	2533.217616
569.850013	2531.773326
570.205445	2536.857329
570.560823	2536.186856
570.916145	2538.581404
571.271412	2534.548481
571.626625	2537.434542
571.981782	2540.655839
572.336884	2539.045190
572.691931	2534.493028
573.046923	2537.515200
573.401860	2533.467153
573.756743	2537.343801
574.111570	2536.834644
574.466342	2538.876312
574.821059	2538.079809
575.175722	2536.512010
575.530330	2540.199614
575.884882	2536.161650
576.239380	2538.120138
576.593823	2538.682227
576.948211	2537.121990
577.302544	2538.044521
577.656823	2539.040149
578.011047	2537.215251
578.365216	2539.788760
578.719330	2538.006713
579.073389	2537.626105
579.427394	2538.999820
579.781344	2537.316074
580.135239	2539.592155
580.489080	2536.307844
580.842866	2536.385982
581.196597	2538.384799
581.550273	2537.759696
581.903895	2539.763555
582.257463	2539.854295
582.610975	2537.767258
582.964434	2536.466640
583.317837	2538.762886
583.671186	2538.914120
584.024481	2537.973945
584.377721	2537.227854
584.730906	2538.858668
585.084037	2539.556867
585.437113	2537.253060
585.790135	2540.779347
586.143103	2537.918492
586.496016	2539.612320
586.848874	2534.190559
587.201679	2536.333049
587.554428	2534.929088
587.907124	2535.523944
588.259765	2533.109232
588.612352	2537.074099
588.964884	2537.810107
589.317362	2535.866743
589.669786	2540.212217
590.022155	2540.093750
590.374470	2538.415046
590.726731	2536.451517
591.078937	2537.225334
591.431090	2536.534696
591.783188	2538.180632
592.135232	2537.910931
592.487222	2538.150385
592.839157	2536.290200
593.191038	2538.231044
593.542866	2538.457896
593.894639	2538.271373
594.246358	2538.639377
594.598022	2536.406146
594.949633	2539.488812
595.301190	2538.488143
595.652692	2540.285314
596.004141	2538.117618
596.355535	2539.922351
596.706876	2538.435211
597.058162	2536.012936
597.409395	2537.759696
597.760573	2538.770447
598.111698	2536.973276
598.462768	2537.923533
598.813785	2534.989582
599.164748	2536.501928
599.515657	2538.115097
599.866511	2538.543595
600.217312	2537.850437
600.568060	2538.604089
600.918753	2538.379758
601.269392	2539.471168
601.619978	2535.024870
601.970510	2538.659542
602.320988	2538.251208
602.671412	2537.880684
603.021783	2536.764068
603.372100	2539.377906
603.722363	2535.831455
604.072572	2535.934798
604.422728	2537.182484
604.772830	2534.709798
605.122878	2532.660569
605.472872	2534.180477
605.822813	2531.846422
606.172701	2537.653832
606.522534	2538.094933
606.872314	2536.585107
607.222041	2536.481763
607.571714	2538.669624
607.921333	2537.497556
608.270899	2537.258101
608.620411	2537.185004
608.969870	2540.739018
609.319276	2539.173740
609.668627	2543.118443
610.017926	2543.504091
610.367171	2545.023999
610.716362	2545.833104
611.065500	2543.577188
611.414585	2543.652805
611.763616	2539.730787
612.112594	2539.902186
612.461518	2540.875129
612.810389	2539.554347
613.159207	2541.565767
613.507971	2539.239275
613.856682	2539.125849
614.205340	2540.436549
614.553945	2539.163657
614.902496	2538.132741
615.250994	2539.652649
615.599439	2537.691640
615.947830	2538.861188
616.296169	2540.058462
616.644454	2536.622916
616.992686	2537.132072
617.340864	2537.616023
617.688990	2536.388502
618.037063	2537.018646
618.385082	2536.438914
618.733048	2539.670293
619.080961	2537.353883
619.428821	2538.324305
619.776628	2536.759027
620.124382	2538.352032
620.472083	2540.252547
620.819731	2539.148534
621.167326	2536.116280
621.514868	2536.254912
621.862357	2538.079809
622.209793	2536.824562
622.557176	2537.726928
622.904506	2536.116280
623.251783	2533.804911
623.599007	2536.665766
623.946179	2532.693336
624.293297	2534.470343
624.640363	2535.322298
624.987376	2537.507638
625.334336	2535.143337
625.681243	2539.831610
626.028097	2537.789943
626.374899	2537.600900
626.721647	2538.389840
627.068343	2537.222813
627.414987	2536.438914
627.761577	2538.094933
628.108115	2537.830272
628.454600	2539.531662
628.801032	2537.537885
629.147412	2539.687937
629.493739	2537.767258
629.840014	2539.322454
630.186236	2540.560057
630.532405	2539.095602
630.878521	2539.748431
631.224585	2537.069058
631.570597	2538.099974
631.916556	2539.093081
632.262462	2538.989737
632.608316	2538.301620
632.954117	2537.195087
633.299866	2537.875642
633.645562	2533.704088
633.991206	2533.731814
634.336797	2538.493184
634.682336	2538.198276
635.027823	2536.650642
635.373257	2539.755993
635.718639	2536.101156
636.063968	2537.835313
636.409245	2537.588297
636.754470	2535.571835
637.099642	2535.372710
637.444762	2535.332380
637.789829	2534.233409
638.134845	2536.242309
638.479808	2537.633667
638.824719	2537.381609
639.169577	2539.297248
639.514383	2536.244829
639.859137	2535.705426
640.203839	2535.468492
640.548489	2535.899510
640.893086	2536.713657
641.237632	2532.993285
641.582125	2535.675179
641.926566	2531.085208
642.270955	2535.450848
642.615292	2537.994110
642.959576	2538.959491
643.303809	2536.920344
643.647990	2537.046373
643.992118	2532.847092
644.336195	2537.605941
644.680219	2534.150230
645.024192	2536.559901
645.368112	2535.168543
645.711981	2539.176260
646.055797	2535.274407
646.399562	2537.507638
646.743274	2537.646270
647.086935	2539.156096
647.430544	2538.964532
647.774101	2535.496218
648.117606	2538.026877
648.461059	2538.972093
648.804460	2539.062834
649.147810	2537.280786
649.491108	2537.013605
649.834354	2538.858668
650.177548	2534.666948
650.520690	2538.478060
650.863781	2535.541588
651.206820	2538.422608
651.549807	2535.798687
651.892742	2534.742565
652.235626	2533.872966
652.578458	2535.062679
652.921238	2537.956301
653.263967	2537.590817
653.606644	2536.229706
653.949269	2536.567463
654.291843	2535.617206
654.634365	2537.661393
654.976836	2532.957997
655.319255	2536.363296
655.661622	2534.339273
656.003938	2534.760209
656.346203	2534.387164
656.688416	2538.145344
657.030577	2535.521424
657.372687	2537.114428
657.714746	2536.383461
658.056753	2536.277597
658.398708	2530.709642
658.740612	2534.122503
659.082465	2532.411032
659.424266	2535.314736
659.766016	2533.782226
660.107715	2536.244829
660.449362	2536.690971
660.790958	2535.970086
661.132503	2534.976979
661.473996	2535.178625
661.815438	2532.138809
662.156829	2538.906558
662.498168	2536.834644
662.839456	2535.312216
663.180693	2535.196269
663.521879	2537.915972
663.863013	2535.866743
664.204097	2536.764068
664.545129	2533.013450
664.886110	2535.735673
665.227040	2536.539737
665.567918	2540.212217
665.908746	2536.348173
666.249522	2538.853626
666.590248	2534.072092
666.930922	2536.963194
667.271545	2537.573173
667.612118	2537.119469
667.952639	2536.481763
668.293109	2536.885056
668.633528	2535.662576
668.973896	2535.952442
669.314213	2536.990920
669.654480	2541.107022
669.994695	2535.970086
670.334859	2538.505787
670.674973	2533.593182
671.015035	2534.916485
671.355047	2536.234747
671.695008	2532.524458
672.034918	2537.553009
672.374777	2535.221475
672.714585	2535.662576
673.054342	2535.564273
673.394049	2536.454037
673.733705	2535.095446
674.073310	2538.720036
674.412864	2534.893800
674.752368	2536.325488
675.091820	2540.199614
675.431223	2537.195087
675.770574	2537.462268
676.109875	2531.017153
676.449125	2533.517565
676.788324	2533.099149
677.127473	2535.201310
677.466571	2530.581093
677.805619	2536.433873
678.144616	2534.296423
678.483562	2535.765920
678.822458	2540.431508
679.161303	2540.292876
679.500098	2535.811290
679.838842	2535.735673
680.177535	2534.054448
680.516179	2537.109387
680.854771	2535.697864
681.193314	2535.481094
681.531805	2536.698533
681.870247	2535.511341
682.208638	2535.312216
682.546978	2537.598379
682.885268	2537.169881
683.223508	2537.754655
683.561697	2534.467823
683.899836	2536.706095
684.237925	2535.808769
684.575963	2536.159130
684.913951	2533.499921
685.251889	2538.762886
685.589776	2536.277597
685.927614	2535.788605
686.265401	2536.789274
686.603137	2535.869263
686.940824	2534.450178
687.278460	2537.321116
687.616046	2536.217103
687.953582	2537.028729
688.291068	2536.655683
688.628504	2536.708615
688.965889	2534.624098
689.303224	2539.501415
689.640510	2536.741383
689.977745	2535.440765
690.314930	2534.540919
690.652065	2535.087884
690.989150	2535.705426
691.326185	2536.174253
691.663170	2536.698533
692.000105	2536.010416
692.336990	2534.888759
692.673825	2536.209541
693.010610	2535.884387
693.347345	2532.912627
693.684030	2529.567821
694.020665	2534.147709
694.357251	2534.750127
694.693786	2535.702905
695.030272	2536.527134
695.366707	2538.374717
695.703093	2537.258101
696.039429	2536.111239
696.375716	2535.095446
696.711952	2535.234078
697.048139	2536.428831
697.384276	2535.493697
697.720363	2536.350693
698.056400	2532.781557
698.392388	2533.449509
698.728326	2536.275076
699.064214	2535.546629
699.400053	2535.138296
699.735842	2533.149561
700.071581	2533.774664
700.407270	2533.699047
700.742910	2537.636188
701.078501	2535.692823
701.414042	2534.004036
701.749533	2534.326670
702.084974	2536.290200
702.420366	2535.433203
702.755709	2535.609644
703.091002	2535.339942
703.426246	2537.305992
703.761440	2533.595703
704.096584	2535.657535
704.431679	2534.112421
704.766725	2534.419932
705.101721	2535.294572
705.436668	2532.900024
705.771565	2536.333049
706.106413	2535.090405
706.441212	2531.922040
706.775961	2536.779192
707.110661	2534.757689
707.445311	2539.267001
707.779913	2536.620395
708.114465	2538.402443
708.448967	2535.163502
708.783421	2536.625436
709.117825	2535.208872
709.452180	2536.186856
709.786485	2535.208872
710.120742	2537.275745
710.454949	2535.481094
710.789107	2535.239119
711.123216	2532.632843
711.457275	2534.671989
711.791286	2532.446320
712.125247	2529.593027
712.459159	2532.584952
712.793023	2534.992103
713.126837	2537.593338
713.460602	2535.546629
713.794318	2537.026208
714.127985	2535.662576
714.461602	2535.609644
714.795171	2536.154088
715.128691	2534.830786
715.462162	2534.742565
715.795584	2533.320960
716.128957	2536.496887
716.462281	2535.617206
716.795556	2533.376413
717.128782	2533.890610
717.461960	2533.643594
717.795088	2534.298944
718.128167	2534.082174
718.461198	2534.198121
718.794180	2537.149716
719.127113	2534.046886
719.459997	2535.024870
719.792833	2532.842050
720.125619	2537.545447
720.458357	2532.791639
720.791046	2534.966897
721.123686	2534.659386
721.456278	2537.096784
721.788821	2533.913296
722.121315	2534.873635
722.453761	2534.500590
722.786158	2535.962525
723.118506	2534.823224
723.450805	2534.215765
723.783056	2533.711649
724.115259	2533.744417
724.447412	2536.002854
724.779518	2532.390867
725.111574	2535.241640
725.443582	2533.341125
725.775542	2535.009747
726.107453	2535.944881
726.439315	2532.126207
726.771129	2537.646270
727.102895	2537.300951
727.434612	2533.215096
727.766281	2535.483615
728.097901	2533.348686
728.429473	2530.313912
728.760996	2532.025383
729.092471	2526.570855
729.423897	2534.876156
729.755276	2536.577545
730.086606	2534.971938
730.417887	2535.155940
730.749120	2533.918337
731.080305	2533.081505
731.411442	2533.875487
731.742530	2535.380271
732.073570	2534.515713
732.404562	2533.976310
732.735506	2533.749458
733.066401	2533.121834
733.397249	2535.723070
733.728048	2535.544109
734.058798	2533.663758
734.389501	2532.700898
734.720156	2533.794828
735.050762	2534.359438
735.381320	2535.115611
735.711831	2535.425642
736.042293	2535.090405
736.372707	2533.409180
736.703073	2532.756351
737.033391	2531.591844
737.363661	2536.690971
737.693883	2533.510003
738.024056	2536.252391
738.354182	2536.098636
738.684260	2532.116124
739.014290	2534.898841
739.344272	2532.627801
739.674207	2533.159643
740.004093	2536.176774
740.333931	2533.580579
740.663722	2535.476053
740.993464	2534.077133
741.323159	2535.435724
741.652806	2534.523275
741.982405	2534.319108
742.311956	2537.157278
742.641460	2537.278266
742.970915	2534.377082
743.300323	2536.557381
743.629683	2537.704243
743.958996	2532.864736
744.288260	2533.860363
744.617477	2536.310364
744.946647	2530.137471
745.275768	2532.466484
745.604842	2530.369364
745.933869	2530.707122
746.262847	2528.922553
746.591778	2535.576876
746.920662	2533.290713
747.249498	2533.757020
747.578286	2534.485467
747.907027	2534.745086
748.235720	2536.146527
748.564365	2537.273225
748.892963	2533.653676
749.221514	2533.270548
749.550017	2533.318439
749.878473	2532.673172
750.206881	2535.143337
750.535242	2532.695857
750.863555	2534.528316
751.191821	2535.115611
751.520039	2535.407998
751.848210	2533.686444
752.176334	2534.485467
752.504411	2536.217103
752.832440	2533.560415
753.160421	2533.623429
753.488356	2533.532688
753.816243	2536.023018
754.144082	2534.795497
754.471875	2535.045035
754.799620	2533.610826
755.127318	2533.202493
755.454969	2535.624767
755.782572	2533.648635
756.110129	2533.741896
756.437638	2534.457740
756.765100	2530.863397
757.092515	2534.160312
757.419882	2531.251566
757.747203	2533.716691
758.074477	2532.705939
758.401703	2533.590662
758.728882	2535.075282
759.056014	2532.252235
759.383099	2532.529499
759.710138	2533.847761
760.037129	2534.389685
760.364073	2533.547812
760.690970	2535.244160
761.017820	2536.862371
761.344623	2530.344159
761.671379	2536.179294
761.998088	2528.786442
762.324751	2530.190403
762.651366	2533.739376
762.977935	2532.537061
763.304456	2528.703263
763.630931	2532.300126
763.957359	2535.672658
764.283740	2535.720549
764.610074	2534.162833
764.936362	2533.694005
765.262602	2532.839530
765.588796	2534.687113
765.914943	2533.101670
766.241044	2534.092257
766.567097	2533.540250
766.893104	2533.625950
767.219064	2533.885569
767.544978	2535.145858
767.870845	2532.348017
768.196665	2533.036135
768.522438	2531.039838
768.848165	2531.231402
769.173846	2533.512524
769.499479	2534.240971
769.825066	2532.862215
770.150607	2533.189890
770.476101	2532.020342
770.801548	2535.556712
771.126949	2533.714170
771.452303	2532.232071
771.777611	2530.429858
772.102872	2531.649817
772.428087	2530.117307
772.753256	2535.140817
773.078378	2531.629653
773.403453	2530.964221
773.728482	2532.567308
774.053465	2533.220137
774.378401	2533.507483
774.703291	2531.508665
775.028135	2531.871628
775.352932	2535.743234
775.677683	2533.222658
776.002388	2533.308357
776.327046	2530.873480
776.651658	2532.479087
776.976224	2533.913296
777.300743	2535.055117
777.625216	2533.494880
777.949643	2534.992102
778.274024	2531.445651
778.598359	2530.608819
778.922647	2528.501617
779.246889	2531.463295
779.571086	2527.324507
779.895236	2532.295085
780.219339	2532.474046
780.543397	2532.645445
780.867409	2532.350538
781.191374	2535.072761
781.515294	2532.572349
781.839167	2533.215096
782.162995	2529.225022
782.486776	2531.261649
782.810511	2531.627132
783.134201	2535.614685
783.457844	2531.259128
783.781441	2535.813811
784.104993	2533.114273
784.428498	2532.713501
784.751958	2532.794159
785.075372	2531.838861
785.398739	2531.561597
785.722061	2534.276259
786.045337	2533.449509
786.368568	2534.125024
786.691752	2530.107224
787.014891	2531.236443
787.337983	2533.817514
787.661030	2534.215765
787.984031	2533.946063
788.306987	2532.078316
788.629897	2532.214427
788.952760	2530.913809
789.275579	2531.864067
789.598351	2533.199972
789.921078	2530.553367
790.243759	2532.889941
790.566395	2531.463295
790.888984	2532.733666
791.211529	2532.383305
791.534027	2533.696526
791.856480	2532.448840
792.178888	2528.632687
792.501249	2532.506814
792.823566	2535.392874
793.145836	2535.511341
793.468062	2530.460105
793.790241	2531.082688
794.112375	2531.722914
794.434464	2530.523120
794.756507	2532.574869
795.078505	2531.770805
795.400457	2530.175280
795.722364	2527.216123
796.044226	2528.796524
796.366042	2530.429858
796.687812	2529.018335
797.009538	2531.639735
797.331218	2530.056813
797.652852	2531.145702
797.974442	2534.548481
798.295986	2531.276772
798.617484	2534.984541
798.938938	2532.204344
799.260346	2533.719211
799.581709	2528.330218
799.903026	2535.060158
800.224299	2531.130579
800.545526	2530.966741
800.866708	2532.700898
801.187845	2532.214427
801.508936	2529.900537
801.829983	2533.048738
802.150984	2533.424304
802.471940	2532.796680
802.792851	2529.882893
803.113717	2535.191228
803.434538	2531.060002
803.755314	2533.857843
804.076045	2531.959848
804.396731	2531.198634
804.717372	2534.858512
805.037967	2532.191742
805.358518	2532.393388
805.679024	2533.827596
805.999485	2529.051103
806.319901	2532.325332
806.640272	2531.662420
806.960598	2533.202493
807.280879	2531.710311
807.601115	2532.267359
807.921306	2531.052441
808.241453	2533.376413
808.561554	2529.204858
808.881611	2533.643594
809.201623	2532.227030
809.521590	2532.335414
809.841513	2533.210055
810.161390	2532.143851
810.481223	2533.469674
810.801011	2530.586134
811.120755	2530.432379
811.440453	2531.659900
811.760107	2531.911957
812.079716	2528.194107
812.399281	2528.289888
812.718801	2529.819879
813.038276	2528.299971
813.357707	2530.782739
813.677093	2530.323994
813.996434	2531.705270
814.315731	2532.196783
814.634983	2531.526309
814.954191	2532.355579
815.273354	2533.227699
815.592473	2532.884900
815.911547	2534.888759
816.230577	2535.407998
816.549562	2529.913140
816.868502	2531.188552
817.187399	2534.543440
817.506250	2531.652338
817.825058	2534.447658
818.143821	2531.816176
818.462539	2531.329704
818.781213	2530.447502
819.099843	2531.168387
819.418429	2532.234591
819.736970	2530.951618
820.055466	2533.260466
820.373919	2531.342307
820.692327	2532.413552
821.010691	2534.014119
821.329011	2533.116793
821.647286	2536.207021
821.965517	2537.056455
822.283704	2532.965559
822.601847	2532.839530
822.919945	2534.069571
823.237999	2534.422452
823.556010	2534.094777
823.873976	2532.579910
824.191897	2533.177287
824.509775	2532.307688
824.827609	2531.165867
825.145398	2532.176618
825.463144	2534.208203
825.780845	2531.039838
826.098502	2533.767102
826.416116	2532.290044
826.733685	2532.095960
827.051210	2531.017153
827.368692	2530.931453
827.686129	2532.499252
828.003522	2532.098480
828.320872	2525.895340
828.638177	2528.504138
828.955439	2526.401976
829.272656	2527.014477
829.589830	2524.680422
829.906960	2535.637370
830.224046	2529.600588
830.541088	2532.312729
830.858086	2530.283665
831.175041	2530.931453
831.491952	2532.078316
831.808819	2534.498069
832.125642	2531.130579
832.442421	2527.916843
832.759157	2532.186700
833.075849	2532.037986
833.392497	2532.209386
833.709101	2530.510517
834.025662	2532.128727
834.342179	2532.279962
834.658653	2533.053779
834.975083	2530.828109
835.291469	2535.201310
835.607811	2532.103521
835.924110	2528.390712
836.240366	2530.286185
836.556578	2532.940353
836.872746	2531.914478
837.188871	2532.111083
837.504952	2531.909437
837.820990	2532.126207
838.136984	2530.134951
838.452935	2529.547656
838.768842	2531.682585
839.084706	2529.719056
839.400526	2530.268541
839.716303	2530.853315
840.032037	2530.447502
840.347727	2530.616381
840.663373	2529.814838
840.978977	2530.079498
841.294537	2532.463964
841.610054	2531.498583
841.925527	2532.726104
842.240957	2531.569159
842.556344	2530.354241
842.871687	2530.011443
843.186987	2530.472708
843.502244	2529.620753
843.817458	2533.457071
844.132629	2528.501617
844.447756	2530.429858
844.762840	2525.023221
845.077881	2525.189579
845.392879	2524.113293
845.707833	2531.934643
846.022745	2525.852491
846.337613	2531.178470
846.652438	2530.510517
846.967221	2531.997657
847.281960	2529.056144
847.596656	2531.158305
847.911309	2530.502955
848.225919	2530.656710
848.540485	2529.383819
848.855009	2532.055630
849.169490	2528.060516
849.483928	2530.724766
849.798323	2528.983047
850.112675	2530.807945
850.426984	2530.253418
850.741251	2529.618233
851.055474	2530.190403
851.369654	2529.875331
851.683792	2529.227543
851.997887	2532.070754
852.311938	2530.205527
852.625947	2528.345341
852.939914	2527.944569
853.253837	2531.609488
853.567718	2529.063706
853.881555	2528.365506
854.195350	2530.230733
854.509103	2531.463295
854.822812	2527.889117
855.136479	2530.016484
855.450103	2531.959848
855.763685	2529.353572
856.077224	2530.543284
856.390720	2532.146371
856.704173	2532.093439
857.017584	2529.242667
857.330953	2529.658562
857.644278	2531.032276
857.957561	2530.762574
858.270802	2530.654190
858.584000	2528.171421
858.897155	2531.934643
859.210268	2528.574714
859.523339	2532.312729
859.836367	2528.373067
860.149352	2531.196114
860.462295	2531.422966
860.775195	2524.693025
861.088054	2526.845598
861.400869	2527.160670
861.713642	2524.788807
862.026373	2526.890968
862.339062	2530.621422
862.651708	2528.947759
862.964312	2530.293747
863.276873	2528.073119
863.589392	2530.596216
863.901869	2528.007584
864.214303	2532.814324
864.526696	2530.858356
864.839045	2527.354754
865.151353	2530.611340
865.463619	2530.465146
865.775842	2530.787780
866.088023	2530.500434
866.400162	2530.142513
866.712258	2531.785929
867.024313	2527.780732
867.336325	2532.098480
867.648296	2528.582275
867.960224	2530.286185
868.272110	2530.127389
868.583954	2529.686288
868.895755	2528.879703
869.207515	2528.201668
869.519233	2530.361803
869.830909	2530.618902
870.142542	2528.443644
870.454134	2529.217461
870.765684	2531.347348
871.077191	2528.786442
871.388657	2532.111083
871.700081	2529.119158
872.011463	2525.900382
872.322803	2529.691329
872.634101	2531.238963
872.945357	2528.572193
873.256571	2532.458923
873.567744	2530.326515
873.878874	2529.098994
874.189963	2530.160157
874.501010	2531.770805
874.812015	2533.104190
875.122979	2528.587317
875.433900	2531.148223
875.744780	2530.155115
876.055618	2529.545136
876.366415	2528.723428
876.677169	2528.370547
876.987882	2527.090094
877.298554	2527.357275
877.609183	2529.063706
877.919771	2526.278468
878.230317	2528.395753
878.540822	2533.618388
878.851285	2531.009591
879.161707	2529.000691
879.472087	2529.522451
879.782425	2529.484642
880.092722	2529.812317
880.402977	2529.797193
880.713191	2528.352903
881.023363	2530.765095
881.333494	2531.301978
881.643583	2529.608150
881.953631	2530.271062
882.263637	2531.957328
882.573602	2529.020856
882.883526	2532.630322
883.193408	2531.158305
883.503248	2530.366844
883.813048	2532.141330
884.122806	2532.221988
884.432522	2527.899199
884.742197	2531.904396
885.051831	2529.938346
885.361424	2527.173273
885.670975	2528.730989
885.980485	2529.882893
886.289954	2527.974816
886.599382	2528.821730
886.908768	2532.085877
887.218113	2529.955990
887.527417	2527.319466
887.836680	2528.133613
888.145901	2531.075126
888.455082	2526.777542
888.764221	2527.831143
889.073319	2529.676206
889.382376	2528.952800
889.691392	2529.424148
890.000366	2531.735517
890.309300	2526.787625
890.618193	2527.009435
890.927044	2527.165711
891.235855	2529.789632
891.544625	2529.671165
891.853353	2529.207378
892.162041	2528.950280
892.470687	2531.846423
892.779293	2529.630835
893.087858	2525.048427
893.396381	2528.194107
893.704864	2526.918695
894.013306	2524.322500
894.321707	2530.225692
894.630068	2527.533715
894.938387	2530.659231
895.246665	2527.591689
895.554903	2529.247708
895.863100	2529.043541
896.171256	2529.860208
896.479371	2528.708304
896.787446	2529.754344
897.095480	2528.801566
897.403473	2528.622605
897.711425	2528.121010
898.019336	2531.468336
898.327207	2526.459950
898.635038	2530.558408
898.942827	2528.902389
899.250576	2530.616381
899.558284	2528.022707
899.865952	2526.863242
900.173579	2529.028418
900.481165	2528.743592
900.788711	2528.133613
901.096216	2529.847605
901.403681	2528.294930
901.711105	2529.030938
902.018489	2530.550846
902.325832	2530.684437
902.633135	2530.424817
902.940397	2530.266021
903.247619	2528.078160
903.554800	2531.879190
903.861941	2530.109745
904.169041	2531.990095
904.476101	2527.442975
904.783121	2530.739889
905.090100	2529.424148
905.397039	2527.238808
905.703938	2528.269724
906.010796	2532.224509
906.317614	2530.371885
906.624391	2530.439941
906.931129	2527.493386
907.237826	2527.876514
907.544483	2528.294930
907.851099	2527.168232
908.157675	2530.437420
908.464211	2527.629497
908.770707	2522.152284
909.077163	2526.505320
909.383578	2526.205371
909.689954	2527.072450
909.996289	2524.418282
910.302584	2529.386339
910.608839	2525.940711
910.915054	2528.380629
911.221229	2529.620753
911.527363	2531.148223
911.833458	2527.901720
912.139513	2530.702081
912.445527	2528.461288
912.751502	2530.419776
913.057436	2528.216792
913.363331	2530.197965
913.669186	2529.109076
913.975000	2528.249559
914.280775	2530.223171
914.586510	2524.793848
914.892205	2527.800897
915.197859	2530.528161
915.503475	2528.199148
915.809050	2532.625281
916.114585	2528.549508
916.420081	2528.148736
916.725536	2529.353572
917.030952	2530.462626
917.336328	2526.906092
917.641665	2530.089580
917.946961	2527.354754
918.252218	2525.779394
918.557435	2529.560259
918.862612	2527.863911
919.167750	2528.683098
919.472848	2526.729651
919.777906	2528.693181
920.082925	2528.630166
920.387904	2528.163860
920.692843	2526.396935
920.997743	2527.029600
921.302603	2529.247708
921.607423	2530.447502
921.912204	2525.817202
922.216946	2529.371216
922.521647	2530.049251
922.826310	2526.543129
923.130932	2527.513551
923.435516	2528.637728
923.740059	2528.710825
924.044564	2528.604961
924.349028	2526.676719
924.653454	2523.755371
924.957840	2525.539939
925.262186	2524.025072
925.566493	2526.470032
925.870761	2524.135978
926.174989	2528.211751
926.479178	2528.942718
926.783328	2527.385001
927.087438	2529.114117
927.391509	2528.020187
927.695541	2525.212264
927.999533	2529.782070
928.303486	2527.783253
928.607400	2532.295085
928.911275	2525.882737
929.215110	2530.180321
929.518906	2529.041020
929.822663	2531.110414
930.126381	2524.796369
930.430060	2528.920033
930.733699	2527.959693
931.037299	2528.204189
931.340861	2526.464991
931.644383	2525.693694
931.947866	2529.257790
932.251309	2527.334590
932.554714	2526.386853
932.858080	2528.907430
933.161407	2526.578417
933.464694	2526.694363
933.767943	2527.034641
934.071153	2527.357275
934.374323	2529.933305
934.677455	2528.181504
934.980548	2527.513551
935.283602	2528.209230
935.586617	2526.699404
935.889593	2530.404653
936.192530	2526.709487
936.495428	2525.744106
936.798287	2526.570855
937.101108	2527.816020
937.403890	2525.517254
937.706632	2527.553880
938.009336	2530.326515
938.312002	2528.337779
938.614628	2527.725279
938.917216	2528.524302
939.219765	2527.853829
939.522275	2527.253931
939.824747	2530.024045
940.127179	2525.144208
940.429573	2523.296626
940.731929	2522.716893
941.034246	2522.762263
941.336524	2525.580268
941.638763	2526.676719
941.940964	2526.424662
942.243126	2530.029087
942.545250	2527.616894
942.847335	2526.311236
943.149381	2526.754857
943.451389	2528.035310
943.753359	2528.075639
944.055290	2525.844929
944.357182	2529.756864
944.659036	2529.358613
944.960851	2527.344672
945.262628	2525.865093
945.564367	2526.956503
945.866067	2525.804600
946.167729	2527.863911
946.469352	2528.957841
946.770937	2528.463808
947.072484	2531.017153
947.373992	2529.003212
947.675462	2527.390042
947.976893	2526.344003
948.278286	2527.778211
948.579641	2527.747964
948.880958	2525.988602
949.182236	2529.346010
949.483476	2527.949611
949.784678	2528.141174
950.085841	2527.226205
950.386967	2527.246370
950.688054	2530.359282
950.989103	2528.005063
951.290114	2527.253931
951.591087	2530.187883
951.892021	2527.165711
952.192917	2529.421627
952.493776	2529.043541
952.794596	2528.821730
953.095378	2525.386184
953.396122	2528.514220
953.696828	2528.388191
953.997496	2529.192255
954.298126	2526.197810
954.598718	2526.233098
954.899272	2526.096987
955.199788	2525.547501
955.500266	2525.968437
955.800706	2524.907274
956.101108	2523.631862
956.401472	2523.082377
956.701798	2524.693025
957.002087	2524.118334
957.302337	2524.458612
957.602550	2527.440454
957.902724	2528.095804
958.202861	2526.843077
958.502960	2526.286030
958.803022	2526.777542
959.103045	2525.728982
959.403031	2527.269055
959.702979	2526.739734
960.002889	2528.365506
960.302762	2525.229908
960.602596	2526.016328
960.902393	2524.783766
961.202153	2528.741072
961.501875	2526.848118
961.801559	2528.819210
962.101205	2528.539426
962.400814	2525.527336
962.700385	2526.656555
962.999918	2526.119672
963.299414	2525.464322
963.598873	2526.437264
963.898293	2528.990609
964.197677	2529.076308
964.497022	2529.908099
964.796331	2529.872811
965.095601	2525.577748
965.394835	2527.329549
965.694030	2524.972809
965.993189	2526.616225
966.292309	2527.884076
966.591393	2527.639580
966.890439	2526.346524
967.189447	2526.623787
967.488419	2527.546318
967.787353	2528.236956
968.086249	2526.444826
968.385108	2527.480783
968.683930	2526.384332
968.982714	2524.998015
969.281462	2527.291740
969.580172	2526.470032
969.878844	2523.130268
970.177480	2526.452388
970.476078	2526.638911
970.774639	2527.989940
971.073162	2527.349713
971.371649	2523.596574
971.670098	2524.201513
971.968510	2526.084384
972.266885	2520.985257
972.565223	2525.184538
972.863524	2524.367871
973.161788	2527.286699
973.460014	2525.968437
973.758204	2527.261493
974.056356	2529.628315
974.354471	2527.740403
974.652550	2523.100021
974.950591	2528.173942
975.248595	2525.429034
975.546563	2527.286699
975.844493	2526.427182
976.142386	2527.175793
976.440243	2527.324508
976.738062	2527.374919
977.035845	2526.815351
977.333590	2526.641431
977.631299	2527.034641
977.928971	2527.022038
978.226606	2525.126564
978.524204	2528.078160
978.821765	2526.727131
979.119290	2526.192768
979.416777	2524.088087
979.714228	2526.177645
980.011642	2528.226874
980.309020	2529.494724
980.606360	2527.395084
980.903664	2528.599919
981.200931	2527.500948
981.498162	2526.311236
981.795356	2527.616894
982.092513	2527.052285
982.389633	2524.501461
982.686717	2525.736544
982.983764	2526.996833
983.280775	2526.051616
983.577749	2524.198992
983.874686	2529.769467
984.171587	2527.606812
984.468451	2528.829292
984.765279	2527.077491
985.062070	2528.925074
985.358824	2526.487676
985.655543	2528.877183
985.952224	2526.260824
986.248869	2525.814682
986.545478	2524.440967
986.842050	2525.660927
987.138586	2523.266379
987.435086	2522.326203
987.731549	2519.838394
988.027975	2524.740916
988.324366	2524.846780
988.620719	2523.581451
988.917037	2526.323838
989.213318	2527.634538
989.509563	2527.145547
989.805772	2524.340144
990.101944	2527.402645
990.398080	2524.584640
990.694180	2524.960206
990.990244	2524.768643
991.286271	2525.300484
991.582262	2524.904754
991.878217	2527.334590
992.174136	2526.102028
992.470019	2526.386853
992.765865	2525.797038
993.061676	2524.811492
993.357450	2525.930628
993.653188	2527.974816
993.948890	2526.699404
994.244556	2525.199661
994.540186	2529.845084
994.835780	2525.124044
995.131337	2525.141688
995.426859	2523.999867
995.722345	2525.088756
996.017795	2527.155629
996.313208	2526.759898
996.608586	2526.727131
996.903928	2527.024559
997.199234	2525.335772
997.494504	2526.427182
997.789738	2524.453570
998.084936	2525.189579
998.380099	2525.582789
998.675225	2527.352234
998.970316	2528.350382
999.265371	2528.526823
999.560390	2525.562624
999.855373	2526.538087
1000.150320	2527.644621
1000.445232	2525.681091
1000.740108	2524.135978
1001.034948	2526.797707
1001.329752	2526.497758
1001.624521	2526.502799
1001.919254	2521.401152
1002.213951	2524.524147
1002.508613	2520.201357
1002.803239	2523.180679
1003.097829	2522.205216
1003.392384	2526.732172
1003.686903	2524.773684
1003.981386	2526.265865
1004.275834	2528.007584
1004.570246	2528.521782
1004.864623	2525.565145
1005.158964	2525.144208
1005.453270	2524.998015
1005.747540	2524.972809
1006.041775	2523.868797
1006.335974	2524.839219
1006.630138	2527.503468
1006.924266	2525.741585
1007.218359	2523.523477
1007.512416	2525.270237
1007.806438	2523.596574
1008.100425	2525.171935
1008.394376	2525.570186
1008.688292	2528.171421
1008.982172	2524.493900
1009.276017	2526.848118
1009.569827	2522.880730
1009.863602	2526.628828
1010.157341	2523.999867
1010.451045	2527.949611
1010.744714	2525.860052
1011.038347	2526.381812
1011.331945	2524.327542
1011.625508	2525.975999
1011.919036	2526.349044
1012.212528	2528.519261
1012.505986	2526.419620
1012.799408	2527.989940
1013.092795	2523.939373
1013.386147	2528.771319
1013.679464	2525.129085
1013.972745	2527.372398
1014.265992	2527.037162
1014.559204	2526.727131
1014.852380	2526.371729
1015.145521	2527.768129
1015.438628	2524.955165
1015.731699	2527.637059
1016.024736	2521.375946
1016.317737	2525.978519
1016.610703	2524.745957
1016.903635	2520.468538
1017.196531	2522.656399
1017.489393	2518.774711
1017.782219	2519.813188
1018.075011	2523.571368
1018.367768	2527.223684
1018.660490	2523.538601
1018.953177	2523.538601
1019.245829	2523.538601
