Dividing Wavelength (nm)	Counts (n)	Blue Motor Position (mm): 0.000000	Red Motor Position (mm): 10.100000	
326.493990	2128.337345
326.888308	2128.337345
327.282561	2128.337345
327.676750	2097.256111
328.070874	2091.549525
328.464933	2096.144537
328.858929	2103.126535
329.252859	2113.932248
329.646726	2124.311984
330.040528	2138.601134
330.434265	2154.543783
330.827938	2171.860147
331.221547	2191.558456
331.615091	2207.327185
332.008571	2227.741337
332.401986	2246.759090
332.795338	2265.189549
333.188625	2284.766870
333.581847	2305.155816
333.975006	2321.012766
334.368100	2341.068996
334.761129	2357.215812
335.154095	2371.988913
335.546996	2393.358365
335.939833	2406.639284
336.332606	2420.517581
336.725315	2434.264807
337.117960	2443.379214
337.510540	2454.424382
337.903056	2462.926288
338.295508	2470.057000
338.687896	2481.845738
339.080220	2485.379587
339.472480	2494.378047
339.864676	2496.455002
340.256807	2503.071516
340.648875	2507.001096
341.040879	2508.745335
341.432818	2508.987310
341.824694	2508.735253
342.216506	2510.696262
342.608253	2513.335306
342.999937	2511.152486
343.391557	2513.504184
343.783113	2512.727847
344.174605	2507.190139
344.566033	2508.881446
344.957397	2506.605365
345.348697	2506.111332
345.739934	2502.559839
346.131106	2501.264263
346.522215	2499.819972
346.913260	2497.725373
347.304241	2497.001967
347.695159	2495.466936
348.086012	2492.107007
348.476802	2493.586585
348.867528	2490.735813
349.258191	2491.272696
349.648789	2487.123826
350.039324	2486.556696
350.429796	2486.070225
350.820203	2483.337920
351.210548	2481.505460
351.600828	2481.908752
351.991045	2481.497898
352.381198	2480.517394
352.771288	2479.864565
353.161314	2478.780717
353.551276	2480.961016
353.941175	2479.662918
354.331010	2481.855820
354.720782	2480.905563
355.110490	2479.733495
355.500135	2481.639051
355.889717	2479.403299
356.279235	2476.852475
356.668689	2482.402786
357.058080	2479.529328
357.447408	2480.356077
357.836672	2478.611838
358.225873	2479.511684
358.615010	2478.266519
359.004084	2484.492344
359.393095	2482.097796
359.782043	2485.843373
360.170927	2482.906901
360.559748	2486.065184
360.948505	2485.924032
361.337199	2487.549804
361.725830	2486.695328
362.114398	2487.345637
362.502903	2485.112406
362.891344	2490.345123
363.279722	2489.180617
363.668037	2490.829074
364.056289	2490.864362
364.444478	2492.301091
364.832603	2491.633138
365.220665	2491.592809
365.608665	2491.978457
365.996601	2491.086173
366.384474	2491.131543
366.772284	2494.325114
367.160031	2495.867708
367.547715	2497.919457
367.935336	2497.130517
368.322893	2500.805518
368.710388	2505.072854
369.097820	2513.151303
369.485189	2514.008300
369.872495	2522.810154
370.259738	2525.043385
370.646918	2532.655528
371.034035	2544.519883
371.421090	2552.608415
371.808081	2563.472101
372.195010	2569.017370
372.581875	2585.496902
372.968678	2596.375712
373.355418	2608.098916
373.742096	2625.747995
374.128710	2640.863895
374.515262	2656.851914
374.901751	2673.028977
375.288177	2678.901921
375.674540	2705.463761
376.060841	2722.724672
376.447079	2743.353073
376.833254	2762.262441
377.219367	2774.993875
377.605417	2811.335553
377.991404	2819.381235
378.377329	2842.714216
378.763191	2859.125692
379.148991	2892.160373
379.534727	2914.903539
379.920402	2941.281376
380.306013	2952.321503
380.691563	2994.644510
381.077049	3010.541789
381.462474	3023.174920
381.847835	3054.230949
382.233134	3064.772001
382.618371	3059.259500
383.003545	3112.549537
383.388657	3107.342025
383.773706	3125.936321
384.158693	3128.555200
384.543618	3139.827220
384.928480	3156.200888
385.313280	3182.248530
385.698017	3162.872855
386.082692	3188.733974
386.467305	3178.697037
386.851856	3180.789116
387.236344	3181.799867
387.620770	3177.706450
388.005133	3176.849454
388.389435	3174.717046
388.773674	3158.171979
389.157851	3162.250273
389.541965	3142.952736
389.926018	3101.811879
390.310008	3117.081534
390.693936	3098.416662
391.077802	3097.017742
391.461606	3057.270764
391.845348	3061.449881
392.229027	3034.751930
392.612645	3015.078827
392.996200	3016.359280
393.379694	3006.581963
393.763125	3001.664317
394.146494	2956.553552
394.529801	2952.470217
394.913047	2933.762495
395.296230	2898.043400
395.679351	2885.352295
396.062410	2861.779859
396.445408	2832.586537
396.828343	2813.931748
397.211217	2786.381842
397.594028	2755.580392
397.976778	2743.194277
398.359466	2727.314642
398.742092	2708.193546
399.124656	2685.909125
399.507158	2677.881088
399.889598	2666.011691
400.271977	2652.534166
400.654294	2637.458596
401.036549	2623.524846
401.418742	2610.861468
401.800874	2604.249995
402.182944	2595.503593
402.564952	2584.954978
402.946898	2575.112125
403.328783	2567.638615
403.710606	2559.355999
404.092367	2559.897923
404.474067	2552.890719
404.855705	2548.159596
405.237282	2541.207845
405.618797	2539.876981
406.000250	2537.028729
406.381642	2535.347504
406.762972	2531.672503
407.144240	2531.052441
407.525447	2533.676361
407.906593	2528.002543
408.287677	2524.622449
408.668700	2524.083046
409.049661	2526.472553
409.430560	2525.925587
409.811399	2525.393746
410.192176	2522.500123
410.572891	2522.293436
410.953545	2520.042561
411.334138	2520.622293
411.714669	2522.137160
412.095139	2520.602129
412.475547	2520.682787
412.855894	2518.996521
413.236180	2518.600791
413.616405	2519.178003
413.996568	2521.965761
414.376670	2519.795544
414.756711	2519.596419
415.136691	2519.409896
415.516609	2520.604649
415.896466	2522.686646
416.276262	2519.951820
416.655997	2519.984588
417.035670	2516.291942
417.415283	2518.557941
417.794834	2514.872858
418.174324	2523.959537
418.553753	2520.662623
418.933121	2521.431399
419.312428	2521.229753
419.691674	2525.035824
420.070859	2522.255627
420.449983	2521.827129
420.829045	2524.065402
421.208047	2524.771163
421.586988	2520.274454
421.965867	2522.510206
422.344686	2520.854187
422.723444	2522.381656
423.102141	2521.746471
423.480777	2525.149250
423.859352	2524.592202
424.237866	2521.323014
424.616319	2522.474918
424.994712	2522.376615
425.373044	2523.654548
425.751314	2522.434588
426.129524	2523.984743
426.507673	2524.806451
426.885762	2522.616070
427.263789	2525.103879
427.641756	2525.671009
428.019662	2523.014321
428.397508	2526.260824
428.775292	2523.503313
429.153016	2524.244363
429.530679	2526.863242
429.908282	2525.789476
430.285824	2526.391894
430.663305	2526.293592
431.040726	2524.977850
431.418086	2523.452901
431.795385	2526.686802
432.172624	2524.229239
432.549802	2527.009435
432.926920	2526.351565
433.303977	2528.151257
433.680974	2527.591689
434.057910	2529.197296
434.434786	2525.804600
434.811601	2527.642100
435.188355	2526.868283
435.565050	2527.261493
435.941683	2527.203520
436.318257	2524.569517
436.694770	2520.871831
437.071222	2525.008097
437.447614	2522.553055
437.823946	2525.010618
438.200218	2525.333252
438.576429	2526.792666
438.952580	2526.817872
439.328670	2527.775691
439.704700	2527.664785
440.080670	2524.776204
440.456580	2526.835516
440.832429	2529.789632
441.208218	2529.547656
441.583947	2530.260980
441.959616	2528.650331
442.335224	2528.927594
442.710773	2530.238294
443.086261	2527.211082
443.461689	2527.876514
443.837057	2529.101514
444.212365	2529.202337
444.587612	2531.672503
444.962800	2528.917512
445.337927	2531.070085
445.712995	2527.493386
446.088002	2529.509848
446.462949	2532.965559
446.837837	2530.568490
447.212664	2533.368851
447.587431	2529.552698
447.962139	2532.534540
448.336786	2534.520755
448.711374	2533.525127
449.085901	2528.771319
449.460369	2530.913809
449.834776	2531.180990
450.209124	2531.506145
450.583412	2528.965403
450.957640	2533.993954
451.331808	2535.521424
451.705917	2530.959179
452.079965	2531.775846
452.453954	2532.786598
452.827883	2534.606454
453.201752	2531.443130
453.575562	2532.345497
453.949311	2530.563449
454.323001	2534.871115
454.696632	2531.727955
455.070202	2534.475384
455.443713	2531.397760
455.817164	2530.714683
456.190556	2529.177132
456.563888	2533.444468
456.937160	2527.387522
457.310373	2530.969262
457.683526	2535.259284
458.056619	2531.440610
458.429653	2534.165353
458.802628	2532.113604
459.175542	2534.172915
459.548398	2535.758358
459.921194	2533.202493
460.293930	2534.334232
460.666607	2535.057638
461.039224	2535.985210
461.411782	2533.961187
461.784280	2539.619882
462.156719	2537.928575
462.529099	2535.977648
462.901419	2535.380271
463.273680	2539.718184
463.645882	2534.878677
464.018024	2538.110056
464.390106	2537.096784
464.762130	2539.410674
465.134094	2538.074768
465.505999	2540.224820
465.877845	2540.368493
466.249631	2540.696168
466.621358	2539.708102
466.993026	2544.396375
467.364634	2545.792775
467.736184	2541.583411
468.107674	2540.766744
468.479105	2542.999975
468.850477	2538.019315
469.221790	2542.279090
469.593043	2537.489994
469.964238	2539.864378
470.335373	2539.105684
470.706449	2539.919830
471.077467	2537.777340
471.448425	2543.136087
471.819324	2541.946374
472.190164	2542.301776
472.560945	2541.381765
472.931667	2540.867567
473.302330	2537.767258
473.672934	2539.277083
474.043479	2539.173740
474.413965	2542.379913
474.784393	2533.459592
475.154761	2533.406660
475.525070	2534.404808
475.895321	2535.881866
476.265513	2534.278779
476.635645	2535.342463
477.005719	2537.217772
477.375734	2537.857998
477.745691	2538.775488
478.115588	2540.060983
478.485427	2540.189532
478.855207	2541.790098
479.224928	2540.660880
479.594591	2543.597352
479.964194	2542.778165
480.333739	2542.246323
480.703226	2543.816642
481.072653	2544.658515
481.442022	2543.425953
481.811333	2542.896632
482.180584	2542.571477
482.549777	2542.117773
482.918912	2543.635161
483.287988	2542.027033
483.657005	2543.675490
484.025964	2545.855789
484.394864	2542.858823
484.763706	2541.180119
485.132489	2542.243802
485.501213	2540.791950
485.869879	2540.802032
486.238487	2541.180119
486.607036	2539.377906
486.975527	2544.658515
487.343959	2541.971580
487.712333	2543.846889
488.080648	2542.576518
488.448905	2542.185829
488.817104	2541.495191
489.185244	2542.848741
489.553326	2542.732794
489.921350	2544.187167
490.289315	2545.409647
490.657222	2545.553320
491.025070	2546.541386
491.392861	2544.678680
491.760593	2545.802857
492.128267	2542.947043
492.495883	2544.865202
492.863440	2542.672300
493.230939	2542.765562
493.598380	2542.188350
493.965763	2539.662732
494.333088	2543.801519
494.700354	2540.214738
495.067563	2540.761703
495.434713	2538.619213
495.801805	2541.969059
496.168839	2542.208514
496.535815	2543.299924
496.902733	2544.600542
497.269593	2543.191539
497.636395	2547.645399
498.003139	2545.641540
498.369825	2541.653987
498.736453	2543.683052
499.103023	2540.736497
499.469535	2544.320758
499.835989	2545.134904
500.202385	2542.783206
500.568723	2543.030222
500.935003	2544.426622
501.301226	2543.105840
501.667390	2544.567774
502.033497	2546.685059
502.399546	2542.624409
502.765537	2544.716488
503.131470	2544.587939
503.497345	2544.280428
503.863163	2544.688762
504.228923	2543.675490
504.594625	2544.025850
504.960269	2544.406457
505.325856	2543.534338
505.691385	2542.984852
506.056856	2543.879657
506.422270	2545.686910
506.787625	2544.235058
507.152924	2542.269008
507.518164	2544.688762
507.883347	2546.412837
508.248472	2543.645243
508.613540	2545.308824
508.978550	2543.496529
509.343503	2541.724563
509.708398	2544.219935
510.073236	2546.145655
510.438016	2545.578526
510.802738	2544.504760
511.167403	2545.384441
511.532010	2546.001983
511.896561	2544.540048
512.261053	2546.473330
512.625488	2543.083154
512.989866	2541.230530
513.354186	2544.477033
513.718449	2540.371014
514.082655	2543.022661
514.446803	2546.750594
514.810894	2544.638350
515.174927	2548.583053
515.538904	2545.001313
515.902822	2543.902342
516.266684	2543.972918
516.630488	2544.250182
516.994235	2548.094061
517.357925	2547.012734
517.721558	2546.019627
518.085133	2547.408464
518.448651	2544.066179
518.812112	2546.506098
519.175516	2545.318906
519.538863	2546.014585
519.902152	2545.767569
520.265385	2545.449976
520.628560	2546.312013
520.991678	2547.731098
521.354739	2546.448125
521.717743	2547.647919
522.080690	2544.277908
522.443580	2547.612631
522.806413	2546.959802
523.169189	2548.404092
523.531908	2546.690100
523.894569	2543.856972
524.257174	2548.008362
524.619722	2545.011396
524.982213	2545.936447
525.344647	2548.419216
525.707025	2543.675490
526.069345	2546.740512
526.431608	2545.951571
526.793815	2546.092723
527.155964	2545.820501
527.518057	2546.007024
527.880093	2545.442414
528.242072	2548.605738
528.603995	2548.343598
528.965860	2548.386448
529.327669	2546.811088
529.689421	2547.658002
530.051117	2548.772097
530.412755	2545.182795
530.774337	2549.641696
531.135862	2546.773279
531.497331	2543.665408
531.858743	2541.747249
532.220098	2545.931406
532.581396	2541.447300
532.942638	2543.481406
533.303824	2546.425439
533.664953	2550.516336
534.026025	2548.814946
534.387040	2547.010213
534.747999	2546.924514
535.108902	2545.291180
535.469748	2548.005841
535.830537	2545.243289
536.191270	2547.942827
536.551947	2544.590459
536.912567	2547.547096
537.273131	2549.825698
537.633638	2546.155738
537.994089	2547.045501
538.354483	2544.371169
538.714821	2547.428629
539.075103	2544.746735
539.435328	2548.706562
539.795497	2547.905018
540.155609	2547.582384
540.515665	2547.244627
540.875665	2549.054401
541.235609	2547.723537
541.595496	2548.968702
541.955328	2547.698331
542.315102	2547.547096
542.674821	2545.427291
543.034483	2545.686910
543.394090	2542.599204
543.753640	2549.918959
544.113134	2548.489792
544.472571	2548.371325
544.831953	2550.042467
545.191278	2546.501057
545.550548	2547.136242
545.909761	2544.746735
546.268918	2546.826211
546.628019	2547.615152
546.987064	2546.115408
547.346053	2546.478372
547.704986	2547.776469
548.063863	2548.472148
548.422684	2547.506767
548.781449	2547.194215
549.140158	2548.414175
549.498811	2548.903167
549.857408	2550.526418
550.215949	2542.863864
550.574434	2544.131714
550.932864	2548.348640
551.291237	2544.121632
551.649555	2549.775286
552.007817	2545.969215
552.366022	2547.592467
552.724173	2547.534493
553.082267	2546.450645
553.440305	2548.020965
553.798288	2550.271840
554.156215	2547.620193
554.514086	2547.239586
554.871902	2547.443753
555.229661	2547.955430
555.587365	2546.816129
555.945014	2545.467620
556.302606	2548.066335
556.660143	2548.835111
557.017625	2546.163299
557.375050	2547.436191
557.732421	2548.338557
558.089735	2545.651622
558.446994	2548.724206
558.804197	2548.933413
559.161345	2547.675646
559.518437	2547.700851
559.875474	2549.482899
560.232455	2549.419885
560.589381	2547.186654
560.946251	2551.859803
561.303065	2549.447611
561.659825	2547.229503
562.016528	2548.993907
562.373177	2548.550286
562.729770	2544.391334
563.086307	2547.060625
563.442789	2547.002652
563.799216	2547.784030
564.155587	2547.547096
564.511904	2548.290666
564.868164	2550.491130
565.224370	2548.751932
565.580520	2545.588608
565.936615	2546.274205
566.292654	2547.892415
566.648638	2549.135060
567.004567	2547.922662
567.360441	2548.187323
567.716260	2548.666232
568.072023	2548.157076
568.427732	2541.659028
568.783385	2543.965356
569.138982	2543.617517
569.494525	2546.385110
569.850013	2540.885211
570.205445	2549.916438
570.560823	2545.802857
570.916145	2545.321427
571.271412	2545.046684
571.626625	2549.785368
571.981782	2547.756304
572.336884	2546.511139
572.691931	2549.064483
573.046923	2547.673125
573.401860	2545.328988
573.756743	2546.188505
574.111570	2548.003321
574.466342	2547.171530
574.821059	2548.267981
575.175722	2548.986346
575.530330	2548.943496
575.884882	2550.135729
576.239380	2548.782179
576.593823	2550.095399
576.948211	2548.008362
577.302544	2546.117929
577.656823	2545.636499
578.011047	2546.899308
578.365216	2546.138094
578.719330	2548.399051
579.073389	2547.229503
579.427394	2547.143804
579.781344	2547.410985
580.135239	2546.783361
580.489080	2547.098433
580.842866	2546.420398
581.196597	2545.301262
581.550273	2548.678835
581.903895	2548.623383
582.257463	2547.680687
582.610975	2547.821839
582.964434	2548.262940
583.317837	2549.924000
583.671186	2548.875440
584.024481	2546.107847
584.377721	2549.737477
584.730906	2549.689587
585.084037	2551.048178
585.437113	2546.511139
585.790135	2545.938968
586.143103	2550.158414
586.496016	2547.642878
586.848874	2542.190870
587.201679	2545.124822
587.554428	2544.648433
587.907124	2543.854451
588.259765	2542.163144
588.612352	2545.946530
588.964884	2544.391334
589.317362	2545.487785
589.669786	2546.216232
590.022155	2549.301418
590.374470	2548.600697
590.726731	2547.973074
591.078937	2545.702034
591.431090	2544.966025
591.783188	2546.798485
592.135232	2542.072403
592.487222	2543.753628
592.839157	2542.571477
593.191038	2544.003165
593.542866	2547.955430
593.894639	2544.177085
594.246358	2550.533980
594.598022	2543.945192
594.949633	2545.331509
595.301190	2543.594832
595.652692	2546.140614
596.004141	2546.092723
596.355535	2547.504246
596.706876	2545.971736
597.058162	2545.220604
597.409395	2545.291180
597.760573	2544.492157
598.111698	2545.911242
598.462768	2547.342929
598.813785	2544.950902
599.164748	2546.120450
599.515657	2545.334030
599.866511	2544.633309
600.217312	2544.358566
600.568060	2543.249512
600.918753	2547.935265
601.269392	2546.128011
601.619978	2544.182126
601.970510	2548.875440
602.320988	2547.317724
602.671412	2544.839997
603.021783	2545.150028
603.372100	2545.644061
603.722363	2543.267157
604.072572	2546.072559
604.422728	2545.296221
604.772830	2543.332692
605.122878	2541.164995
605.472872	2544.287990
605.822813	2539.839172
606.172701	2542.516025
606.522534	2544.003165
606.872314	2546.496016
607.222041	2543.804039
607.571714	2542.435366
607.921333	2546.551468
608.270899	2546.591797
608.620411	2544.779503
608.969870	2547.289997
609.319276	2548.333516
609.668627	2551.204453
610.017926	2553.682180
610.367171	2552.832746
610.716362	2552.769732
611.065500	2551.358208
611.414585	2550.118085
611.763616	2547.602549
612.112594	2549.785368
612.461518	2544.204811
612.810389	2545.931406
613.159207	2547.053063
613.507971	2546.801005
613.856682	2546.226314
614.205340	2544.509801
614.553945	2550.019782
614.902496	2547.494164
615.250994	2549.160265
615.599439	2546.886705
615.947830	2548.565409
616.296169	2548.318393
616.644454	2543.632640
616.992686	2543.642723
617.340864	2546.390151
617.688990	2545.384441
618.037063	2545.160110
618.385082	2546.072559
618.733048	2550.939793
619.080961	2546.153217
619.428821	2545.334030
619.776628	2545.434853
620.124382	2549.261088
620.472083	2544.978628
620.819731	2546.029709
621.167326	2547.496685
621.514868	2548.406613
621.862357	2543.637681
622.209793	2547.509287
622.557176	2546.949719
622.904506	2540.310520
623.251783	2540.582742
623.599007	2545.059287
623.946179	2541.785057
624.293297	2543.930068
624.640363	2544.091385
624.987376	2544.771941
625.334336	2543.955274
625.681243	2544.285470
626.028097	2543.216745
626.374899	2543.030222
626.721647	2544.401416
627.068343	2543.284801
627.414987	2542.107691
627.761577	2547.403423
628.108115	2544.545089
628.454600	2545.172713
628.801032	2543.846889
629.147412	2543.483926
629.493739	2545.265974
629.840014	2543.960315
630.186236	2546.664894
630.532405	2545.041643
630.878521	2542.727753
631.224585	2541.991745
631.570597	2540.754141
631.916556	2541.033925
632.262462	2542.364790
632.608316	2544.046015
632.954117	2540.101312
633.299866	2540.481919
633.645562	2543.375541
633.991206	2543.057949
634.336797	2543.635161
634.682336	2542.205994
635.027823	2540.988555
635.373257	2543.476364
635.718639	2541.260777
636.063968	2541.104502
636.409245	2541.958977
636.754470	2540.965870
637.099642	2541.298586
637.444762	2541.631302
637.789829	2542.213555
638.134845	2541.268339
638.479808	2540.880170
638.824719	2542.127856
639.169577	2541.827907
639.514383	2541.613658
639.859137	2539.456044
640.203839	2544.809750
640.548489	2540.086188
640.893086	2538.198276
641.237632	2537.293389
641.582125	2540.567619
641.926566	2536.564942
642.270955	2542.914276
642.615292	2537.033770
642.959576	2538.944367
643.303809	2542.750438
643.647990	2542.642053
643.992118	2540.277752
644.336195	2544.076262
644.680219	2540.996117
645.024192	2542.460572
645.368112	2543.864533
645.711981	2540.368493
646.055797	2543.453679
646.399562	2542.263967
646.743274	2540.176929
647.086935	2541.727084
647.430544	2543.473844
647.774101	2541.964018
648.117606	2540.948226
648.461059	2542.639533
648.804460	2541.895963
649.147810	2545.911242
649.491108	2540.202135
649.834354	2542.717671
650.177548	2540.287835
650.520690	2542.006868
650.863781	2543.587270
651.206820	2542.836138
651.549807	2543.214224
651.892742	2543.640202
652.235626	2542.095088
652.578458	2540.247505
652.921238	2538.064686
653.263967	2540.486960
653.606644	2540.050900
653.949269	2541.162475
654.291843	2540.862526
654.634365	2542.634492
654.976836	2538.704912
655.319255	2541.117104
655.661622	2541.273380
656.003938	2542.100129
656.346203	2539.987886
656.688416	2540.522248
657.030577	2538.611651
657.372687	2540.297917
657.714746	2536.564943
658.056753	2538.336908
658.398708	2537.679037
658.740612	2537.915972
659.082465	2539.498894
659.424266	2540.129038
659.766016	2535.362627
660.107715	2539.902186
660.449362	2540.983514
660.790958	2542.808412
661.132503	2541.170037
661.473996	2541.076775
661.815438	2537.956301
662.156829	2540.663401
662.498168	2541.863195
662.839456	2538.551157
663.180693	2540.035777
663.521879	2541.782537
663.863013	2539.198945
664.204097	2540.403781
664.545129	2539.017464
664.886110	2541.182639
665.227040	2539.259439
665.567918	2540.703730
665.908746	2541.061652
666.249522	2539.607279
666.590248	2540.653318
666.930922	2540.625592
667.271545	2539.957639
667.612118	2539.531662
667.952639	2541.747249
668.293109	2541.220448
668.633528	2539.831610
668.973896	2542.145500
669.314213	2538.410005
669.654480	2541.187681
669.994695	2537.288348
670.334859	2540.791950
670.674973	2539.377906
671.015035	2539.788760
671.355047	2539.635005
671.695008	2537.253060
672.034918	2539.876981
672.374777	2541.348997
672.714585	2541.215407
673.054342	2541.162475
673.394049	2542.032074
673.733705	2541.643905
674.073310	2539.703061
674.412864	2540.683565
674.752368	2539.917310
675.091820	2540.345808
675.431223	2537.537885
675.770574	2539.645088
676.109875	2534.165353
676.449125	2537.711805
676.788324	2537.432021
677.127473	2536.638039
677.466571	2536.443955
677.805619	2538.551157
678.144616	2538.866229
678.483562	2539.753472
678.822458	2539.786240
679.161303	2539.675334
679.500098	2539.912269
679.838842	2538.997299
680.177535	2540.055942
680.516179	2538.689789
680.854771	2541.580891
681.193314	2540.912938
681.531805	2540.209697
681.870247	2542.483257
682.208638	2541.490150
682.546978	2540.174409
682.885268	2539.884542
683.223508	2540.958308
683.561697	2539.516538
683.899836	2540.381096
684.237925	2541.200283
684.575963	2539.226672
684.913951	2541.984183
685.251889	2538.795653
685.589776	2539.587114
685.927614	2539.962680
686.265401	2537.752134
686.603137	2540.628112
686.940824	2538.369676
687.278460	2539.685417
687.616046	2540.270191
687.953582	2542.306817
688.291068	2540.320602
688.628504	2540.257588
688.965889	2539.216589
689.303224	2538.871270
689.640510	2538.067206
689.977745	2537.283307
690.314930	2537.043852
690.652065	2541.626261
690.989150	2540.436549
691.326185	2541.485109
691.663170	2538.654501
692.000105	2538.561239
692.336990	2540.192053
692.673825	2537.883204
693.010610	2539.791281
693.347345	2537.076620
693.684030	2532.030425
694.020665	2536.096115
694.357251	2533.578059
694.693786	2536.721218
695.030272	2540.590304
695.366707	2537.399253
695.703093	2538.326826
696.039429	2537.633667
696.375716	2540.020653
696.711952	2539.584594
697.048139	2536.585107
697.384276	2537.739531
697.720363	2539.665252
698.056400	2537.515200
698.392388	2535.934798
698.728326	2536.985879
699.064214	2536.272556
699.400053	2539.324974
699.735842	2537.739531
700.071581	2538.437731
700.407270	2536.385982
700.742910	2536.985879
701.078501	2537.464788
701.414042	2539.773637
701.749533	2538.296579
702.084974	2538.309182
702.420366	2535.954963
702.755709	2539.869419
703.091002	2537.250539
703.426246	2538.470499
703.761440	2538.039480
704.096584	2538.818338
704.431679	2535.357586
704.766725	2538.420087
705.101721	2534.828265
705.436668	2540.113915
705.771565	2537.152237
706.106413	2538.873791
706.441212	2535.380271
706.775961	2539.579552
707.110661	2537.941178
707.445311	2537.285827
707.779913	2538.316743
708.114465	2539.156096
708.448967	2540.560057
708.783421	2537.888245
709.117825	2535.428162
709.452180	2535.728111
709.786485	2536.837165
710.120742	2539.476209
710.454949	2536.648122
710.789107	2536.068389
711.123216	2532.312729
711.457275	2535.922195
711.791286	2533.903213
712.125247	2537.038811
712.459159	2538.495704
712.793023	2540.769265
713.126837	2535.027391
713.460602	2539.584594
713.794318	2540.333205
714.127985	2535.990251
714.461602	2540.807073
714.795171	2539.970242
715.128691	2538.788091
715.462162	2539.461085
715.795584	2538.329346
716.128957	2536.406146
716.462281	2537.931095
716.795556	2536.116280
717.128782	2537.603420
717.461960	2535.090405
717.795088	2537.628626
718.128167	2539.352701
718.461198	2537.253060
718.794180	2537.757175
719.127113	2538.999820
719.459997	2537.502597
719.792833	2537.058976
720.125619	2538.442772
720.458357	2536.118800
720.791046	2537.737011
721.123686	2538.944367
721.456278	2537.747093
721.788821	2537.321116
722.121315	2535.544109
722.453761	2536.073430
722.786158	2537.343801
723.118506	2536.131403
723.450805	2537.805066
723.783056	2536.257432
724.115259	2536.542257
724.447412	2536.005374
724.779518	2538.258770
725.111574	2536.325488
725.443582	2536.935467
725.775542	2538.170550
726.107453	2536.988399
726.439315	2535.009747
726.771129	2540.441590
727.102895	2533.721732
727.434612	2536.640560
727.766281	2535.884387
728.097901	2534.251053
728.429473	2531.816176
728.760996	2533.714170
729.092471	2529.093953
729.423897	2536.257432
729.755276	2537.787422
730.086606	2538.909079
730.417887	2535.355066
730.749120	2537.396733
731.080305	2538.364634
731.411442	2534.709798
731.742530	2536.985879
732.073570	2536.537216
732.404562	2537.525282
732.735506	2536.010416
733.066401	2537.991589
733.397249	2540.093750
733.728048	2536.779192
734.058798	2538.047042
734.389501	2537.918492
734.720156	2539.030067
735.050762	2534.319108
735.381320	2536.244829
735.711831	2536.562422
736.042293	2537.865560
736.372707	2536.572504
736.703073	2535.806249
737.033391	2535.453368
737.363661	2534.994623
737.693883	2536.859850
738.024056	2538.016795
738.354182	2535.544109
738.684260	2538.226003
739.014290	2535.420601
739.344272	2536.131403
739.674207	2535.183666
740.004093	2537.079140
740.333931	2536.998482
740.663722	2536.146527
740.993464	2536.978317
741.323159	2536.885056
741.652806	2534.054448
741.982405	2535.924716
742.311956	2535.839016
742.641460	2539.052752
742.970915	2534.064530
743.300323	2535.592000
743.629683	2536.874973
743.958996	2537.792463
744.288260	2535.213913
744.617477	2535.191228
744.946647	2533.326001
745.275768	2531.891793
745.604842	2530.099663
745.933869	2530.497914
746.262847	2530.654190
746.591778	2535.667617
746.920662	2535.965045
747.249498	2536.627957
747.578286	2533.633512
747.907027	2532.040507
748.235720	2535.357586
748.564365	2536.438914
748.892963	2537.061496
749.221514	2536.224665
749.550017	2532.910106
749.878473	2537.643749
750.206881	2534.430014
750.535242	2535.791125
750.863555	2537.580735
751.191821	2534.987061
751.520039	2538.447813
751.848210	2534.939170
752.176334	2535.886907
752.504411	2535.675179
752.832440	2536.587628
753.160421	2536.199459
753.488356	2536.227185
753.816243	2534.493028
754.144082	2536.398584
754.471875	2535.125693
754.799620	2537.472350
755.127318	2533.968748
755.454969	2536.491846
755.782572	2533.777184
756.110129	2536.043183
756.437638	2534.949253
756.765100	2532.227030
757.092515	2533.293234
757.419882	2531.037317
757.747203	2538.692309
758.074477	2534.871115
758.401703	2534.190559
758.728882	2540.459234
759.056014	2536.688451
759.383099	2535.077802
759.710138	2536.859850
760.037129	2535.740714
760.364073	2534.021680
760.690970	2535.561753
761.017820	2536.786753
761.344623	2534.230888
761.671379	2535.667617
761.998088	2531.390198
762.324751	2534.666948
762.651366	2529.106555
762.977935	2536.673327
763.304456	2533.812472
763.630931	2538.599048
763.957359	2536.771630
764.283740	2535.864222
764.610074	2534.152750
764.936362	2536.655683
765.262602	2534.792977
765.588796	2534.286341
765.914943	2536.615354
766.241044	2534.966897
766.567097	2530.855836
766.893104	2536.370858
767.219064	2533.154602
767.544978	2534.165353
767.870845	2536.358255
768.196665	2535.602082
768.522438	2533.852802
768.848165	2534.117462
769.173846	2535.924716
769.499479	2533.872966
769.825066	2533.464633
770.150607	2534.062010
770.476101	2534.119983
770.801548	2533.925898
771.126949	2533.530168
771.452303	2536.779192
771.777611	2531.546474
772.102872	2533.900693
772.428087	2533.021011
772.753256	2535.949922
773.078378	2531.470857
773.403453	2533.973789
773.728482	2532.048069
774.053465	2532.637884
774.378401	2533.136958
774.703291	2532.552184
775.028135	2533.570497
775.352932	2535.254243
775.677683	2531.475898
776.002388	2534.931609
776.327046	2533.517565
776.651658	2532.821886
776.976224	2534.331711
777.300743	2535.198790
777.625216	2535.821372
777.949643	2533.630991
778.274024	2535.511341
778.598359	2532.930271
778.922647	2529.348531
779.246889	2530.182842
779.571086	2528.342821
779.895236	2529.925743
780.219339	2532.216947
780.543397	2532.897503
780.867409	2534.581248
781.191374	2534.220806
781.515294	2534.540919
781.839167	2532.171577
782.162995	2534.233409
782.486776	2533.290713
782.810511	2536.393543
783.134201	2533.366330
783.457844	2533.247863
783.781441	2533.688964
784.104993	2533.174767
784.428498	2532.804242
784.751958	2532.630322
785.075372	2536.350693
785.398739	2533.542771
785.722061	2534.407329
786.045337	2532.673172
786.368568	2533.043697
786.691752	2534.062010
787.014891	2532.597554
787.337983	2531.448171
787.661030	2535.057638
787.984031	2534.966897
788.306987	2535.425642
788.629897	2532.569828
788.952760	2534.656866
789.275579	2533.636032
789.598351	2533.946063
789.921078	2531.054961
790.243759	2536.653163
790.566395	2534.447658
790.888984	2534.140147
791.211529	2532.705939
791.534027	2532.484128
791.856480	2535.740714
792.178888	2532.791639
792.501249	2534.881197
792.823566	2536.333049
793.145836	2534.336753
793.468062	2534.470343
793.790241	2532.668131
794.112375	2533.658717
794.434464	2535.344983
794.756507	2532.753830
795.078505	2533.199972
795.400457	2534.596372
795.722364	2527.601771
796.044226	2532.063192
796.366042	2527.886596
796.687812	2530.200486
797.009538	2534.578728
797.331218	2533.842719
797.652852	2536.312885
797.974442	2533.043697
798.295986	2533.043697
798.617484	2533.162164
798.938938	2531.377595
799.260346	2533.925898
799.581709	2531.745599
799.903026	2535.450848
800.224299	2531.367513
800.545526	2533.782226
800.866708	2531.909437
801.187845	2535.032432
801.508936	2530.697039
801.829983	2532.811803
802.150984	2531.168387
802.471940	2533.903213
802.792851	2530.603778
803.113717	2534.886238
803.434538	2532.589993
803.755314	2534.341794
804.076045	2530.603778
804.396731	2530.429858
804.717372	2531.967410
805.037967	2532.078316
805.358518	2531.402801
805.679024	2535.045035
805.999485	2532.234591
806.319901	2532.126207
806.640272	2531.642256
806.960598	2532.363141
807.280879	2529.794673
807.601115	2533.406660
807.921306	2532.607637
808.241453	2530.986906
808.561554	2531.803573
808.881611	2530.316432
809.201623	2532.925229
809.521590	2535.367668
809.841513	2533.441948
810.161390	2532.390867
810.481223	2531.322142
810.801011	2535.390354
811.120755	2532.431196
811.440453	2531.276772
811.760107	2532.348017
812.079716	2529.769467
812.399281	2528.768798
812.718801	2530.434899
813.038276	2524.942562
813.357707	2531.150743
813.677093	2531.213758
813.996434	2532.350538
814.315731	2534.195600
814.634983	2532.413552
814.954191	2533.338604
815.273354	2534.578728
815.592473	2533.643594
815.911547	2532.900024
816.230577	2533.106711
816.549562	2532.826927
816.868502	2530.911288
817.187399	2532.937832
817.506250	2532.078316
817.825058	2532.789118
818.143821	2533.356248
818.462539	2534.026722
818.781213	2535.592000
819.099843	2530.860877
819.418429	2531.317101
819.736970	2536.151568
820.055466	2534.069571
820.373919	2532.012781
820.692327	2531.428007
821.010691	2537.522762
821.329011	2534.082174
821.647286	2540.116435
821.965517	2545.535676
822.283704	2548.101623
822.601847	2548.751932
822.919945	2545.308824
823.237999	2541.981662
823.556010	2541.432177
823.873976	2539.398071
824.191897	2539.065355
824.509775	2535.365148
824.827609	2534.976979
825.145398	2535.221475
825.463144	2536.600231
825.780845	2536.007895
826.098502	2535.317257
826.416116	2534.321629
826.733685	2535.649973
827.051210	2539.004861
827.368692	2539.385468
827.686129	2534.959335
828.003522	2536.204500
828.320872	2531.886752
828.638177	2532.950435
828.955439	2533.046217
829.272656	2529.852646
829.589830	2530.634025
829.906960	2531.833820
830.224046	2531.329704
830.541088	2532.443799
830.858086	2531.407842
831.175041	2530.903727
831.491952	2532.864736
831.808819	2531.990095
832.125642	2530.989426
832.442421	2531.959848
832.759157	2532.950435
833.075849	2534.329191
833.392497	2537.051414
833.709101	2532.494211
834.025662	2538.515869
834.342179	2533.555374
834.658653	2536.038142
834.975083	2534.276259
835.291469	2538.530993
835.607811	2533.268028
835.924110	2532.229550
836.240366	2532.390867
836.556578	2532.179139
836.872746	2533.504962
837.188871	2532.055630
837.504952	2533.477236
837.820990	2532.390867
838.136984	2530.651669
838.452935	2530.384488
838.768842	2533.610826
839.084706	2530.755013
839.400526	2533.469674
839.716303	2530.444982
840.032037	2533.535209
840.347727	2532.015301
840.663373	2532.874818
840.978977	2531.049920
841.294537	2529.098994
841.610054	2532.484128
841.925527	2531.173428
842.240957	2531.813655
842.556344	2530.379447
842.871687	2533.104190
843.186987	2530.321473
843.502244	2531.223840
843.817458	2528.718387
844.132629	2530.782739
844.447756	2530.858356
844.762840	2525.386184
845.077881	2528.418438
845.392879	2524.929959
845.707833	2530.477749
846.022745	2524.078004
846.337613	2532.060672
846.652438	2531.909437
846.967221	2530.515558
847.281960	2529.860208
847.596656	2531.007070
847.911309	2531.974972
848.225919	2532.980682
848.540485	2530.011443
848.855009	2529.925743
849.169490	2530.056813
849.483928	2530.762574
849.798323	2530.316432
850.112675	2533.598223
850.426984	2529.618232
850.741251	2529.963552
851.055474	2531.780888
851.369654	2530.273582
851.683792	2531.743079
851.997887	2527.437933
852.311938	2528.184024
852.625947	2528.909950
852.939914	2530.467667
853.253837	2532.930271
853.567718	2531.349869
853.881555	2531.259128
854.195350	2529.018335
854.509103	2530.215609
854.822812	2529.456916
855.136479	2531.193593
855.450103	2529.744261
855.763685	2531.715352
856.077224	2530.588655
856.390720	2530.870959
856.704173	2530.485311
857.017584	2529.950949
857.330953	2528.335259
857.644278	2530.457585
857.957561	2531.922040
858.270802	2531.022194
858.584000	2528.239477
858.897155	2529.411545
859.210268	2532.330373
859.523339	2533.673841
859.836367	2528.199148
860.149352	2529.582944
860.462295	2528.955321
860.775195	2527.589168
861.088054	2525.381143
861.400869	2528.824251
861.713642	2525.605474
862.026373	2529.749302
862.339062	2530.268541
862.651708	2530.412214
862.964312	2532.373223
863.276873	2530.172759
863.589392	2532.161495
863.901869	2529.688809
864.214303	2533.371372
864.526696	2528.892306
864.839045	2529.797193
865.151353	2530.502955
865.463619	2528.990609
865.775842	2531.612009
866.088023	2530.142513
866.400162	2534.041845
866.712258	2530.011442
867.024313	2530.886083
867.336325	2531.339787
867.648296	2531.944725
867.960224	2528.196627
868.272110	2530.129910
868.583954	2532.663089
868.895755	2533.510003
869.207515	2529.275434
869.519233	2531.675023
869.830909	2530.893644
870.142542	2528.688140
870.454134	2529.872811
870.765684	2529.194776
871.077191	2530.066895
871.388657	2532.022863
871.700081	2531.780888
872.011463	2528.103366
872.322803	2531.831299
872.634101	2528.582275
872.945357	2531.629653
873.256571	2534.228368
873.567744	2528.226874
873.878874	2533.535209
874.189963	2532.383305
874.501010	2530.737369
874.812015	2531.180990
875.122979	2530.855836
875.433900	2528.100845
875.744780	2532.973120
876.055618	2531.992616
876.366415	2528.925074
876.677169	2528.854498
876.987882	2528.599919
877.298554	2525.222346
877.609183	2529.852646
877.919771	2524.209074
878.230317	2527.979857
878.540822	2527.427851
878.851285	2532.733666
879.161707	2529.373737
879.472087	2533.182328
879.782425	2530.833151
880.092722	2535.082843
880.402977	2531.438089
880.713191	2535.100487
881.023363	2538.029398
881.333494	2537.096784
881.643583	2539.103163
881.953631	2538.755324
882.263637	2537.258101
882.573602	2537.411856
882.883526	2533.867925
883.193408	2536.575025
883.503248	2532.937832
883.813048	2534.067051
884.122806	2533.520086
884.432522	2534.803059
884.742197	2530.084539
885.051831	2529.348531
885.361424	2528.884745
885.670975	2532.781557
885.980485	2528.473891
886.289954	2532.229550
886.599382	2531.531350
886.908768	2532.658048
887.218113	2529.625794
887.527417	2533.147040
887.836680	2527.879034
888.145901	2528.005063
888.455082	2531.087729
888.764221	2529.464477
889.073319	2525.371060
889.382376	2530.177801
889.691392	2530.686957
890.000366	2533.343645
890.309300	2531.392719
890.618193	2528.902389
890.927044	2530.815507
891.235855	2528.703263
891.544625	2530.134951
891.853353	2530.550846
892.162041	2529.318284
892.470687	2530.402132
892.779293	2529.240146
893.087858	2526.492717
893.396381	2527.347193
893.704864	2526.585978
894.013306	2527.904240
894.321707	2531.070085
894.630068	2530.215609
894.938387	2530.686957
895.246665	2532.153933
895.554903	2534.104859
895.863100	2531.105373
896.171256	2532.007739
896.479371	2531.024714
896.787446	2531.891793
897.095480	2530.502955
897.403473	2531.727955
897.711425	2528.670496
898.019336	2531.538912
898.327207	2527.309384
898.635038	2529.411545
898.942827	2529.716535
899.250576	2530.981865
899.558284	2530.457585
899.865952	2529.698891
900.173579	2530.719725
900.481165	2528.857018
900.788711	2531.642256
901.096216	2529.083870
901.403681	2527.538757
901.711105	2529.298119
902.018489	2527.790814
902.325832	2531.377595
902.633135	2530.366844
902.940397	2532.126207
903.247619	2530.734848
903.554800	2530.170239
903.861941	2529.018335
904.169041	2533.121834
904.476101	2533.210055
904.783121	2531.095291
905.090100	2532.950435
905.397039	2532.428676
905.703938	2530.994468
906.010796	2530.651669
906.317614	2531.957328
906.624391	2529.255269
906.931129	2529.136802
907.237826	2529.698891
907.544483	2528.857018
907.851099	2529.305681
908.157675	2531.115455
908.464211	2531.143182
908.770707	2524.042716
909.077163	2528.957841
909.383578	2525.255114
909.689954	2525.532377
909.996289	2524.798889
910.302584	2530.765095
910.608839	2528.297450
910.915054	2529.950949
911.221229	2528.461288
911.527363	2530.064375
911.833458	2529.540095
912.139513	2529.177132
912.445527	2528.400794
912.751502	2530.392050
913.057436	2529.865249
913.363331	2528.224353
913.669186	2528.796524
913.975000	2530.931453
914.280775	2528.118489
914.586510	2529.472039
914.892205	2528.693181
915.197859	2532.456402
915.503475	2529.479601
915.809050	2529.983716
916.114585	2531.012112
916.420081	2533.515044
916.725536	2532.126207
917.030952	2532.952956
917.336328	2533.484798
917.641665	2533.376413
917.946961	2530.260980
918.252218	2531.478418
918.557435	2530.318953
918.862612	2529.862728
919.167750	2529.948428
919.472848	2530.558408
919.777906	2530.928933
920.082925	2529.242667
920.387904	2530.354241
920.692843	2529.225023
920.997743	2531.168387
921.302603	2528.531864
921.607423	2529.086391
921.912204	2530.838192
922.216946	2527.642100
922.521647	2529.066226
922.826310	2528.650331
923.130932	2531.866587
923.435516	2529.484642
923.740059	2530.991947
924.044564	2529.106555
924.349028	2529.247708
924.653454	2526.959024
924.957840	2527.619415
925.262186	2524.526667
925.566493	2526.832995
925.870761	2525.439116
926.174989	2526.139836
926.479178	2529.532533
926.783328	2528.673016
927.087438	2527.808458
927.391509	2529.464477
927.695541	2528.426000
927.999533	2527.107738
928.303486	2530.092101
928.607400	2530.691998
928.911275	2526.462470
929.215110	2531.117976
929.518906	2527.412728
929.822663	2530.059333
930.126381	2529.388860
930.430060	2527.778211
930.733699	2529.683768
931.037299	2528.511699
931.340861	2531.203675
931.644383	2527.558921
931.947866	2528.045393
932.251309	2529.550177
932.554714	2527.294261
932.858080	2528.799045
933.161407	2530.066895
933.464694	2528.085722
933.767943	2527.538757
934.071153	2529.068747
934.374323	2529.661082
934.677455	2525.144208
934.980548	2529.577903
935.283602	2527.632018
935.586617	2528.249559
935.889593	2528.105886
936.192530	2527.097656
936.495428	2528.534384
936.798287	2527.286699
937.101108	2525.479445
937.403890	2527.758047
937.706632	2529.111597
938.009336	2527.712676
938.312002	2528.988088
938.614628	2529.577903
938.917216	2526.137316
939.219765	2530.767616
939.522275	2526.316277
939.824747	2530.722245
940.127179	2523.163035
940.429573	2523.465504
940.731929	2525.411390
941.034246	2523.735206
941.336524	2525.295443
941.638763	2528.108407
941.940964	2526.850639
942.243126	2527.856349
942.545250	2528.068078
942.847335	2527.634538
943.149381	2526.921215
943.451389	2525.519774
943.753359	2530.850795
944.055290	2527.795855
944.357182	2527.508510
944.659036	2527.921884
944.960851	2526.248221
945.262628	2531.286854
945.564367	2528.776360
945.866067	2527.760567
946.167729	2528.350382
946.469352	2526.921215
946.770937	2530.555887
947.072484	2527.632018
947.373992	2529.214940
947.675462	2527.914323
947.976893	2528.647810
948.278286	2524.998015
948.579641	2529.968593
948.880958	2527.059847
949.182236	2526.182686
949.483476	2527.208561
949.784678	2529.144364
950.085841	2527.969775
950.386967	2529.504807
950.688054	2526.028931
950.989103	2528.705784
951.290114	2524.483817
951.591087	2527.740403
951.892021	2525.691174
952.192917	2530.041689
952.493776	2527.649662
952.794596	2528.453726
953.095378	2528.577234
953.396122	2529.920702
953.696828	2528.105886
953.997496	2525.981040
954.298126	2528.375588
954.598718	2528.473891
954.899272	2527.183355
955.199788	2526.064219
955.500266	2527.543798
955.800706	2526.258303
956.101108	2522.888292
956.401472	2523.876358
956.701798	2523.780576
957.002087	2522.918539
957.302337	2529.303160
957.602550	2531.430527
957.902724	2525.804600
958.202861	2528.146216
958.502960	2527.064888
958.803022	2527.158149
959.103045	2527.342152
959.403031	2528.264683
959.702979	2529.109076
960.002889	2528.584796
960.302762	2527.347193
960.602596	2525.860052
960.902393	2525.897861
961.202153	2525.371060
961.501875	2524.955165
961.801559	2525.534898
962.101205	2527.500948
962.400814	2527.742923
962.700385	2526.424662
962.999918	2527.954652
963.299414	2526.558252
963.598873	2528.103366
963.898293	2526.825433
964.197677	2527.596730
964.497022	2525.731503
964.796331	2527.964734
965.095601	2524.393077
965.394835	2529.799714
965.694030	2524.738396
965.993189	2527.004394
966.292309	2528.012625
966.591393	2527.339631
966.890439	2526.671678
967.189447	2525.978519
967.488419	2527.992460
967.787353	2524.458612
968.086249	2525.998684
968.385108	2525.078673
968.683930	2525.635721
968.982714	2527.725279
969.281462	2528.080681
969.580172	2527.437933
969.878844	2524.685463
970.177480	2525.532377
970.476078	2528.441123
970.774639	2528.123530
971.073162	2526.714528
971.371649	2524.085566
971.670098	2522.757222
971.968510	2524.589682
972.266885	2522.996677
972.565223	2525.401307
972.863524	2527.571524
973.161788	2530.381967
973.460014	2527.402645
973.758204	2527.848787
974.056356	2527.269055
974.354471	2525.174455
974.652550	2528.526823
974.950591	2529.156967
975.248595	2525.887779
975.546563	2527.974816
975.844493	2528.307533
976.142386	2527.606812
976.440243	2528.229395
976.738062	2528.065557
977.035845	2527.931967
977.333590	2528.284847
977.631299	2527.314425
977.928971	2530.563449
978.226606	2527.173273
978.524204	2526.734692
978.821765	2525.446678
979.119290	2528.267203
979.416777	2527.803417
979.714228	2527.841226
980.011642	2527.085053
980.309020	2526.984230
980.606360	2524.758560
980.903664	2525.008097
981.200931	2525.050947
981.498162	2528.272244
981.795356	2525.660927
982.092513	2527.924405
982.389633	2525.171935
982.686717	2527.448016
982.983764	2527.868952
983.280775	2526.908612
983.577749	2528.121010
983.874686	2527.780732
984.171587	2526.454908
984.468451	2526.500279
984.765279	2527.032121
985.062070	2526.848118
985.358824	2525.819723
985.655543	2527.200999
985.952224	2525.880217
986.248869	2529.126720
986.545478	2522.353930
986.842050	2524.314939
987.138586	2520.483662
987.435086	2523.994825
987.731549	2524.627490
988.027975	2528.012625
988.324366	2525.156811
988.620719	2529.625794
988.917037	2525.623118
989.213318	2525.625639
989.509563	2527.816020
989.805772	2528.801566
990.101944	2525.973478
990.398080	2526.427182
990.694180	2527.266534
990.990244	2524.914836
991.286271	2523.694877
991.582262	2526.233098
991.878217	2527.906761
992.174136	2526.492717
992.470019	2528.446164
992.765865	2527.508510
993.061676	2524.546832
993.357450	2526.754857
993.653188	2528.322656
993.948890	2526.643952
994.244556	2525.103879
994.540186	2525.701256
994.835780	2526.331400
995.131337	2526.381812
995.426859	2527.614374
995.722345	2524.942562
996.017795	2525.799558
996.313208	2527.974816
996.608586	2524.579599
996.903928	2526.996832
997.199234	2525.660927
997.494504	2526.197810
997.789738	2525.945752
998.084936	2528.264683
998.380099	2526.845598
998.675225	2527.503468
998.970316	2529.499765
999.265371	2526.207892
999.560390	2526.424662
999.855373	2529.124199
1000.150320	2525.781914
1000.445232	2526.177645
1000.740108	2525.469363
1001.034948	2525.658406
1001.329752	2525.396266
1001.624521	2525.862573
1001.919254	2521.023065
1002.213951	2522.570699
1002.508613	2521.844773
1002.803239	2523.629342
1003.097829	2522.795031
1003.392384	2524.587161
1003.686903	2523.208405
1003.981386	2527.679909
1004.275834	2525.565145
1004.570246	2525.998684
1004.864623	2525.101359
1005.158964	2526.631349
1005.453270	2525.320649
1005.747540	2527.369878
1006.041775	2527.342152
1006.335974	2526.926256
1006.630138	2523.473066
1006.924266	2525.431554
1007.218359	2526.293592
1007.512416	2524.385515
1007.806438	2526.621267
1008.100425	2527.301822
1008.394376	2525.071112
1008.688292	2527.753006
1008.982172	2526.696884
1009.276017	2525.295443
1009.569827	2525.797038
1009.863602	2527.206040
1010.157341	2524.698066
1010.451045	2525.552542
1010.744714	2525.739065
1011.038347	2526.880886
1011.331945	2524.219157
1011.625508	2527.183355
1011.919036	2525.761750
1012.212528	2525.018180
1012.505986	2525.391225
1012.799408	2525.615556
1013.092795	2526.696884
1013.386147	2528.204189
1013.679464	2524.960206
1013.972745	2524.332583
1014.265992	2525.229908
1014.559204	2525.703777
1014.852380	2525.769312
1015.145521	2525.817203
1015.438628	2524.937521
1015.731699	2526.951462
1016.024736	2523.631862
1016.317737	2527.805938
1016.610703	2524.234280
1016.903635	2522.076666
1017.196531	2520.410565
1017.489393	2522.522808
1017.782219	2519.263703
1018.075011	2524.088087
1018.367768	2523.899043
1018.660490	2525.665968
1018.953177	2525.665968
1019.245829	2525.665968
