Dividing Wavelength (nm)	Counts (n)	Blue Motor Position (mm): 0.000000	Red Motor Position (mm): 16.200000	
326.493990	2130.154681
326.888308	2130.154681
327.282561	2130.154681
327.676750	2099.617892
328.070874	2095.060689
328.464933	2096.608323
328.858929	2103.020671
329.252859	2113.612135
329.646726	2128.080246
330.040528	2139.609365
330.434265	2155.378094
330.827938	2174.668070
331.221547	2190.391428
331.615091	2211.924717
332.008571	2229.064640
332.401986	2249.861920
332.795338	2267.911772
333.188625	2288.482200
333.581847	2307.441980
333.975006	2324.468477
334.368100	2344.083606
334.761129	2361.583972
335.154095	2377.377907
335.546996	2396.204096
335.939833	2412.313103
336.332606	2424.777356
336.725315	2437.917123
337.117960	2446.613114
337.510540	2453.060750
337.903056	2467.629684
338.295508	2471.390385
338.687896	2482.611993
339.080220	2488.651296
339.472480	2498.584889
339.864676	2501.564211
340.256807	2509.350273
340.648875	2508.117711
341.040879	2512.233813
341.432818	2515.203053
341.824694	2515.190450
342.216506	2516.347395
342.608253	2516.599453
342.999937	2515.195491
343.391557	2515.112312
343.783113	2514.555265
344.174605	2515.066942
344.566033	2511.225583
344.957397	2512.110305
345.348697	2506.050838
345.739934	2505.216527
346.131106	2503.767196
346.522215	2507.500170
346.913260	2499.514982
347.304241	2499.197390
347.695159	2498.103459
348.086012	2495.676144
348.476802	2493.236225
348.867528	2495.477018
349.258191	2490.188848
349.648789	2488.210195
350.039324	2488.757160
350.429796	2490.854280
350.820203	2488.656337
351.210548	2484.028558
351.600828	2481.805409
351.991045	2483.317755
352.381198	2481.928917
352.771288	2483.622745
353.161314	2481.392034
353.551276	2482.722899
353.941175	2481.414719
354.331010	2483.776500
354.720782	2483.100985
355.110490	2482.564103
355.500135	2481.427322
355.889717	2486.052581
356.279235	2482.304483
356.668689	2483.743733
357.058080	2483.673156
357.447408	2482.712817
357.836672	2481.656695
358.225873	2483.489154
358.615010	2479.320120
359.004084	2487.461583
359.393095	2485.523260
359.782043	2490.047695
360.170927	2488.121975
360.559748	2490.435864
360.948505	2492.283447
361.337199	2492.490134
361.725830	2492.694301
362.114398	2491.865031
362.502903	2490.324959
362.891344	2495.577841
363.279722	2494.090701
363.668037	2494.110865
364.056289	2492.608602
364.444478	2496.447440
364.832603	2496.765033
365.220665	2496.512975
365.608665	2494.473828
365.996601	2496.737307
366.384474	2501.506238
366.772284	2498.337873
367.160031	2500.024139
367.547715	2500.535816
367.935336	2505.561846
368.322893	2509.304903
368.710388	2512.596777
369.097820	2519.062056
369.485189	2519.399814
369.872495	2529.739220
370.259738	2531.556556
370.646918	2542.037115
371.034035	2547.892415
371.421090	2560.013870
371.808081	2568.722463
372.195010	2578.217476
372.581875	2591.047213
372.968678	2603.350149
373.355418	2613.079576
373.742096	2632.694705
374.128710	2646.860347
374.515262	2665.159736
374.901751	2677.717250
375.288177	2689.826102
375.674540	2713.799309
376.060841	2730.634242
376.447079	2750.272057
376.833254	2769.176384
377.219367	2780.965122
377.605417	2820.596153
377.991404	2829.234170
378.377329	2850.805267
378.763191	2868.958462
379.148991	2906.459606
379.534727	2930.987340
379.920402	2959.953810
380.306013	2969.252218
380.691563	3020.374559
381.077049	3043.163095
381.462474	3059.526681
381.847835	3101.118721
382.233134	3120.446504
382.618371	3119.728140
383.003545	3187.919828
383.388657	3193.127340
383.773706	3228.697722
384.158693	3246.339239
384.543618	3269.132817
384.928480	3305.809731
385.313280	3349.589632
385.698017	3350.612986
386.082692	3402.315060
386.467305	3405.972417
386.851856	3436.352931
387.236344	3461.919143
387.620770	3491.689677
388.005133	3520.310828
388.389435	3542.668345
388.773674	3557.895150
389.157851	3599.734206
389.541965	3616.387658
389.926018	3581.888522
390.310008	3651.927793
390.693936	3669.856656
391.077802	3708.272769
391.461606	3698.127447
391.845348	3760.214298
392.229027	3760.156325
392.612645	3771.108231
392.996200	3848.265612
393.379694	3887.896642
393.763125	3951.838638
394.146494	3917.526024
394.529801	3985.654698
394.913047	4029.225391
395.296230	3993.586953
395.679351	4045.881363
396.062410	4070.991350
396.445408	4050.524266
396.828343	4080.365376
397.211217	4101.724745
397.594028	4017.245088
397.976778	4079.243719
398.359466	4101.843212
398.742092	4126.711224
399.124656	4041.026732
399.507158	4110.171198
399.889598	4124.326758
400.271977	4175.491949
400.654294	4135.490393
401.036549	4133.191627
401.418742	4086.765121
401.800874	4168.164632
402.182944	4170.344931
402.564952	4211.934450
402.946898	4181.742980
403.328783	4156.622910
403.710606	4058.617838
404.092367	4204.392884
404.474067	4152.322806
404.855705	4132.165752
405.237282	4050.458731
405.618797	4109.646918
406.000250	4111.754120
406.381642	4146.084378
406.762972	4084.723453
407.144240	4062.008014
407.525447	4030.185730
407.906593	4040.247873
408.287677	4031.163714
408.668700	3948.526600
409.049661	3945.310344
409.430560	3932.672171
409.811399	3842.712781
410.192176	3908.061258
410.572891	3829.058815
410.953545	3851.065972
411.334138	3742.161926
411.714669	3735.590782
412.095139	3642.389930
412.475547	3669.072757
412.855894	3618.409161
413.236180	3578.899118
413.616405	3515.567102
413.996568	3517.124818
414.376670	3450.538738
414.756711	3393.659399
415.136691	3363.115048
415.516609	3350.940661
415.896466	3325.863441
416.276262	3298.510141
416.655997	3251.778644
417.035670	3266.776077
417.415283	3254.324427
417.794834	3200.313505
418.174324	3154.209632
418.553753	3096.745520
418.933121	3102.726849
419.312428	3077.372365
419.691674	3028.644572
420.070859	3019.494878
420.449983	2970.336066
420.829045	2957.728141
421.208047	2919.251534
421.586988	2899.235633
421.965867	2871.927702
422.344686	2860.146526
422.723444	2821.148159
423.102141	2782.895884
423.480777	2789.590536
423.859352	2751.320617
424.237866	2749.054618
424.616319	2730.926629
424.994712	2719.412634
425.373044	2697.970086
425.751314	2685.745288
426.129524	2663.619663
426.507673	2661.787204
426.885762	2650.404279
427.263789	2633.518934
427.641756	2620.568210
428.019662	2614.493619
428.397508	2607.383072
428.775292	2597.371340
429.153016	2593.151894
429.530679	2585.844742
429.908282	2578.978690
430.285824	2571.497618
430.663305	2573.193966
431.040726	2563.209961
431.418086	2560.331462
431.795385	2562.121072
432.172624	2556.175031
432.549802	2555.270144
432.926920	2551.050698
433.303977	2551.340564
433.680974	2549.440049
434.057910	2549.641696
434.434786	2546.974925
434.811601	2546.314534
435.188355	2544.056097
435.565050	2543.665408
435.941683	2543.758669
436.318257	2540.537372
436.694770	2537.986548
437.071222	2541.248174
437.447614	2539.246836
437.823946	2538.354552
438.200218	2538.838503
438.576429	2541.636343
438.952580	2538.329346
439.328670	2538.331867
439.704700	2538.851106
440.080670	2539.357742
440.456580	2538.586445
440.832429	2538.967052
441.208218	2537.469830
441.583947	2540.892773
441.959616	2537.618544
442.335224	2537.840354
442.710773	2539.738349
443.086261	2540.534851
443.461689	2538.977135
443.837057	2542.649615
444.212365	2542.213555
444.587612	2538.841023
444.962800	2540.305479
445.337927	2543.120963
445.712995	2537.621064
446.088002	2540.938143
446.462949	2538.775488
446.837837	2540.802032
447.212664	2541.220448
447.587431	2540.517207
447.962139	2543.788916
448.336786	2546.402754
448.711374	2541.081816
449.085901	2542.999975
449.460369	2542.911755
449.834776	2539.932433
450.209124	2541.495191
450.583412	2542.533669
450.957640	2543.821683
451.331808	2543.244471
451.705917	2542.079965
452.079965	2541.822866
452.453954	2542.450490
452.827883	2541.926210
453.201752	2542.208514
453.575562	2539.592155
453.949311	2544.028371
454.323001	2542.417722
454.696632	2540.857485
455.070202	2545.621375
455.443713	2546.246478
455.817164	2541.343956
456.190556	2542.856303
456.563888	2541.790098
456.937160	2539.939995
457.310373	2542.851261
457.683526	2545.054246
458.056619	2542.773123
458.429653	2542.896632
458.802628	2544.179605
459.175542	2546.798485
459.548398	2545.959133
459.921194	2547.945347
460.293930	2549.520708
460.666607	2549.273691
461.039224	2549.949206
461.411782	2550.160934
461.784280	2552.608415
462.156719	2548.635985
462.529099	2550.478527
462.901419	2550.501212
463.273680	2549.377035
463.645882	2549.384597
464.018024	2549.692107
464.390106	2547.509288
464.762130	2553.359547
465.134094	2552.701676
465.505999	2560.785166
465.877845	2559.608057
466.249631	2562.988150
466.621358	2561.324570
466.993026	2560.550752
467.364634	2564.029149
467.736184	2559.633262
468.107674	2557.059753
468.479105	2554.211502
468.850477	2557.631924
469.221790	2557.702501
469.593043	2555.260062
469.964238	2553.740154
470.335373	2555.892726
470.706449	2558.259548
471.077467	2557.815927
471.448425	2561.077553
471.819324	2564.046793
472.190164	2564.790363
472.560945	2559.391287
472.931667	2558.015052
473.302330	2555.013045
473.672934	2554.607232
474.043479	2559.078736
474.413965	2555.560010
474.784393	2554.226625
475.154761	2557.074877
475.525070	2557.097562
475.895321	2556.341389
476.265513	2557.647048
476.635645	2557.208468
477.005719	2557.624363
477.375734	2559.517316
477.745691	2560.981771
478.115588	2561.490928
478.485427	2563.169632
478.855207	2565.216340
479.224928	2567.210117
479.594591	2570.915365
479.964194	2571.210272
480.333739	2568.409911
480.703226	2570.703636
481.072653	2567.265569
481.442022	2570.980900
481.811333	2571.795046
482.180584	2571.109449
482.549777	2570.582649
482.918912	2567.905796
483.287988	2566.227092
483.657005	2566.375806
484.025964	2565.743141
484.394864	2564.392112
484.763706	2566.516958
485.132489	2566.428738
485.501213	2564.364385
485.869879	2566.111145
486.238487	2562.468912
486.607036	2566.574931
486.975527	2564.687019
487.343959	2565.601989
487.712333	2565.269272
488.080648	2565.231464
488.448905	2565.932184
488.817104	2564.182904
489.185244	2565.329766
489.553326	2566.799263
489.921350	2568.883780
490.289315	2571.227916
490.657222	2571.502659
491.025070	2568.702298
491.392861	2569.826476
491.760593	2571.061558
492.128267	2569.521486
492.495883	2566.678275
492.863440	2565.206258
493.230939	2564.066957
493.598380	2563.696432
493.965763	2559.219888
494.333088	2562.466391
494.700354	2560.157542
495.067563	2561.795917
495.434713	2560.238201
495.801805	2565.861608
496.168839	2562.746175
496.535815	2566.000240
496.902733	2562.461350
497.269593	2565.622153
497.636395	2564.833213
498.003139	2567.739438
498.369825	2564.187945
498.736453	2565.654921
499.103023	2565.317163
499.469535	2564.823130
499.835989	2564.397153
500.202385	2563.454457
500.568723	2565.576783
500.935003	2564.150136
501.301226	2565.972513
501.667390	2562.597461
502.033497	2566.645507
502.399546	2563.091494
502.765537	2561.148129
503.131470	2565.176011
503.497345	2565.528892
503.863163	2565.491083
504.228923	2566.015363
504.594625	2567.893193
504.960269	2565.339849
505.325856	2565.738100
505.691385	2563.615774
506.056856	2565.775908
506.422270	2564.553429
506.787625	2566.824468
507.152924	2563.630898
507.518164	2564.833213
507.883347	2565.768347
508.248472	2565.465877
508.613540	2567.462174
508.978550	2565.881773
509.343503	2565.470919
509.708398	2566.446382
510.073236	2565.130641
510.438016	2567.865467
510.802738	2565.481001
511.167403	2567.119376
511.532010	2564.855898
511.896561	2566.726166
512.261053	2566.993347
512.625488	2565.251628
512.989866	2562.151319
513.354186	2565.377657
513.718449	2563.484704
514.082655	2567.366392
514.446803	2565.906978
514.810894	2567.356310
515.174927	2567.386557
515.538904	2570.537278
515.902822	2566.690878
516.266684	2566.239695
516.630488	2566.146433
516.994235	2568.485529
517.357925	2570.338153
517.721558	2567.961249
518.085133	2566.239695
518.448651	2568.014181
518.812112	2565.581824
519.175516	2566.635425
519.538863	2567.525189
519.902152	2567.212637
520.265385	2566.794222
520.628560	2568.314129
520.991678	2565.864129
521.354739	2569.397977
521.717743	2568.959397
522.080690	2567.084088
522.443580	2566.874880
522.806413	2566.688357
523.169189	2566.027966
523.531908	2568.500652
523.894569	2565.533933
524.257174	2568.631722
524.619722	2570.509552
524.982213	2570.907803
525.344647	2568.775395
525.707025	2566.204407
526.069345	2568.243553
526.431608	2568.598955
526.793815	2568.730025
527.155964	2567.865467
527.518057	2566.637946
527.880093	2566.963100
528.242072	2567.033676
528.603995	2567.840261
528.965860	2567.104253
529.327669	2568.107442
529.689421	2566.138872
530.051117	2567.792370
530.412755	2566.862277
530.774337	2566.156516
531.135862	2566.832030
531.497331	2563.217523
531.858743	2560.729713
532.220098	2565.969993
532.581396	2565.516289
532.942638	2561.904302
533.303824	2565.990157
533.664953	2566.763975
534.026025	2565.430589
534.387040	2568.024263
534.747999	2565.014694
535.108902	2564.676937
535.469748	2562.932698
535.830537	2565.052503
536.191270	2567.696588
536.551947	2565.531412
536.912567	2567.409242
537.273131	2566.653069
537.633638	2564.558470
537.994089	2566.257339
538.354483	2565.932184
538.714821	2566.474108
539.075103	2563.479663
539.435328	2565.901937
539.795497	2564.356824
540.155609	2566.980744
540.515665	2570.645663
540.875665	2568.800601
541.235609	2565.271793
541.595496	2568.530899
541.955328	2566.287586
542.315102	2565.233984
542.674821	2566.728687
543.034483	2567.951166
543.394090	2566.355641
543.753640	2567.900755
544.113134	2565.120558
544.472571	2565.279355
544.831953	2567.598286
545.191278	2563.885476
545.550548	2566.058213
545.909761	2565.874211
546.268918	2562.897410
546.628019	2566.617781
546.987064	2566.617781
547.346053	2563.698953
547.704986	2564.520661
548.063863	2564.724828
548.422684	2564.540826
548.781449	2565.279355
549.140158	2562.710887
549.498811	2568.853533
549.857408	2563.333469
550.215949	2565.637277
550.574434	2561.901782
550.932864	2563.351113
551.291237	2563.358675
551.649555	2565.440672
552.007817	2565.244067
552.366022	2566.751372
552.724173	2563.391443
553.082267	2566.290106
553.440305	2567.406722
553.798288	2566.219530
554.156215	2565.357493
554.514086	2567.565518
554.871902	2566.892524
555.229661	2564.883624
555.587365	2566.834551
555.945014	2568.727504
556.302606	2567.565518
556.660143	2564.729869
557.017625	2566.438820
557.375050	2564.916392
557.732421	2564.465208
558.089735	2565.556618
558.446994	2566.602658
558.804197	2565.012174
559.161345	2567.394119
559.518437	2567.479818
559.875474	2566.101063
560.232455	2566.970662
560.589381	2567.315981
560.946251	2567.845302
561.303065	2566.567370
561.659825	2567.273131
562.016528	2564.959242
562.373177	2563.081412
562.729770	2564.563511
563.086307	2566.118707
563.442789	2565.881773
563.799216	2563.204920
564.155587	2561.692574
564.511904	2566.085939
564.868164	2563.462019
565.224370	2562.375650
565.580520	2563.419169
565.936615	2563.951011
566.292654	2563.172152
566.648638	2567.109294
567.004567	2562.269786
567.360441	2565.801114
567.716260	2563.225085
568.072023	2564.808007
568.427732	2560.898592
568.783385	2562.176525
569.138982	2560.593602
569.494525	2563.671227
569.850013	2560.026472
570.205445	2565.097873
570.560823	2565.163408
570.916145	2565.775908
571.271412	2565.077709
571.626625	2566.660631
571.981782	2565.604509
572.336884	2564.356824
572.691931	2564.198027
573.046923	2565.954869
573.401860	2567.066444
573.756743	2565.533933
574.111570	2562.191648
574.466342	2563.840105
574.821059	2561.064950
575.175722	2561.967317
575.530330	2564.230795
575.884882	2566.096022
576.239380	2561.080074
576.593823	2565.715415
576.948211	2562.473953
577.302544	2562.922615
577.656823	2564.583676
578.011047	2564.477811
578.365216	2563.456978
578.719330	2564.644169
579.073389	2562.771381
579.427394	2559.005639
579.781344	2561.027142
580.135239	2560.694425
580.489080	2562.940259
580.842866	2562.355486
581.196597	2563.862791
581.550273	2565.554098
581.903895	2562.325239
582.257463	2561.596792
582.610975	2563.676268
582.964434	2562.521844
583.317837	2563.474622
583.671186	2563.789694
584.024481	2563.154508
584.377721	2560.666699
584.730906	2559.996226
585.084037	2564.079560
585.437113	2560.444888
585.790135	2561.357337
586.143103	2560.346586
586.496016	2560.880948
586.848874	2557.873900
587.201679	2559.439178
587.554428	2556.049002
587.907124	2560.820454
588.259765	2556.306101
588.612352	2561.982440
588.964884	2561.967317
589.317362	2562.148798
589.669786	2559.257697
590.022155	2564.341700
590.374470	2558.614949
590.726731	2560.901113
591.078937	2559.991184
591.431090	2559.930691
591.783188	2558.912378
592.135232	2558.103272
592.487222	2561.518654
592.839157	2562.189128
593.191038	2558.930022
593.542866	2560.432285
593.894639	2559.597974
594.246358	2559.265258
594.598022	2560.346586
594.949633	2560.281051
595.301190	2557.415155
595.652692	2561.075032
596.004141	2559.734086
596.355535	2561.102759
596.706876	2559.537481
597.058162	2558.713252
597.409395	2560.787687
597.760573	2557.710062
598.111698	2558.834240
598.462768	2560.875907
598.813785	2559.534960
599.164748	2559.660989
599.515657	2558.740978
599.866511	2560.061761
600.217312	2560.780125
600.568060	2557.437840
600.918753	2559.918088
601.269392	2557.420196
601.619978	2557.145453
601.970510	2559.285423
602.320988	2561.294323
602.671412	2560.535629
603.021783	2558.133519
603.372100	2557.682336
603.722363	2559.245094
604.072572	2558.191492
604.422728	2558.980433
604.772830	2555.534804
605.122878	2554.768549
605.472872	2556.094373
605.822813	2556.429609
606.172701	2556.427089
606.522534	2559.116544
606.872314	2557.276523
607.222041	2557.505896
607.571714	2558.216698
607.921333	2558.425906
608.270899	2556.054043
608.620411	2559.487069
608.969870	2562.869683
609.319276	2559.333314
609.668627	2564.341700
610.017926	2564.487894
610.367171	2565.354972
610.716362	2568.621640
611.065500	2564.165260
611.414585	2559.025803
611.763616	2561.745506
612.112594	2559.915567
612.461518	2562.635270
612.810389	2560.926318
613.159207	2560.606205
613.507971	2560.288613
613.856682	2562.146278
614.205340	2560.253324
614.553945	2561.526216
614.902496	2559.403890
615.250994	2560.616288
615.599439	2559.161915
615.947830	2560.291133
616.296169	2559.192162
616.644454	2560.707028
616.992686	2556.905998
617.340864	2557.810885
617.688990	2558.138560
618.037063	2560.349106
618.385082	2558.173848
618.733048	2558.788869
619.080961	2558.700649
619.428821	2559.575289
619.776628	2561.012018
620.124382	2557.659651
620.472083	2560.278530
620.819731	2559.005639
621.167326	2556.790052
621.514868	2558.254507
621.862357	2558.385577
622.209793	2557.662171
622.557176	2555.426420
622.904506	2554.030020
623.251783	2551.020451
623.599007	2554.508930
623.946179	2554.677808
624.293297	2554.017417
624.640363	2555.373488
624.987376	2556.807696
625.334336	2558.221739
625.681243	2555.320555
626.028097	2558.088149
626.374899	2555.128992
626.721647	2557.362223
627.068343	2558.582182
627.414987	2555.940617
627.761577	2553.876265
628.108115	2556.296019
628.454600	2555.648230
628.801032	2556.134702
629.147412	2554.818961
629.493739	2554.493806
629.840014	2556.646379
630.186236	2557.710062
630.532405	2557.478169
630.878521	2556.336348
631.224585	2556.641338
631.570597	2555.554969
631.916556	2551.219577
632.262462	2555.776780
632.608316	2555.912891
632.954117	2554.665205
633.299866	2553.785524
633.645562	2555.733930
633.991206	2552.716799
634.336797	2554.604712
634.682336	2551.796789
635.027823	2550.208825
635.373257	2552.797458
635.718639	2551.799309
636.063968	2555.078580
636.409245	2552.971378
636.754470	2552.114382
637.099642	2550.712941
637.444762	2551.885009
637.789829	2550.796120
638.134845	2552.754608
638.479808	2550.912066
638.824719	2551.433826
639.169577	2552.318548
639.514383	2550.632282
639.859137	2553.911553
640.203839	2549.608928
640.548489	2551.910215
640.893086	2548.590615
641.237632	2549.263609
641.582125	2548.860317
641.926566	2546.606921
642.270955	2551.816953
642.615292	2551.738816
642.959576	2550.458362
643.303809	2553.104968
643.647990	2552.240410
643.992118	2550.735626
644.336195	2553.659495
644.680219	2548.852755
645.024192	2552.303425
645.368112	2549.576161
645.711981	2551.292673
646.055797	2550.970040
646.399562	2552.424412
646.743274	2552.273178
647.086935	2552.908363
647.430544	2551.562375
647.774101	2552.258054
648.117606	2549.813095
648.461059	2550.932231
648.804460	2551.038095
649.147810	2552.789896
649.491108	2551.219577
649.834354	2551.164124
650.177548	2552.638662
650.520690	2551.111192
650.863781	2552.227807
651.206820	2554.874413
651.549807	2549.523228
651.892742	2549.377035
652.235626	2549.992056
652.578458	2553.525905
652.921238	2552.033723
653.263967	2550.536500
653.606644	2550.569268
653.949269	2551.237221
654.291843	2548.734288
654.634365	2551.693445
654.976836	2549.296377
655.319255	2551.101110
655.661622	2547.002652
656.003938	2548.701520
656.346203	2549.684545
656.688416	2550.735626
657.030577	2549.155224
657.372687	2550.249155
657.714746	2549.674463
658.056753	2547.584905
658.398708	2544.260264
658.740612	2545.880995
659.082465	2548.399051
659.424266	2546.329657
659.766016	2543.002496
660.107715	2549.860986
660.449362	2550.612118
660.790958	2553.072201
661.132503	2549.026675
661.473996	2549.341747
661.815438	2547.428629
662.156829	2550.632282
662.498168	2552.346275
662.839456	2548.048691
663.180693	2550.090358
663.521879	2548.913249
663.863013	2548.797302
664.204097	2548.275543
664.545129	2550.435677
664.886110	2549.548434
665.227040	2547.690769
665.567918	2551.693445
665.908746	2550.108002
666.249522	2549.964329
666.590248	2548.996428
666.930922	2548.083979
667.271545	2547.325285
667.612118	2551.731254
667.952639	2549.984494
668.293109	2547.897456
668.633528	2550.780996
668.973896	2547.985677
669.314213	2549.162786
669.654480	2547.060625
669.994695	2547.799154
670.334859	2551.731254
670.674973	2547.857127
671.015035	2549.896274
671.355047	2549.349309
671.695008	2549.049360
672.034918	2550.415513
672.374777	2551.902653
672.714585	2548.716644
673.054342	2550.342416
673.394049	2549.624052
673.733705	2548.091541
674.073310	2551.857283
674.412864	2549.525749
674.752368	2547.131201
675.091820	2549.480379
675.431223	2548.207487
675.770574	2550.876778
676.109875	2546.435522
676.449125	2547.453835
676.788324	2545.465100
677.127473	2546.306972
677.466571	2543.267157
677.805619	2549.061963
678.144616	2546.755635
678.483562	2548.948537
678.822458	2543.788916
679.161303	2548.971222
679.500098	2548.535162
679.838842	2548.255378
680.177535	2543.695655
680.516179	2548.361242
680.854771	2547.300080
681.193314	2550.697817
681.531805	2549.500543
681.870247	2548.507436
682.208638	2549.349309
682.546978	2548.230172
682.885268	2549.959288
683.223508	2549.568599
683.561697	2551.217056
683.899836	2547.216901
684.237925	2548.482230
684.575963	2549.757642
684.913951	2546.697662
685.251889	2552.167314
685.589776	2548.071376
685.927614	2549.029195
686.265401	2548.888043
686.603137	2550.927190
686.940824	2551.368291
687.278460	2548.630944
687.616046	2549.555996
687.953582	2548.492313
688.291068	2548.961140
688.628504	2548.509957
688.965889	2547.738660
689.303224	2550.609597
689.640510	2548.134391
689.977745	2548.666232
690.314930	2547.809236
690.652065	2549.097251
690.989150	2549.530790
691.326185	2550.163455
691.663170	2546.737991
692.000105	2548.356201
692.336990	2546.483413
692.673825	2548.615821
693.010610	2548.567930
693.347345	2545.578526
693.684030	2543.577187
694.020665	2542.599204
694.357251	2541.492670
694.693786	2543.882177
695.030272	2544.139276
695.366707	2548.109185
695.703093	2545.815460
696.039429	2545.644061
696.375716	2545.044163
696.711952	2541.981662
697.048139	2547.368135
697.384276	2543.478885
697.720363	2545.170192
698.056400	2546.130532
698.392388	2546.949719
698.728326	2544.532486
699.064214	2543.171375
699.400053	2544.482075
699.735842	2544.053577
700.071581	2547.080789
700.407270	2543.373021
700.742910	2546.173382
701.078501	2544.585418
701.414042	2543.856972
701.749533	2546.334699
702.084974	2542.271529
702.420366	2546.385110
702.755709	2543.355377
703.091002	2542.881508
703.426246	2546.057435
703.761440	2542.828576
704.096584	2544.156920
704.431679	2541.648946
704.766725	2546.853937
705.101721	2543.254554
705.436668	2542.301776
705.771565	2545.084492
706.106413	2544.298072
706.441212	2543.272198
706.775961	2544.121632
707.110661	2545.828063
707.445311	2543.320089
707.779913	2544.230017
708.114465	2545.679349
708.448967	2548.741850
708.783421	2544.834955
709.117825	2545.676828
709.452180	2544.693803
709.786485	2542.100129
710.120742	2545.394523
710.454949	2545.374359
710.789107	2542.415202
711.123216	2543.788916
711.457275	2544.577857
711.791286	2539.811446
712.125247	2543.007537
712.459159	2545.223124
712.793023	2546.168341
713.126837	2546.664894
713.460602	2544.396375
713.794318	2544.555171
714.127985	2545.636499
714.461602	2544.177085
714.795171	2545.144986
715.128691	2542.367311
715.462162	2544.671118
715.795584	2544.464431
716.128957	2545.802857
716.462281	2543.189019
716.795556	2544.103988
717.128782	2544.252702
717.461960	2544.814791
717.795088	2543.771272
718.128167	2543.657846
718.461198	2543.889739
718.794180	2545.691952
719.127113	2540.451672
719.459997	2542.395037
719.792833	2545.152548
720.125619	2543.201622
720.458357	2541.974101
720.791046	2542.974770
721.123686	2544.678680
721.456278	2543.403268
721.788821	2540.073586
722.121315	2543.211704
722.453761	2544.116591
722.786158	2540.363452
723.118506	2540.640715
723.450805	2544.867723
723.783056	2542.647095
724.115259	2541.001158
724.447412	2543.325130
724.779518	2544.106509
725.111574	2542.974770
725.443582	2542.878988
725.775542	2543.809081
726.107453	2542.500901
726.439315	2542.500901
726.771129	2545.921324
727.102895	2542.112732
727.434612	2543.526776
727.766281	2541.777496
728.097901	2540.071065
728.429473	2539.304810
728.760996	2541.706919
729.092471	2538.339429
729.423897	2541.018802
729.755276	2541.122146
730.086606	2540.607948
730.417887	2543.156251
730.749120	2544.416540
731.080305	2544.895449
731.411442	2544.565254
731.742530	2544.008206
732.073570	2544.015768
732.404562	2543.617517
732.735506	2544.560213
733.066401	2543.403268
733.397249	2544.078782
733.728048	2545.661705
734.058798	2542.445448
734.389501	2543.055428
734.720156	2540.562577
735.050762	2542.626930
735.381320	2543.136087
735.711831	2541.621220
736.042293	2541.230530
736.372707	2540.799512
736.703073	2541.245654
737.033391	2541.648946
737.363661	2542.087527
737.693883	2542.954605
738.024056	2543.133566
738.354182	2542.750438
738.684260	2543.400747
739.014290	2541.790098
739.344272	2541.424615
739.674207	2541.653987
740.004093	2541.379244
740.333931	2542.705068
740.663722	2542.261446
740.993464	2540.592824
741.323159	2542.727753
741.652806	2544.623227
741.982405	2541.142310
742.311956	2541.931251
742.641460	2543.735984
742.970915	2543.131045
743.300323	2542.621889
743.629683	2541.112063
743.958996	2540.189532
744.288260	2541.623740
744.617477	2540.950746
744.946647	2536.980838
745.275768	2540.517207
745.604842	2538.087371
745.933869	2539.362783
746.262847	2535.692823
746.591778	2541.291024
746.920662	2540.295396
747.249498	2542.836138
747.578286	2540.696168
747.907027	2541.197763
748.235720	2541.341436
748.564365	2537.053934
748.892963	2541.757331
749.221514	2540.877650
749.550017	2540.771785
749.878473	2540.907897
750.206881	2540.239944
750.535242	2542.873947
750.863555	2540.325643
751.191821	2541.157434
751.520039	2542.395037
751.848210	2543.010058
752.176334	2540.507125
752.504411	2542.180788
752.832440	2540.444110
753.160421	2540.275232
753.488356	2541.306148
753.816243	2541.989224
754.144082	2540.202135
754.471875	2541.593493
754.799620	2538.866229
755.127318	2540.504604
755.454969	2541.303627
755.782572	2541.550644
756.110129	2539.123328
756.437638	2539.985365
756.765100	2538.591486
757.092515	2539.226672
757.419882	2539.327495
757.747203	2539.824048
758.074477	2543.098278
758.401703	2541.094419
758.728882	2539.929913
759.056014	2541.454862
759.383099	2539.158616
759.710138	2540.572660
760.037129	2541.285983
760.364073	2542.455531
760.690970	2541.928730
761.017820	2541.883360
761.344623	2541.964018
761.671379	2542.989893
761.998088	2535.274407
762.324751	2539.193904
762.651366	2541.071734
762.977935	2545.059287
763.304456	2545.656663
763.630931	2548.280584
763.957359	2544.582898
764.283740	2545.749925
764.610074	2542.780685
764.936362	2542.659697
765.262602	2540.171888
765.588796	2544.373690
765.914943	2541.820345
766.241044	2539.309851
766.567097	2539.889583
766.893104	2540.335726
767.219064	2540.239944
767.544978	2540.302958
767.870845	2539.027546
768.196665	2538.662062
768.522438	2539.110725
768.848165	2539.191384
769.173846	2537.933616
769.499479	2539.095602
769.825066	2537.331198
770.150607	2541.124666
770.476101	2537.600900
770.801548	2540.101312
771.126949	2536.338091
771.452303	2539.851775
771.777611	2538.881353
772.102872	2538.173071
772.428087	2538.465458
772.753256	2538.578883
773.078378	2536.786753
773.403453	2537.248019
773.728482	2539.887063
774.053465	2538.596527
774.378401	2536.827082
774.703291	2538.195756
775.028135	2535.571835
775.352932	2535.801208
775.677683	2536.393543
776.002388	2537.568132
776.327046	2536.892618
776.651658	2537.444624
776.976224	2536.869932
777.300743	2537.157278
777.625216	2536.181815
777.949643	2536.086033
778.274024	2539.453524
778.598359	2531.488501
778.922647	2532.216947
779.246889	2534.878677
779.571086	2531.869108
779.895236	2536.567463
780.219339	2541.149872
780.543397	2537.356404
780.867409	2537.442103
781.191374	2537.752134
781.515294	2536.927906
781.839167	2538.162988
782.162995	2537.227854
782.486776	2536.922864
782.810511	2536.716177
783.134201	2536.910262
783.457844	2537.537885
783.781441	2537.673996
784.104993	2538.929244
784.428498	2538.283976
784.751958	2535.970086
785.075372	2536.242309
785.398739	2536.716177
785.722061	2535.740714
786.045337	2534.518234
786.368568	2537.502597
786.691752	2537.371527
787.014891	2538.261291
787.337983	2538.599048
787.661030	2538.374717
787.984031	2536.746424
788.306987	2540.030736
788.629897	2538.457896
788.952760	2535.468492
789.275579	2537.414377
789.598351	2540.938143
789.921078	2537.474871
790.243759	2540.514687
790.566395	2537.116949
790.888984	2537.081661
791.211529	2536.847247
791.534027	2534.722401
791.856480	2534.303985
792.178888	2534.203162
792.501249	2537.973945
792.823566	2538.324305
793.145836	2536.597710
793.468062	2538.039480
793.790241	2534.417411
794.112375	2539.539223
794.434464	2534.760209
794.756507	2537.903369
795.078505	2535.702905
795.400457	2537.989068
795.722364	2533.484798
796.044226	2534.246012
796.366042	2532.469005
796.687812	2535.846578
797.009538	2535.609644
797.331218	2538.387320
797.652852	2537.545447
797.974442	2537.726928
798.295986	2539.876981
798.617484	2538.241126
798.938938	2535.856660
799.260346	2536.433872
799.581709	2535.670138
799.903026	2538.157947
800.224299	2538.956970
800.545526	2537.852957
800.866708	2534.026722
801.187845	2537.573173
801.508936	2537.547967
801.829983	2535.087884
802.150984	2535.755837
802.471940	2537.401774
802.792851	2535.622247
803.113717	2536.688451
803.434538	2532.690816
803.755314	2539.297248
804.076045	2535.314736
804.396731	2535.251722
804.717372	2538.518390
805.037967	2535.493697
805.358518	2534.926567
805.679024	2536.275076
805.999485	2536.602751
806.319901	2534.571166
806.640272	2534.369520
806.960598	2536.418749
807.280879	2536.736342
807.601115	2538.815818
807.921306	2536.892618
808.241453	2535.178625
808.561554	2539.508976
808.881611	2536.010416
809.201623	2537.190046
809.521590	2536.113759
809.841513	2537.842875
810.161390	2537.308513
810.481223	2532.814324
810.801011	2534.460261
811.120755	2536.590148
811.440453	2535.559232
811.760107	2537.744572
812.079716	2533.903213
812.399281	2534.830786
812.718801	2536.305323
813.038276	2528.612522
813.357707	2537.971424
813.677093	2537.358924
813.996434	2535.551671
814.315731	2534.936650
814.634983	2537.742052
814.954191	2536.814480
815.273354	2536.607792
815.592473	2534.498069
815.911547	2535.922195
816.230577	2536.335570
816.549562	2536.212062
816.868502	2535.763399
817.187399	2538.727597
817.506250	2536.070909
817.825058	2536.733821
818.143821	2539.060314
818.462539	2538.142824
818.781213	2536.791794
819.099843	2538.901517
819.418429	2538.455375
819.736970	2538.848585
820.055466	2537.880684
820.373919	2540.045859
820.692327	2542.631971
821.010691	2545.976777
821.329011	2551.176727
821.647286	2562.912533
821.965517	2571.651373
822.283704	2582.091603
822.601847	2580.196129
822.919945	2578.051118
823.237999	2567.636094
823.556010	2564.268603
823.873976	2554.995401
824.191897	2553.472972
824.509775	2549.785368
824.827609	2545.916283
825.145398	2546.337219
825.463144	2545.747404
825.780845	2546.753114
826.098502	2546.753114
826.416116	2551.257385
826.733685	2553.737633
827.051210	2554.466080
827.368692	2555.151677
827.686129	2551.164124
828.003522	2546.271684
828.320872	2538.866229
828.638177	2537.757175
828.955439	2538.573842
829.272656	2534.729963
829.589830	2534.150230
829.906960	2540.960829
830.224046	2536.877494
830.541088	2538.692309
830.858086	2535.949922
831.175041	2538.188194
831.491952	2535.997813
831.808819	2538.745242
832.125642	2540.229861
832.442421	2538.462937
832.759157	2539.234233
833.075849	2539.720705
833.392497	2543.690613
833.709101	2545.921324
834.025662	2542.450490
834.342179	2546.904349
834.658653	2540.668442
834.975083	2544.837476
835.291469	2545.407126
835.607811	2537.825231
835.924110	2539.178781
836.240366	2533.056299
836.556578	2538.354552
836.872746	2535.738193
837.188871	2536.375899
837.504952	2535.861702
837.820990	2534.011598
838.136984	2534.924047
838.452935	2533.414221
838.768842	2533.419262
839.084706	2536.496887
839.400526	2534.162833
839.716303	2536.466640
840.032037	2538.210879
840.347727	2537.379089
840.663373	2538.682227
840.978977	2537.023687
841.294537	2537.371527
841.610054	2533.381454
841.925527	2535.869263
842.240957	2535.972607
842.556344	2534.838347
842.871687	2534.482946
843.186987	2534.540919
843.502244	2534.813142
843.817458	2536.564942
844.132629	2532.854653
844.447756	2533.988913
844.762840	2529.512368
845.077881	2530.266021
845.392879	2530.994468
845.707833	2531.760723
846.022745	2529.232584
846.337613	2532.844571
846.652438	2534.689633
846.967221	2533.356248
847.281960	2534.389685
847.596656	2534.881197
847.911309	2534.588810
848.225919	2534.361958
848.540485	2531.095291
848.855009	2533.038655
849.169490	2534.346835
849.483928	2533.300795
849.798323	2534.132586
850.112675	2532.569828
850.426984	2532.479087
850.741251	2533.114273
851.055474	2533.938501
851.369654	2534.866074
851.683792	2535.332380
851.997887	2534.094777
852.311938	2534.913965
852.625947	2534.702236
852.939914	2533.522606
853.253837	2535.055117
853.567718	2532.549663
853.881555	2532.589993
854.195350	2534.170394
854.509103	2531.153264
854.822812	2533.237781
855.136479	2532.542102
855.450103	2534.772812
855.763685	2533.479756
856.077224	2533.275590
856.390720	2533.636032
856.704173	2533.683923
857.017584	2532.945394
857.330953	2530.387008
857.644278	2533.900693
857.957561	2534.946732
858.270802	2534.079654
858.584000	2532.388347
858.897155	2533.300795
859.210268	2532.663089
859.523339	2533.759540
859.836367	2532.158974
860.149352	2532.831968
860.462295	2533.194931
860.775195	2530.528161
861.088054	2530.671834
861.400869	2532.423635
861.713642	2525.892820
862.026373	2530.926412
862.339062	2532.650487
862.651708	2533.063861
862.964312	2534.114942
863.276873	2532.794159
863.589392	2532.476567
863.901869	2528.927594
864.214303	2532.068233
864.526696	2533.154602
864.839045	2531.622091
865.151353	2533.389016
865.463619	2534.777853
865.775842	2534.271218
866.088023	2532.216947
866.400162	2532.564787
866.712258	2534.724921
867.024313	2533.888090
867.336325	2535.428162
867.648296	2534.341794
867.960224	2534.397246
868.272110	2535.191228
868.583954	2533.812472
868.895755	2534.321629
869.207515	2532.605116
869.519233	2532.874818
869.830909	2534.104859
870.142542	2534.543440
870.454134	2534.931609
870.765684	2534.298944
871.077191	2531.208717
871.388657	2535.526465
871.700081	2530.777698
872.011463	2536.012936
872.322803	2534.666948
872.634101	2533.641073
872.945357	2535.627288
873.256571	2532.811803
873.567744	2532.494211
873.878874	2532.421114
874.189963	2534.853471
874.501010	2534.314067
874.812015	2533.986392
875.122979	2533.678882
875.433900	2533.991433
875.744780	2532.383305
876.055618	2533.749458
876.366415	2534.480425
876.677169	2536.199459
876.987882	2531.175949
877.298554	2528.254600
877.609183	2530.329035
877.919771	2529.764426
878.230317	2531.390198
878.540822	2536.035621
878.851285	2535.624767
879.161707	2535.415559
879.472087	2536.285158
879.782425	2536.948070
880.092722	2540.645757
880.402977	2544.020809
880.713191	2548.010882
881.023363	2556.691749
881.333494	2558.970351
881.643583	2558.292316
881.953631	2562.670558
882.263637	2556.091852
882.573602	2557.810885
882.883526	2551.806871
883.193408	2550.743188
883.503248	2544.981149
883.813048	2546.798485
884.122806	2542.717671
884.432522	2543.390665
884.742197	2539.062834
885.051831	2538.226003
885.361424	2539.113246
885.670975	2536.464119
885.980485	2537.951260
886.289954	2537.179963
886.599382	2535.183666
886.908768	2535.481094
887.218113	2536.050745
887.527417	2538.112577
887.836680	2533.865405
888.145901	2534.432534
888.455082	2535.874304
888.764221	2533.356248
889.073319	2534.218285
889.382376	2532.244674
889.691392	2534.314067
890.000366	2532.776515
890.309300	2533.961187
890.618193	2535.607123
890.927044	2530.523120
891.235855	2532.884900
891.544625	2534.654345
891.853353	2534.303985
892.162041	2533.817514
892.470687	2531.801052
892.779293	2535.269366
893.087858	2533.333563
893.396381	2533.164684
893.704864	2535.392874
894.013306	2533.144520
894.321707	2539.955118
894.630068	2539.897145
894.938387	2542.803370
895.246665	2543.816642
895.554903	2542.299255
895.863100	2540.471837
896.171256	2541.800181
896.479371	2537.792463
896.787446	2535.528985
897.095480	2533.792308
897.403473	2534.649304
897.711425	2536.839685
898.019336	2537.754655
898.327207	2534.258615
898.635038	2533.835158
898.942827	2533.583100
899.250576	2532.554705
899.558284	2535.178625
899.865952	2534.747607
900.173579	2535.486136
900.481165	2535.360107
900.788711	2533.630991
901.096216	2534.369520
901.403681	2534.281300
901.711105	2536.093595
902.018489	2532.726104
902.325832	2536.222144
902.633135	2532.078316
902.940397	2535.700385
903.247619	2535.539068
903.554800	2534.084695
903.861941	2539.282124
904.169041	2543.824204
904.476101	2546.548948
904.783121	2542.253885
905.090100	2546.909390
905.397039	2543.766231
905.703938	2539.962680
906.010796	2539.511497
906.317614	2535.395395
906.624391	2537.883204
906.931129	2534.971938
907.237826	2532.166536
907.544483	2531.569159
907.851099	2532.370703
908.157675	2532.605116
908.464211	2534.125024
908.770707	2529.162008
909.077163	2530.825589
909.383578	2529.139323
909.689954	2529.943387
909.996289	2531.372554
910.302584	2531.435568
910.608839	2530.928933
910.915054	2535.813811
911.221229	2530.434899
911.527363	2533.837678
911.833458	2530.321473
912.139513	2533.598223
912.445527	2531.241484
912.751502	2534.477905
913.057436	2533.731814
913.363331	2530.535722
913.669186	2534.765251
913.975000	2533.414221
914.280775	2534.608975
914.586510	2538.594007
914.892205	2535.029911
915.197859	2538.835982
915.503475	2536.801877
915.809050	2542.465613
916.114585	2541.684234
916.420081	2543.448638
916.725536	2545.407126
917.030952	2543.753628
917.336328	2540.834800
917.641665	2539.652649
917.946961	2537.926054
918.252218	2535.266845
918.557435	2536.393543
918.862612	2536.474202
919.167750	2535.014788
919.472848	2537.069058
919.777906	2533.716691
920.082925	2530.502955
920.387904	2533.487318
920.692843	2532.489170
920.997743	2533.910775
921.302603	2533.943543
921.607423	2531.175949
921.912204	2529.522451
922.216946	2534.049407
922.521647	2532.801721
922.826310	2531.707791
923.130932	2531.866587
923.435516	2534.266176
923.740059	2532.098480
924.044564	2531.911958
924.349028	2532.915147
924.653454	2528.814168
924.957840	2530.162677
925.262186	2526.845598
925.566493	2530.371885
925.870761	2527.165711
926.174989	2531.591844
926.479178	2532.413552
926.783328	2531.087729
927.087438	2529.900537
927.391509	2530.697039
927.695541	2528.980527
927.999533	2531.957328
928.303486	2530.616381
928.607400	2531.060002
928.911275	2530.865918
929.215110	2530.772657
929.518906	2530.041689
929.822663	2529.751823
930.126381	2529.280475
930.430060	2530.329035
930.733699	2531.803573
931.037299	2532.015301
931.340861	2531.947246
931.644383	2528.592358
931.947866	2530.865918
932.251309	2530.523120
932.554714	2530.565969
932.858080	2534.840868
933.161407	2529.393901
933.464694	2530.482790
933.767943	2528.196627
934.071153	2531.130579
934.374323	2530.195445
934.677455	2531.117976
934.980548	2528.935156
935.283602	2531.327184
935.586617	2528.236956
935.889593	2530.513037
936.192530	2529.111597
936.495428	2531.304498
936.798287	2530.240815
937.101108	2528.249559
937.403890	2532.267359
937.706632	2530.349200
938.009336	2534.182997
938.312002	2530.704601
938.614628	2527.200999
938.917216	2533.545291
939.219765	2532.138809
939.522275	2532.411032
939.824747	2531.990095
940.127179	2527.193438
940.429573	2526.147398
940.731929	2528.156298
941.034246	2527.125382
941.336524	2529.477080
941.638763	2533.867925
941.940964	2529.779549
942.243126	2532.496731
942.545250	2531.551515
942.847335	2530.732328
943.149381	2532.476567
943.451389	2528.753675
943.753359	2532.564787
944.055290	2533.653676
944.357182	2530.313912
944.659036	2530.235774
944.960851	2531.198634
945.262628	2530.989426
945.564367	2531.528830
945.866067	2531.644776
946.167729	2530.122348
946.469352	2532.516896
946.770937	2529.227543
947.072484	2528.927594
947.373992	2528.040351
947.675462	2530.621422
947.976893	2528.821730
948.278286	2530.003881
948.579641	2530.631504
948.880958	2531.763243
949.182236	2529.189734
949.483476	2531.637215
949.784678	2529.076308
950.085841	2530.558408
950.386967	2531.967410
950.688054	2529.976154
950.989103	2531.745599
951.290114	2530.402132
951.591087	2530.381967
951.892021	2530.190403
952.192917	2529.270393
952.493776	2530.354241
952.794596	2531.652338
953.095378	2529.923222
953.396122	2529.023376
953.696828	2529.015815
953.997496	2532.645445
954.298126	2530.414735
954.598718	2530.059333
954.899272	2529.789632
955.199788	2527.669827
955.500266	2528.589837
955.800706	2528.574714
956.101108	2526.407018
956.401472	2527.115300
956.701798	2524.345186
957.002087	2526.719569
957.302337	2530.560928
957.602550	2532.824406
957.902724	2527.667306
958.202861	2529.401463
958.502960	2527.238808
958.803022	2529.835002
959.103045	2531.634694
959.403031	2528.965403
959.702979	2528.841895
960.002889	2529.988757
960.302762	2532.171577
960.602596	2529.671165
960.902393	2528.289888
961.202153	2530.366844
961.501875	2531.710311
961.801559	2530.308871
962.101205	2526.800228
962.400814	2529.424148
962.700385	2528.035310
962.999918	2529.819879
963.299414	2527.513551
963.598873	2531.763243
963.898293	2528.978006
964.197677	2528.486493
964.497022	2529.237625
964.796331	2527.453057
965.095601	2524.186389
965.394835	2532.015301
965.694030	2527.765608
965.993189	2529.940866
966.292309	2526.812830
966.591393	2529.159488
966.890439	2527.316946
967.189447	2527.682429
967.488419	2525.124044
967.787353	2528.526823
968.086249	2529.194776
968.385108	2530.192924
968.683930	2529.935825
968.982714	2528.978006
969.281462	2529.343490
969.580172	2530.210568
969.878844	2526.066740
970.177480	2528.473891
970.476078	2529.550177
970.774639	2530.558408
971.073162	2528.491535
971.371649	2528.186545
971.670098	2525.638242
971.968510	2525.340813
972.266885	2524.004908
972.565223	2528.282327
972.863524	2527.518592
973.161788	2529.426669
973.460014	2527.783253
973.758204	2526.301153
974.056356	2527.853829
974.354471	2527.105217
974.652550	2529.988757
974.950591	2530.303829
975.248595	2527.722759
975.546563	2528.083201
975.844493	2528.534384
976.142386	2528.942718
976.440243	2528.821730
976.738062	2528.756195
977.035845	2528.703263
977.333590	2531.259128
977.631299	2527.647141
977.928971	2526.568334
978.226606	2530.215609
978.524204	2531.269210
978.821765	2529.149405
979.119290	2528.967924
979.416777	2528.753675
979.714228	2531.463295
980.011642	2530.865918
980.309020	2529.532533
980.606360	2528.022707
980.903664	2528.877183
981.200931	2527.248890
981.498162	2528.214271
981.795356	2527.747964
982.092513	2530.074457
982.389633	2525.809641
982.686717	2528.012625
982.983764	2530.369364
983.280775	2529.726617
983.577749	2528.428520
983.874686	2528.756195
984.171587	2527.190917
984.468451	2528.816689
984.765279	2529.353572
985.062070	2530.853315
985.358824	2527.785773
985.655543	2529.754344
985.952224	2528.854498
986.248869	2527.644621
986.545478	2521.330576
986.842050	2525.958355
987.138586	2527.158149
987.435086	2524.193951
987.731549	2522.185051
988.027975	2528.083201
988.324366	2525.335772
988.620719	2528.146216
988.917037	2526.223015
989.213318	2530.908768
989.509563	2528.620084
989.805772	2527.306863
990.101944	2527.390043
990.398080	2527.972296
990.694180	2527.377440
990.990244	2528.693181
991.286271	2526.593540
991.582262	2529.139323
991.878217	2525.555063
992.174136	2528.287368
992.470019	2528.630166
992.765865	2528.163860
993.061676	2528.375588
993.357450	2528.549508
993.653188	2527.647141
993.948890	2529.333407
994.244556	2532.058151
994.540186	2528.594878
994.835780	2527.894158
995.131337	2525.877696
995.426859	2528.864580
995.722345	2525.963396
996.017795	2528.390712
996.313208	2527.800897
996.608586	2524.503982
996.903928	2531.937163
997.199234	2527.836185
997.494504	2526.921215
997.789738	2524.955165
998.084936	2529.497245
998.380099	2528.010104
998.675225	2526.303674
998.970316	2526.525485
999.265371	2527.460619
999.560390	2528.342821
999.855373	2528.007584
1000.150320	2529.008253
1000.445232	2528.995650
1000.740108	2528.854498
1001.034948	2529.429189
1001.329752	2527.632018
1001.624521	2529.469518
1001.919254	2523.241173
1002.213951	2526.117151
1002.508613	2522.177489
1002.803239	2526.444826
1003.097829	2523.684794
1003.392384	2526.407017
1003.686903	2529.691329
1003.981386	2528.882224
1004.275834	2527.533715
1004.570246	2528.322656
1004.864623	2528.385670
1005.158964	2528.630166
1005.453270	2526.447347
1005.747540	2528.380629
1006.041775	2526.729651
1006.335974	2528.178983
1006.630138	2526.641431
1006.924266	2527.011956
1007.218359	2528.713345
1007.512416	2530.354241
1007.806438	2527.546318
1008.100425	2527.805938
1008.394376	2528.640249
1008.688292	2524.430885
1008.982172	2526.538087
1009.276017	2526.326359
1009.569827	2528.937677
1009.863602	2529.303160
1010.157341	2527.851308
1010.451045	2525.310567
1010.744714	2527.994981
1011.038347	2528.070598
1011.331945	2526.533046
1011.625508	2526.114631
1011.919036	2526.394415
1012.212528	2530.225692
1012.505986	2523.626821
1012.799408	2529.068747
1013.092795	2525.648324
1013.386147	2528.799045
1013.679464	2529.998840
1013.972745	2524.375433
1014.265992	2524.559435
1014.559204	2530.245856
1014.852380	2526.540608
1015.145521	2525.890299
1015.438628	2527.228726
1015.731699	2524.917357
1016.024736	2525.018180
1016.317737	2529.905578
1016.610703	2526.986750
1016.903635	2525.872655
1017.196531	2523.654548
1017.489393	2525.701256
1017.782219	2522.716893
1018.075011	2526.197810
1018.367768	2527.400125
1018.660490	2530.026566
1018.953177	2530.026566
1019.245829	2530.026566
