Dividing Wavelength (nm)	Counts (n)	Blue Motor Position (mm): 0.000000	Red Motor Position (mm): 19.200000	
326.493990	2126.421707
326.888308	2126.421707
327.282561	2126.421707
327.676750	2094.493559
328.070874	2092.237643
328.464933	2095.254773
328.858929	2100.429518
329.252859	2112.011568
329.646726	2122.534977
330.040528	2137.560136
330.434265	2153.616211
330.827938	2169.548778
331.221547	2187.828002
331.615091	2207.493543
332.008571	2225.523230
332.401986	2247.265726
332.795338	2266.515372
333.188625	2285.802827
333.581847	2302.947791
333.975006	2322.124340
334.368100	2340.653101
334.761129	2358.788652
335.154095	2374.630478
335.546996	2391.999774
335.939833	2407.297155
336.332606	2421.233425
336.725315	2433.559046
337.117960	2444.213525
337.510540	2451.470266
337.903056	2465.600620
338.295508	2471.539099
338.687896	2477.442290
339.080220	2487.511995
339.472480	2493.647079
339.864676	2499.245281
340.256807	2501.075219
340.648875	2506.000427
341.040879	2508.137876
341.432818	2509.229286
341.824694	2512.891684
342.216506	2512.190964
342.608253	2511.719616
342.999937	2510.608041
343.391557	2514.305728
343.783113	2510.093844
344.174605	2509.967815
344.566033	2507.119563
344.957397	2505.501352
345.348697	2507.600993
345.739934	2504.178050
346.131106	2500.306443
346.522215	2501.536485
346.913260	2496.598675
347.304241	2500.361896
347.695159	2495.645897
348.086012	2495.308139
348.476802	2490.829074
348.867528	2489.455360
349.258191	2487.181799
349.648789	2489.276399
350.039324	2484.757004
350.429796	2487.930411
350.820203	2483.670636
351.210548	2486.312200
351.600828	2481.956643
351.991045	2483.007724
352.381198	2482.135604
352.771288	2478.952116
353.161314	2481.500419
353.551276	2484.759525
353.941175	2481.147538
354.331010	2480.260295
354.720782	2480.966057
355.110490	2480.575367
355.500135	2480.860192
355.889717	2481.467652
356.279235	2480.194760
356.668689	2481.008907
357.058080	2479.602425
357.447408	2481.286170
357.836672	2479.688124
358.225873	2481.628968
358.615010	2479.829277
359.004084	2483.290029
359.393095	2483.902529
359.782043	2485.024186
360.170927	2485.278764
360.559748	2486.622231
360.948505	2489.198261
361.337199	2488.666419
361.725830	2488.933600
362.114398	2489.878817
362.502903	2489.430154
362.891344	2491.348313
363.279722	2490.705566
363.668037	2491.260093
364.056289	2489.135247
364.444478	2493.387460
364.832603	2494.698160
365.220665	2495.711432
365.608665	2495.320742
365.996601	2495.434168
366.384474	2496.823006
366.772284	2499.096567
367.160031	2500.850888
367.547715	2501.710405
367.935336	2504.041938
368.322893	2504.785509
368.710388	2507.669049
369.097820	2515.321520
369.485189	2518.666326
369.872495	2524.509023
370.259738	2532.733666
370.646918	2540.096271
371.034035	2546.702703
371.421090	2554.670247
371.808081	2567.268090
372.195010	2576.266550
372.581875	2591.803386
372.968678	2600.882504
373.355418	2612.991355
373.742096	2632.916516
374.128710	2645.085861
374.515262	2662.510610
374.901751	2676.446879
375.288177	2687.978519
375.674540	2713.272508
376.060841	2729.434447
376.447079	2748.311048
376.833254	2767.994233
377.219367	2779.530914
377.605417	2821.324600
377.991404	2827.263079
378.377329	2849.973477
378.763191	2864.852443
379.148991	2903.981879
379.534727	2926.029365
379.920402	2956.911474
380.306013	2970.656180
380.691563	3019.578057
381.077049	3042.301058
381.462474	3060.676064
381.847835	3096.049840
382.233134	3121.172431
382.618371	3118.026751
383.003545	3187.924869
383.388657	3192.850077
383.773706	3227.742423
384.158693	3244.403436
384.543618	3266.960079
384.928480	3305.756799
385.313280	3350.063500
385.698017	3348.644416
386.082692	3405.604413
386.467305	3412.977100
386.851856	3439.899383
387.236344	3462.740851
387.620770	3493.501971
388.005133	3522.556662
388.389435	3546.575239
388.773674	3558.923545
389.157851	3600.936522
389.541965	3615.089561
389.926018	3580.892894
390.310008	3652.046260
390.693936	3672.442768
391.077802	3713.356773
391.461606	3701.114331
391.845348	3762.200513
392.229027	3763.735544
392.612645	3774.631998
392.996200	3851.118905
393.379694	3889.756828
393.763125	3956.335347
394.146494	3922.337806
394.529801	3986.713340
394.913047	4033.512892
395.296230	4001.501565
395.679351	4054.090882
396.062410	4080.473761
396.445408	4059.341244
396.828343	4090.578753
397.211217	4114.390644
397.594028	4035.897358
397.976778	4100.348510
398.359466	4125.886995
398.742092	4155.995286
399.124656	4078.479984
399.507158	4158.672139
399.889598	4183.257846
400.271977	4244.424687
400.654294	4213.696333
401.036549	4223.929876
401.418742	4193.955175
401.800874	4296.391421
402.182944	4316.810615
402.564952	4379.227661
402.946898	4365.089745
403.328783	4363.842059
403.710606	4277.275366
404.092367	4471.052278
404.474067	4428.479734
404.855705	4441.929533
405.237282	4364.565465
405.618797	4474.835664
406.000250	4507.782125
406.381642	4585.327674
406.762972	4545.943660
407.144240	4556.051173
407.525447	4550.573960
407.906593	4610.021766
408.287677	4643.966376
408.668700	4571.298143
409.049661	4613.674082
409.430560	4645.019977
409.811399	4570.756219
410.192176	4721.958067
410.572891	4651.152541
410.953545	4739.682764
411.334138	4616.323209
411.714669	4665.051002
412.095139	4554.995052
412.475547	4677.270759
412.855894	4643.386643
413.236180	4637.861538
413.616405	4578.287703
413.996568	4641.246673
414.376670	4570.047937
414.756711	4509.932177
415.136691	4521.559599
415.516609	4566.337648
415.896466	4581.430862
416.276262	4584.722736
416.655997	4542.142630
417.035670	4670.734903
417.415283	4713.511614
417.794834	4642.242301
418.174324	4576.780398
418.553753	4474.835664
418.933121	4585.824228
419.312428	4607.017239
419.691674	4519.880894
420.070859	4578.728804
420.449983	4472.415910
420.829045	4517.100698
421.208047	4414.127569
421.586988	4418.460441
421.965867	4386.933065
422.344686	4420.832304
422.723444	4290.273981
423.102141	4136.395280
423.480777	4273.809572
423.859352	4085.729163
424.237866	4187.081562
424.616319	4140.740755
424.994712	4149.824914
425.373044	4038.362482
425.751314	4058.660688
426.129524	3906.165784
426.507673	3952.201601
426.885762	3946.671455
427.263789	3861.112992
427.641756	3764.663116
428.019662	3763.259155
428.397508	3720.918504
428.775292	3645.558295
429.153016	3638.384733
429.530679	3565.484607
429.908282	3549.496588
430.285824	3466.574648
430.663305	3500.990605
431.040726	3379.841596
431.418086	3337.463136
431.795385	3326.639779
432.172624	3291.954120
432.549802	3252.060949
432.926920	3212.185422
433.303977	3178.092099
433.680974	3150.776607
434.057910	3118.477934
434.434786	3085.528952
434.811601	3047.904301
435.188355	3050.135011
435.565050	3003.433762
435.941683	2968.622074
436.318257	2967.197948
436.694770	2933.250818
437.071222	2911.147879
437.447614	2874.133207
437.823946	2842.943588
438.200218	2835.933864
438.576429	2800.227371
438.952580	2787.261523
439.328670	2771.510438
439.704700	2747.658219
440.080670	2730.987123
440.456580	2724.960423
440.832429	2705.214224
441.208218	2684.827798
441.583947	2678.211283
441.959616	2663.385250
442.335224	2647.883702
442.710773	2646.099133
443.086261	2634.756537
443.461689	2620.028806
443.837057	2615.869854
444.212365	2610.647219
444.587612	2601.578183
444.962800	2600.322936
445.337927	2592.972933
445.712995	2578.459452
446.088002	2586.767273
446.462949	2580.042374
446.837837	2577.242013
447.212664	2573.491394
447.587431	2569.861764
447.962139	2571.956363
448.336786	2583.087231
448.711374	2579.240830
449.085901	2563.167111
449.460369	2562.547049
449.834776	2558.282233
450.209124	2560.409600
450.583412	2559.688715
450.957640	2560.785166
451.331808	2557.926832
451.705917	2554.234187
452.079965	2554.692932
452.453954	2554.677808
452.827883	2555.542366
453.201752	2553.692263
453.575562	2550.889381
453.949311	2549.855945
454.323001	2550.324772
454.696632	2546.760676
455.070202	2551.643034
455.443713	2555.282747
455.817164	2548.860317
456.190556	2546.062476
456.563888	2550.564227
456.937160	2547.025337
457.310373	2552.298384
457.683526	2550.559186
458.056619	2548.154555
458.429653	2548.701520
458.802628	2547.209339
459.175542	2547.322765
459.548398	2549.898794
459.921194	2550.692776
460.293930	2548.391489
460.666607	2551.224618
461.039224	2557.410114
461.411782	2555.469269
461.784280	2556.109496
462.156719	2556.152346
462.529099	2553.541028
462.901419	2550.909546
463.273680	2551.073383
463.645882	2552.464742
464.018024	2552.812581
464.390106	2552.431974
464.762130	2556.233004
465.134094	2557.382387
465.505999	2562.272307
465.877845	2569.042576
466.249631	2570.272618
466.621358	2569.261866
466.993026	2571.384192
467.364634	2567.626012
467.736184	2563.767009
468.107674	2563.860270
468.479105	2565.881773
468.850477	2563.930846
469.221790	2562.531926
469.593043	2561.133006
469.964238	2560.482697
470.335373	2558.246945
470.706449	2562.405897
471.077467	2559.850032
471.448425	2564.568552
471.819324	2573.118349
472.190164	2571.061558
472.560945	2566.605178
472.931667	2560.701987
473.302330	2563.358675
473.672934	2562.347924
474.043479	2562.121072
474.413965	2563.225085
474.784393	2557.460525
475.154761	2562.012687
475.525070	2559.373643
475.895321	2558.501523
476.265513	2557.097562
476.635645	2564.883624
477.005719	2563.197358
477.375734	2563.746844
477.745691	2562.957903
478.115588	2567.469736
478.485427	2566.799263
478.855207	2573.713205
479.224928	2574.499625
479.594591	2578.101530
479.964194	2576.543813
480.333739	2578.162023
480.703226	2578.489698
481.072653	2577.441138
481.442022	2578.202353
481.811333	2579.722261
482.180584	2578.063721
482.549777	2578.204873
482.918912	2575.654049
483.287988	2578.426684
483.657005	2577.153793
484.025964	2575.931313
484.394864	2574.078689
484.763706	2577.133628
485.132489	2576.455593
485.501213	2574.532393
485.869879	2574.890315
486.238487	2572.951991
486.607036	2576.047259
486.975527	2575.044070
487.343959	2578.230079
487.712333	2573.559450
488.080648	2574.892835
488.448905	2573.098184
488.817104	2573.075499
489.185244	2573.932495
489.553326	2574.139183
489.921350	2576.904256
490.289315	2584.738209
490.657222	2582.893146
491.025070	2580.183526
491.392861	2583.672005
491.760593	2578.794688
492.128267	2579.099678
492.495883	2577.650346
492.863440	2574.290417
493.230939	2570.857392
493.598380	2570.469223
493.965763	2567.036197
494.333088	2569.476115
494.700354	2566.106104
495.067563	2568.994685
495.434713	2564.051834
495.801805	2569.478636
496.168839	2569.818914
496.535815	2570.847309
496.902733	2569.133317
497.269593	2570.144068
497.636395	2568.999726
498.003139	2570.002916
498.369825	2567.033676
498.736453	2572.105077
499.103023	2568.364541
499.469535	2570.290262
499.835989	2568.563667
500.202385	2570.751527
500.568723	2569.871846
500.935003	2570.764130
501.301226	2567.913358
501.667390	2568.309088
502.033497	2568.649366
502.399546	2569.738255
502.765537	2568.974521
503.131470	2571.006106
503.497345	2572.853688
503.863163	2573.191446
504.228923	2571.399316
504.594625	2573.040211
504.960269	2568.183059
505.325856	2571.535427
505.691385	2569.216496
506.056856	2571.616085
506.422270	2571.427042
506.787625	2568.946794
507.152924	2572.284038
507.518164	2570.968297
507.883347	2572.634398
508.248472	2571.464851
508.613540	2572.465520
508.978550	2571.222875
509.343503	2571.275807
509.708398	2572.687330
510.073236	2571.611044
510.438016	2574.900397
510.802738	2571.371589
511.167403	2574.081209
511.532010	2569.773543
511.896561	2572.790674
512.261053	2576.891653
512.625488	2572.793195
512.989866	2570.572566
513.354186	2571.028791
513.718449	2567.910837
514.082655	2570.938050
514.446803	2573.884604
514.810894	2576.879050
515.174927	2573.269584
515.538904	2575.374265
515.902822	2575.528021
516.266684	2574.630695
516.630488	2574.542475
516.994235	2573.297310
517.357925	2577.141190
517.721558	2576.064903
518.085133	2574.668504
518.448651	2576.256467
518.812112	2576.558937
519.175516	2577.849472
519.538863	2574.124059
519.902152	2574.998699
520.265385	2575.054152
520.628560	2573.393092
520.991678	2577.390727
521.354739	2576.614389
521.717743	2574.035839
522.080690	2577.494071
522.443580	2574.792012
522.806413	2576.558937
523.169189	2578.219997
523.531908	2578.129256
523.894569	2575.817887
524.257174	2575.086920
524.619722	2576.715212
524.982213	2577.826787
525.344647	2575.787640
525.707025	2575.485171
526.069345	2579.628999
526.431608	2575.896025
526.793815	2576.468196
527.155964	2573.428380
527.518057	2574.194635
527.880093	2575.674214
528.242072	2577.000037
528.603995	2577.063052
528.965860	2575.220510
529.327669	2575.835531
529.689421	2576.092630
530.051117	2578.714030
530.412755	2576.495922
530.774337	2574.867629
531.135862	2572.924265
531.497331	2573.377968
531.858743	2568.699778
532.220098	2572.301682
532.581396	2571.732032
532.942638	2569.750858
533.303824	2572.858730
533.664953	2575.661611
534.026025	2573.975345
534.387040	2577.892322
534.747999	2573.756055
535.108902	2576.301838
535.469748	2574.943247
535.830537	2574.731518
536.191270	2572.478123
536.551947	2573.902248
536.912567	2573.771178
537.273131	2574.476940
537.633638	2572.483164
537.994089	2575.001220
538.354483	2573.135993
538.714821	2576.891653
539.075103	2576.964749
539.435328	2574.827300
539.795497	2575.215469
540.155609	2573.491394
540.515665	2575.487691
540.875665	2573.768658
541.235609	2575.361663
541.595496	2575.033987
541.955328	2577.123546
542.315102	2575.275963
542.674821	2570.812021
543.034483	2575.407033
543.394090	2577.688155
543.753640	2574.252609
544.113134	2575.286045
544.472571	2576.642116
544.831953	2575.366704
545.191278	2574.257650
545.550548	2572.553740
545.909761	2574.628175
546.268918	2574.991138
546.628019	2572.992320
546.987064	2575.452403
547.346053	2575.865778
547.704986	2574.212279
548.063863	2577.173957
548.422684	2573.982907
548.781449	2576.271591
549.140158	2575.585994
549.498811	2575.959039
549.857408	2576.279153
550.215949	2572.505849
550.574434	2572.538616
550.932864	2575.346539
551.291237	2570.254974
551.649555	2572.594069
552.007817	2576.392578
552.366022	2574.187074
552.724173	2572.894018
553.082267	2573.892166
553.440305	2576.140521
553.798288	2575.291086
554.156215	2574.434090
554.514086	2573.090623
554.871902	2571.575756
555.229661	2575.437280
555.587365	2574.804615
555.945014	2573.204049
556.302606	2574.318144
556.660143	2572.342011
557.017625	2573.226734
557.375050	2574.028277
557.732421	2571.384192
558.089735	2574.023236
558.446994	2572.659604
558.804197	2573.287228
559.161345	2573.839234
559.518437	2574.744121
559.875474	2573.022567
560.232455	2574.350911
560.589381	2573.249419
560.946251	2575.238154
561.303065	2573.592217
561.659825	2573.133472
562.016528	2574.010633
562.373177	2570.862433
562.729770	2572.364697
563.086307	2572.137845
563.442789	2573.695561
563.799216	2571.447207
564.155587	2574.492063
564.511904	2573.869481
564.868164	2573.390571
565.224370	2573.521641
565.580520	2571.679100
565.936615	2572.818400
566.292654	2572.831003
566.648638	2573.330078
567.004567	2573.955181
567.360441	2574.383679
567.716260	2570.814542
568.072023	2570.960735
568.427732	2569.236661
568.783385	2569.367731
569.138982	2567.951166
569.494525	2569.768502
569.850013	2567.114335
570.205445	2572.689851
570.560823	2573.153637
570.916145	2572.735221
571.271412	2571.558112
571.626625	2571.946281
571.981782	2573.025088
572.336884	2573.072979
572.691931	2569.060220
573.046923	2570.340673
573.401860	2569.271949
573.756743	2569.362689
574.111570	2571.936198
574.466342	2569.125755
574.821059	2569.660118
575.175722	2570.549881
575.530330	2569.672720
575.884882	2569.637432
576.239380	2569.607185
576.593823	2569.471074
576.948211	2568.694737
577.302544	2568.747669
577.656823	2569.224058
578.011047	2568.987123
578.365216	2569.367731
578.719330	2568.251115
579.073389	2569.670200
579.427394	2567.719273
579.781344	2565.395301
580.135239	2572.180694
580.489080	2569.816393
580.842866	2567.220199
581.196597	2569.551733
581.550273	2568.402350
581.903895	2568.051989
582.257463	2566.839592
582.610975	2568.407391
582.964434	2568.709860
583.317837	2567.673903
583.671186	2568.304047
584.024481	2568.059551
584.377721	2567.540312
584.730906	2566.411094
585.084037	2567.845302
585.437113	2568.266238
585.790135	2567.968810
586.143103	2565.448233
586.496016	2566.184242
586.848874	2567.825137
587.201679	2566.285065
587.554428	2563.459498
587.907124	2565.302040
588.259765	2562.645352
588.612352	2566.995868
588.964884	2565.395301
589.317362	2565.959911
589.669786	2566.516958
590.022155	2565.624674
590.374470	2564.903789
590.726731	2565.279355
591.078937	2567.447051
591.431090	2567.477298
591.783188	2564.666855
592.135232	2563.141906
592.487222	2565.501166
592.839157	2565.612071
593.191038	2567.656259
593.542866	2567.232802
593.894639	2562.713407
594.246358	2564.419838
594.598022	2565.808676
594.949633	2562.070660
595.301190	2564.155177
595.652692	2563.272976
596.004141	2564.858418
596.355535	2563.066288
596.706876	2564.659293
597.058162	2562.143757
597.409395	2562.302553
597.760573	2560.959086
598.111698	2562.577296
598.462768	2564.487894
598.813785	2559.905485
599.164748	2562.476473
599.515657	2560.535629
599.866511	2563.386402
600.217312	2563.250290
600.568060	2559.875238
600.918753	2562.748696
601.269392	2561.720300
601.619978	2560.654096
601.970510	2561.415310
602.320988	2561.710218
602.671412	2564.351782
603.021783	2560.762481
603.372100	2563.628377
603.722363	2563.769529
604.072572	2562.206772
604.422728	2563.149467
604.772830	2559.996226
605.122878	2556.976574
605.472872	2557.226112
605.822813	2557.210988
606.172701	2559.597974
606.522534	2560.286092
606.872314	2561.133006
607.222041	2558.410783
607.571714	2563.212482
607.921333	2561.553942
608.270899	2560.437327
608.620411	2563.867832
608.969870	2564.472770
609.319276	2563.782132
609.668627	2567.124417
610.017926	2567.303378
610.367171	2569.811352
610.716362	2569.498801
611.065500	2565.864129
611.414585	2562.960424
611.763616	2565.455795
612.112594	2563.083932
612.461518	2565.385219
612.810389	2564.518141
613.159207	2564.782801
613.507971	2564.034190
613.856682	2565.811197
614.205340	2564.752554
614.553945	2563.991340
614.902496	2563.177194
615.250994	2562.456309
615.599439	2558.856925
615.947830	2563.401525
616.296169	2564.056875
616.644454	2561.949673
616.992686	2562.168963
617.340864	2562.403377
617.688990	2562.148798
618.037063	2559.736606
618.385082	2558.839281
618.733048	2564.775239
619.080961	2561.092677
619.428821	2561.556463
619.776628	2564.608881
620.124382	2561.183417
620.472083	2561.959755
620.819731	2562.116031
621.167326	2561.304405
621.514868	2561.987481
621.862357	2559.449260
622.209793	2560.792728
622.557176	2563.267934
622.904506	2556.396842
623.251783	2556.583364
623.599007	2559.250135
623.946179	2558.690567
624.293297	2556.860628
624.640363	2559.245094
624.987376	2560.563355
625.334336	2559.401369
625.681243	2560.364230
626.028097	2558.078067
626.374899	2559.887841
626.721647	2555.169321
627.068343	2561.279199
627.414987	2557.019424
627.761577	2557.301729
628.108115	2559.514795
628.454600	2558.609908
628.801032	2557.468087
629.147412	2558.352809
629.493739	2557.599157
629.840014	2559.406411
630.186236	2560.820454
630.532405	2558.206616
630.878521	2559.524878
631.224585	2558.506565
631.570597	2554.317366
631.916556	2555.612942
632.262462	2555.945658
632.608316	2556.316183
632.954117	2556.520350
633.299866	2557.826009
633.645562	2555.996070
633.991206	2556.235525
634.336797	2553.977088
634.682336	2556.283416
635.027823	2554.609753
635.373257	2553.500699
635.718639	2553.409958
636.063968	2555.207129
636.409245	2555.174362
636.754470	2554.955072
637.099642	2555.131512
637.444762	2558.423386
637.789829	2555.181924
638.134845	2554.380380
638.479808	2554.975236
638.824719	2553.248641
639.169577	2555.842315
639.514383	2552.583209
639.859137	2552.759649
640.203839	2552.439536
640.548489	2551.212015
640.893086	2550.188661
641.237632	2547.186654
641.582125	2550.715461
641.926566	2545.956612
642.270955	2553.334341
642.615292	2551.426264
642.959576	2551.209494
643.303809	2552.154711
643.647990	2553.709907
643.992118	2551.433826
644.336195	2553.377191
644.680219	2551.741336
645.024192	2553.261244
645.368112	2553.213353
645.711981	2553.813250
646.055797	2556.222922
646.399562	2552.575647
646.743274	2551.998435
647.086935	2552.968857
647.430544	2554.191337
647.774101	2553.026830
648.117606	2553.551110
648.461059	2555.426420
648.804460	2555.154197
649.147810	2555.756615
649.491108	2551.678322
649.834354	2551.829556
650.177548	2551.292673
650.520690	2551.847200
650.863781	2552.094217
651.206820	2557.281564
651.549807	2552.817622
651.892742	2552.454659
652.235626	2549.636654
652.578458	2552.464742
652.921238	2548.310831
653.263967	2550.914587
653.606644	2553.024310
653.949269	2551.113713
654.291843	2548.434339
654.634365	2552.111861
654.976836	2551.068342
655.319255	2552.452139
655.661622	2551.743857
656.003938	2549.805533
656.346203	2551.252344
656.688416	2551.920297
657.030577	2550.483568
657.372687	2551.678322
657.714746	2547.831921
658.056753	2550.992725
658.398708	2545.432332
658.740612	2548.928372
659.082465	2542.856303
659.424266	2548.043650
659.766016	2545.311344
660.107715	2548.736808
660.449362	2548.242775
660.790958	2548.835111
661.132503	2547.905018
661.473996	2550.541542
661.815438	2552.547921
662.156829	2552.442057
662.498168	2551.212015
662.839456	2551.655637
663.180693	2549.155224
663.521879	2550.634803
663.863013	2549.860986
664.204097	2549.649257
664.545129	2551.017931
664.886110	2549.571119
665.227040	2551.106151
665.567918	2548.762014
665.908746	2550.239072
666.249522	2551.678322
666.590248	2549.679504
666.930922	2548.918290
667.271545	2549.480379
667.612118	2554.093034
667.952639	2549.243444
668.293109	2550.596994
668.633528	2549.346788
668.973896	2547.844524
669.314213	2550.155893
669.654480	2548.877961
669.994695	2550.057591
670.334859	2553.551110
670.674973	2547.849565
671.015035	2549.964329
671.355047	2547.784030
671.695008	2550.042467
672.034918	2550.949875
672.374777	2551.088507
672.714585	2547.486602
673.054342	2551.043136
673.394049	2548.245296
673.733705	2549.707231
674.073310	2548.998948
674.412864	2552.391645
674.752368	2549.054401
675.091820	2551.764021
675.431223	2549.530790
675.770574	2549.319062
676.109875	2543.042825
676.449125	2546.879143
676.788324	2544.177085
677.127473	2548.691438
677.466571	2542.490819
677.805619	2547.131201
678.144616	2548.988866
678.483562	2549.838301
678.822458	2547.042981
679.161303	2551.892571
679.500098	2547.973074
679.838842	2549.051881
680.177535	2547.960471
680.516179	2548.593136
680.854771	2546.715306
681.193314	2547.771427
681.531805	2547.151366
681.870247	2551.007848
682.208638	2550.402910
682.546978	2552.676470
682.885268	2551.844680
683.223508	2548.895605
683.561697	2546.735470
683.899836	2551.005328
684.237925	2547.219421
684.575963	2547.347971
684.913951	2552.046326
685.251889	2550.944834
685.589776	2549.336706
685.927614	2553.825853
686.265401	2548.804864
686.603137	2545.712116
686.940824	2547.925183
687.278460	2550.246634
687.616046	2552.512633
687.953582	2551.075904
688.291068	2549.732436
688.628504	2549.324103
688.965889	2549.820657
689.303224	2550.544062
689.640510	2550.581871
689.977745	2550.430636
690.314930	2548.822508
690.652065	2549.921480
690.989150	2549.233362
691.326185	2549.056922
691.663170	2547.332847
692.000105	2546.672456
692.336990	2545.084493
692.673825	2548.968702
693.010610	2546.889226
693.347345	2544.114070
693.684030	2539.473688
694.020665	2546.518701
694.357251	2544.146838
694.693786	2544.708927
695.030272	2546.599359
695.366707	2543.347815
695.703093	2545.328988
696.039429	2544.817311
696.375716	2542.445448
696.711952	2544.915614
697.048139	2545.245809
697.384276	2544.451828
697.720363	2545.613814
698.056400	2544.144317
698.392388	2547.262271
698.728326	2544.610624
699.064214	2542.326981
699.400053	2544.577857
699.735842	2544.572815
700.071581	2542.775644
700.407270	2546.206149
700.742910	2543.874616
701.078501	2544.035932
701.414042	2543.370500
701.749533	2541.686755
702.084974	2545.427291
702.420366	2543.252033
702.755709	2543.546941
703.091002	2542.626930
703.426246	2542.831097
703.761440	2544.950902
704.096584	2543.746066
704.431679	2544.426622
704.766725	2544.658515
705.101721	2543.269677
705.436668	2541.313709
705.771565	2542.180788
706.106413	2547.153886
706.441212	2542.503422
706.775961	2545.392003
707.110661	2542.644574
707.445311	2544.164482
707.779913	2542.904193
708.114465	2541.621220
708.448967	2541.608617
708.783421	2544.822353
709.117825	2545.565923
709.452180	2544.270346
709.786485	2542.447969
710.120742	2544.441745
710.454949	2545.326468
710.789107	2544.156920
711.123216	2542.498381
711.457275	2543.897301
711.791286	2542.251364
712.125247	2541.497712
712.459159	2546.526263
712.793023	2545.462579
713.126837	2543.209183
713.460602	2543.526776
713.794318	2544.023330
714.127985	2545.036602
714.461602	2543.088196
714.795171	2545.699513
715.128691	2542.891591
715.462162	2543.267157
715.795584	2542.949564
716.128957	2542.463092
716.462281	2542.190870
716.795556	2541.754810
717.128782	2545.349153
717.461960	2542.369831
717.795088	2539.635005
718.128167	2542.389996
718.461198	2543.405788
718.794180	2540.799512
719.127113	2541.739687
719.459997	2543.536858
719.792833	2544.046015
720.125619	2541.906045
720.458357	2540.527289
720.791046	2543.720860
721.123686	2539.231713
721.456278	2542.805891
721.788821	2540.509645
722.121315	2541.772454
722.453761	2541.212886
722.786158	2538.651980
723.118506	2540.688606
723.450805	2541.215407
723.783056	2541.409491
724.115259	2542.228679
724.447412	2541.933771
724.779518	2541.389327
725.111574	2540.849923
725.443582	2540.045859
725.775542	2540.774306
726.107453	2540.645757
726.439315	2543.559543
726.771129	2544.562733
727.102895	2540.807073
727.434612	2543.352856
727.766281	2542.954605
728.097901	2540.658359
728.429473	2541.732125
728.760996	2541.734646
729.092471	2538.110056
729.423897	2547.194215
729.755276	2543.428473
730.086606	2544.736653
730.417887	2541.038967
730.749120	2544.182126
731.080305	2544.159441
731.411442	2546.264123
731.742530	2543.451159
732.073570	2544.673638
732.404562	2545.573484
732.735506	2544.812270
733.066401	2543.206663
733.397249	2545.245809
733.728048	2543.337733
734.058798	2543.854451
734.389501	2541.109543
734.720156	2540.192053
735.050762	2543.499050
735.381320	2539.997968
735.711831	2539.181301
736.042293	2540.887732
736.372707	2542.700027
736.703073	2541.979142
737.033391	2540.086188
737.363661	2541.273380
737.693883	2541.659028
738.024056	2544.645912
738.354182	2540.023174
738.684260	2540.935623
739.014290	2540.852444
739.344272	2538.251208
739.674207	2542.909235
740.004093	2543.317568
740.333931	2543.433515
740.663722	2544.532486
740.993464	2541.893442
741.323159	2540.739018
741.652806	2541.006199
741.982405	2540.277752
742.311956	2543.163813
742.641460	2541.439738
742.970915	2539.519059
743.300323	2541.497712
743.629683	2538.946888
743.958996	2540.151723
744.288260	2540.297917
744.617477	2540.812115
744.946647	2537.230375
745.275768	2539.609799
745.604842	2534.465302
745.933869	2538.052083
746.262847	2534.160312
746.591778	2539.246836
746.920662	2538.626774
747.249498	2542.203473
747.578286	2540.126518
747.907027	2539.561908
748.235720	2540.098791
748.564365	2538.878832
748.892963	2537.724408
749.221514	2543.022661
749.550017	2538.740200
749.878473	2539.103163
750.206881	2537.966383
750.535242	2542.367311
750.863555	2540.481919
751.191821	2538.440252
751.520039	2537.968904
751.848210	2540.161806
752.176334	2541.253216
752.504411	2541.157434
752.832440	2538.256250
753.160421	2541.069213
753.488356	2538.306661
753.816243	2541.696837
754.144082	2536.426311
754.471875	2541.313709
754.799620	2537.789943
755.127318	2537.371527
755.454969	2536.141486
755.782572	2538.692309
756.110129	2537.432021
756.437638	2539.445962
756.765100	2539.251878
757.092515	2538.737680
757.419882	2539.970242
757.747203	2538.132741
758.074477	2537.008564
758.401703	2537.928575
758.728882	2537.265663
759.056014	2540.587783
759.383099	2536.632998
759.710138	2539.700540
760.037129	2538.210879
760.364073	2541.550644
760.690970	2537.351362
761.017820	2542.049718
761.344623	2538.296579
761.671379	2540.391178
761.998088	2536.138965
762.324751	2539.221631
762.651366	2540.706250
762.977935	2547.048022
763.304456	2546.039791
763.630931	2548.719164
763.957359	2547.768907
764.283740	2546.503577
764.610074	2544.048535
764.936362	2543.957795
765.262602	2540.197094
765.588796	2542.460572
765.914943	2539.612320
766.241044	2540.141641
766.567097	2537.358924
766.893104	2538.609130
767.219064	2537.679038
767.544978	2537.865560
767.870845	2537.333718
768.196665	2537.744573
768.522438	2536.030580
768.848165	2539.027546
769.173846	2535.828934
769.499479	2539.347659
769.825066	2537.084181
770.150607	2537.288348
770.476101	2537.069058
770.801548	2539.045190
771.126949	2536.159130
771.452303	2537.802546
771.777611	2537.220293
772.102872	2537.575694
772.428087	2534.913965
772.753256	2537.772299
773.078378	2536.073430
773.403453	2538.422608
773.728482	2537.656352
774.053465	2536.194418
774.378401	2535.067720
774.703291	2534.523275
775.028135	2534.435055
775.352932	2537.449665
775.677683	2535.226516
776.002388	2536.118800
776.327046	2536.375899
776.651658	2535.539068
776.976224	2534.356917
777.300743	2534.689633
777.625216	2538.362114
777.949643	2535.176105
778.274024	2536.340611
778.598359	2532.476567
778.922647	2531.435568
779.246889	2533.406660
779.571086	2533.804911
779.895236	2536.302803
780.219339	2535.574356
780.543397	2534.661907
780.867409	2536.043183
781.191374	2535.055117
781.515294	2534.528316
781.839167	2533.202493
782.162995	2535.019829
782.486776	2535.617206
782.810511	2534.004036
783.134201	2536.849768
783.457844	2534.485467
783.781441	2535.080323
784.104993	2534.200641
784.428498	2533.862884
784.751958	2534.298944
785.075372	2534.084695
785.398739	2535.390354
785.722061	2539.887063
786.045337	2533.013450
786.368568	2536.431352
786.691752	2533.998995
787.014891	2535.294572
787.337983	2533.784746
787.661030	2539.501415
787.984031	2537.517721
788.306987	2537.933616
788.629897	2535.808769
788.952760	2536.353214
789.275579	2535.614685
789.598351	2535.781043
789.921078	2534.490508
790.243759	2535.382792
790.566395	2536.055786
790.888984	2534.714839
791.211529	2531.559077
791.534027	2538.052083
791.856480	2534.621578
792.178888	2535.080323
792.501249	2533.396577
792.823566	2537.810108
793.145836	2531.246525
793.468062	2537.043852
793.790241	2533.956145
794.112375	2532.965559
794.434464	2533.910775
794.756507	2535.597041
795.078505	2533.492359
795.400457	2533.744417
795.722364	2529.719056
796.044226	2529.867770
796.366042	2533.820034
796.687812	2530.883562
797.009538	2534.976979
797.331218	2534.505631
797.652852	2533.787267
797.974442	2535.017308
798.295986	2532.496731
798.617484	2536.809438
798.938938	2533.479756
799.260346	2537.457227
799.581709	2535.571835
799.903026	2535.234078
800.224299	2532.673172
800.545526	2535.360107
800.866708	2534.205683
801.187845	2532.887421
801.508936	2533.978831
801.829983	2535.294572
802.150984	2536.837165
802.471940	2535.377751
802.792851	2535.221475
803.113717	2534.732483
803.434538	2534.147709
803.755314	2536.264994
804.076045	2534.956814
804.396731	2534.893800
804.717372	2534.354397
805.037967	2534.369520
805.358518	2533.474715
805.679024	2533.439427
805.999485	2536.632998
806.319901	2530.507996
806.640272	2534.109901
806.960598	2536.310364
807.280879	2533.759540
807.601115	2533.890610
807.921306	2533.789787
808.241453	2536.822041
808.561554	2534.288862
808.881611	2534.919006
809.201623	2535.854140
809.521590	2534.140148
809.841513	2535.455889
810.161390	2537.013605
810.481223	2534.188038
810.801011	2536.391023
811.120755	2533.787267
811.440453	2536.950591
811.760107	2534.258615
812.079716	2533.036135
812.399281	2531.554036
812.718801	2531.483459
813.038276	2528.708304
813.357707	2532.214427
813.677093	2533.346166
813.996434	2534.445137
814.315731	2534.666948
814.634983	2533.605785
814.954191	2533.436907
815.273354	2533.948584
815.592473	2535.241640
815.911547	2535.362627
816.230577	2533.255425
816.549562	2535.234078
816.868502	2536.569984
817.187399	2535.760878
817.506250	2534.286341
817.825058	2533.394057
818.143821	2535.276928
818.462539	2534.848430
818.781213	2534.762730
819.099843	2537.560570
819.418429	2534.230888
819.736970	2541.172557
820.055466	2538.208359
820.373919	2537.585776
820.692327	2540.300437
821.010691	2544.950902
821.329011	2551.925338
821.647286	2564.931515
821.965517	2581.463979
822.283704	2592.330186
822.601847	2594.633994
822.919945	2589.958323
823.237999	2579.757549
823.556010	2568.293965
823.873976	2558.897254
824.191897	2556.152346
824.509775	2552.487427
824.827609	2547.879812
825.145398	2545.999462
825.463144	2545.119781
825.780845	2545.296221
826.098502	2547.753783
826.416116	2552.494989
826.733685	2557.707542
827.051210	2555.983467
827.368692	2554.728220
827.686129	2550.052550
828.003522	2548.739329
828.320872	2540.633154
828.638177	2539.128369
828.955439	2535.806249
829.272656	2536.411187
829.589830	2533.310878
829.906960	2536.537216
830.224046	2534.283820
830.541088	2535.130734
830.858086	2534.709798
831.175041	2538.273894
831.491952	2533.721732
831.808819	2536.741383
832.125642	2534.419932
832.442421	2535.995292
832.759157	2539.236754
833.075849	2539.516538
833.392497	2544.839997
833.709101	2544.628268
834.025662	2544.605583
834.342179	2542.752959
834.658653	2540.678524
834.975083	2541.185160
835.291469	2541.563247
835.607811	2536.834644
835.924110	2533.671320
836.240366	2536.842206
836.556578	2532.826927
836.872746	2539.098122
837.188871	2533.285672
837.504952	2535.831455
837.820990	2535.097967
838.136984	2531.846423
838.452935	2530.707122
838.768842	2536.199459
839.084706	2534.271217
839.400526	2534.278779
839.716303	2536.385982
840.032037	2537.016126
840.347727	2538.036959
840.663373	2536.282638
840.978977	2533.217616
841.294537	2537.177443
841.610054	2532.451361
841.925527	2534.765251
842.240957	2532.257277
842.556344	2533.021011
842.871687	2529.971113
843.186987	2535.687782
843.502244	2528.970444
843.817458	2532.859694
844.132629	2530.238294
844.447756	2535.518903
844.762840	2528.756195
845.077881	2527.511030
845.392879	2527.324507
845.707833	2528.352903
846.022745	2526.202851
846.337613	2528.529343
846.652438	2531.294416
846.967221	2531.014632
847.281960	2529.184693
847.596656	2528.610002
847.911309	2527.364837
848.225919	2533.630991
848.540485	2530.200486
848.855009	2529.131761
849.169490	2531.254087
849.483928	2530.341638
849.798323	2533.094108
850.112675	2531.967410
850.426984	2528.378109
850.741251	2529.696370
851.055474	2529.353572
851.369654	2528.642769
851.683792	2530.502955
851.997887	2531.158305
852.311938	2529.527492
852.625947	2529.212420
852.939914	2530.535723
853.253837	2532.433717
853.567718	2530.349200
853.881555	2533.086546
854.195350	2530.936494
854.509103	2531.397760
854.822812	2526.767460
855.136479	2530.492873
855.450103	2531.377595
855.763685	2533.555374
856.077224	2531.468336
856.390720	2529.282996
856.704173	2530.200486
857.017584	2530.162677
857.330953	2528.393232
857.644278	2530.402132
857.957561	2533.983872
858.270802	2530.248377
858.584000	2529.454395
858.897155	2530.825589
859.210268	2531.312060
859.523339	2530.634025
859.836367	2529.653521
860.149352	2528.806607
860.462295	2530.167718
860.775195	2531.501103
861.088054	2526.036493
861.400869	2528.012625
861.713642	2528.453726
862.026373	2530.019004
862.339062	2530.931453
862.651708	2532.461443
862.964312	2531.397760
863.276873	2529.991278
863.589392	2532.274921
863.901869	2532.736186
864.214303	2528.826771
864.526696	2530.301309
864.839045	2530.946577
865.151353	2528.415917
865.463619	2531.909437
865.775842	2533.313398
866.088023	2532.247194
866.400162	2530.049251
866.712258	2529.104035
867.024313	2531.435568
867.336325	2531.317101
867.648296	2530.404653
867.960224	2532.194262
868.272110	2531.740558
868.583954	2532.496731
868.895755	2529.741741
869.207515	2532.670651
869.519233	2529.751823
869.830909	2529.315763
870.142542	2531.922040
870.454134	2530.215609
870.765684	2530.071936
871.077191	2531.244005
871.388657	2532.017822
871.700081	2531.123017
872.011463	2531.271731
872.322803	2530.795342
872.634101	2529.109076
872.945357	2531.864067
873.256571	2531.717873
873.567744	2530.452543
873.878874	2531.123017
874.189963	2529.386339
874.501010	2532.917668
874.812015	2531.095291
875.122979	2532.121165
875.433900	2530.024045
875.744780	2533.026053
876.055618	2531.428007
876.366415	2532.093439
876.677169	2530.802904
876.987882	2529.895496
877.298554	2525.708818
877.609183	2528.935156
877.919771	2529.260311
878.230317	2530.833151
878.540822	2535.718029
878.851285	2533.252904
879.161707	2533.015970
879.472087	2533.409180
879.782425	2537.966383
880.092722	2538.604089
880.402977	2546.455686
880.713191	2551.504402
881.023363	2559.108983
881.333494	2566.113666
881.643583	2566.897565
881.953631	2569.902093
882.263637	2564.934036
882.573602	2562.317677
882.883526	2557.102603
883.193408	2553.059598
883.503248	2548.958619
883.813048	2548.782179
884.122806	2545.492826
884.432522	2543.103319
884.742197	2539.425797
885.051831	2537.512679
885.361424	2538.727597
885.670975	2534.142668
885.980485	2532.882380
886.289954	2534.157792
886.599382	2532.216947
886.908768	2535.269366
887.218113	2533.845240
887.527417	2535.491177
887.836680	2530.565969
888.145901	2531.387678
888.455082	2531.876669
888.764221	2531.959848
889.073319	2530.956659
889.382376	2531.261649
889.691392	2530.714683
890.000366	2531.977492
890.309300	2532.282482
890.618193	2531.438089
890.927044	2531.491021
891.235855	2534.306506
891.544625	2531.480939
891.853353	2532.635363
892.162041	2530.109745
892.470687	2534.062010
892.779293	2532.209386
893.087858	2530.218130
893.396381	2529.469518
893.704864	2535.148378
894.013306	2533.290713
894.321707	2539.715664
894.630068	2544.109029
894.938387	2544.081303
895.246665	2544.789585
895.554903	2541.822866
895.863100	2538.843544
896.171256	2538.311702
896.479371	2536.764068
896.787446	2535.662576
897.095480	2533.172246
897.403473	2531.483459
897.711425	2532.209386
898.019336	2534.205682
898.327207	2533.525127
898.635038	2533.023532
898.942827	2532.068233
899.250576	2533.578059
899.558284	2531.806093
899.865952	2532.547143
900.173579	2531.521268
900.481165	2533.336083
900.788711	2531.750641
901.096216	2531.044879
901.403681	2529.587986
901.711105	2531.392719
902.018489	2531.790970
902.325832	2532.239632
902.633135	2530.946577
902.940397	2533.154602
903.247619	2530.868439
903.554800	2536.149047
903.861941	2538.031918
904.169041	2546.556509
904.476101	2545.868392
904.783121	2547.990718
905.090100	2543.796478
905.397039	2542.185829
905.703938	2538.563760
906.010796	2537.008564
906.317614	2536.585107
906.624391	2534.969417
906.931129	2533.341125
907.237826	2532.340456
907.544483	2529.958510
907.851099	2533.837678
908.157675	2529.824920
908.464211	2527.987419
908.770707	2525.098838
909.077163	2527.407687
909.383578	2524.829136
909.689954	2528.060516
909.996289	2526.389373
910.302584	2526.928777
910.608839	2530.313912
910.915054	2529.393901
911.221229	2531.506145
911.527363	2528.534384
911.833458	2528.746113
912.139513	2530.162677
912.445527	2532.368182
912.751502	2530.278624
913.057436	2529.898017
913.363331	2529.983716
913.669186	2528.156298
913.975000	2532.448840
914.280775	2530.936494
914.586510	2534.145189
914.892205	2536.900179
915.197859	2536.859850
915.503475	2539.745911
915.809050	2544.635830
916.114585	2545.003834
916.420081	2547.428629
916.725536	2548.469627
917.030952	2547.917621
917.336328	2540.635674
917.641665	2544.179605
917.946961	2538.644418
918.252218	2537.641229
918.557435	2536.247350
918.862612	2535.556712
919.167750	2529.749303
919.472848	2534.581248
919.777906	2531.841381
920.082925	2531.430527
920.387904	2529.146885
920.692843	2530.805424
920.997743	2530.860877
921.302603	2533.048738
921.607423	2531.370033
921.912204	2532.368182
922.216946	2530.104704
922.521647	2532.557225
922.826310	2529.083870
923.130932	2531.168387
923.435516	2527.269055
923.740059	2531.163346
924.044564	2528.408356
924.349028	2529.106555
924.653454	2524.783766
924.957840	2527.170752
925.262186	2524.093128
925.566493	2528.645290
925.870761	2524.884589
926.174989	2527.647141
926.479178	2526.096987
926.783328	2530.596216
927.087438	2528.249559
927.391509	2526.921215
927.695541	2528.955321
927.999533	2528.652852
928.303486	2529.197296
928.607400	2528.773839
928.911275	2525.461801
929.215110	2527.072450
929.518906	2527.763088
929.822663	2526.177645
930.126381	2527.866432
930.430060	2526.709487
930.733699	2529.996319
931.037299	2526.941380
931.340861	2527.611853
931.644383	2529.300640
931.947866	2527.304343
932.251309	2528.884745
932.554714	2526.880886
932.858080	2531.717873
933.161407	2526.432223
933.464694	2528.531864
933.767943	2525.348375
934.071153	2526.840557
934.374323	2524.209074
934.677455	2528.299971
934.980548	2526.800227
935.283602	2526.580937
935.586617	2529.530012
935.889593	2529.088911
936.192530	2528.776360
936.495428	2527.851308
936.798287	2527.052285
937.101108	2527.901720
937.403890	2529.083870
937.706632	2529.048582
938.009336	2528.733510
938.312002	2527.412728
938.614628	2527.412728
938.917216	2528.816689
939.219765	2528.128572
939.522275	2526.664116
939.824747	2529.653521
940.127179	2524.849301
940.429573	2525.963396
940.731929	2525.809641
941.034246	2523.558766
941.336524	2528.710825
941.638763	2527.145547
941.940964	2527.677388
942.243126	2524.902233
942.545250	2529.560259
942.847335	2526.593540
943.149381	2527.619415
943.451389	2525.416431
943.753359	2525.262676
944.055290	2527.359796
944.357182	2526.525485
944.659036	2527.332069
944.960851	2529.577903
945.262628	2526.487676
945.564367	2528.509179
945.866067	2529.156967
946.167729	2526.951462
946.469352	2528.688140
946.770937	2527.495907
947.072484	2529.726617
947.373992	2527.672347
947.675462	2528.516740
947.976893	2527.301822
948.278286	2528.506658
948.579641	2527.321987
948.880958	2529.260311
949.182236	2528.511699
949.483476	2527.231246
949.784678	2528.763757
950.085841	2526.863242
950.386967	2527.574045
950.688054	2527.919364
950.989103	2526.651513
951.290114	2528.226874
951.591087	2526.349044
951.892021	2527.163191
952.192917	2526.855680
952.493776	2525.857532
952.794596	2529.570342
953.095378	2530.878521
953.396122	2530.439941
953.696828	2527.647141
953.997496	2527.652183
954.298126	2526.820392
954.598718	2527.715197
954.899272	2525.595392
955.199788	2528.536905
955.500266	2526.608664
955.800706	2524.796369
956.101108	2521.277643
956.401472	2525.605474
956.701798	2520.990298
957.002087	2523.475587
957.302337	2528.907430
957.602550	2527.725279
957.902724	2528.685619
958.202861	2527.737882
958.502960	2525.217305
958.803022	2527.584127
959.103045	2527.334590
959.403031	2526.850639
959.702979	2528.350382
960.002889	2527.911802
960.302762	2526.573376
960.602596	2525.522295
960.902393	2525.658406
961.202153	2527.984899
961.501875	2526.777542
961.801559	2525.005577
962.101205	2525.822244
962.400814	2526.664116
962.700385	2523.969620
962.999918	2527.528674
963.299414	2525.209743
963.598873	2525.260155
963.898293	2527.962213
964.197677	2525.335772
964.497022	2525.524816
964.796331	2527.453057
965.095601	2526.205371
965.394835	2527.722759
965.694030	2525.396266
965.993189	2526.308715
966.292309	2526.470032
966.591393	2523.876358
966.890439	2524.549352
967.189447	2528.254600
967.488419	2525.764270
967.787353	2526.197810
968.086249	2524.216636
968.385108	2525.550021
968.683930	2527.750485
968.982714	2527.662265
969.281462	2526.437264
969.580172	2527.480783
969.878844	2523.306708
970.177480	2526.792666
970.476078	2526.601102
970.774639	2528.027748
971.073162	2525.171935
971.371649	2524.685463
971.670098	2522.999197
971.968510	2526.323838
972.266885	2522.921060
972.565223	2526.175124
972.863524	2523.891482
973.161788	2526.069260
973.460014	2525.426513
973.758204	2524.302336
974.056356	2525.444157
974.354471	2527.039682
974.652550	2525.149250
974.950591	2527.768129
975.248595	2525.295443
975.546563	2526.901051
975.844493	2527.387522
976.142386	2525.055988
976.440243	2524.488858
976.738062	2523.946934
977.035845	2526.230577
977.333590	2526.825433
977.631299	2525.534898
977.928971	2525.386184
978.226606	2525.313087
978.524204	2526.991791
978.821765	2526.570855
979.119290	2524.161183
979.416777	2523.881399
979.714228	2524.788807
980.011642	2525.509692
980.309020	2530.122348
980.606360	2526.515402
980.903664	2523.485669
981.200931	2525.734023
981.498162	2524.826616
981.795356	2527.755526
982.092513	2526.165042
982.389633	2525.282840
982.686717	2527.526154
982.983764	2528.297450
983.280775	2526.028931
983.577749	2524.877027
983.874686	2528.383150
984.171587	2527.563962
984.468451	2527.929446
984.765279	2527.090094
985.062070	2525.814682
985.358824	2525.749147
985.655543	2527.556401
985.952224	2522.835360
986.248869	2524.561955
986.545478	2521.249917
986.842050	2525.144208
987.138586	2521.764115
987.435086	2520.387880
987.731549	2520.851666
988.027975	2523.520957
988.324366	2525.784435
988.620719	2525.691174
988.917037	2524.975330
989.213318	2526.684281
989.509563	2524.211595
989.805772	2525.310567
990.101944	2523.266379
990.398080	2524.423323
990.694180	2525.106400
990.990244	2526.648993
991.286271	2526.316277
991.582262	2523.243693
991.878217	2526.785104
992.174136	2524.975330
992.470019	2526.651513
992.765865	2523.437778
993.061676	2524.282171
993.357450	2525.003056
993.653188	2524.695546
993.948890	2523.536080
994.244556	2523.089938
994.540186	2524.360309
994.835780	2525.187058
995.131337	2524.085566
995.426859	2525.887779
995.722345	2527.722759
996.017795	2525.610515
996.313208	2525.928108
996.608586	2524.952645
996.903928	2525.678571
997.199234	2525.837367
997.494504	2526.212933
997.789738	2521.834691
998.084936	2524.062881
998.380099	2525.033303
998.675225	2523.934332
998.970316	2525.638242
999.265371	2523.657068
999.560390	2525.610515
999.855373	2524.468694
1000.150320	2523.538601
1000.445232	2523.485669
1000.740108	2522.545494
1001.034948	2523.861235
1001.329752	2524.783766
1001.624521	2523.760412
1001.919254	2520.899557
1002.213951	2522.689167
1002.508613	2520.100534
1002.803239	2522.986595
1003.097829	2517.716068
1003.392384	2524.738396
1003.686903	2525.613036
1003.981386	2525.350896
1004.275834	2525.751668
1004.570246	2528.521782
1004.864623	2525.965917
1005.158964	2525.776873
1005.453270	2524.551873
1005.747540	2523.188241
1006.041775	2525.721421
1006.335974	2522.744619
1006.630138	2522.555576
1006.924266	2524.098169
1007.218359	2525.131606
1007.512416	2525.315608
1007.806438	2524.582120
1008.100425	2525.507172
1008.394376	2525.121523
1008.688292	2525.076153
1008.982172	2523.586492
1009.276017	2522.795031
1009.569827	2524.158663
1009.863602	2526.157480
1010.157341	2525.779394
1010.451045	2522.973992
1010.744714	2523.374763
1011.038347	2524.478776
1011.331945	2523.838550
1011.625508	2526.036493
1011.919036	2523.901564
1012.212528	2522.275792
1012.505986	2524.443488
1012.799408	2525.822244
1013.092795	2523.720083
1013.386147	2524.579599
1013.679464	2525.701256
1013.972745	2523.704959
1014.265992	2523.843591
1014.559204	2525.192099
1014.852380	2523.362161
1015.145521	2526.802748
1015.438628	2525.844929
1015.731699	2525.610515
1016.024736	2526.323838
1016.317737	2522.432068
1016.610703	2523.838550
1016.903635	2518.111799
1017.196531	2521.388549
1017.489393	2519.805627
1017.782219	2521.012983
1018.075011	2522.099352
1018.367768	2521.693539
1018.660490	2522.966430
1018.953177	2522.966430
1019.245829	2522.966430
