Dividing Wavelength (nm)	Counts (n)	Blue Motor Position (mm): 0.000000	Red Motor Position (mm): 44.500000	
326.493990	2126.842643
326.888308	2126.842643
327.282561	2126.842643
327.676750	2095.045565
328.070874	2091.960379
328.464933	2096.610843
328.858929	2104.527976
329.252859	2114.138935
329.646726	2126.693929
330.040528	2137.892852
330.434265	2152.305511
330.827938	2172.311330
331.221547	2190.008301
331.615091	2207.942206
332.008571	2227.501883
332.401986	2247.656416
332.795338	2266.409508
333.188625	2285.369288
333.581847	2305.884263
333.975006	2322.600729
334.368100	2341.000941
334.761129	2361.432737
335.154095	2375.318596
335.546996	2396.199055
335.939833	2420.010945
336.332606	2434.587441
336.725315	2447.003803
337.117960	2458.991667
337.510540	2465.325877
337.903056	2476.519759
338.295508	2485.457725
338.687896	2493.442912
339.080220	2501.425580
339.472480	2509.148627
339.864676	2512.037208
340.256807	2516.894360
340.648875	2519.044412
341.040879	2521.305370
341.432818	2524.745957
341.824694	2524.347706
342.216506	2526.018849
342.608253	2527.788294
342.999937	2527.571524
343.391557	2526.918695
343.783113	2524.748478
344.174605	2522.585823
344.566033	2522.976512
344.957397	2521.323014
345.348697	2518.590708
345.739934	2517.705986
346.131106	2515.039216
346.522215	2514.300687
346.913260	2510.348422
347.304241	2510.950840
347.695159	2509.317506
348.086012	2507.064110
348.476802	2505.294665
348.867528	2504.916579
349.258191	2499.575476
349.648789	2500.485404
350.039324	2499.290651
350.429796	2500.729900
350.820203	2496.147492
351.210548	2497.813593
351.600828	2496.366782
351.991045	2496.442399
352.381198	2493.949548
352.771288	2493.999960
353.161314	2492.371667
353.551276	2496.230671
353.941175	2493.160608
354.331010	2495.983654
354.720782	2493.442913
355.110490	2493.959631
355.500135	2495.761843
355.889717	2495.371154
356.279235	2496.366782
356.668689	2495.807214
357.058080	2496.898623
357.447408	2494.196565
357.836672	2491.144146
358.225873	2496.752430
358.615010	2493.838643
359.004084	2499.363748
359.393095	2496.785198
359.782043	2501.995230
360.170927	2500.218223
360.559748	2500.949191
360.948505	2499.522544
361.337199	2502.118738
361.725830	2500.939108
362.114398	2503.515138
362.502903	2501.786022
362.891344	2504.236023
363.279722	2503.462206
363.668037	2504.326764
364.056289	2506.018071
364.444478	2508.596621
364.832603	2508.193329
365.220665	2508.452948
365.608665	2509.395644
365.996601	2511.828001
366.384474	2510.882784
366.772284	2515.278670
367.160031	2511.659122
367.547715	2515.664319
367.935336	2517.670698
368.322893	2519.488034
368.710388	2525.872655
369.097820	2529.146885
369.485189	2532.738707
369.872495	2540.040818
370.259738	2542.556354
370.646918	2555.179403
371.034035	2561.339693
371.421090	2570.711198
371.808081	2580.488516
372.195010	2590.250710
372.581875	2604.933071
372.968678	2617.480503
373.355418	2627.071298
373.742096	2645.526962
374.128710	2657.839981
374.515262	2674.019564
374.901751	2689.727799
375.288177	2703.303627
375.674540	2724.504199
376.060841	2741.881056
376.447079	2763.542894
376.833254	2784.728343
377.219367	2795.249232
377.605417	2831.064109
377.991404	2844.029957
378.377329	2863.947556
378.763191	2880.969012
379.148991	2916.693148
379.534727	2944.573250
379.920402	2972.113073
380.306013	2982.444918
380.691563	3035.959287
381.077049	3056.040723
381.462474	3076.364135
381.847835	3113.577932
382.233134	3133.271200
382.618371	3132.472177
383.003545	3201.566232
383.388657	3207.978579
383.773706	3241.681213
384.158693	3260.071343
384.543618	3282.963222
384.928480	3318.589056
385.313280	3367.851212
385.698017	3365.718804
386.082692	3418.103954
386.467305	3423.223246
386.851856	3456.368832
387.236344	3475.989003
387.620770	3506.379599
388.005133	3532.903630
388.389435	3561.136612
388.773674	3573.391657
389.157851	3618.726753
389.541965	3631.367447
389.926018	3595.550049
390.310008	3667.530164
390.693936	3687.155376
391.077802	3724.727095
391.461606	3715.869788
391.845348	3777.223151
392.229027	3777.581073
392.612645	3791.045995
392.996200	3866.265051
393.379694	3912.711722
393.763125	3970.569045
394.146494	3941.214406
394.529801	4001.761184
394.913047	4050.698185
395.296230	4015.284080
395.679351	4070.900609
396.062410	4096.550000
396.445408	4079.437803
396.828343	4107.635498
397.211217	4133.236997
397.594028	4052.868402
397.976778	4117.627064
398.359466	4147.974811
398.742092	4174.549253
399.124656	4098.178293
399.507158	4176.976569
399.889598	4203.203172
400.271977	4264.934621
400.654294	4232.630907
401.036549	4245.858895
401.418742	4216.264801
401.800874	4317.392868
402.182944	4336.413141
402.564952	4398.615939
402.946898	4385.957601
403.328783	4381.382754
403.710606	4296.651040
404.092367	4492.404085
404.474067	4455.525524
404.855705	4466.759736
405.237282	4389.982963
405.618797	4497.649406
406.000250	4531.969581
406.381642	4614.768013
406.762972	4576.553546
407.144240	4587.744907
407.525447	4585.589814
407.906593	4646.144154
408.287677	4691.116288
408.668700	4617.182725
409.049661	4669.015869
409.430560	4713.970359
409.811399	4637.596878
410.192176	4802.026713
410.572891	4736.285026
410.953545	4840.266386
411.334138	4721.277511
411.714669	4785.378303
412.095139	4685.235782
412.475547	4823.645702
412.855894	4803.909584
413.236180	4816.252850
413.616405	4769.874234
413.996568	4855.619220
414.376670	4798.717196
414.756711	4754.302110
415.136691	4787.205721
415.516609	4862.208008
415.896466	4899.668822
416.276262	4934.399852
416.655997	4914.129372
417.035670	5098.260037
417.415283	5186.323953
417.794834	5130.485613
418.174324	5081.188169
418.553753	4990.999407
418.933121	5174.207540
419.312428	5244.292182
419.691674	5182.457388
420.070859	5307.379701
420.449983	5220.916351
420.829045	5337.480431
421.208047	5240.869238
421.586988	5315.415301
421.965867	5327.277136
422.344686	5459.436025
422.723444	5317.542667
423.102141	5128.910252
423.480777	5432.816212
423.859352	5194.432649
424.237866	5458.561385
424.616319	5448.416063
424.994712	5557.516714
425.373044	5435.004073
425.751314	5580.771557
426.129524	5382.621443
426.507673	5576.784004
426.885762	5658.422970
427.263789	5595.363177
427.641756	5470.133353
428.019662	5595.297642
428.397508	5599.713692
428.775292	5544.134971
429.153016	5648.524664
429.530679	5574.601184
429.908282	5657.351725
430.285824	5529.051839
430.663305	5802.587367
431.040726	5537.490730
431.418086	5534.292118
431.795385	5643.115506
432.172624	5654.934492
432.549802	5653.371734
432.926920	5667.237427
433.303977	5668.747253
433.680974	5708.496751
434.057910	5730.188836
434.434786	5735.625721
434.811601	5701.779414
435.188355	5936.646771
435.565050	5810.469211
435.941683	5798.516635
436.318257	6003.933572
436.694770	5992.459906
437.071222	6024.221696
437.447614	5951.336694
437.823946	5871.010948
438.200218	6022.331263
438.576429	5885.353031
438.952580	5987.459082
439.328670	6025.935688
439.704700	5939.883192
440.080670	5926.279638
440.456580	6199.041350
440.832429	6081.579944
441.208218	5928.916162
441.583947	6077.983081
441.959616	6083.034317
442.335224	6009.788873
442.710773	6146.303319
443.086261	6177.860942
443.461689	5970.795548
443.837057	6115.562362
444.212365	6275.003976
444.587612	6167.587070
444.962800	6319.272869
445.337927	6301.520446
445.712995	5912.005611
446.088002	6484.363096
446.462949	6317.165667
446.837837	6249.175625
447.212664	6422.230874
447.587431	6564.272946
447.962139	7104.503157
448.336786	8036.768778
448.711374	7771.566278
449.085901	6850.323138
449.460369	6769.210973
449.834776	6703.141611
450.209124	7097.140551
450.583412	7247.397183
450.957640	7390.964203
451.331808	7153.914026
451.705917	6706.574637
452.079965	6628.824921
452.453954	6838.909966
452.827883	6719.918571
453.201752	6811.947355
453.575562	6610.288598
453.949311	6815.261913
454.323001	6705.100099
454.696632	6780.339320
455.070202	6916.057264
455.443713	7070.626603
455.817164	7173.420771
456.190556	7251.916577
456.563888	7329.270562
456.937160	7374.489712
457.310373	7028.265787
457.683526	7057.615385
458.056619	6947.554393
458.429653	6930.328771
458.802628	6863.074737
459.175542	6977.519012
459.548398	7334.404978
459.921194	7492.866087
460.293930	7493.224009
460.666607	8023.654217
461.039224	8337.639963
461.411782	8462.602606
461.784280	8482.840318
462.156719	8370.654480
462.529099	8253.054443
462.901419	7841.739139
463.273680	7726.609268
463.645882	7740.684169
464.018024	7605.803057
464.390106	7773.365969
464.762130	8164.322574
465.134094	8629.157288
465.505999	9655.291715
465.877845	10880.092974
466.249631	11525.423680
466.621358	11135.150152
466.993026	10504.703452
467.364634	10246.447662
467.736184	9887.187312
468.107674	9552.855468
468.479105	9589.817208
468.850477	9349.633954
469.221790	9127.777814
469.593043	8797.398235
469.964238	8659.721803
470.335373	8670.260335
470.706449	8728.200837
471.077467	8709.548568
471.448425	10021.705461
471.819324	11094.815881
472.190164	11119.318409
472.560945	9870.574190
472.931667	9082.717461
473.302330	8948.441287
473.672934	8589.836287
474.043479	8950.694683
474.413965	8890.284016
474.784393	8770.128114
475.154761	8923.674098
475.525070	9014.868571
475.895321	8837.006581
476.265513	9013.540227
476.635645	9185.869551
477.005719	9188.102782
477.375734	9300.911202
477.745691	9534.137664
478.115588	9668.302933
478.485427	9911.031970
478.855207	10453.364342
479.224928	11276.123499
479.594591	11891.660987
479.964194	11708.215919
480.333739	11639.053809
480.703226	11560.991541
481.072653	11652.342290
481.442022	11893.614434
481.811333	12082.514030
482.180584	11885.185625
482.549777	11596.995462
482.918912	11417.779922
483.287988	11439.194744
483.657005	11456.644698
484.025964	11132.891716
484.394864	11261.446180
484.763706	11237.422561
485.132489	10992.004068
485.501213	10960.824532
485.869879	11031.909842
486.238487	10870.154339
486.607036	10982.057872
486.975527	10757.991186
487.343959	10949.229878
487.712333	11004.516212
488.080648	10930.590212
488.448905	10973.757612
488.817104	10911.108673
489.185244	11179.502224
489.553326	11325.236941
489.921350	11869.547965
490.289315	12930.244543
490.657222	13273.496709
491.025070	13186.405735
491.392861	13058.630129
491.760593	12679.984022
492.128267	12326.006802
492.495883	11998.205773
492.863440	11663.372335
493.230939	11326.824904
493.598380	11261.501633
493.965763	11131.366767
494.333088	11035.756243
494.700354	10949.774323
495.067563	11010.920998
495.434713	10843.768940
495.801805	10969.197888
496.168839	10893.666280
496.535815	10831.783596
496.902733	10830.793010
497.269593	10764.900088
497.636395	10861.382731
498.003139	10848.053920
498.369825	10717.523324
498.736453	10870.048475
499.103023	10801.314863
499.469535	10831.133288
499.835989	10817.920423
500.202385	10780.764599
500.568723	10625.771803
500.935003	10856.102123
501.301226	10653.777933
501.667390	10917.929354
502.033497	11017.172029
502.399546	10872.808506
502.765537	10786.166195
503.131470	10856.737308
503.497345	11034.722806
503.863163	10642.863835
504.228923	10951.929416
504.594625	11017.282934
504.960269	10766.034347
505.325856	10991.399130
505.691385	10779.567325
506.056856	10940.266707
506.422270	10963.622372
506.787625	10847.317912
507.152924	10970.163269
507.518164	10942.870463
507.883347	10871.099555
508.248472	10785.500763
508.613540	11023.854078
508.978550	10901.928732
509.343503	10877.353107
509.708398	10997.304842
510.073236	11109.987233
510.438016	11114.042841
510.802738	11054.400950
511.167403	11114.569642
511.532010	11010.981492
511.896561	11235.282591
512.261053	11317.365179
512.625488	11180.475167
512.989866	11162.863896
513.354186	11151.881742
513.718449	11059.409337
514.082655	11253.130797
514.446803	11147.362348
514.810894	11260.644636
515.174927	11133.940276
515.538904	11162.362301
515.902822	11308.268417
516.266684	11189.466065
516.630488	11139.288940
516.994235	11197.373114
517.357925	11260.760583
517.721558	11344.327790
518.085133	11362.291942
518.448651	11370.859383
518.812112	11252.157854
519.175516	11271.742737
519.538863	11384.473019
519.902152	11305.654578
520.265385	11467.238683
520.628560	11378.393387
520.991678	11348.738800
521.354739	11416.542319
521.717743	11356.950839
522.080690	11334.469814
522.443580	11464.982766
522.806413	11421.583473
523.169189	11456.896756
523.531908	11507.373829
523.894569	11329.524442
524.257174	11330.399082
524.619722	11447.976434
524.982213	11394.903166
525.344647	11452.309306
525.707025	11396.964998
526.069345	11489.190387
526.431608	11412.123748
526.793815	11520.380006
527.155964	11312.203037
527.518057	11359.703309
527.880093	11316.886269
528.242072	11374.310053
528.603995	11291.751076
528.965860	11207.178159
529.327669	11262.736715
529.689421	11213.625794
530.051117	11177.505927
530.412755	11280.842019
530.774337	11169.971923
531.135862	11153.686475
531.497331	11179.187152
531.858743	11031.554441
532.220098	11191.608555
532.581396	11069.504247
532.942638	11055.421784
533.303824	11008.796152
533.664953	11029.454800
534.026025	10938.167066
534.387040	11037.331603
534.747999	11041.787983
535.108902	11099.413413
535.469748	10859.242761
535.830537	10964.103803
536.191270	10941.824423
536.551947	10969.034051
536.912567	10954.772627
537.273131	10885.986082
537.633638	10863.991528
537.994089	10854.229334
538.354483	10800.019286
538.714821	10951.531165
539.075103	10952.239447
539.435328	10917.475650
539.795497	10745.075750
540.155609	10909.704711
540.515665	10991.462144
540.875665	10725.914324
541.235609	10795.353698
541.595496	10792.286156
541.955328	10948.284662
542.315102	10834.727630
542.674821	10783.781729
543.034483	10783.461616
543.394090	10789.349684
543.753640	10717.341842
544.113134	10937.143712
544.472571	10797.284460
544.831953	10935.341499
545.191278	10736.551159
545.550548	10769.205233
545.909761	10903.357899
546.268918	10880.614733
546.628019	10961.847886
546.987064	10826.250930
547.346053	10747.878632
547.704986	10844.131903
548.063863	10835.372898
548.422684	10820.819087
548.781449	10740.657179
549.140158	10847.164157
549.498811	10723.799560
549.857408	10576.144164
550.215949	10803.593464
550.574434	10660.139870
550.932864	10756.493964
551.291237	10811.089660
551.649555	10764.564851
552.007817	10772.887796
552.366022	10732.843390
552.724173	10726.688142
553.082267	10715.642973
553.440305	10848.734476
553.798288	10652.056379
554.156215	10806.693774
554.514086	10785.972111
554.871902	10634.220777
555.229661	10667.119347
555.587365	10647.733590
555.945014	10543.631242
556.302606	10666.965592
556.660143	10558.444673
557.017625	10716.661287
557.375050	10616.289393
557.732421	10743.878476
558.089735	10661.294294
558.446994	10665.911991
558.804197	10694.402072
559.161345	10697.550272
559.518437	10547.371779
559.875474	10634.671960
560.232455	10670.018011
560.589381	10616.410381
560.946251	10614.121697
561.303065	10717.992151
561.659825	10656.890846
562.016528	10582.927037
562.373177	10464.568306
562.729770	10583.766389
563.086307	10497.461835
563.442789	10584.295710
563.799216	10464.159973
564.155587	10513.470019
564.511904	10466.352875
564.868164	10464.964037
565.224370	10475.449637
565.580520	10401.579089
565.936615	10399.602957
566.292654	10274.272310
566.648638	10404.298791
567.004567	10358.215083
567.360441	10345.665131
567.716260	10257.918807
568.072023	10345.750831
568.427732	10297.771649
568.783385	10207.114059
569.138982	10281.345049
569.494525	10290.966091
569.850013	10176.773874
570.205445	10251.236758
570.560823	10154.761676
570.916145	10074.163708
571.271412	10143.396395
571.626625	10082.837013
571.981782	10057.951358
572.336884	10042.648935
572.691931	10040.534171
573.046923	9986.671963
573.401860	9940.494993
573.756743	9875.864881
574.111570	9923.173589
574.466342	9908.203883
574.821059	9930.987377
575.175722	9834.792080
575.530330	9836.138068
575.884882	9827.721861
576.239380	9753.808464
576.593823	9735.153674
576.948211	9751.986087
577.302544	9630.821954
577.656823	9645.660590
578.011047	9647.908945
578.365216	9616.502556
578.719330	9537.986585
579.073389	9552.079131
579.427394	9496.361778
579.781344	9485.369542
580.135239	9426.438453
580.489080	9429.637066
580.842866	9337.585596
581.196597	9341.076595
581.550273	9386.174758
581.903895	9343.662707
582.257463	9420.381507
582.610975	9294.120768
582.964434	9326.215274
583.317837	9245.408098
583.671186	9224.956137
584.024481	9228.399245
584.377721	9141.119228
584.730906	9114.116288
585.084037	9147.186257
585.437113	9087.186444
585.790135	9104.699412
586.143103	9007.475719
586.496016	8977.513621
586.848874	9038.408239
587.201679	9026.196044
587.554428	8915.474661
587.907124	8953.437070
588.259765	8927.439840
588.612352	8928.959748
588.964884	8809.880132
589.317362	8825.167431
589.669786	8824.184406
590.022155	8874.303558
590.374470	8886.987101
590.726731	8828.476949
591.078937	8679.818363
591.431090	8789.604612
591.783188	8661.496289
592.135232	8654.690732
592.487222	8649.883992
592.839157	8713.891522
593.191038	8635.836816
593.542866	8582.428312
593.894639	8483.712437
594.246358	8539.127321
594.598022	8552.967809
594.949633	8445.200543
595.301190	8423.861338
595.652692	8449.006614
596.004141	8566.503307
596.355535	8342.570212
596.706876	8324.285947
597.058162	8250.077642
597.409395	8334.791712
597.760573	8399.280672
598.111698	8304.963204
598.462768	8289.817058
598.813785	8252.336079
599.164748	8225.260041
599.515657	8207.731949
599.866511	8121.462684
600.217312	8246.289215
600.568060	8102.911237
600.918753	8209.997948
601.269392	8179.322527
601.619978	8088.606963
601.970510	8155.422417
602.320988	8151.797827
602.671412	8210.469296
603.021783	8146.665932
603.372100	8117.611242
603.722363	8123.953014
604.072572	8095.783046
604.422728	8105.935930
604.772830	8033.408849
605.122878	8045.605921
605.472872	8040.229531
605.822813	8067.396309
606.172701	8014.318000
606.522534	8086.282992
606.872314	8089.758867
607.222041	8057.150163
607.571714	8116.913042
607.921333	8073.107936
608.270899	8077.466013
608.620411	8165.865167
608.969870	8073.977535
609.319276	8069.690034
609.668627	8082.124040
610.017926	8115.067980
610.367171	8157.426275
610.716362	8136.583625
611.065500	8126.806307
611.414585	8156.970051
611.763616	8139.988924
612.112594	8127.277655
612.461518	8143.903380
612.810389	8204.223306
613.159207	8138.000189
613.507971	8088.173424
613.856682	8208.251188
614.205340	8162.235536
614.553945	8240.123883
614.902496	8139.736866
615.250994	8194.113272
615.599439	8174.966970
615.947830	8186.854011
616.296169	8163.294178
616.644454	8171.102926
616.992686	8176.018051
617.340864	8230.528047
617.688990	8131.129096
618.037063	8229.965958
618.385082	8171.387751
618.733048	8251.221984
619.080961	8194.897172
619.428821	8221.030513
619.776628	8221.630411
620.124382	8169.981269
620.472083	8150.411510
620.819731	8180.270264
621.167326	8076.104902
621.514868	8081.851817
621.862357	7968.458623
622.209793	7988.353537
622.557176	7921.628825
622.904506	7886.958289
623.251783	7829.431162
623.599007	7782.298894
623.946179	7785.646220
624.293297	7742.564519
624.640363	7656.975809
624.987376	7643.145404
625.334336	7586.782783
625.681243	7540.111781
626.028097	7522.644183
626.374899	7506.114239
626.721647	7493.808783
627.068343	7425.748165
627.414987	7395.312198
627.761577	7358.085798
628.108115	7390.994450
628.454600	7283.315404
628.801032	7334.031932
629.147412	7291.852598
629.493739	7284.414376
629.840014	7220.963893
630.186236	7274.561440
630.532405	7159.194635
630.878521	7213.024075
631.224585	7168.916500
631.570597	7087.948007
631.916556	7123.339428
632.262462	7118.754498
632.608316	7079.405772
632.954117	7058.825262
633.299866	7043.066615
633.645562	7030.919954
633.991206	6956.262987
634.336797	6893.561115
634.682336	6850.736513
635.027823	6817.467418
635.373257	6814.535987
635.718639	6741.988742
636.063968	6761.873574
636.409245	6652.909033
636.754470	6652.656976
637.099642	6610.898578
637.444762	6547.863990
637.789829	6559.539302
638.134845	6504.104254
638.479808	6485.162118
638.824719	6494.687379
639.169577	6421.124341
639.514383	6443.524708
639.859137	6370.322113
640.203839	6375.917794
640.548489	6362.987234
640.893086	6340.178534
641.237632	6310.344985
641.582125	6333.136042
641.926566	6295.997862
642.270955	6313.231046
642.615292	6309.082176
642.959576	6320.165153
643.303809	6317.261448
643.647990	6314.347662
643.992118	6308.547814
644.336195	6258.166522
644.680219	6280.196365
645.024192	6268.319406
645.368112	6363.204004
645.711981	6381.316870
646.055797	6455.580628
646.399562	6414.321304
646.743274	6536.851589
647.086935	6594.547595
647.430544	6585.657520
647.774101	6603.959429
648.117606	6608.589729
648.461059	6606.172496
648.804460	6562.536268
649.147810	6474.759697
649.491108	6442.201405
649.834354	6416.589823
650.177548	6330.113870
650.520690	6246.907105
650.863781	6221.900462
651.206820	6246.491210
651.549807	6164.239744
651.892742	6101.502584
652.235626	6109.165138
652.578458	6093.504794
652.921238	5999.779662
653.263967	6042.069901
653.606644	5982.425489
653.949269	5985.493032
654.291843	5923.698568
654.634365	5971.884437
654.976836	5922.254277
655.319255	5917.966776
655.661622	5893.615482
656.003938	5888.402929
656.346203	5852.270459
656.688416	5884.556529
657.030577	5835.047357
657.372687	5803.603160
657.714746	5791.358197
658.056753	5831.647098
658.398708	5769.000680
658.740612	5765.960864
659.082465	5807.260517
659.424266	5795.834742
659.766016	5794.221572
660.107715	5772.158963
660.449362	5777.663902
660.790958	5775.728099
661.132503	5759.198156
661.473996	5791.393485
661.815438	5783.458709
662.156829	5777.631135
662.498168	5775.102996
662.839456	5741.309622
663.180693	5774.853459
663.521879	5777.535353
663.863013	5763.641933
664.204097	5779.839160
664.545129	5820.027239
664.886110	5810.812010
665.227040	5837.280588
665.567918	5804.603829
665.908746	5832.584753
666.249522	5831.637016
666.590248	5820.327188
666.930922	5844.623028
667.271545	5849.467577
667.612118	5849.946487
667.952639	5826.497560
668.293109	5841.666392
668.633528	5799.333302
668.973896	5800.218025
669.314213	5790.528927
669.654480	5772.652996
669.994695	5764.829125
670.334859	5753.725983
670.674973	5742.131330
671.015035	5743.545373
671.355047	5739.071349
671.695008	5719.289862
672.034918	5696.760945
672.374777	5701.005597
672.714585	5681.352658
673.054342	5680.112534
673.394049	5671.998797
673.733705	5700.075504
674.073310	5679.132030
674.412864	5651.198997
674.752368	5632.355163
675.091820	5631.994721
675.431223	5573.345937
675.770574	5574.969189
676.109875	5521.722001
676.449125	5523.677969
676.788324	5494.257795
677.127473	5437.174289
677.466571	5428.627013
677.805619	5412.034055
678.144616	5391.330036
678.483562	5374.974013
678.822458	5343.925546
679.161303	5338.617211
679.500098	5324.207073
679.838842	5306.580678
680.177535	5305.741326
680.516179	5321.888142
680.854771	5328.575233
681.193314	5399.998300
681.531805	5498.187374
681.870247	5632.430781
682.208638	5721.757506
682.546978	5728.477364
682.885268	5705.393921
683.223508	5623.646570
683.561697	5573.139250
683.899836	5538.788827
684.237925	5494.567826
684.575963	5459.995593
684.913951	5418.993368
685.251889	5467.542200
685.589776	5440.080515
685.927614	5408.734620
686.265401	5464.804854
686.603137	5451.390343
686.940824	5513.083984
687.278460	5530.735584
687.616046	5529.291294
687.953582	5587.337660
688.291068	5567.183127
688.628504	5616.231033
688.965889	5584.867494
689.303224	5530.473444
689.640510	5486.128934
689.977745	5408.714455
690.314930	5319.977545
690.652065	5269.402169
690.989150	5182.795146
691.326185	5111.971975
691.663170	5060.733688
692.000105	4989.744159
692.336990	4922.321247
692.673825	4888.860588
693.010610	4826.221731
693.347345	4769.531436
693.684030	4742.939349
694.020665	4706.388463
694.357251	4626.677739
694.693786	4635.630828
695.030272	4599.165642
695.366707	4565.054674
695.703093	4540.768915
696.039429	4551.501532
696.375716	4526.850290
696.711952	4503.323225
697.048139	4496.638655
697.384276	4473.691322
697.720363	4478.871108
698.056400	4478.119976
698.392388	4435.897792
698.728326	4417.802570
699.064214	4401.290271
699.400053	4388.757962
699.735842	4352.575081
700.071581	4329.983150
700.407270	4308.091939
700.742910	4288.093682
701.078501	4241.954521
701.414042	4232.058736
701.749533	4200.599416
702.084974	4151.957322
702.420366	4192.644475
702.755709	4142.215292
703.091002	4095.471193
703.426246	4126.113847
703.761440	4094.735185
704.096584	4061.259403
704.431679	4069.305084
704.766725	4054.685738
705.101721	4043.133934
705.436668	4066.202254
705.771565	4026.540976
706.106413	4048.757341
706.441212	4063.021286
706.775961	4065.650248
707.110661	4053.385120
707.445311	4078.474943
707.779913	4075.029314
708.114465	4094.687294
708.448967	4117.493474
708.783421	4161.263292
709.117825	4190.771686
709.452180	4196.324517
709.786485	4233.497986
710.120742	4297.263541
710.454949	4286.417498
710.789107	4332.909539
711.123216	4388.755442
711.457275	4379.509966
711.791286	4437.425262
712.125247	4439.988688
712.459159	4375.572824
712.793023	4439.963482
713.126837	4375.847567
713.460602	4370.582082
713.794318	4317.123166
714.127985	4314.733659
714.461602	4232.557810
714.795171	4222.593970
715.128691	4164.086338
715.462162	4112.870736
715.795584	4063.447263
716.128957	4048.021333
716.462281	4015.586549
716.795556	3985.851303
717.128782	3949.597845
717.461960	3892.020306
717.795088	3897.046337
718.128167	3865.546687
718.461198	3821.436591
718.794180	3816.342505
719.127113	3792.376859
719.459997	3770.833488
719.792833	3738.065988
720.125619	3734.655648
720.458357	3699.614588
720.791046	3698.180379
721.123686	3675.291020
721.456278	3644.184580
721.788821	3654.713030
722.121315	3632.607571
722.453761	3614.449334
722.786158	3612.672328
723.118506	3628.120944
723.450805	3600.480297
723.783056	3617.935292
724.115259	3614.741721
724.447412	3614.461937
724.779518	3618.033595
725.111574	3619.084675
725.443582	3635.695277
725.775542	3621.648102
726.107453	3657.871313
726.439315	3653.820746
726.771129	3670.645597
727.102895	3695.894216
727.434612	3724.505285
727.766281	3736.278899
728.097901	3739.190166
728.429473	3738.675968
728.760996	3740.654621
729.092471	3737.040114
729.423897	3719.186867
729.755276	3718.917166
730.086606	3722.834142
730.417887	3751.314141
730.749120	3792.631438
731.080305	3825.998835
731.411442	3849.944316
731.742530	3831.627283
732.073570	3830.911439
732.404562	3864.147767
732.735506	3855.499667
733.066401	3831.271882
733.397249	3781.999644
733.728048	3725.934452
734.058798	3650.503667
734.389501	3590.897064
734.720156	3557.963206
735.050762	3520.855272
735.381320	3502.923888
735.711831	3472.770226
736.042293	3449.999334
736.372707	3456.908236
736.703073	3437.290585
737.033391	3437.759413
737.363661	3446.218469
737.693883	3455.776497
738.024056	3465.760502
738.354182	3469.138075
738.684260	3507.705422
739.014290	3520.840149
739.344272	3520.013399
739.674207	3543.046431
740.004093	3549.146227
740.333931	3544.946946
740.663722	3537.818755
740.993464	3530.453629
741.323159	3520.416692
741.652806	3493.471724
741.982405	3471.600678
742.311956	3447.382975
742.641460	3438.535750
742.970915	3416.871392
743.300323	3391.665623
743.629683	3366.951366
743.958996	3353.728419
744.288260	3334.108248
744.617477	3306.404588
744.946647	3294.555355
745.275768	3275.562808
745.604842	3268.515275
745.933869	3245.152048
746.262847	3236.400605
746.591778	3248.433839
746.920662	3232.793659
747.249498	3219.109447
747.578286	3240.786408
747.907027	3256.988677
748.235720	3262.609563
748.564365	3270.897220
748.892963	3260.315838
749.221514	3252.282760
749.550017	3242.185329
749.878473	3236.382961
750.206881	3214.378324
750.535242	3208.399516
750.863555	3207.711398
751.191821	3200.958772
751.520039	3193.880992
751.848210	3180.910104
752.176334	3191.105837
752.504411	3191.400745
752.832440	3169.388547
753.160421	3165.143895
753.488356	3163.986950
753.816243	3163.397135
754.144082	3141.705050
754.471875	3134.150881
754.799620	3140.512817
755.127318	3137.057106
755.454969	3135.360758
755.782572	3135.058289
756.110129	3124.905405
756.437638	3116.897532
756.765100	3118.465331
757.092515	3123.617390
757.419882	3126.261475
757.747203	3111.369907
758.074477	3115.531379
758.401703	3121.386680
758.728882	3133.097280
759.056014	3133.810603
759.383099	3137.490646
759.710138	3142.332674
760.037129	3154.771721
760.364073	3160.364881
760.690970	3148.810557
761.017820	3143.368631
761.344623	3151.721823
761.671379	3177.396419
761.998088	3201.377188
762.324751	3278.050618
762.651366	3445.245526
762.977935	3764.360647
763.304456	4029.159856
763.630931	4061.806368
763.957359	3839.763706
764.283740	3629.179586
764.610074	3489.201867
764.936362	3361.514481
765.262602	3267.756582
765.588796	3195.385777
765.914943	3143.280411
766.241044	3095.626383
766.567097	3068.073957
766.893104	3041.035728
767.219064	3023.613501
767.544978	3004.545336
767.870845	2973.842189
768.196665	2963.931280
768.522438	2960.732668
768.848165	2954.607666
769.173846	2937.283741
769.499479	2927.052719
769.825066	2916.738519
770.150607	2905.728639
770.476101	2907.064544
770.801548	2904.649832
771.126949	2882.584701
771.452303	2876.058928
771.777611	2871.980634
772.102872	2868.608102
772.428087	2856.511854
772.753256	2849.781913
773.078378	2847.135307
773.403453	2825.516319
773.728482	2817.820998
774.053465	2824.729899
774.378401	2819.245124
774.703291	2806.148206
775.028135	2801.137299
775.352932	2803.073102
775.677683	2796.136475
776.002388	2790.623973
776.327046	2790.550876
776.651658	2782.979063
776.976224	2778.699123
777.300743	2775.102260
777.625216	2770.058586
777.949643	2770.114038
778.274024	2770.275355
778.598359	2760.558531
778.922647	2761.899478
779.246889	2757.780856
779.571086	2754.388159
779.895236	2752.911101
780.219339	2756.772625
780.543397	2762.948038
780.867409	2761.004673
781.191374	2761.980137
781.515294	2759.956113
781.839167	2755.840011
782.162995	2752.964033
782.486776	2758.423603
782.810511	2756.507964
783.134201	2748.212746
783.457844	2748.749628
783.781441	2744.202508
784.104993	2736.481981
784.428498	2737.636405
784.751958	2738.591703
785.075372	2735.693040
785.398739	2728.103583
785.722061	2732.953173
786.045337	2738.357290
786.368568	2738.448031
786.691752	2730.898903
787.014891	2754.108375
787.337983	2768.894079
787.661030	2793.197482
787.984031	2827.520178
788.306987	2847.425174
788.629897	2843.737570
788.952760	2831.401866
789.275579	2815.875112
789.598351	2787.974847
789.921078	2765.967689
790.243759	2757.160794
790.566395	2748.915987
790.888984	2734.745303
791.211529	2726.311453
791.534027	2721.348437
791.856480	2713.244782
792.178888	2708.543906
792.501249	2704.488298
792.823566	2701.561908
793.145836	2700.835982
793.468062	2698.333049
793.790241	2695.764581
794.112375	2699.006043
794.434464	2702.555015
794.756507	2705.138607
795.078505	2708.997610
795.400457	2718.089331
795.722364	2733.341342
796.044226	2750.619897
796.366042	2757.085176
796.687812	2747.799371
797.009538	2751.547469
797.331218	2743.784092
797.652852	2736.817217
797.974442	2730.871176
798.295986	2726.984447
798.617484	2722.543190
798.938938	2715.059597
799.260346	2709.809236
799.581709	2703.220447
799.903026	2700.982175
800.224299	2696.372040
800.545526	2691.693849
800.866708	2683.340657
801.187845	2678.788495
801.508936	2681.422498
801.829983	2677.616427
802.150984	2672.683658
802.471940	2671.501508
802.792851	2671.632577
803.113717	2668.779284
803.434538	2670.740293
803.755314	2665.026145
804.076045	2662.601350
804.396731	2667.110662
804.717372	2665.053872
805.037967	2665.084119
805.358518	2666.954387
805.679024	2673.296158
805.999485	2671.284738
806.319901	2673.344049
806.640272	2669.497649
806.960598	2669.661486
807.280879	2674.687517
807.601115	2675.342867
807.921306	2673.795232
808.241453	2670.238698
808.561554	2668.859943
808.881611	2672.666014
809.201623	2669.225427
809.521590	2668.378513
809.841513	2664.184273
810.161390	2665.810045
810.481223	2661.542708
810.801011	2659.150681
811.120755	2658.868376
811.440453	2654.923673
811.760107	2653.827222
812.079716	2652.093065
812.399281	2645.421098
812.718801	2644.720378
813.038276	2642.119142
813.357707	2645.978146
813.677093	2645.811787
813.996434	2643.031591
814.315731	2640.332053
814.634983	2642.812301
814.954191	2640.284162
815.273354	2645.458907
815.592473	2645.940337
815.911547	2649.701038
816.230577	2655.276554
816.549562	2658.223108
816.868502	2656.907367
817.187399	2660.582368
817.506250	2665.126968
817.825058	2660.330311
818.143821	2665.817607
818.462539	2671.388082
818.781213	2681.929134
819.099843	2694.809282
819.418429	2721.270299
819.736970	2749.962026
820.055466	2779.367076
820.373919	2811.595173
820.692327	2861.038810
821.010691	2939.290120
821.329011	3159.603667
821.647286	3658.098165
821.965517	4399.808172
822.283704	4797.650992
822.601847	4762.188995
822.919945	4364.525136
823.237999	4013.209645
823.556010	3693.056046
823.873976	3431.727672
824.191897	3245.305803
824.509775	3115.017182
824.827609	3006.413084
825.145398	2956.694704
825.463144	2950.688169
825.780845	2982.233189
826.098502	3034.971220
826.416116	3170.764782
826.733685	3320.968481
827.051210	3345.710464
827.368692	3272.906120
827.686129	3135.854791
828.003522	2996.827330
828.320872	2891.310939
828.638177	2819.600525
828.955439	2770.320726
829.272656	2735.461147
829.589830	2707.550799
829.906960	2692.550845
830.224046	2675.841941
830.541088	2662.853408
830.858086	2655.268992
831.175041	2652.478713
831.491952	2649.317910
831.808819	2651.755308
832.125642	2655.906698
832.442421	2674.939574
832.759157	2711.513146
833.075849	2784.151131
833.392497	2893.032493
833.709101	2963.951445
834.025662	2945.578960
834.342179	2879.978425
834.658653	2806.165850
834.975083	2749.087386
835.291469	2714.182437
835.607811	2681.896367
835.924110	2660.819302
836.240366	2642.676190
836.556578	2630.322842
836.872746	2624.011318
837.188871	2613.019082
837.504952	2609.964142
837.820990	2606.601693
838.136984	2602.422576
838.452935	2598.276227
838.768842	2597.444437
839.084706	2605.606065
839.400526	2633.380302
839.716303	2687.267716
840.032037	2717.885164
840.347727	2710.762014
840.663373	2680.570543
840.978977	2651.334372
841.294537	2629.312091
841.610054	2609.404574
841.925527	2604.827207
842.240957	2594.921339
842.556344	2588.430854
842.871687	2583.644278
843.186987	2578.083886
843.502244	2576.168247
843.817458	2574.308061
844.132629	2570.408729
844.447756	2572.246229
844.762840	2564.457647
845.077881	2565.251628
845.392879	2559.391287
845.707833	2564.946639
846.022745	2561.720300
846.337613	2561.906823
846.652438	2562.564693
846.967221	2564.961762
847.281960	2563.724159
847.596656	2559.729044
847.911309	2558.761143
848.225919	2559.429096
848.540485	2559.529919
848.855009	2561.473284
849.169490	2558.350289
849.483928	2560.379353
849.798323	2557.836091
850.112675	2559.943293
850.426984	2556.875751
850.741251	2558.809034
851.055474	2561.619477
851.369654	2560.512944
851.683792	2560.971689
851.997887	2558.990515
852.311938	2559.040927
852.625947	2561.001936
852.939914	2557.173179
853.253837	2562.519323
853.567718	2558.619991
853.881555	2557.558828
854.195350	2555.807027
854.509103	2558.614949
854.822812	2559.045968
855.136479	2558.108313
855.450103	2558.483879
855.763685	2559.625701
856.077224	2557.387428
856.390720	2558.372974
856.704173	2557.379867
857.017584	2560.548232
857.330953	2555.345761
857.644278	2560.185269
857.957561	2561.095197
858.270802	2556.895916
858.584000	2560.538150
858.897155	2560.137378
859.210268	2560.966648
859.523339	2557.619322
859.836367	2556.543035
860.149352	2557.972202
860.462295	2560.586041
860.775195	2552.126984
861.088054	2551.602704
861.400869	2553.490617
861.713642	2552.159752
862.026373	2554.450956
862.339062	2555.113868
862.651708	2558.017573
862.964312	2558.309960
863.276873	2558.930022
863.589392	2558.957748
863.901869	2558.108313
864.214303	2560.086966
864.526696	2560.243242
864.839045	2561.241391
865.151353	2564.780281
865.463619	2561.853891
865.775842	2560.517985
866.088023	2562.713407
866.400162	2562.337842
866.712258	2561.042265
867.024313	2560.744837
867.336325	2560.092008
867.648296	2562.857080
867.960224	2561.019580
868.272110	2562.632749
868.583954	2560.792728
868.895755	2561.057388
869.207515	2561.954714
869.519233	2561.904302
869.830909	2563.121741
870.142542	2563.114179
870.454134	2563.963614
870.765684	2561.616957
871.077191	2562.965465
871.388657	2565.594427
871.700081	2568.430076
872.011463	2565.508727
872.322803	2568.102401
872.634101	2568.682134
872.945357	2568.246074
873.256571	2569.713050
873.567744	2569.052658
873.878874	2571.253122
874.189963	2571.570715
874.501010	2572.309244
874.812015	2572.150448
875.122979	2573.962742
875.433900	2567.568039
875.744780	2569.478636
876.055618	2570.360838
876.366415	2569.826476
876.677169	2572.115159
876.987882	2568.498132
877.298554	2566.247256
877.609183	2567.532751
877.919771	2570.169274
878.230317	2572.775551
878.540822	2575.356621
878.851285	2582.434401
879.161707	2586.699217
879.472087	2596.037955
879.782425	2613.581170
880.092722	2644.420429
880.402977	2703.860674
880.713191	2814.241779
881.023363	2955.499951
881.333494	3050.503015
881.643583	3094.804675
881.953631	3063.723441
882.263637	2988.171669
882.573602	2909.607807
882.883526	2849.071111
883.193408	2801.107052
883.503248	2760.450147
883.813048	2722.840618
884.122806	2690.791483
884.432522	2666.049500
884.742197	2646.517549
885.051831	2629.052472
885.361424	2621.894033
885.670975	2608.429111
885.980485	2601.426948
886.289954	2596.353027
886.599382	2592.214240
886.908768	2588.985381
887.218113	2585.030596
887.527417	2583.699731
887.836680	2577.451221
888.145901	2575.643967
888.455082	2570.920406
888.764221	2570.040725
889.073319	2566.111145
889.382376	2565.594427
889.691392	2564.631567
890.000366	2567.467216
890.309300	2569.430745
890.618193	2565.896896
890.927044	2567.515107
891.235855	2568.462843
891.544625	2570.136507
891.853353	2569.556774
892.162041	2569.183728
892.470687	2576.153124
892.779293	2579.981880
893.087858	2580.579257
893.396381	2588.478745
893.704864	2600.484253
894.013306	2622.554424
894.321707	2651.324289
894.630068	2666.830878
894.938387	2676.681293
895.246665	2671.544357
895.554903	2653.839825
895.863100	2638.489512
896.171256	2619.502006
896.479371	2610.203597
896.787446	2597.217585
897.095480	2590.820361
897.403473	2586.495051
897.711425	2582.636047
898.019336	2578.247723
898.327207	2573.771178
898.635038	2573.009964
898.942827	2574.204718
899.250576	2571.278328
899.558284	2568.790518
899.865952	2565.672565
900.173579	2565.856567
900.481165	2563.779612
900.788711	2562.572255
901.096216	2561.317008
901.403681	2560.825495
901.711105	2562.317677
902.018489	2559.066133
902.325832	2562.947821
902.633135	2563.194838
902.940397	2566.963100
903.247619	2577.819225
903.554800	2598.699684
903.861941	2640.367341
904.169041	2682.468538
904.476101	2702.121476
904.783121	2697.471012
905.090100	2676.993845
905.397039	2655.198416
905.703938	2628.084570
906.010796	2608.245109
906.317614	2597.353696
906.624391	2583.845924
906.931129	2575.896025
907.237826	2569.758420
907.544483	2562.877245
907.851099	2561.317008
908.157675	2554.665205
908.464211	2555.544887
908.770707	2552.590771
909.077163	2551.469114
909.383578	2547.431150
909.689954	2549.046839
909.996289	2545.898639
910.302584	2550.531459
910.608839	2548.207487
910.915054	2548.545245
911.221229	2549.908877
911.527363	2552.560524
911.833458	2550.919628
912.139513	2551.438867
912.445527	2551.161603
912.751502	2552.247972
913.057436	2553.089845
913.363331	2556.018755
913.669186	2559.499672
913.975000	2562.166442
914.280775	2568.576269
914.586510	2577.133628
914.892205	2588.340113
915.197859	2608.209821
915.503475	2629.823768
915.809050	2651.878816
916.114585	2661.388953
916.420081	2663.816268
916.725536	2665.111845
917.030952	2651.813281
917.336328	2637.589666
917.641665	2623.618108
917.946961	2610.059924
918.252218	2599.760847
918.557435	2591.934456
918.862612	2583.971953
919.167750	2580.725450
919.472848	2574.378637
919.777906	2570.275138
920.082925	2567.961249
920.387904	2564.089642
920.692843	2559.265258
920.997743	2561.395146
921.302603	2558.441030
921.607423	2557.473128
921.912204	2554.186296
922.216946	2552.779814
922.521647	2554.493806
922.826310	2551.398538
923.130932	2550.460883
923.435516	2546.987528
923.740059	2546.884184
924.044564	2550.392827
924.349028	2548.323434
924.653454	2546.848896
924.957840	2544.114070
925.262186	2543.282280
925.566493	2542.213555
925.870761	2539.849254
926.174989	2545.059287
926.479178	2539.738349
926.783328	2541.936292
927.087438	2543.458720
927.391509	2542.127856
927.695541	2540.970911
927.999533	2541.419574
928.303486	2543.350336
928.607400	2539.072917
928.911275	2541.285983
929.215110	2542.117773
929.518906	2541.583411
929.822663	2541.406971
930.126381	2541.321271
930.430060	2538.571322
930.733699	2542.432846
931.037299	2541.931251
931.340861	2539.773637
931.644383	2543.173895
931.947866	2540.534851
932.251309	2541.711961
932.554714	2540.086188
932.858080	2543.078113
933.161407	2538.155427
933.464694	2542.354708
933.767943	2539.745911
934.071153	2542.606765
934.374323	2538.984696
934.677455	2542.573998
934.980548	2537.003523
935.283602	2537.144675
935.586617	2537.295910
935.889593	2540.693647
936.192530	2539.521579
936.495428	2540.030736
936.798287	2540.802032
937.101108	2540.088709
937.403890	2541.525438
937.706632	2541.563247
938.009336	2543.325130
938.312002	2545.989380
938.614628	2545.787733
938.917216	2543.950233
939.219765	2542.674821
939.522275	2547.257230
939.824747	2546.440563
940.127179	2541.865716
940.429573	2540.479398
940.731929	2542.208514
941.034246	2541.076775
941.336524	2545.066848
941.638763	2543.027702
941.940964	2544.446787
942.243126	2541.417053
942.545250	2540.912938
942.847335	2543.350336
943.149381	2541.933771
943.451389	2540.628113
943.753359	2543.123484
944.055290	2537.169881
944.357182	2540.670962
944.659036	2538.967052
944.960851	2541.107022
945.262628	2541.921168
945.564367	2540.696168
945.866067	2540.053421
946.167729	2543.662887
946.469352	2539.279604
946.770937	2539.831610
947.072484	2538.384799
947.373992	2539.307330
947.675462	2541.061652
947.976893	2538.901517
948.278286	2538.606610
948.579641	2539.806404
948.880958	2538.780530
949.182236	2537.638708
949.483476	2538.057124
949.784678	2540.572660
950.085841	2539.347659
950.386967	2540.161806
950.688054	2536.098636
950.989103	2538.475540
951.290114	2540.169368
951.591087	2540.620551
951.892021	2540.383617
952.192917	2539.909748
952.493776	2540.181970
952.794596	2538.712474
953.095378	2538.533513
953.396122	2540.489481
953.696828	2541.477547
953.997496	2541.671631
954.298126	2540.262629
954.598718	2538.778009
954.899272	2539.254398
955.199788	2539.879501
955.500266	2536.970755
955.800706	2536.945550
956.101108	2532.211906
956.401472	2535.450847
956.701798	2532.574869
957.002087	2535.057637
957.302337	2534.901362
957.602550	2534.218285
957.902724	2537.855478
958.202861	2534.924047
958.502960	2534.356917
958.803022	2534.649304
959.103045	2534.419932
959.403031	2532.955476
959.702979	2535.513862
960.002889	2534.107380
960.302762	2532.894982
960.602596	2533.746938
960.902393	2532.791639
961.202153	2532.486649
961.501875	2533.807431
961.801559	2532.040507
962.101205	2533.540250
962.400814	2533.441948
962.700385	2533.411701
962.999918	2533.993954
963.299414	2532.857174
963.598873	2532.627801
963.898293	2532.342976
964.197677	2534.046886
964.497022	2533.290713
964.796331	2533.484797
965.095601	2532.219468
965.394835	2531.818696
965.694030	2534.198121
965.993189	2531.859025
966.292309	2532.486649
966.591393	2533.930940
966.890439	2532.837009
967.189447	2532.753830
967.488419	2531.707791
967.787353	2536.431352
968.086249	2534.303985
968.385108	2534.818183
968.683930	2534.934129
968.982714	2532.627801
969.281462	2533.522606
969.580172	2533.452030
969.878844	2531.874149
970.177480	2534.220806
970.476078	2533.474715
970.774639	2536.118800
971.073162	2531.599406
971.371649	2531.110414
971.670098	2527.682429
971.968510	2531.274252
972.266885	2528.378109
972.565223	2532.970600
972.863524	2532.597554
973.161788	2533.930940
973.460014	2532.862215
973.758204	2531.803573
974.056356	2532.791639
974.354471	2535.649973
974.652550	2531.417924
974.950591	2533.779705
975.248595	2533.154602
975.546563	2534.311547
975.844493	2530.845753
976.142386	2534.616537
976.440243	2531.307019
976.738062	2533.610826
977.035845	2530.545805
977.333590	2533.043697
977.631299	2534.238450
977.928971	2532.469005
978.226606	2532.073274
978.524204	2529.774508
978.821765	2532.776515
979.119290	2531.102852
979.416777	2534.619057
979.714228	2531.377595
980.011642	2532.935312
980.309020	2535.965045
980.606360	2531.561597
980.903664	2531.445651
981.200931	2528.181504
981.498162	2531.168387
981.795356	2531.697708
982.092513	2532.519417
982.389633	2534.419932
982.686717	2536.668286
982.983764	2537.777340
983.280775	2536.706095
983.577749	2535.254243
983.874686	2536.091074
984.171587	2533.953625
984.468451	2536.317926
984.765279	2532.980682
985.062070	2533.232740
985.358824	2533.341125
985.655543	2530.707122
985.952224	2531.440610
986.248869	2529.088911
986.545478	2527.808458
986.842050	2529.066226
987.138586	2529.199817
987.435086	2526.361647
987.731549	2525.658406
988.027975	2531.692667
988.324366	2530.780218
988.620719	2528.741072
988.917037	2531.430527
989.213318	2530.896165
989.509563	2531.969931
989.805772	2529.139323
990.101944	2529.225022
990.398080	2529.129241
990.694180	2529.288037
990.990244	2530.099663
991.286271	2529.474560
991.582262	2531.178470
991.878217	2528.146216
992.174136	2529.131761
992.470019	2530.898686
992.765865	2530.530681
993.061676	2528.461288
993.357450	2533.336083
993.653188	2530.346679
993.948890	2530.840712
994.244556	2532.126207
994.540186	2531.871628
994.835780	2530.838192
995.131337	2531.639735
995.426859	2531.450692
995.722345	2530.316432
996.017795	2532.103521
996.313208	2531.387677
996.608586	2531.952287
996.903928	2530.576052
997.199234	2531.019673
997.494504	2532.400949
997.789738	2534.493028
998.084936	2531.909437
998.380099	2530.082019
998.675225	2530.810465
998.970316	2530.666793
999.265371	2530.593696
999.560390	2528.602440
999.855373	2529.466998
1000.150320	2530.389529
1000.445232	2530.896165
1000.740108	2530.669313
1001.034948	2527.697553
1001.329752	2530.717204
1001.624521	2529.194776
1001.919254	2527.828623
1002.213951	2525.882738
1002.508613	2527.856349
1002.803239	2527.122861
1003.097829	2523.689836
1003.392384	2525.809641
1003.686903	2528.486493
1003.981386	2529.555218
1004.275834	2528.037831
1004.570246	2529.774508
1004.864623	2526.928777
1005.158964	2527.344672
1005.453270	2529.361134
1005.747540	2528.176463
1006.041775	2530.744930
1006.335974	2527.498427
1006.630138	2530.308871
1006.924266	2528.098325
1007.218359	2529.598068
1007.512416	2529.025897
1007.806438	2527.596730
1008.100425	2528.574714
1008.394376	2531.349869
1008.688292	2527.110258
1008.982172	2526.744775
1009.276017	2529.943387
1009.569827	2528.688140
1009.863602	2528.496576
1010.157341	2528.408356
1010.451045	2528.030269
1010.744714	2527.735362
1011.038347	2528.458767
1011.331945	2527.750485
1011.625508	2528.362985
1011.919036	2529.716535
1012.212528	2530.036648
1012.505986	2527.329549
1012.799408	2529.083870
1013.092795	2526.938859
1013.386147	2526.898530
1013.679464	2525.413910
1013.972745	2525.116482
1014.265992	2526.331400
1014.559204	2528.552028
1014.852380	2525.597912
1015.145521	2529.703932
1015.438628	2528.017666
1015.731699	2527.871473
1016.024736	2526.505320
1016.317737	2527.006915
1016.610703	2529.154446
1016.903635	2526.210413
1017.196531	2523.757891
1017.489393	2526.011287
1017.782219	2525.640762
1018.075011	2526.023890
1018.367768	2525.902902
1018.660490	2528.055475
1018.953177	2528.055475
1019.245829	2528.055475
