Dividing Wavelength (nm)	Counts (n)	Blue Motor Position (mm): 0.000000	Red Motor Position (mm): 2.900000	
326.493990	2130.026132
326.888308	2130.026132
327.282561	2130.026132
327.676750	2097.309043
328.070874	2098.040011
328.464933	2098.259301
328.858929	2105.165682
329.252859	2112.440067
329.646726	2125.663013
330.040528	2139.097688
330.434265	2156.230049
330.827938	2175.162103
331.221547	2191.639114
331.615091	2209.951105
332.008571	2230.463560
332.401986	2250.282857
332.795338	2268.103336
333.188625	2286.372477
333.581847	2307.331074
333.975006	2323.898826
334.368100	2340.557319
334.761129	2361.294106
335.154095	2378.471837
335.546996	2395.876421
335.939833	2410.011816
336.332606	2422.662592
336.725315	2436.876125
337.117960	2443.807712
337.510540	2453.769032
337.903056	2464.264714
338.295508	2471.904583
338.687896	2481.855820
339.080220	2487.464104
339.472480	2495.603047
339.864676	2500.495487
340.256807	2503.106804
340.648875	2506.915396
341.040879	2506.381034
341.432818	2510.900428
341.824694	2511.954029
342.216506	2511.853206
342.608253	2513.423526
342.999937	2512.024606
343.391557	2512.322034
343.783113	2512.019564
344.174605	2511.263391
344.566033	2505.675272
344.957397	2506.179388
345.348697	2504.672083
345.739934	2505.967659
346.131106	2502.083450
346.522215	2503.346259
346.913260	2499.346104
347.304241	2496.215547
347.695159	2496.792759
348.086012	2494.141112
348.476802	2491.239928
348.867528	2491.116420
349.258191	2487.123826
349.648789	2487.665750
350.039324	2484.961171
350.429796	2487.212046
350.820203	2481.500419
351.210548	2484.273054
351.600828	2482.117960
351.991045	2484.925883
352.381198	2482.130563
352.771288	2481.039153
353.161314	2479.322641
353.551276	2481.853300
353.941175	2479.413381
354.331010	2478.861375
354.720782	2478.662249
355.110490	2481.079483
355.500135	2477.628813
355.889717	2480.293063
356.279235	2479.647795
356.668689	2483.975626
357.058080	2480.414050
357.447408	2479.042857
357.836672	2474.289048
358.225873	2480.464462
358.615010	2477.414564
359.004084	2482.801037
359.393095	2483.781541
359.782043	2484.419247
360.170927	2482.901860
360.559748	2484.711634
360.948505	2483.927735
361.337199	2484.961171
361.725830	2486.561737
362.114398	2483.857158
362.502903	2485.946717
362.891344	2487.605256
363.279722	2487.270020
363.668037	2489.682212
364.056289	2488.759681
364.444478	2489.067191
364.832603	2487.759012
365.220665	2490.158601
365.608665	2492.205309
365.996601	2491.020638
366.384474	2490.821512
366.772284	2492.215392
367.160031	2492.573313
367.547715	2490.982829
367.935336	2491.015597
368.322893	2492.454846
368.710388	2492.487614
369.097820	2493.841164
369.485189	2494.884683
369.872495	2496.094559
370.259738	2490.571975
370.646918	2493.107676
371.034035	2493.180773
371.421090	2496.142450
371.808081	2496.762512
372.195010	2496.596154
372.581875	2496.923829
372.968678	2494.340238
373.355418	2496.205465
373.742096	2496.175218
374.128710	2493.992398
374.515262	2497.367451
374.901751	2495.812255
375.288177	2498.723521
375.674540	2498.557163
376.060841	2497.392657
376.447079	2498.295023
376.833254	2498.922647
377.219367	2490.826554
377.605417	2496.754951
377.991404	2492.890906
378.377329	2494.173880
378.763191	2495.958448
379.148991	2499.925836
379.534727	2500.069509
379.920402	2500.135044
380.306013	2499.716628
380.691563	2500.248470
381.077049	2500.245950
381.462474	2499.749396
381.847835	2499.739314
382.233134	2502.532113
382.618371	2502.025477
383.003545	2500.929026
383.388657	2501.208810
383.773706	2500.016577
384.158693	2502.610251
384.543618	2502.970693
384.928480	2502.438852
385.313280	2502.471619
385.698017	2501.680158
386.082692	2503.384068
386.467305	2501.912051
386.851856	2505.760972
387.236344	2503.971362
387.620770	2504.719974
388.005133	2502.103615
388.389435	2504.145282
388.773674	2503.716784
389.157851	2504.301558
389.541965	2505.150992
389.926018	2503.827689
390.310008	2504.399860
390.693936	2506.166785
391.077802	2504.916579
391.461606	2505.614778
391.845348	2506.292814
392.229027	2505.375324
392.612645	2504.881291
392.996200	2505.324912
393.379694	2504.800632
393.763125	2508.006806
394.146494	2506.209635
394.529801	2507.976559
394.913047	2507.243071
395.296230	2506.166785
395.679351	2507.497649
396.062410	2510.509739
396.445408	2507.664008
396.828343	2508.339522
397.211217	2506.537310
397.594028	2508.216014
397.976778	2503.520179
398.359466	2503.658811
398.742092	2505.617299
399.124656	2510.300531
399.507158	2509.587208
399.889598	2509.153668
400.271977	2509.869512
400.654294	2510.988648
401.036549	2511.162568
401.418742	2510.287928
401.800874	2510.429080
402.182944	2511.896056
402.564952	2509.297341
402.946898	2508.861282
403.328783	2509.549399
403.710606	2512.715244
404.092367	2511.628875
404.474067	2513.962929
404.855705	2510.913031
405.237282	2512.964781
405.618797	2510.600480
406.000250	2515.402179
406.381642	2511.195336
406.762972	2516.110461
407.144240	2512.538803
407.525447	2513.085768
407.906593	2513.085768
408.287677	2514.535100
408.668700	2512.664832
409.049661	2515.177847
409.430560	2514.141890
409.811399	2515.661798
410.192176	2512.657270
410.572891	2514.439318
410.953545	2512.513597
411.334138	2514.456962
411.714669	2513.234482
412.095139	2514.608197
412.475547	2514.265398
412.855894	2517.635410
413.236180	2517.504340
413.616405	2516.670029
413.996568	2514.088958
414.376670	2515.921418
414.756711	2516.639782
415.136691	2518.988960
415.516609	2518.308404
415.896466	2518.913342
416.276262	2517.088445
416.655997	2510.660973
417.035670	2509.171313
417.415283	2516.710358
417.794834	2510.691220
418.174324	2515.684483
418.553753	2515.349247
418.933121	2517.617766
419.312428	2518.295801
419.691674	2514.764473
420.070859	2517.753877
420.449983	2518.855369
420.829045	2520.798734
421.208047	2516.468383
421.586988	2519.293949
421.965867	2519.583816
422.344686	2519.475431
422.723444	2522.598426
423.102141	2517.088445
423.480777	2521.786800
423.859352	2518.033661
424.237866	2520.239166
424.616319	2515.439987
424.994712	2517.975688
425.373044	2518.875534
425.751314	2518.615914
426.129524	2521.418796
426.507673	2518.600791
426.885762	2519.881244
427.263789	2521.514578
427.641756	2519.452746
428.019662	2520.128260
428.397508	2519.372087
428.775292	2522.321162
429.153016	2518.746984
429.530679	2521.267561
429.908282	2521.998528
430.285824	2520.440812
430.663305	2521.375946
431.040726	2520.907119
431.418086	2520.990298
431.795385	2525.605474
432.172624	2521.259999
432.549802	2521.665812
432.926920	2524.322500
433.303977	2521.859897
433.680974	2519.908970
434.057910	2522.300998
434.434786	2521.479290
434.811601	2522.918539
435.188355	2522.437109
435.565050	2521.978364
435.941683	2522.895854
436.318257	2522.008611
436.694770	2519.190606
437.071222	2522.805113
437.447614	2520.975174
437.823946	2517.874865
438.200218	2523.243693
438.576429	2523.737727
438.952580	2525.499610
439.328670	2526.457429
439.704700	2523.208405
440.080670	2524.670340
440.456580	2522.074146
440.832429	2525.421472
441.208218	2521.572551
441.583947	2522.986595
441.959616	2525.146729
442.335224	2523.278982
442.710773	2523.992305
443.086261	2523.551204
443.461689	2522.527850
443.837057	2525.764270
444.212365	2526.124713
444.587612	2524.630011
444.962800	2526.147398
445.337927	2524.851822
445.712995	2521.796882
446.088002	2526.490197
446.462949	2523.747809
446.837837	2526.580937
447.212664	2525.756709
447.587431	2524.244362
447.962139	2523.586492
448.336786	2526.835516
448.711374	2527.440454
449.085901	2527.211082
449.460369	2527.934487
449.834776	2526.470032
450.209124	2526.306194
450.583412	2523.457943
450.957640	2530.979344
451.331808	2527.581606
451.705917	2526.096987
452.079965	2526.306194
452.453954	2529.517409
452.827883	2527.458098
453.201752	2525.119003
453.575562	2525.716379
453.949311	2526.822913
454.323001	2527.654703
454.696632	2528.299971
455.070202	2527.523633
455.443713	2525.807120
455.817164	2526.119672
456.190556	2523.914167
456.563888	2525.880217
456.937160	2522.709331
457.310373	2530.170239
457.683526	2528.103366
458.056619	2528.655372
458.429653	2527.808458
458.802628	2526.686802
459.175542	2526.215454
459.548398	2529.151926
459.921194	2526.719569
460.293930	2526.676719
460.666607	2528.809127
461.039224	2531.198634
461.411782	2530.586134
461.784280	2528.960362
462.156719	2531.833820
462.529099	2529.051103
462.901419	2527.974816
463.273680	2527.211082
463.645882	2530.283665
464.018024	2527.294261
464.390106	2529.696370
464.762130	2531.080167
465.134094	2530.818027
465.505999	2528.688140
465.877845	2530.729807
466.249631	2528.846936
466.621358	2529.598068
466.993026	2531.571680
467.364634	2532.564787
467.736184	2528.700742
468.107674	2529.714014
468.479105	2528.398273
468.850477	2531.576721
469.221790	2529.346010
469.593043	2525.393746
469.964238	2530.235774
470.335373	2528.768798
470.706449	2530.636546
471.077467	2527.500948
471.448425	2531.324663
471.819324	2527.596730
472.190164	2533.905734
472.560945	2528.975485
472.931667	2532.584952
473.302330	2528.849457
473.672934	2532.126207
474.043479	2531.826258
474.413965	2529.524971
474.784393	2525.721421
475.154761	2530.195445
475.525070	2527.107738
475.895321	2529.958510
476.265513	2525.842408
476.635645	2531.664941
477.005719	2528.206709
477.375734	2533.235260
477.745691	2530.956659
478.115588	2532.070754
478.485427	2530.313912
478.855207	2531.995137
479.224928	2529.920702
479.594591	2532.378264
479.964194	2534.500590
480.333739	2530.061854
480.703226	2532.721063
481.072653	2533.298275
481.442022	2531.329704
481.811333	2530.538243
482.180584	2529.426669
482.549777	2533.068902
482.918912	2533.943542
483.287988	2530.969262
483.657005	2533.903213
484.025964	2531.296937
484.394864	2533.283151
484.763706	2529.968593
485.132489	2535.269366
485.501213	2530.127389
485.869879	2531.785929
486.238487	2531.962369
486.607036	2534.482946
486.975527	2533.966228
487.343959	2531.947246
487.712333	2532.411032
488.080648	2531.440610
488.448905	2535.463450
488.817104	2531.541433
489.185244	2533.021011
489.553326	2530.792821
489.921350	2535.735673
490.289315	2532.317770
490.657222	2534.324150
491.025070	2532.053110
491.392861	2534.803059
491.760593	2532.416073
492.128267	2533.699047
492.495883	2532.186700
492.863440	2536.696013
493.230939	2532.902544
493.598380	2534.525796
493.965763	2531.150743
494.333088	2528.920033
494.700354	2528.914992
495.067563	2531.160826
495.434713	2529.116638
495.801805	2531.702750
496.168839	2533.199972
496.535815	2535.531506
496.902733	2534.543440
497.269593	2535.314736
497.636395	2531.881711
498.003139	2533.305837
498.369825	2533.676361
498.736453	2533.998995
499.103023	2534.472864
499.469535	2534.535878
499.835989	2534.114942
500.202385	2534.840868
500.568723	2533.371372
500.935003	2533.497400
501.301226	2532.514375
501.667390	2535.287010
502.033497	2534.752648
502.399546	2535.337422
502.765537	2534.510672
503.131470	2534.656866
503.497345	2535.755837
503.863163	2534.369520
504.228923	2536.716177
504.594625	2536.907741
504.960269	2533.283151
505.325856	2536.146527
505.691385	2535.977648
506.056856	2534.583769
506.422270	2532.272400
506.787625	2531.808614
507.152924	2533.938501
507.518164	2534.029242
507.883347	2533.573018
508.248472	2537.101825
508.613540	2534.324150
508.978550	2537.033770
509.343503	2531.826258
509.708398	2536.602751
510.073236	2532.549663
510.438016	2536.194418
510.802738	2534.152750
511.167403	2535.791125
511.532010	2534.424973
511.896561	2533.825075
512.261053	2536.080992
512.625488	2532.214427
512.989866	2529.381298
513.354186	2531.566638
513.718449	2529.038500
514.082655	2532.534540
514.446803	2535.733152
514.810894	2535.060158
515.174927	2534.122503
515.538904	2535.874304
515.902822	2535.710467
516.266684	2536.454037
516.630488	2533.973789
516.994235	2535.839016
517.357925	2535.213913
517.721558	2536.496887
518.085133	2535.662576
518.448651	2535.597041
518.812112	2534.576207
519.175516	2537.555529
519.538863	2534.954294
519.902152	2536.522093
520.265385	2534.830786
520.628560	2536.620395
520.991678	2537.351362
521.354739	2535.229037
521.717743	2535.690302
522.080690	2537.593338
522.443580	2536.640560
522.806413	2537.336239
523.169189	2535.186187
523.531908	2535.473533
523.894569	2534.198121
524.257174	2534.654345
524.619722	2535.221475
524.982213	2536.267514
525.344647	2532.837009
525.707025	2534.750127
526.069345	2536.123842
526.431608	2535.039993
526.793815	2534.147709
527.155964	2536.176774
527.518057	2535.329860
527.880093	2539.566950
528.242072	2535.430683
528.603995	2536.590148
528.965860	2535.798687
529.327669	2535.145858
529.689421	2534.855991
530.051117	2535.649973
530.412755	2534.863553
530.774337	2537.462268
531.135862	2536.020498
531.497331	2537.179963
531.858743	2529.915661
532.220098	2535.662576
532.581396	2533.809952
532.942638	2533.827596
533.303824	2537.331198
533.664953	2536.675848
534.026025	2538.142824
534.387040	2537.908410
534.747999	2535.939839
535.108902	2537.699202
535.469748	2534.674510
535.830537	2536.048224
536.191270	2537.404295
536.551947	2537.646270
536.912567	2537.699202
537.273131	2536.801877
537.633638	2534.545960
537.994089	2536.822041
538.354483	2534.656866
538.714821	2537.621064
539.075103	2535.833975
539.435328	2539.287166
539.795497	2536.708615
540.155609	2536.779192
540.515665	2537.300951
540.875665	2538.105015
541.235609	2537.021167
541.595496	2538.435211
541.955328	2538.074768
542.315102	2537.522762
542.674821	2538.689789
543.034483	2536.355735
543.394090	2538.505787
543.753640	2537.850437
544.113134	2535.975128
544.472571	2535.218954
544.831953	2537.663914
545.191278	2535.839016
545.550548	2535.730632
545.909761	2536.839685
546.268918	2534.845909
546.628019	2539.269522
546.987064	2535.589479
547.346053	2540.703730
547.704986	2535.770961
548.063863	2538.833462
548.422684	2537.777340
548.781449	2536.678368
549.140158	2536.597710
549.498811	2539.007382
549.857408	2534.122503
550.215949	2532.950435
550.574434	2532.688295
550.932864	2533.804911
551.291237	2533.341125
551.649555	2536.096115
552.007817	2535.511341
552.366022	2537.868081
552.724173	2535.332380
553.082267	2535.967566
553.440305	2538.783050
553.798288	2535.813811
554.156215	2538.866229
554.514086	2537.782381
554.871902	2536.864891
555.229661	2538.563760
555.587365	2538.780530
555.945014	2538.157947
556.302606	2535.612164
556.660143	2536.441434
557.017625	2539.050231
557.375050	2536.275076
557.732421	2534.924047
558.089735	2538.455375
558.446994	2536.736342
558.804197	2537.434542
559.161345	2538.525951
559.518437	2535.952442
559.875474	2537.048893
560.232455	2538.145344
560.589381	2538.319264
560.946251	2538.480581
561.303065	2537.830272
561.659825	2538.425128
562.016528	2536.194418
562.373177	2534.452699
562.729770	2535.576876
563.086307	2539.617361
563.442789	2538.473019
563.799216	2539.282124
564.155587	2536.474202
564.511904	2538.210879
564.868164	2537.994110
565.224370	2538.722556
565.580520	2535.443286
565.936615	2537.948739
566.292654	2537.951260
566.648638	2535.786084
567.004567	2536.164171
567.360441	2537.870601
567.716260	2539.811446
568.072023	2539.932433
568.427732	2532.547143
568.783385	2536.159130
569.138982	2532.874818
569.494525	2535.276928
569.850013	2533.550333
570.205445	2538.508307
570.560823	2539.425797
570.916145	2539.138452
571.271412	2536.141486
571.626625	2539.607279
571.981782	2537.043852
572.336884	2536.769109
572.691931	2536.514531
573.046923	2537.484953
573.401860	2539.919830
573.756743	2534.273738
574.111570	2536.880015
574.466342	2535.140817
574.821059	2539.188863
575.175722	2538.402443
575.530330	2540.381096
575.884882	2536.902700
576.239380	2539.355221
576.593823	2539.524100
576.948211	2539.309851
577.302544	2538.888914
577.656823	2538.490663
578.011047	2538.974614
578.365216	2536.547298
578.719330	2539.972762
579.073389	2538.722556
579.427394	2536.874973
579.781344	2536.564943
580.135239	2537.341280
580.489080	2537.522762
580.842866	2538.314223
581.196597	2540.297917
581.550273	2538.636857
581.903895	2537.303472
582.257463	2539.869419
582.610975	2536.905220
582.964434	2538.911600
583.317837	2537.679038
583.671186	2537.744572
584.024481	2539.279604
584.377721	2540.197094
584.730906	2539.135931
585.084037	2538.087371
585.437113	2539.052752
585.790135	2535.455889
586.143103	2538.762886
586.496016	2538.115097
586.848874	2533.381454
587.201679	2534.535878
587.554428	2533.361289
587.907124	2536.073430
588.259765	2532.063192
588.612352	2539.506456
588.964884	2539.791281
589.317362	2539.899666
589.669786	2537.442103
590.022155	2542.279090
590.374470	2536.509490
590.726731	2536.486805
591.078937	2537.638708
591.431090	2537.966383
591.783188	2539.042670
592.135232	2537.794984
592.487222	2537.293389
592.839157	2536.746424
593.191038	2538.599048
593.542866	2538.276414
593.894639	2537.101825
594.246358	2537.006043
594.598022	2539.564429
594.949633	2538.757844
595.301190	2536.935467
595.652692	2538.785571
596.004141	2536.882535
596.355535	2540.045859
596.706876	2537.023688
597.058162	2538.031918
597.409395	2537.749614
597.760573	2537.946219
598.111698	2538.168029
598.462768	2540.063503
598.813785	2536.126362
599.164748	2536.895138
599.515657	2538.099974
599.866511	2537.399253
600.217312	2535.002185
600.568060	2536.585107
600.918753	2539.564429
601.269392	2540.247505
601.619978	2539.004861
601.970510	2539.849254
602.320988	2537.996630
602.671412	2539.574511
603.021783	2537.883204
603.372100	2539.115766
603.722363	2535.609644
604.072572	2538.039480
604.422728	2538.369676
604.772830	2536.915303
605.122878	2536.474202
605.472872	2536.869932
605.822813	2531.390198
606.172701	2535.624767
606.522534	2536.723739
606.872314	2536.912782
607.222041	2537.190046
607.571714	2535.208872
607.921333	2540.310520
608.270899	2542.977290
608.620411	2539.710622
608.969870	2540.512166
609.319276	2539.869419
609.668627	2544.051056
610.017926	2544.948381
610.367171	2545.807898
610.716362	2544.910573
611.065500	2543.932589
611.414585	2540.512166
611.763616	2542.284132
612.112594	2542.410160
612.461518	2538.261291
612.810389	2540.703730
613.159207	2541.162475
613.507971	2538.886394
613.856682	2539.483771
614.205340	2539.244316
614.553945	2539.468647
614.902496	2540.607948
615.250994	2538.233564
615.599439	2539.506456
615.947830	2536.784233
616.296169	2536.723739
616.644454	2537.016126
616.992686	2538.737680
617.340864	2535.932278
617.688990	2536.824562
618.037063	2537.142155
618.385082	2536.333049
618.733048	2538.909079
619.080961	2541.757331
619.428821	2539.965201
619.776628	2538.770447
620.124382	2538.803215
620.472083	2539.750952
620.819731	2539.508976
621.167326	2536.678368
621.514868	2538.790612
621.862357	2537.174922
622.209793	2539.337577
622.557176	2539.798843
622.904506	2534.598893
623.251783	2534.079654
623.599007	2537.668955
623.946179	2534.593851
624.293297	2532.912627
624.640363	2537.966383
624.987376	2539.592155
625.334336	2539.012423
625.681243	2537.457227
626.028097	2537.129552
626.374899	2536.650642
626.721647	2538.208359
627.068343	2538.611651
627.414987	2536.791794
627.761577	2536.658204
628.108115	2536.418749
628.454600	2537.623585
628.801032	2537.820190
629.147412	2537.326157
629.493739	2538.634336
629.840014	2540.567619
630.186236	2537.489994
630.532405	2538.215920
630.878521	2536.849768
631.224585	2539.927392
631.570597	2536.668286
631.916556	2539.035108
632.262462	2540.625592
632.608316	2538.233564
632.954117	2537.666435
633.299866	2539.370345
633.645562	2536.232226
633.991206	2538.510828
634.336797	2538.750283
634.682336	2537.454706
635.027823	2536.562422
635.373257	2535.763399
635.718639	2536.572504
636.063968	2537.273225
636.409245	2540.678524
636.754470	2538.145344
637.099642	2538.667104
637.444762	2539.274563
637.789829	2537.890766
638.134845	2538.604089
638.479808	2539.478729
638.824719	2538.304141
639.169577	2536.819521
639.514383	2537.195087
639.859137	2538.778009
640.203839	2537.855478
640.548489	2538.077289
640.893086	2536.779192
641.237632	2532.973120
641.582125	2536.882535
641.926566	2533.532688
642.270955	2540.013092
642.615292	2535.975128
642.959576	2533.953625
643.303809	2539.824048
643.647990	2536.935467
643.992118	2537.600900
644.336195	2534.707277
644.680219	2537.003523
645.024192	2539.992927
645.368112	2541.197763
645.711981	2533.348686
646.055797	2538.122659
646.399562	2536.043183
646.743274	2538.825900
647.086935	2538.140303
647.430544	2539.340098
647.774101	2534.155271
648.117606	2538.770447
648.461059	2537.789943
648.804460	2540.955788
649.147810	2537.550488
649.491108	2538.110056
649.834354	2535.153419
650.177548	2534.626619
650.520690	2538.752803
650.863781	2535.884387
651.206820	2539.967721
651.549807	2536.338091
651.892742	2538.195756
652.235626	2539.866898
652.578458	2535.723070
652.921238	2537.512679
653.263967	2536.355735
653.606644	2538.175591
653.949269	2536.010416
654.291843	2537.275745
654.634365	2538.072248
654.976836	2536.063348
655.319255	2538.057124
655.661622	2535.811290
656.003938	2540.749100
656.346203	2537.363965
656.688416	2539.657690
657.030577	2537.603420
657.372687	2538.392361
657.714746	2537.948739
658.056753	2537.558050
658.398708	2534.414890
658.740612	2532.834489
659.082465	2535.574356
659.424266	2532.184180
659.766016	2531.818696
660.107715	2537.479912
660.449362	2537.376568
660.790958	2538.233564
661.132503	2537.074099
661.473996	2537.832793
661.815438	2535.103008
662.156829	2538.384799
662.498168	2537.200128
662.839456	2535.327339
663.180693	2536.655683
663.521879	2536.806918
663.863013	2537.537885
664.204097	2536.753986
664.545129	2535.760878
664.886110	2540.121477
665.227040	2533.431865
665.567918	2538.599048
665.908746	2538.231044
666.249522	2538.273894
666.590248	2536.781712
666.930922	2538.344470
667.271545	2538.490663
667.612118	2538.891435
667.952639	2535.029911
668.293109	2536.499407
668.633528	2538.052083
668.973896	2534.997144
669.314213	2539.224151
669.654480	2535.559232
669.994695	2536.932947
670.334859	2536.030580
670.674973	2537.248019
671.015035	2538.175591
671.355047	2536.005374
671.695008	2534.377082
672.034918	2534.634181
672.374777	2538.646939
672.714585	2536.683410
673.054342	2535.564273
673.394049	2534.757689
673.733705	2536.514531
674.073310	2538.762886
674.412864	2536.000333
674.752368	2536.174253
675.091820	2535.486136
675.431223	2535.622247
675.770574	2536.612833
676.109875	2531.538912
676.449125	2533.111752
676.788324	2531.473377
677.127473	2533.550332
677.466571	2532.085877
677.805619	2533.898172
678.144616	2537.419418
678.483562	2537.099305
678.822458	2535.665097
679.161303	2536.418749
679.500098	2534.361958
679.838842	2536.582587
680.177535	2535.027391
680.516179	2534.876156
680.854771	2536.136444
681.193314	2538.525951
681.531805	2535.990251
681.870247	2537.709284
682.208638	2535.264325
682.546978	2537.016126
682.885268	2537.701723
683.223508	2537.555529
683.561697	2536.552340
683.899836	2534.001516
684.237925	2534.830786
684.575963	2534.384643
684.913951	2537.553009
685.251889	2538.074768
685.589776	2535.692823
685.927614	2537.447144
686.265401	2536.706095
686.603137	2536.000333
686.940824	2537.868081
687.278460	2539.330015
687.616046	2537.999151
687.953582	2534.651825
688.291068	2536.111239
688.628504	2537.948739
688.965889	2536.809438
689.303224	2536.910262
689.640510	2537.610982
689.977745	2537.346321
690.314930	2535.934798
690.652065	2536.973276
690.989150	2535.014788
691.326185	2538.921682
691.663170	2536.106198
692.000105	2537.817669
692.336990	2535.334901
692.673825	2536.796836
693.010610	2537.411856
693.347345	2533.184849
693.684030	2532.673172
694.020665	2533.774664
694.357251	2528.589837
694.693786	2533.918337
695.030272	2536.418749
695.366707	2535.100487
695.703093	2535.269366
696.039429	2533.633512
696.375716	2535.387833
696.711952	2536.524613
697.048139	2535.171063
697.384276	2538.591486
697.720363	2536.544778
698.056400	2537.371527
698.392388	2535.586959
698.728326	2538.485622
699.064214	2535.685261
699.400053	2537.711805
699.735842	2535.244160
700.071581	2535.917154
700.407270	2535.702905
700.742910	2537.411856
701.078501	2536.285158
701.414042	2535.128214
701.749533	2535.944881
702.084974	2537.913451
702.420366	2535.566794
702.755709	2534.921526
703.091002	2535.004705
703.426246	2536.232226
703.761440	2538.316743
704.096584	2537.021167
704.431679	2536.325488
704.766725	2538.959491
705.101721	2536.219623
705.436668	2535.702905
705.771565	2534.772812
706.106413	2534.480425
706.441212	2535.808769
706.775961	2537.502597
707.110661	2538.301620
707.445311	2535.221475
707.779913	2537.013605
708.114465	2538.654501
708.448967	2536.138965
708.783421	2533.749458
709.117825	2532.806762
709.452180	2538.321785
709.786485	2534.228368
710.120742	2536.799356
710.454949	2537.363965
710.789107	2533.225178
711.123216	2533.908254
711.457275	2532.826927
711.791286	2531.987575
712.125247	2531.785929
712.459159	2535.070240
712.793023	2537.008564
713.126837	2536.136444
713.460602	2533.048738
713.794318	2534.545960
714.127985	2538.188194
714.461602	2538.926723
714.795171	2534.442617
715.128691	2534.843388
715.462162	2536.280117
715.795584	2535.655014
716.128957	2535.395395
716.462281	2533.825075
716.795556	2533.457071
717.128782	2533.779705
717.461960	2535.564273
717.795088	2534.006557
718.128167	2535.115611
718.461198	2535.662576
718.794180	2537.046373
719.127113	2535.405477
719.459997	2535.836496
719.792833	2535.050076
720.125619	2536.012936
720.458357	2535.065199
720.791046	2538.195756
721.123686	2534.331711
721.456278	2536.214582
721.788821	2534.137627
722.121315	2536.630478
722.453761	2535.763399
722.786158	2535.392874
723.118506	2535.773481
723.450805	2534.482946
723.783056	2534.742565
724.115259	2534.919006
724.447412	2539.014943
724.779518	2537.263142
725.111574	2533.663758
725.443582	2536.239788
725.775542	2534.130065
726.107453	2535.765920
726.439315	2536.242309
726.771129	2539.519059
727.102895	2535.095446
727.434612	2539.635005
727.766281	2535.065199
728.097901	2533.109232
728.429473	2535.123172
728.760996	2533.492359
729.092471	2530.573531
729.423897	2535.917154
729.755276	2535.687782
730.086606	2534.062010
730.417887	2536.270035
730.749120	2533.038655
731.080305	2533.517565
731.411442	2535.279448
731.742530	2536.602751
732.073570	2535.261804
732.404562	2536.753986
732.735506	2535.541588
733.066401	2534.311547
733.397249	2535.453368
733.728048	2530.913809
734.058798	2536.950591
734.389501	2535.564273
734.720156	2536.542257
735.050762	2534.447658
735.381320	2533.250384
735.711831	2535.236598
736.042293	2532.882380
736.372707	2536.421270
736.703073	2534.296423
737.033391	2535.496218
737.363661	2535.095446
737.693883	2531.859025
738.024056	2535.788605
738.354182	2535.307175
738.684260	2535.173584
739.014290	2535.382792
739.344272	2532.191742
739.674207	2533.394057
740.004093	2538.152906
740.333931	2534.583769
740.663722	2537.263142
740.993464	2534.999664
741.323159	2534.513193
741.652806	2531.591844
741.982405	2536.680889
742.311956	2534.356917
742.641460	2536.527134
742.970915	2536.098636
743.300323	2534.351876
743.629683	2536.990920
743.958996	2534.946732
744.288260	2535.738193
744.617477	2534.566125
744.946647	2531.307019
745.275768	2532.348017
745.604842	2530.361803
745.933869	2532.572349
746.262847	2529.986237
746.591778	2535.488656
746.920662	2531.450692
747.249498	2534.266176
747.578286	2533.963707
747.907027	2535.445806
748.235720	2536.761547
748.564365	2532.549663
748.892963	2535.670138
749.221514	2536.423790
749.550017	2535.392874
749.878473	2537.232895
750.206881	2534.598893
750.535242	2533.331042
750.863555	2538.256250
751.191821	2534.886238
751.520039	2535.080323
751.848210	2535.160981
752.176334	2534.697195
752.504411	2535.244160
752.832440	2534.036804
753.160421	2533.381454
753.488356	2536.176774
753.816243	2533.058820
754.144082	2531.387678
754.471875	2535.539068
754.799620	2532.405991
755.127318	2532.784077
755.454969	2536.118800
755.782572	2533.605785
756.110129	2531.755682
756.437638	2533.840199
756.765100	2534.218285
757.092515	2533.119314
757.419882	2532.126207
757.747203	2535.841537
758.074477	2535.690302
758.401703	2534.253573
758.728882	2532.408511
759.056014	2531.107893
759.383099	2533.928419
759.710138	2536.151568
760.037129	2534.505631
760.364073	2534.606454
760.690970	2534.253573
761.017820	2535.584438
761.344623	2534.024201
761.671379	2534.876156
761.998088	2529.320804
762.324751	2531.889272
762.651366	2531.380116
762.977935	2536.063348
763.304456	2529.025897
763.630931	2534.908923
763.957359	2535.128214
764.283740	2534.356917
764.610074	2533.981351
764.936362	2535.871784
765.262602	2532.257277
765.588796	2535.987730
765.914943	2534.268697
766.241044	2536.325488
766.567097	2532.708460
766.893104	2536.590148
767.219064	2534.394726
767.544978	2534.261135
767.870845	2534.538399
768.196665	2533.457071
768.522438	2532.935312
768.848165	2536.721218
769.173846	2532.537061
769.499479	2534.457740
769.825066	2531.659900
770.150607	2532.118645
770.476101	2532.428676
770.801548	2534.621578
771.126949	2533.479756
771.452303	2537.185004
771.777611	2532.615198
772.102872	2533.530168
772.428087	2532.320291
772.753256	2533.668800
773.078378	2533.875487
773.403453	2535.755837
773.728482	2534.351876
774.053465	2536.333049
774.378401	2534.389685
774.703291	2532.660569
775.028135	2534.021680
775.352932	2532.332894
775.677683	2535.024870
776.002388	2533.396577
776.327046	2532.380785
776.651658	2532.272400
776.976224	2532.579910
777.300743	2533.925898
777.625216	2534.251053
777.949643	2534.987061
778.274024	2532.786598
778.598359	2530.369364
778.922647	2529.817358
779.246889	2532.363141
779.571086	2529.217461
779.895236	2532.010260
780.219339	2531.216278
780.543397	2533.993954
780.867409	2533.051258
781.191374	2532.466484
781.515294	2533.008408
781.839167	2533.348686
782.162995	2534.709798
782.486776	2533.542771
782.810511	2532.322812
783.134201	2534.556043
783.457844	2535.385313
783.781441	2534.414890
784.104993	2533.804911
784.428498	2535.531506
784.751958	2532.874818
785.075372	2531.443130
785.398739	2533.184849
785.722061	2534.228368
786.045337	2532.864736
786.368568	2534.450178
786.691752	2534.755168
787.014891	2533.573018
787.337983	2534.125024
787.661030	2532.234591
787.984031	2533.378933
788.306987	2533.794828
788.629897	2533.378933
788.952760	2530.649148
789.275579	2533.320960
789.598351	2532.342976
789.921078	2532.048069
790.243759	2534.608975
790.566395	2534.714839
790.888984	2532.448840
791.211529	2530.906247
791.534027	2530.951618
791.856480	2531.634694
792.178888	2532.925229
792.501249	2533.187369
792.823566	2535.455889
793.145836	2532.458923
793.468062	2536.053265
793.790241	2531.110414
794.112375	2533.731814
794.434464	2535.077802
794.756507	2535.796167
795.078505	2534.130065
795.400457	2532.683254
795.722364	2528.355423
796.044226	2529.986237
796.366042	2527.750485
796.687812	2531.286854
797.009538	2531.241484
797.331218	2531.024714
797.652852	2532.784077
797.974442	2533.031094
798.295986	2536.569984
798.617484	2531.836340
798.938938	2531.664941
799.260346	2533.867925
799.581709	2534.150230
799.903026	2535.276928
800.224299	2532.365661
800.545526	2533.933460
800.866708	2533.623429
801.187845	2532.814324
801.508936	2529.935825
801.829983	2534.054448
802.150984	2534.818183
802.471940	2532.428676
802.792851	2532.141330
803.113717	2533.573018
803.434538	2534.210724
803.755314	2530.737369
804.076045	2532.751310
804.396731	2534.598892
804.717372	2531.778367
805.037967	2532.826927
805.358518	2532.539581
805.679024	2535.675179
805.999485	2532.610157
806.319901	2536.330529
806.640272	2534.303985
806.960598	2535.289531
807.280879	2534.273738
807.601115	2533.709129
807.921306	2536.189377
808.241453	2534.979500
808.561554	2535.241640
808.881611	2531.669982
809.201623	2532.950435
809.521590	2532.093439
809.841513	2534.659386
810.161390	2534.142668
810.481223	2533.787267
810.801011	2533.363810
811.120755	2529.872811
811.440453	2533.416742
811.760107	2533.787267
812.079716	2532.272400
812.399281	2527.889117
812.718801	2530.538243
813.038276	2528.128572
813.357707	2529.182173
813.677093	2530.659231
813.996434	2531.770805
814.315731	2532.176618
814.634983	2531.193593
814.954191	2532.365661
815.273354	2532.196783
815.592473	2533.930940
815.911547	2532.950435
816.230577	2533.958666
816.549562	2530.606299
816.868502	2533.981351
817.187399	2532.905065
817.506250	2531.576721
817.825058	2534.666948
818.143821	2529.535053
818.462539	2533.494880
818.781213	2532.348017
819.099843	2533.825075
819.418429	2532.264838
819.736970	2534.583769
820.055466	2530.785260
820.373919	2533.414221
820.692327	2533.285672
821.010691	2533.010929
821.329011	2533.290713
821.647286	2534.929088
821.965517	2532.826927
822.283704	2530.996988
822.601847	2530.734848
822.919945	2532.196783
823.237999	2531.125537
823.556010	2531.130579
823.873976	2533.434386
824.191897	2532.247194
824.509775	2530.722245
824.827609	2532.282482
825.145398	2530.097142
825.463144	2531.801052
825.780845	2533.688964
826.098502	2533.668800
826.416116	2533.452030
826.733685	2531.922040
827.051210	2529.973634
827.368692	2533.744417
827.686129	2532.874818
828.003522	2531.846423
828.320872	2529.028418
828.638177	2530.785260
828.955439	2530.313912
829.272656	2531.889272
829.589830	2526.061698
829.906960	2531.838861
830.224046	2533.469674
830.541088	2531.916999
830.858086	2531.927081
831.175041	2533.041176
831.491952	2530.739889
831.808819	2534.160312
832.125642	2532.007739
832.442421	2535.402957
832.759157	2531.385157
833.075849	2535.460930
833.392497	2530.107224
833.709101	2534.911444
834.025662	2532.695857
834.342179	2532.635363
834.658653	2530.150074
834.975083	2531.276772
835.291469	2535.586959
835.607811	2535.103008
835.924110	2530.472708
836.240366	2532.491690
836.556578	2532.075795
836.872746	2531.206196
837.188871	2531.997657
837.504952	2529.875331
837.820990	2530.560928
838.136984	2530.155115
838.452935	2528.489014
838.768842	2533.366330
839.084706	2529.771988
839.400526	2534.399767
839.716303	2531.705270
840.032037	2534.198121
840.347727	2529.346010
840.663373	2534.271217
840.978977	2531.412883
841.294537	2530.273582
841.610054	2534.800539
841.925527	2531.468336
842.240957	2532.713501
842.556344	2532.587472
842.871687	2534.593851
843.186987	2533.930940
843.502244	2531.175949
843.817458	2532.733666
844.132629	2530.533202
844.447756	2530.631504
844.762840	2528.083201
845.077881	2528.786442
845.392879	2525.305525
845.707833	2530.576052
846.022745	2526.399456
846.337613	2533.998995
846.652438	2530.087060
846.967221	2534.480425
847.281960	2530.969262
847.596656	2532.126207
847.911309	2531.488501
848.225919	2529.877852
848.540485	2531.848943
848.855009	2531.601927
849.169490	2531.299457
849.483928	2530.931453
849.798323	2531.244005
850.112675	2529.774508
850.426984	2531.143182
850.741251	2531.606968
851.055474	2532.892462
851.369654	2530.210568
851.683792	2531.922040
851.997887	2532.249715
852.311938	2530.218130
852.625947	2532.491690
852.939914	2530.480270
853.253837	2531.533871
853.567718	2530.684437
853.881555	2532.242153
854.195350	2532.695857
854.509103	2532.355579
854.822812	2529.129241
855.136479	2529.829961
855.450103	2532.166536
855.763685	2533.378933
856.077224	2529.640918
856.390720	2531.385157
856.704173	2529.782070
857.017584	2532.844571
857.330953	2532.277441
857.644278	2531.954807
857.957561	2535.395395
858.270802	2532.766433
858.584000	2529.507327
858.897155	2531.145702
859.210268	2529.174611
859.523339	2531.702750
859.836367	2530.674354
860.149352	2530.008922
860.462295	2533.963707
860.775195	2527.339631
861.088054	2527.632018
861.400869	2530.571011
861.713642	2527.662265
862.026373	2530.863398
862.339062	2532.431196
862.651708	2531.264169
862.964312	2529.426669
863.276873	2531.697708
863.589392	2531.659900
863.901869	2529.587986
864.214303	2529.933305
864.526696	2532.267359
864.839045	2529.222502
865.151353	2530.392050
865.463619	2531.866587
865.775842	2532.771474
866.088023	2533.474715
866.400162	2531.715353
866.712258	2528.005063
867.024313	2531.659900
867.336325	2531.871628
867.648296	2531.463295
867.960224	2530.399611
868.272110	2529.353572
868.583954	2529.449354
868.895755	2531.042358
869.207515	2530.996988
869.519233	2531.402801
869.830909	2531.284334
870.142542	2530.686957
870.454134	2529.406504
870.765684	2529.403983
871.077191	2530.139992
871.388657	2532.224509
871.700081	2528.831813
872.011463	2530.896165
872.322803	2530.616381
872.634101	2531.828778
872.945357	2529.688809
873.256571	2530.311391
873.567744	2532.148892
873.878874	2532.060672
874.189963	2527.715197
874.501010	2531.304498
874.812015	2530.891124
875.122979	2532.269879
875.433900	2530.954138
875.744780	2532.743748
876.055618	2532.922709
876.366415	2530.520599
876.677169	2531.259128
876.987882	2529.184693
877.298554	2526.727131
877.609183	2529.313243
877.919771	2525.166894
878.230317	2529.429189
878.540822	2535.002185
878.851285	2529.953469
879.161707	2530.926412
879.472087	2533.076464
879.782425	2531.498583
880.092722	2531.629653
880.402977	2531.120496
880.713191	2530.490352
881.023363	2531.314581
881.333494	2531.065044
881.643583	2530.306350
881.953631	2532.017822
882.263637	2530.243336
882.573602	2531.296937
882.883526	2528.690660
883.193408	2529.590506
883.503248	2530.530681
883.813048	2526.548170
884.122806	2528.403314
884.432522	2531.007070
884.742197	2529.535053
885.051831	2528.899868
885.361424	2530.933974
885.670975	2529.814837
885.980485	2528.859539
886.289954	2529.499765
886.599382	2529.658562
886.908768	2530.334076
887.218113	2528.909950
887.527417	2530.059333
887.836680	2530.268541
888.145901	2529.272913
888.455082	2527.415248
888.764221	2532.290044
889.073319	2531.274252
889.382376	2530.697039
889.691392	2529.686288
890.000366	2533.358769
890.309300	2529.081350
890.618193	2531.576721
890.927044	2526.417100
891.235855	2530.026566
891.544625	2528.730989
891.853353	2529.507327
892.162041	2527.480783
892.470687	2533.358769
892.779293	2531.163346
893.087858	2528.398273
893.396381	2526.938859
893.704864	2527.672347
894.013306	2524.251924
894.321707	2530.323994
894.630068	2529.716535
894.938387	2531.274252
895.246665	2529.507327
895.554903	2532.136289
895.863100	2530.719725
896.171256	2533.608306
896.479371	2528.846936
896.787446	2532.063192
897.095480	2533.106711
897.403473	2529.464477
897.711425	2532.075795
898.019336	2530.313912
898.327207	2531.039838
898.635038	2528.985568
898.942827	2529.802235
899.250576	2530.467667
899.558284	2528.791483
899.865952	2531.349869
900.173579	2529.335928
900.481165	2531.866587
900.788711	2528.857018
901.096216	2530.535722
901.403681	2528.857018
901.711105	2530.417255
902.018489	2529.918181
902.325832	2531.647297
902.633135	2531.808614
902.940397	2530.691998
903.247619	2529.759385
903.554800	2528.378109
903.861941	2529.497245
904.169041	2529.961031
904.476101	2526.674199
904.783121	2531.138140
905.090100	2528.579755
905.397039	2529.610671
905.703938	2532.048069
906.010796	2529.416586
906.317614	2531.397760
906.624391	2528.572193
906.931129	2528.100845
907.237826	2531.112935
907.544483	2529.653521
907.851099	2531.511186
908.157675	2529.202337
908.464211	2530.807945
908.770707	2523.962058
909.077163	2528.131092
909.383578	2525.003056
909.689954	2528.403314
909.996289	2522.953827
910.302584	2530.933974
910.608839	2527.523633
910.915054	2529.630835
911.221229	2529.277955
911.527363	2532.380785
911.833458	2526.787625
912.139513	2532.219468
912.445527	2530.026566
912.751502	2527.659744
913.057436	2528.947759
913.363331	2532.773995
913.669186	2530.719725
913.975000	2528.801566
914.280775	2530.364323
914.586510	2530.828109
914.892205	2529.197296
915.197859	2530.432379
915.503475	2527.269055
915.809050	2529.164529
916.114585	2530.112266
916.420081	2530.155115
916.725536	2530.876000
917.030952	2531.483459
917.336328	2531.796011
917.641665	2531.468336
917.946961	2529.693850
918.252218	2531.145702
918.557435	2528.158818
918.862612	2531.004550
919.167750	2530.089580
919.472848	2529.051103
919.777906	2528.259642
920.082925	2530.094622
920.387904	2527.493386
920.692843	2528.315094
920.997743	2528.264683
921.302603	2529.492204
921.607423	2526.296112
921.912204	2531.443130
922.216946	2531.344828
922.521647	2532.940353
922.826310	2528.766277
923.130932	2528.418438
923.435516	2526.064219
923.740059	2531.445651
924.044564	2531.730476
924.349028	2530.147554
924.653454	2524.433406
924.957840	2527.594209
925.262186	2526.003725
925.566493	2526.631349
925.870761	2525.943231
926.174989	2529.207378
926.479178	2530.676875
926.783328	2531.097811
927.087438	2530.427338
927.391509	2531.531350
927.695541	2530.195445
927.999533	2528.978006
928.303486	2528.126051
928.607400	2528.640249
928.911275	2529.401463
929.215110	2530.245856
929.518906	2528.541946
929.822663	2531.856505
930.126381	2530.427338
930.430060	2529.114117
930.733699	2530.825589
931.037299	2532.640404
931.340861	2530.301309
931.644383	2530.475229
931.947866	2530.507996
932.251309	2530.397091
932.554714	2529.668644
932.858080	2531.433048
933.161407	2529.214940
933.464694	2529.683767
933.767943	2528.254600
934.071153	2528.287368
934.374323	2526.293592
934.677455	2528.221833
934.980548	2527.470701
935.283602	2528.846936
935.586617	2526.928777
935.889593	2530.137471
936.192530	2527.763088
936.495428	2529.288037
936.798287	2531.334745
937.101108	2528.534384
937.403890	2530.379447
937.706632	2529.756864
938.009336	2527.571524
938.312002	2531.034797
938.614628	2527.069929
938.917216	2531.123017
939.219765	2529.741741
939.522275	2528.604961
939.824747	2531.312060
940.127179	2526.096987
940.429573	2526.149919
940.731929	2524.992974
941.034246	2525.373581
941.336524	2529.235105
941.638763	2529.464477
941.940964	2528.630166
942.243126	2528.816689
942.545250	2527.800897
942.847335	2528.879703
943.149381	2529.363654
943.451389	2527.334590
943.753359	2529.963552
944.055290	2528.635207
944.357182	2529.252749
944.659036	2525.986081
944.960851	2528.854498
945.262628	2528.794004
945.564367	2531.543953
945.866067	2530.021525
946.167729	2530.339117
946.469352	2529.194776
946.770937	2527.200999
947.072484	2528.799045
947.373992	2527.687471
947.675462	2528.065557
947.976893	2528.955321
948.278286	2528.945238
948.579641	2531.198634
948.880958	2530.175280
949.182236	2526.797707
949.483476	2527.243849
949.784678	2524.254445
950.085841	2529.945908
950.386967	2528.456247
950.688054	2528.705784
950.989103	2527.284178
951.290114	2529.635877
951.591087	2527.137985
951.892021	2527.175793
952.192917	2528.957841
952.493776	2528.312574
952.794596	2530.127389
953.095378	2527.306863
953.396122	2529.910619
953.696828	2528.176462
953.997496	2528.612522
954.298126	2528.579755
954.598718	2530.417255
954.899272	2528.559590
955.199788	2528.191586
955.500266	2527.937008
955.800706	2526.550690
956.101108	2524.370391
956.401472	2527.611853
956.701798	2526.679240
957.002087	2524.350227
957.302337	2528.683098
957.602550	2531.511186
957.902724	2527.387522
958.202861	2530.220650
958.502960	2528.897347
958.803022	2530.263500
959.103045	2528.567152
959.403031	2530.616381
959.702979	2525.842408
960.002889	2528.632687
960.302762	2528.163860
960.602596	2530.124868
960.902393	2525.224867
961.202153	2528.998171
961.501875	2526.674199
961.801559	2525.673530
962.101205	2529.343490
962.400814	2529.366175
962.700385	2530.069416
962.999918	2528.816689
963.299414	2527.904240
963.598873	2529.151926
963.898293	2530.722245
964.197677	2526.880886
964.497022	2528.640249
964.796331	2529.494724
965.095601	2528.453726
965.394835	2532.315250
965.694030	2528.461288
965.993189	2528.284847
966.292309	2525.723941
966.591393	2529.101514
966.890439	2527.299302
967.189447	2527.329549
967.488419	2529.393901
967.787353	2525.822244
968.086249	2527.984899
968.385108	2529.162008
968.683930	2526.114631
968.982714	2527.689991
969.281462	2527.251411
969.580172	2529.245187
969.878844	2526.802748
970.177480	2526.868283
970.476078	2527.594209
970.774639	2526.641431
971.073162	2525.681091
971.371649	2525.383663
971.670098	2524.418282
971.968510	2527.105217
972.266885	2525.366019
972.565223	2524.859383
972.863524	2531.609488
973.161788	2528.602440
973.460014	2527.571524
973.758204	2529.139323
974.056356	2528.173942
974.354471	2528.698222
974.652550	2527.599250
974.950591	2528.889786
975.248595	2525.794517
975.546563	2530.707122
975.844493	2528.748633
976.142386	2530.387008
976.440243	2527.145547
976.738062	2529.756864
977.035845	2527.642100
977.333590	2529.792152
977.631299	2528.292409
977.928971	2529.204858
978.226606	2528.189065
978.524204	2528.458767
978.821765	2528.100845
979.119290	2526.623787
979.416777	2528.549508
979.714228	2526.964065
980.011642	2530.518078
980.309020	2530.482790
980.606360	2527.876514
980.903664	2527.682429
981.200931	2527.173273
981.498162	2529.267872
981.795356	2527.992460
982.092513	2526.769981
982.389633	2526.132275
982.686717	2528.047913
982.983764	2527.289219
983.280775	2527.881555
983.577749	2525.050947
983.874686	2528.370547
984.171587	2527.500948
984.468451	2526.384332
984.765279	2527.901720
985.062070	2529.353572
985.358824	2527.831143
985.655543	2528.463808
985.952224	2528.441123
986.248869	2527.178314
986.545478	2523.951976
986.842050	2524.713190
987.138586	2522.820237
987.435086	2523.967099
987.731549	2521.239835
988.027975	2527.195958
988.324366	2528.050434
988.620719	2528.597399
988.917037	2526.827954
989.213318	2529.474560
989.509563	2529.489683
989.805772	2526.717048
990.101944	2527.944569
990.398080	2527.939528
990.694180	2525.610515
990.990244	2528.342821
991.286271	2524.912315
991.582262	2528.277286
991.878217	2527.422810
992.174136	2527.939528
992.470019	2527.619415
992.765865	2525.600433
993.061676	2525.416431
993.357450	2529.209899
993.653188	2527.062368
993.948890	2527.004394
994.244556	2529.570342
994.540186	2528.118489
994.835780	2525.270237
995.131337	2527.395084
995.426859	2528.809127
995.722345	2527.465660
996.017795	2526.676719
996.313208	2528.410876
996.608586	2527.143026
996.903928	2526.764939
997.199234	2527.511030
997.494504	2527.775691
997.789738	2527.853829
998.084936	2526.636390
998.380099	2525.973478
998.675225	2529.109076
998.970316	2527.828623
999.265371	2525.539939
999.560390	2529.310722
999.855373	2527.657224
1000.150320	2526.212933
1000.445232	2528.209230
1000.740108	2526.830474
1001.034948	2527.359796
1001.329752	2528.002543
1001.624521	2526.381812
1001.919254	2522.240504
1002.213951	2525.101359
1002.508613	2520.337468
1002.803239	2526.066740
1003.097829	2521.922911
1003.392384	2525.565145
1003.686903	2526.346524
1003.981386	2527.132944
1004.275834	2526.535567
1004.570246	2529.487163
1004.864623	2527.213602
1005.158964	2526.046575
1005.453270	2527.858870
1005.747540	2526.767460
1006.041775	2527.972296
1006.335974	2527.478263
1006.630138	2526.099507
1006.924266	2526.013808
1007.218359	2524.700587
1007.512416	2528.544467
1007.806438	2524.393077
1008.100425	2526.591020
1008.394376	2529.376257
1008.688292	2526.628828
1008.982172	2526.212933
1009.276017	2523.520957
1009.569827	2527.359796
1009.863602	2527.437933
1010.157341	2525.504651
1010.451045	2525.953314
1010.744714	2525.605474
1011.038347	2525.668488
1011.331945	2526.117151
1011.625508	2529.071267
1011.919036	2525.955834
1012.212528	2527.712676
1012.505986	2524.826616
1012.799408	2526.028931
1013.092795	2526.099507
1013.386147	2526.719569
1013.679464	2527.710156
1013.972745	2527.311905
1014.265992	2525.620597
1014.559204	2528.930115
1014.852380	2525.613036
1015.145521	2527.727800
1015.438628	2526.349044
1015.731699	2528.236956
1016.024736	2527.644621
1016.317737	2528.859539
1016.610703	2528.554549
1016.903635	2525.330731
1017.196531	2522.777387
1017.489393	2520.045081
1017.782219	2522.212777
1018.075011	2524.093128
1018.367768	2528.007584
1018.660490	2528.549508
1018.953177	2528.549508
1019.245829	2528.549508
