Dividing Wavelength (nm)	Counts (n)	Blue Motor Position (mm): 0.000000	Red Motor Position (mm): 12.800000	
326.493990	2126.993878
326.888308	2126.993878
327.282561	2126.993878
327.676750	2096.126893
328.070874	2093.679413
328.464933	2099.678386
328.858929	2103.323140
329.252859	2111.303286
329.646726	2124.112858
330.040528	2138.432256
330.434265	2153.701911
330.827938	2170.632626
331.221547	2189.085770
331.615091	2210.994624
332.008571	2228.154712
332.401986	2249.909811
332.795338	2265.197110
333.188625	2286.569082
333.581847	2302.834365
333.975006	2320.637200
334.368100	2343.166116
334.761129	2357.084742
335.154095	2375.787423
335.546996	2393.161760
335.939833	2406.258677
336.332606	2422.355082
336.725315	2437.226485
337.117960	2444.432815
337.510540	2453.209464
337.903056	2463.838737
338.295508	2469.726804
338.687896	2481.374390
339.080220	2488.184989
339.472480	2493.939466
339.864676	2497.901813
340.256807	2502.403563
340.648875	2502.572442
341.040879	2511.026457
341.432818	2510.429080
341.824694	2512.301869
342.216506	2513.637775
342.608253	2513.017713
342.999937	2512.470748
343.391557	2513.194153
343.783113	2509.995541
344.174605	2511.112157
344.566033	2509.176354
344.957397	2505.143431
345.348697	2506.290293
345.739934	2504.835920
346.131106	2502.617813
346.522215	2502.040600
346.913260	2499.930877
347.304241	2499.600682
347.695159	2496.386946
348.086012	2495.552635
348.476802	2493.115238
348.867528	2490.251862
349.258191	2488.910915
349.648789	2489.006697
350.039324	2485.823208
350.429796	2485.722385
350.820203	2485.283805
351.210548	2483.955461
351.600828	2480.784575
351.991045	2482.601911
352.381198	2480.391365
352.771288	2483.164000
353.161314	2482.702734
353.551276	2482.372539
353.941175	2479.725933
354.331010	2478.906745
354.720782	2481.563433
355.110490	2478.992445
355.500135	2482.803557
355.889717	2480.593011
356.279235	2482.186016
356.668689	2481.465131
357.058080	2483.204329
357.447408	2480.938330
357.836672	2480.320789
358.225873	2478.790799
358.615010	2480.073773
359.004084	2483.688280
359.393095	2484.147025
359.782043	2484.111737
360.170927	2485.760194
360.559748	2486.130719
360.948505	2486.468476
361.337199	2487.995946
361.725830	2487.930411
362.114398	2485.969402
362.502903	2487.093579
362.891344	2490.335041
363.279722	2490.599702
363.668037	2490.171204
364.056289	2490.219095
364.444478	2491.965854
364.832603	2494.597337
365.220665	2492.772439
365.608665	2493.027017
365.996601	2494.763695
366.384474	2494.438540
366.772284	2495.741679
367.160031	2497.490959
367.547715	2499.731752
367.935336	2505.919768
368.322893	2505.957577
368.710388	2507.802639
369.097820	2515.472755
369.485189	2517.509381
369.872495	2522.086749
370.259738	2530.548325
370.646918	2535.947401
371.034035	2543.272198
371.421090	2553.818292
371.808081	2565.591906
372.195010	2572.120201
372.581875	2590.694332
372.968678	2602.223451
373.355418	2608.671087
373.742096	2627.734210
374.128710	2642.338432
374.515262	2656.657830
374.901751	2672.897907
375.288177	2689.034641
375.674540	2708.435521
376.060841	2725.625856
376.447079	2743.673187
376.833254	2765.640014
377.219367	2772.906838
377.605417	2814.985349
377.991404	2822.352995
378.377329	2843.455265
378.763191	2862.485621
379.148991	2897.808986
379.534727	2923.554159
379.920402	2954.206895
380.306013	2966.504789
380.691563	3014.844414
381.077049	3037.411139
381.462474	3054.881258
381.847835	3090.980960
382.233134	3114.180350
382.618371	3113.393930
383.003545	3179.032274
383.388657	3190.274047
383.773706	3219.190105
384.158693	3235.992271
384.543618	3264.608381
384.928480	3299.352013
385.313280	3344.218283
385.698017	3339.587983
386.082692	3391.048081
386.467305	3394.213926
386.851856	3424.367588
387.236344	3443.579425
387.620770	3471.852736
388.005133	3496.070439
388.389435	3516.524921
388.773674	3518.049870
389.157851	3550.464489
389.541965	3554.961198
389.926018	3514.339581
390.310008	3569.111717
390.693936	3573.822676
391.077802	3598.320163
391.461606	3573.338725
391.845348	3613.788943
392.229027	3598.131119
392.612645	3594.801437
392.996200	3633.807365
393.379694	3648.880415
393.763125	3678.114066
394.146494	3627.914256
394.529801	3654.692866
394.913047	3661.876510
395.296230	3609.125876
395.679351	3622.893267
396.062410	3605.609671
396.445408	3564.683064
396.828343	3556.483627
397.211217	3538.547202
397.594028	3454.798513
397.976778	3461.566262
398.359466	3445.593366
398.742092	3423.548400
399.124656	3349.153572
399.507158	3356.279243
399.889598	3336.354083
400.271977	3328.134481
400.654294	3279.389044
401.036549	3246.409816
401.418742	3198.692774
401.800874	3202.841643
402.182944	3176.156296
402.564952	3161.756240
402.946898	3122.450363
403.328783	3086.632965
403.710606	3025.831608
404.092367	3045.693755
404.474067	3004.086591
404.855705	2978.530462
405.237282	2932.310643
405.618797	2923.123140
406.000250	2905.234606
406.381642	2889.163407
406.762972	2855.072604
407.144240	2834.615602
407.525447	2809.384627
407.906593	2791.508695
408.287677	2773.352980
408.668700	2742.813670
409.049661	2728.128789
409.430560	2714.600852
409.811399	2690.993129
410.192176	2688.112109
410.572891	2664.854746
410.953545	2656.486431
411.334138	2637.627474
411.714669	2629.458284
412.095139	2611.352980
412.475547	2606.095057
412.855894	2598.475353
413.236180	2587.256265
413.616405	2578.623289
413.996568	2572.951991
414.376670	2567.749520
414.756711	2559.227450
415.136691	2559.605536
415.516609	2552.489948
415.896466	2547.322765
416.276262	2547.506767
416.655997	2539.826569
417.035670	2537.023687
417.415283	2535.869263
417.794834	2535.511341
418.174324	2536.075951
418.553753	2533.744417
418.933121	2532.867256
419.312428	2534.430014
419.691674	2532.421114
420.070859	2530.848274
420.449983	2529.686288
420.829045	2529.288037
421.208047	2529.484642
421.586988	2529.242667
421.965867	2530.843233
422.344686	2528.869621
422.723444	2529.320804
423.102141	2528.368026
423.480777	2528.962882
423.859352	2529.086391
424.237866	2528.247039
424.616319	2531.304498
424.994712	2527.705115
425.373044	2528.809127
425.751314	2529.134282
426.129524	2527.327028
426.507673	2529.076308
426.885762	2530.187883
427.263789	2531.831299
427.641756	2525.953314
428.019662	2526.674199
428.397508	2527.460619
428.775292	2529.086391
429.153016	2525.398787
429.530679	2529.366175
429.908282	2528.592358
430.285824	2526.991791
430.663305	2528.189065
431.040726	2527.929446
431.418086	2527.891637
431.795385	2530.369364
432.172624	2527.924405
432.549802	2529.560259
432.926920	2531.428007
433.303977	2526.979188
433.680974	2530.636546
434.057910	2529.240146
434.434786	2527.392563
434.811601	2530.165198
435.188355	2530.074457
435.565050	2530.702081
435.941683	2529.270393
436.318257	2525.602953
436.694770	2525.769312
437.071222	2528.171421
437.447614	2524.226718
437.823946	2525.875176
438.200218	2530.603778
438.576429	2532.716022
438.952580	2530.697039
439.328670	2535.072761
439.704700	2532.501773
440.080670	2528.141174
440.456580	2532.156453
440.832429	2530.180321
441.208218	2531.697708
441.583947	2531.100332
441.959616	2533.489839
442.335224	2532.358100
442.710773	2532.484128
443.086261	2531.881711
443.461689	2530.419776
443.837057	2532.784077
444.212365	2533.343645
444.587612	2532.983203
444.962800	2533.510003
445.337927	2531.274252
445.712995	2532.988244
446.088002	2532.837009
446.462949	2532.889941
446.837837	2532.509334
447.212664	2532.098480
447.587431	2533.152081
447.962139	2534.876156
448.336786	2540.938143
448.711374	2537.865560
449.085901	2535.037473
449.460369	2534.498069
449.834776	2536.892618
450.209124	2532.945394
450.583412	2537.051414
450.957640	2535.929757
451.331808	2538.931764
451.705917	2534.361958
452.079965	2536.131403
452.453954	2537.575694
452.827883	2536.806918
453.201752	2535.513862
453.575562	2536.267514
453.949311	2535.438245
454.323001	2534.291382
454.696632	2537.603420
455.070202	2538.145344
455.443713	2538.047042
455.817164	2535.675179
456.190556	2533.076464
456.563888	2535.244160
456.937160	2532.433717
457.310373	2537.953780
457.683526	2534.573687
458.056619	2537.787422
458.429653	2536.355735
458.802628	2537.926054
459.175542	2537.263142
459.548398	2538.944367
459.921194	2540.280273
460.293930	2540.348328
460.666607	2542.198432
461.039224	2542.798329
461.411782	2543.849410
461.784280	2542.815973
462.156719	2541.646426
462.529099	2545.170192
462.901419	2541.326312
463.273680	2540.524769
463.645882	2539.773637
464.018024	2541.500232
464.390106	2543.108360
464.762130	2545.515511
465.134094	2541.038967
465.505999	2546.974925
465.877845	2547.854607
466.249631	2550.375183
466.621358	2547.768907
466.993026	2552.235369
467.364634	2550.108002
467.736184	2547.010213
468.107674	2547.279915
468.479105	2547.531973
468.850477	2548.860317
469.221790	2549.233362
469.593043	2545.739842
469.964238	2544.963505
470.335373	2544.938299
470.706449	2547.400903
471.077467	2544.676159
471.448425	2548.613300
471.819324	2549.495502
472.190164	2551.285112
472.560945	2549.475337
472.931667	2547.204298
473.302330	2545.896118
473.672934	2545.439894
474.043479	2546.080120
474.413965	2544.774462
474.784393	2543.551982
475.154761	2544.003165
475.525070	2542.107691
475.895321	2543.985521
476.265513	2543.428473
476.635645	2546.095244
477.005719	2545.651622
477.375734	2548.436860
477.745691	2550.599515
478.115588	2548.560368
478.485427	2546.846376
478.855207	2551.259906
479.224928	2549.745039
479.594591	2554.463559
479.964194	2553.346944
480.333739	2555.764177
480.703226	2550.652447
481.072653	2550.478527
481.442022	2549.815615
481.811333	2551.975750
482.180584	2553.198230
482.549777	2552.494989
482.918912	2550.468445
483.287988	2553.535987
483.657005	2551.564896
484.025964	2547.718495
484.394864	2549.245965
484.763706	2552.124464
485.132489	2548.235214
485.501213	2550.952396
485.869879	2550.685214
486.238487	2549.523228
486.607036	2551.194371
486.975527	2549.382076
487.343959	2551.857283
487.712333	2550.970040
488.080648	2551.751418
488.448905	2552.492468
488.817104	2549.613969
489.185244	2550.980122
489.553326	2550.168496
489.921350	2554.168652
490.289315	2556.583364
490.657222	2556.169990
491.025070	2555.038251
491.392861	2556.918601
491.760593	2552.590771
492.128267	2554.768549
492.495883	2554.090514
492.863440	2553.157900
493.230939	2552.767211
493.598380	2552.303425
493.965763	2546.773279
494.333088	2549.238403
494.700354	2546.221273
495.067563	2546.909390
495.434713	2545.606252
495.801805	2550.685214
496.168839	2553.011707
496.535815	2550.077755
496.902733	2549.492982
497.269593	2551.000287
497.636395	2550.279402
498.003139	2551.985832
498.369825	2549.913918
498.736453	2549.959288
499.103023	2550.589433
499.469535	2550.286963
499.835989	2549.402241
500.202385	2552.565565
500.568723	2549.992056
500.935003	2551.501881
501.301226	2548.812426
501.667390	2553.599001
502.033497	2551.975750
502.399546	2554.750905
502.765537	2553.246121
503.131470	2549.911397
503.497345	2551.184289
503.863163	2553.296532
504.228923	2551.587581
504.594625	2553.611604
504.960269	2549.898794
505.325856	2552.295863
505.691385	2552.608415
506.056856	2551.930379
506.422270	2550.967519
506.787625	2549.419885
507.152924	2551.161603
507.518164	2553.425082
507.883347	2553.457849
508.248472	2551.872406
508.613540	2552.056408
508.978550	2549.414844
509.343503	2549.787889
509.708398	2549.465255
510.073236	2552.396686
510.438016	2551.872406
510.802738	2554.392983
511.167403	2555.796944
511.532010	2550.216387
511.896561	2551.418702
512.261053	2552.106820
512.625488	2549.984494
512.989866	2549.054401
513.354186	2551.960626
513.718449	2550.213867
514.082655	2552.316028
514.446803	2552.197561
514.810894	2552.782334
515.174927	2551.658157
515.538904	2551.244783
515.902822	2551.892571
516.266684	2552.558003
516.630488	2552.202602
516.994235	2552.653785
517.357925	2551.486758
517.721558	2552.875596
518.085133	2552.343754
518.448651	2551.960626
518.812112	2553.861141
519.175516	2550.876778
519.538863	2552.116902
519.902152	2554.599670
520.265385	2556.051523
520.628560	2553.520863
520.991678	2552.381563
521.354739	2551.882488
521.717743	2553.099927
522.080690	2555.416337
522.443580	2555.244938
522.806413	2553.765359
523.169189	2551.577499
523.531908	2555.809547
523.894569	2552.000956
524.257174	2555.091183
524.619722	2554.871893
524.982213	2553.777962
525.344647	2553.856100
525.707025	2553.351985
526.069345	2555.055895
526.431608	2553.909032
526.793815	2556.210319
527.155964	2556.192675
527.518057	2552.053888
527.880093	2555.817109
528.242072	2553.472972
528.603995	2555.131512
528.965860	2553.959444
529.327669	2552.653785
529.689421	2552.066491
530.051117	2554.997922
530.412755	2553.465411
530.774337	2551.418702
531.135862	2552.711758
531.497331	2549.825698
531.858743	2545.984338
532.220098	2549.588763
532.581396	2548.071376
532.942638	2550.791079
533.303824	2552.255534
533.664953	2553.362067
534.026025	2553.967006
534.387040	2553.629248
534.747999	2552.895760
535.108902	2554.229146
535.469748	2552.452139
535.830537	2552.537838
536.191270	2556.114537
536.551947	2552.626059
536.912567	2552.469783
537.273131	2550.160934
537.633638	2551.685883
537.994089	2550.440718
538.354483	2551.716130
538.714821	2553.014227
539.075103	2554.062788
539.435328	2552.684032
539.795497	2552.799978
540.155609	2553.452808
540.515665	2550.909546
540.875665	2554.566903
541.235609	2555.456667
541.595496	2552.999104
541.955328	2551.937941
542.315102	2554.017417
542.674821	2553.679660
543.034483	2555.935576
543.394090	2554.188816
543.753640	2553.223435
544.113134	2553.641851
544.472571	2555.928014
544.831953	2557.757953
545.191278	2555.713765
545.550548	2551.738816
545.909761	2555.065977
546.268918	2555.620504
546.628019	2553.387273
546.987064	2554.274516
547.346053	2553.339382
547.704986	2553.846018
548.063863	2552.376522
548.422684	2553.616645
548.781449	2554.854249
549.140158	2552.232849
549.498811	2554.824002
549.857408	2555.358364
550.215949	2551.879968
550.574434	2552.321069
550.932864	2550.949875
551.291237	2553.646892
551.649555	2554.082952
552.007817	2553.591440
552.366022	2553.596481
552.724173	2556.084290
553.082267	2554.287119
553.440305	2553.455328
553.798288	2553.939279
554.156215	2554.924825
554.514086	2556.500185
554.871902	2552.205122
555.229661	2555.277706
555.587365	2554.024979
555.945014	2551.885009
556.302606	2553.586398
556.660143	2553.767880
557.017625	2553.972047
557.375050	2554.763508
557.732421	2555.048333
558.089735	2553.793086
558.446994	2552.873075
558.804197	2554.466080
559.161345	2553.634289
559.518437	2554.672767
559.875474	2553.026830
560.232455	2553.485575
560.589381	2555.517160
560.946251	2557.205947
561.303065	2555.673436
561.659825	2553.745195
562.016528	2553.921635
562.373177	2555.154197
562.729770	2555.300391
563.086307	2554.826522
563.442789	2555.078580
563.799216	2554.622356
564.155587	2553.513302
564.511904	2552.275698
564.868164	2555.018086
565.224370	2555.534804
565.580520	2553.541028
565.936615	2554.087993
566.292654	2551.877447
566.648638	2553.967006
567.004567	2555.988508
567.360441	2554.100596
567.716260	2557.334496
568.072023	2554.637479
568.427732	2549.152704
568.783385	2551.091027
569.138982	2549.608928
569.494525	2551.249824
569.850013	2551.522046
570.205445	2553.909032
570.560823	2553.115051
570.916145	2554.098076
571.271412	2550.838970
571.626625	2555.595298
571.981782	2552.187478
572.336884	2553.651933
572.691931	2554.183775
573.046923	2552.956254
573.401860	2554.055226
573.756743	2555.055895
574.111570	2551.128836
574.466342	2553.185627
574.821059	2550.536500
575.175722	2553.949362
575.530330	2550.012220
575.884882	2553.566234
576.239380	2552.389124
576.593823	2555.469269
576.948211	2554.435833
577.302544	2556.253169
577.656823	2553.644372
578.011047	2552.623538
578.365216	2554.004814
578.719330	2553.848538
579.073389	2550.395348
579.427394	2551.126315
579.781344	2550.299566
580.135239	2552.946172
580.489080	2552.759649
580.842866	2550.665050
581.196597	2555.189485
581.550273	2552.280740
581.903895	2550.574309
582.257463	2552.530277
582.610975	2554.193857
582.964434	2554.304763
583.317837	2550.594474
583.671186	2553.999773
584.024481	2553.392314
584.377721	2550.861655
584.730906	2552.157231
585.084037	2551.471634
585.437113	2553.288970
585.790135	2551.673281
586.143103	2551.212015
586.496016	2553.377191
586.848874	2549.598846
587.201679	2547.884853
587.554428	2548.293187
587.907124	2552.401727
588.259765	2548.383928
588.612352	2550.453321
588.964884	2550.360060
589.317362	2552.966337
589.669786	2553.097407
590.022155	2551.723692
590.374470	2550.196223
590.726731	2550.410472
591.078937	2552.295863
591.431090	2551.088507
591.783188	2550.657488
592.135232	2550.435677
592.487222	2549.495502
592.839157	2551.529608
593.191038	2553.871224
593.542866	2550.168496
593.894639	2550.266799
594.246358	2551.663198
594.598022	2549.374514
594.949633	2549.251006
595.301190	2548.184802
595.652692	2551.196892
596.004141	2550.581871
596.355535	2554.309804
596.706876	2549.256047
597.058162	2550.037426
597.409395	2551.113712
597.760573	2552.348795
598.111698	2552.021120
598.462768	2552.245452
598.813785	2548.804864
599.164748	2551.217056
599.515657	2549.200595
599.866511	2550.037426
600.217312	2548.318393
600.568060	2551.756460
600.918753	2552.505071
601.269392	2549.470296
601.619978	2548.018444
601.970510	2550.657488
602.320988	2548.260419
602.671412	2551.637992
603.021783	2548.499874
603.372100	2549.308979
603.722363	2551.665719
604.072572	2549.225800
604.422728	2552.200081
604.772830	2546.286808
605.122878	2545.515511
605.472872	2545.674307
605.822813	2543.667928
606.172701	2550.342416
606.522534	2547.930224
606.872314	2551.088507
607.222041	2550.808723
607.571714	2548.603218
607.921333	2549.119936
608.270899	2551.443908
608.620411	2549.162786
608.969870	2550.801161
609.319276	2554.455998
609.668627	2555.121430
610.017926	2555.547407
610.367171	2559.343396
610.716362	2556.999260
611.065500	2555.945658
611.414585	2553.437684
611.763616	2552.926007
612.112594	2554.203940
612.461518	2554.634958
612.810389	2549.301418
613.159207	2552.873075
613.507971	2552.288301
613.856682	2553.745195
614.205340	2552.797458
614.553945	2553.959444
614.902496	2549.787889
615.250994	2550.004659
615.599439	2552.308466
615.947830	2549.624052
616.296169	2548.116747
616.644454	2549.898794
616.992686	2552.807540
617.340864	2548.489792
617.688990	2549.747560
618.037063	2553.099927
618.385082	2549.843342
618.733048	2550.874258
619.080961	2549.863506
619.428821	2552.915925
619.776628	2551.305276
620.124382	2551.632951
620.472083	2554.720658
620.819731	2549.654298
621.167326	2549.918959
621.514868	2551.879968
621.862357	2551.927859
622.209793	2551.128836
622.557176	2551.796789
622.904506	2547.899977
623.251783	2545.563402
623.599007	2545.855789
623.946179	2544.479554
624.293297	2545.712116
624.640363	2549.505584
624.987376	2549.114895
625.334336	2548.731767
625.681243	2548.817467
626.028097	2547.025337
626.374899	2548.522559
626.721647	2547.562220
627.068343	2550.584391
627.414987	2550.644885
627.761577	2545.495347
628.108115	2549.371994
628.454600	2547.166489
628.801032	2549.155224
629.147412	2546.526262
629.493739	2547.794113
629.840014	2547.199257
630.186236	2546.743032
630.532405	2550.072714
630.878521	2547.894936
631.224585	2547.776469
631.570597	2547.912580
631.916556	2546.395193
632.262462	2550.496171
632.608316	2546.395192
632.954117	2546.422919
633.299866	2547.388300
633.645562	2545.946530
633.991206	2547.862168
634.336797	2546.347302
634.682336	2547.874771
635.027823	2544.214893
635.373257	2548.580533
635.718639	2545.810419
636.063968	2546.221273
636.409245	2548.383928
636.754470	2546.687579
637.099642	2545.437373
637.444762	2544.401416
637.789829	2547.945347
638.134845	2543.373021
638.479808	2548.424257
638.824719	2546.054915
639.169577	2545.709596
639.514383	2546.359904
639.859137	2543.118443
640.203839	2545.969215
640.548489	2546.057435
640.893086	2542.271529
641.237632	2540.867567
641.582125	2542.347146
641.926566	2538.500746
642.270955	2547.640358
642.615292	2543.128525
642.959576	2545.530635
643.303809	2543.743546
643.647990	2544.764379
643.992118	2544.305634
644.336195	2544.708927
644.680219	2541.303627
645.024192	2544.351005
645.368112	2544.247661
645.711981	2544.882846
646.055797	2546.201108
646.399562	2541.714481
646.743274	2546.138094
647.086935	2545.810419
647.430544	2545.366797
647.774101	2543.486447
648.117606	2541.875798
648.461059	2542.944523
648.804460	2546.831252
649.147810	2544.895449
649.491108	2543.584749
649.834354	2546.702703
650.177548	2543.806560
650.520690	2544.696324
650.863781	2546.150697
651.206820	2547.872251
651.549807	2545.132383
651.892742	2545.074410
652.235626	2543.793957
652.578458	2545.702034
652.921238	2544.071221
653.263967	2545.182795
653.606644	2544.053577
653.949269	2544.282949
654.291843	2545.460058
654.634365	2542.916796
654.976836	2546.944678
655.319255	2544.845038
655.661622	2542.967208
656.003938	2543.793957
656.346203	2544.635830
656.688416	2542.581560
657.030577	2540.837320
657.372687	2544.182126
657.714746	2544.572815
658.056753	2542.074924
658.398708	2538.072247
658.740612	2545.104657
659.082465	2539.413194
659.424266	2539.776158
659.766016	2538.180632
660.107715	2545.092054
660.449362	2543.438556
660.790958	2544.151879
661.132503	2540.640715
661.473996	2544.582898
661.815438	2543.236910
662.156829	2544.504760
662.498168	2542.692465
662.839456	2542.127856
663.180693	2543.650284
663.521879	2544.603062
663.863013	2545.699513
664.204097	2542.826056
664.545129	2543.804039
664.886110	2543.483926
665.227040	2545.162630
665.567918	2545.865871
665.908746	2541.860675
666.249522	2544.968546
666.590248	2543.544420
666.930922	2542.798329
667.271545	2542.926879
667.612118	2544.973587
667.952639	2543.451159
668.293109	2543.738504
668.633528	2544.587939
668.973896	2544.502239
669.314213	2541.575849
669.654480	2544.968546
669.994695	2544.850079
670.334859	2544.043494
670.674973	2543.153731
671.015035	2540.383617
671.355047	2544.005686
671.695008	2544.766900
672.034918	2543.310006
672.374777	2541.520397
672.714585	2542.644574
673.054342	2543.705737
673.394049	2545.087013
673.733705	2546.375028
674.073310	2542.064841
674.412864	2544.814791
674.752368	2542.082485
675.091820	2542.921837
675.431223	2541.722043
675.770574	2541.487629
676.109875	2538.344470
676.449125	2540.401261
676.788324	2539.017464
677.127473	2541.772454
677.466571	2538.861188
677.805619	2539.755993
678.144616	2541.749769
678.483562	2543.751107
678.822458	2545.754966
679.161303	2541.482588
679.500098	2544.010727
679.838842	2543.332692
680.177535	2543.327650
680.516179	2541.217928
680.854771	2542.679862
681.193314	2542.657177
681.531805	2539.171219
681.870247	2543.161292
682.208638	2542.967208
682.546978	2544.875285
682.885268	2543.925027
683.223508	2544.739173
683.561697	2543.272198
683.899836	2545.197918
684.237925	2542.556354
684.575963	2543.035263
684.913951	2541.913607
685.251889	2545.896118
685.589776	2542.982331
685.927614	2543.821683
686.265401	2541.396888
686.603137	2543.791437
686.940824	2542.281611
687.278460	2543.567105
687.616046	2539.551826
687.953582	2544.971067
688.291068	2544.897970
688.628504	2543.599873
688.965889	2542.470654
689.303224	2541.651467
689.640510	2545.235727
689.977745	2544.897970
690.314930	2541.076775
690.652065	2542.614327
690.989150	2541.901004
691.326185	2542.266488
691.663170	2540.534851
692.000105	2539.309851
692.336990	2541.822866
692.673825	2540.633154
693.010610	2540.749100
693.347345	2537.668955
693.684030	2537.996630
694.020665	2537.739531
694.357251	2536.191897
694.693786	2539.367824
695.030272	2538.346990
695.366707	2542.634492
695.703093	2539.738349
696.039429	2544.577857
696.375716	2538.326826
696.711952	2538.382278
697.048139	2538.026877
697.384276	2541.767413
697.720363	2539.481250
698.056400	2541.608617
698.392388	2543.526776
698.728326	2540.902855
699.064214	2541.878319
699.400053	2539.642567
699.735842	2538.210879
700.071581	2539.105684
700.407270	2538.178112
700.742910	2539.072917
701.078501	2539.380427
701.414042	2541.028884
701.749533	2542.778165
702.084974	2541.679193
702.420366	2538.223482
702.755709	2540.560057
703.091002	2540.517207
703.426246	2539.970242
703.761440	2542.780685
704.096584	2539.435880
704.431679	2539.801363
704.766725	2541.379244
705.101721	2538.891435
705.436668	2540.189532
705.771565	2537.696682
706.106413	2540.670962
706.441212	2538.989737
706.775961	2540.008051
707.110661	2538.599048
707.445311	2538.336908
707.779913	2540.683565
708.114465	2540.292876
708.448967	2541.298586
708.783421	2539.327495
709.117825	2541.351518
709.452180	2542.702547
709.786485	2540.910417
710.120742	2539.975283
710.454949	2541.348998
710.789107	2537.931095
711.123216	2536.927906
711.457275	2539.876981
711.791286	2538.112577
712.125247	2536.839685
712.459159	2539.551826
712.793023	2542.546272
713.126837	2542.382434
713.460602	2541.250695
713.794318	2541.013761
714.127985	2541.157434
714.461602	2536.738862
714.795171	2539.448483
715.128691	2537.888245
715.462162	2539.082999
715.795584	2539.871939
716.128957	2540.529810
716.462281	2534.717360
716.795556	2537.578214
717.128782	2539.304810
717.461960	2537.560570
717.795088	2538.374717
718.128167	2537.716846
718.461198	2537.260622
718.794180	2538.765406
719.127113	2537.656352
719.459997	2537.416898
719.792833	2539.423277
720.125619	2539.650129
720.458357	2540.169367
720.791046	2540.549975
721.123686	2539.254398
721.456278	2538.321785
721.788821	2538.145344
722.121315	2539.887063
722.453761	2538.077289
722.786158	2537.580735
723.118506	2536.829603
723.450805	2537.041332
723.783056	2537.575694
724.115259	2539.829090
724.447412	2537.101825
724.779518	2538.437731
725.111574	2537.651311
725.443582	2537.913451
725.775542	2537.502597
726.107453	2543.320089
726.439315	2540.252547
726.771129	2539.703061
727.102895	2537.053934
727.434612	2537.709284
727.766281	2537.701723
728.097901	2539.614841
728.429473	2534.795497
728.760996	2535.949922
729.092471	2536.305323
729.423897	2540.078627
729.755276	2538.228523
730.086606	2538.523431
730.417887	2540.270191
730.749120	2540.381096
731.080305	2537.989068
731.411442	2538.594007
731.742530	2540.580222
732.073570	2540.459234
732.404562	2540.872608
732.735506	2538.714995
733.066401	2540.436549
733.397249	2538.294058
733.728048	2538.644418
734.058798	2538.848585
734.389501	2538.825900
734.720156	2537.437062
735.050762	2536.708615
735.381320	2537.696682
735.711831	2538.921682
736.042293	2539.619882
736.372707	2539.514018
736.703073	2537.913451
737.033391	2533.467153
737.363661	2538.972093
737.693883	2537.172402
738.024056	2539.284645
738.354182	2538.437731
738.684260	2538.268853
739.014290	2533.449509
739.344272	2540.126518
739.674207	2535.891948
740.004093	2539.445962
740.333931	2538.132741
740.663722	2538.127700
740.993464	2537.500077
741.323159	2539.980324
741.652806	2537.810107
741.982405	2538.077289
742.311956	2535.939839
742.641460	2536.547298
742.970915	2540.068544
743.300323	2538.374717
743.629683	2537.109387
743.958996	2537.600900
744.288260	2538.294058
744.617477	2536.701054
744.946647	2532.640404
745.275768	2536.466640
745.604842	2533.260466
745.933869	2535.692823
746.262847	2533.252904
746.591778	2535.448327
746.920662	2537.991589
747.249498	2539.060314
747.578286	2536.585107
747.907027	2540.376055
748.235720	2537.268183
748.564365	2535.607123
748.892963	2536.295241
749.221514	2536.489325
749.550017	2534.961856
749.878473	2537.043852
750.206881	2537.706764
750.535242	2539.526620
750.863555	2536.388502
751.191821	2537.023687
751.520039	2539.698020
751.848210	2535.937319
752.176334	2537.308513
752.504411	2537.593338
752.832440	2535.506300
753.160421	2537.926054
753.488356	2537.618544
753.816243	2535.861702
754.144082	2536.506969
754.471875	2536.804397
754.799620	2536.827083
755.127318	2535.488656
755.454969	2534.785415
755.782572	2537.409336
756.110129	2537.033770
756.437638	2536.529654
756.765100	2535.014788
757.092515	2536.948070
757.419882	2537.149716
757.747203	2537.699202
758.074477	2534.303985
758.401703	2536.474202
758.728882	2535.534027
759.056014	2537.139634
759.383099	2536.665766
759.710138	2538.455375
760.037129	2537.426980
760.364073	2539.241795
760.690970	2537.500077
761.017820	2537.371527
761.344623	2534.573687
761.671379	2539.982845
761.998088	2532.582431
762.324751	2538.820859
762.651366	2534.135106
762.977935	2538.984696
763.304456	2535.702905
763.630931	2540.227341
763.957359	2539.662732
764.283740	2539.939995
764.610074	2538.866229
764.936362	2540.663401
765.262602	2538.682227
765.588796	2536.587628
765.914943	2534.009077
766.241044	2537.810107
766.567097	2536.123842
766.893104	2535.597041
767.219064	2533.799870
767.544978	2536.254912
767.870845	2537.749614
768.196665	2535.896990
768.522438	2535.715508
768.848165	2537.946219
769.173846	2536.028060
769.499479	2536.418749
769.825066	2534.974458
770.150607	2534.263656
770.476101	2534.422452
770.801548	2540.421425
771.126949	2534.321629
771.452303	2536.121321
771.777611	2535.957483
772.102872	2537.159799
772.428087	2537.774819
772.753256	2536.950591
773.078378	2534.747607
773.403453	2533.169725
773.728482	2532.605116
774.053465	2534.379602
774.378401	2534.084695
774.703291	2535.781043
775.028135	2535.700385
775.352932	2532.181659
775.677683	2535.155940
776.002388	2534.964376
776.327046	2532.010260
776.651658	2535.148378
776.976224	2537.124511
777.300743	2533.935981
777.625216	2534.122503
777.949643	2536.549819
778.274024	2534.709798
778.598359	2529.620753
778.922647	2528.983047
779.246889	2529.686288
779.571086	2532.050589
779.895236	2533.189890
780.219339	2533.177287
780.543397	2535.087884
780.867409	2533.270548
781.191374	2535.342463
781.515294	2537.653832
781.839167	2532.796680
782.162995	2534.757689
782.486776	2534.472864
782.810511	2534.490508
783.134201	2535.034952
783.457844	2534.883718
783.781441	2536.443955
784.104993	2534.684592
784.428498	2535.614685
784.751958	2533.973789
785.075372	2532.625281
785.398739	2535.788605
785.722061	2535.967566
786.045337	2532.872297
786.368568	2533.918337
786.691752	2532.307688
787.014891	2533.968748
787.337983	2533.162164
787.661030	2535.148378
787.984031	2533.935981
788.306987	2534.382123
788.629897	2535.841537
788.952760	2534.777853
789.275579	2533.381454
789.598351	2534.762730
789.921078	2535.332380
790.243759	2532.221988
790.566395	2530.757533
790.888984	2532.370702
791.211529	2534.614016
791.534027	2532.756351
791.856480	2535.342463
792.178888	2532.562266
792.501249	2532.340456
792.823566	2534.684592
793.145836	2532.650487
793.468062	2532.655528
793.790241	2532.882380
794.112375	2534.462781
794.434464	2532.726104
794.756507	2533.817514
795.078505	2532.935312
795.400457	2532.877338
795.722364	2529.068747
796.044226	2533.270548
796.366042	2529.300640
796.687812	2530.760054
797.009538	2533.678882
797.331218	2534.198121
797.652852	2533.570497
797.974442	2533.378933
798.295986	2534.971938
798.617484	2533.081505
798.938938	2534.009077
799.260346	2534.445137
799.581709	2532.290044
799.903026	2534.190559
800.224299	2533.762061
800.545526	2533.474715
800.866708	2533.182328
801.187845	2534.049407
801.508936	2531.264169
801.829983	2534.361958
802.150984	2531.889272
802.471940	2534.309026
802.792851	2533.694005
803.113717	2536.459078
803.434538	2534.810621
803.755314	2537.089223
804.076045	2533.084026
804.396731	2533.318439
804.717372	2533.399098
805.037967	2534.750127
805.358518	2531.916999
805.679024	2536.280117
805.999485	2532.746268
806.319901	2536.005374
806.640272	2532.186700
806.960598	2534.062010
807.280879	2530.984385
807.601115	2533.053779
807.921306	2533.230219
808.241453	2534.747607
808.561554	2534.366999
808.881611	2532.191742
809.201623	2534.457740
809.521590	2533.189890
809.841513	2530.747451
810.161390	2531.644776
810.481223	2530.268541
810.801011	2532.325332
811.120755	2531.624612
811.440453	2536.960673
811.760107	2533.467153
812.079716	2531.543953
812.399281	2530.795342
812.718801	2530.843233
813.038276	2527.400125
813.357707	2533.084026
813.677093	2532.090918
813.996434	2533.830117
814.315731	2531.879190
814.634983	2532.897503
814.954191	2531.581762
815.273354	2533.298275
815.592473	2532.471526
815.911547	2530.840712
816.230577	2534.941691
816.549562	2534.185518
816.868502	2534.447658
817.187399	2535.181146
817.506250	2535.622247
817.825058	2532.020342
818.143821	2534.238450
818.462539	2533.252904
818.781213	2533.575538
819.099843	2532.171577
819.418429	2533.910775
819.736970	2534.951773
820.055466	2534.646783
820.373919	2534.823224
820.692327	2538.888914
821.010691	2537.905889
821.329011	2542.092568
821.647286	2552.129505
821.965517	2554.463559
822.283704	2558.589744
822.601847	2560.586041
822.919945	2556.792572
823.237999	2553.783003
823.556010	2547.799154
823.873976	2544.771941
824.191897	2542.468134
824.509775	2544.255223
824.827609	2537.099305
825.145398	2535.967566
825.463144	2537.661393
825.780845	2539.771116
826.098502	2539.531662
826.416116	2539.201466
826.733685	2542.223638
827.051210	2544.103988
827.368692	2543.055428
827.686129	2538.462937
828.003522	2538.914120
828.320872	2532.358100
828.638177	2532.048069
828.955439	2531.790970
829.272656	2532.446320
829.589830	2529.396422
829.906960	2535.992772
830.224046	2532.965559
830.541088	2534.709798
830.858086	2532.461443
831.175041	2534.906403
831.491952	2533.961187
831.808819	2533.971269
832.125642	2534.674510
832.442421	2533.149561
832.759157	2531.763243
833.075849	2538.851106
833.392497	2538.601569
833.709101	2535.949922
834.025662	2538.437731
834.342179	2536.746424
834.658653	2537.227854
834.975083	2535.017308
835.291469	2540.746580
835.607811	2535.294572
835.924110	2534.162833
836.240366	2532.537061
836.556578	2532.146371
836.872746	2534.674510
837.188871	2533.003367
837.504952	2532.922709
837.820990	2531.720394
838.136984	2531.949766
838.452935	2529.260311
838.768842	2529.920702
839.084706	2531.944725
839.400526	2535.806249
839.716303	2532.433717
840.032037	2538.122659
840.347727	2534.361958
840.663373	2534.936650
840.978977	2533.744417
841.294537	2532.171577
841.610054	2532.073274
841.925527	2534.281300
842.240957	2531.382636
842.556344	2531.261649
842.871687	2532.874818
843.186987	2531.851464
843.502244	2530.475229
843.817458	2531.649817
844.132629	2530.676875
844.447756	2531.591844
844.762840	2524.393077
845.077881	2528.940197
845.392879	2528.489014
845.707833	2528.138654
846.022745	2525.497089
846.337613	2530.409694
846.652438	2530.656710
846.967221	2533.681403
847.281960	2531.266690
847.596656	2535.279448
847.911309	2530.545805
848.225919	2532.794159
848.540485	2529.424148
848.855009	2530.399611
849.169490	2530.288706
849.483928	2531.914478
849.798323	2532.353058
850.112675	2528.698222
850.426984	2530.291227
850.741251	2530.422297
851.055474	2530.603778
851.369654	2529.835002
851.683792	2530.268541
851.997887	2531.488501
852.311938	2531.554036
852.625947	2532.559746
852.939914	2529.177132
853.253837	2536.441434
853.567718	2531.135620
853.881555	2531.715352
854.195350	2531.420445
854.509103	2531.763243
854.822812	2528.365506
855.136479	2535.090405
855.450103	2529.542615
855.763685	2533.205013
856.077224	2531.904396
856.390720	2531.420445
856.704173	2531.806093
857.017584	2532.249715
857.330953	2527.937008
857.644278	2530.069416
857.957561	2532.272400
858.270802	2530.616381
858.584000	2532.647966
858.897155	2530.465146
859.210268	2528.496576
859.523339	2532.794159
859.836367	2529.663603
860.149352	2531.554036
860.462295	2531.745599
860.775195	2527.455578
861.088054	2528.073119
861.400869	2525.751668
861.713642	2527.934487
862.026373	2529.913140
862.339062	2530.540764
862.651708	2531.667462
862.964312	2528.410876
863.276873	2529.613191
863.589392	2530.611340
863.901869	2530.117307
864.214303	2528.935156
864.526696	2532.123686
864.839045	2531.251566
865.151353	2531.801052
865.463619	2532.335414
865.775842	2532.204344
866.088023	2530.626463
866.400162	2531.496062
866.712258	2533.305837
867.024313	2530.334076
867.336325	2528.678057
867.648296	2530.351720
867.960224	2532.844571
868.272110	2529.731658
868.583954	2530.946577
868.895755	2528.829292
869.207515	2529.585465
869.519233	2535.965045
869.830909	2531.717873
870.142542	2528.723428
870.454134	2529.759385
870.765684	2530.823068
871.077191	2531.070085
871.388657	2532.973120
871.700081	2530.628984
872.011463	2533.172246
872.322803	2530.870959
872.634101	2532.176618
872.945357	2528.683098
873.256571	2532.300126
873.567744	2530.278624
873.878874	2531.732997
874.189963	2532.947915
874.501010	2533.759540
874.812015	2533.174767
875.122979	2529.953469
875.433900	2529.434230
875.744780	2531.150743
876.055618	2533.063861
876.366415	2531.241484
876.677169	2531.314581
876.987882	2527.916843
877.298554	2527.715197
877.609183	2526.240659
877.919771	2527.626977
878.230317	2528.589837
878.540822	2531.543953
878.851285	2534.067051
879.161707	2530.951618
879.472087	2532.625281
879.782425	2532.088398
880.092722	2535.476053
880.402977	2535.264325
880.713191	2541.291024
881.023363	2544.121632
881.333494	2545.865871
881.643583	2545.858310
881.953631	2547.632796
882.263637	2544.240099
882.573602	2542.775644
882.883526	2540.555016
883.193408	2539.947557
883.503248	2537.195087
883.813048	2536.396064
884.122806	2536.822041
884.432522	2535.193749
884.742197	2534.528316
885.051831	2533.696526
885.361424	2533.164684
885.670975	2532.612678
885.980485	2533.333563
886.289954	2531.856505
886.599382	2531.060003
886.908768	2532.854653
887.218113	2532.673172
887.527417	2531.165867
887.836680	2531.838861
888.145901	2531.238963
888.455082	2529.963552
888.764221	2530.384488
889.073319	2530.450023
889.382376	2531.659900
889.691392	2528.395753
890.000366	2532.012781
890.309300	2533.441948
890.618193	2527.942049
890.927044	2531.501103
891.235855	2532.660569
891.544625	2530.026566
891.853353	2530.407173
892.162041	2530.001360
892.470687	2533.804911
892.779293	2531.334745
893.087858	2527.173273
893.396381	2527.916843
893.704864	2530.659231
894.013306	2530.079498
894.321707	2533.981351
894.630068	2532.829448
894.938387	2535.783564
895.246665	2534.417411
895.554903	2532.456402
895.863100	2534.004036
896.171256	2533.540250
896.479371	2530.132430
896.787446	2535.160981
897.095480	2531.508665
897.403473	2530.402132
897.711425	2530.258459
898.019336	2530.654190
898.327207	2531.458254
898.635038	2530.507996
898.942827	2530.006401
899.250576	2528.554549
899.558284	2532.101001
899.865952	2529.872811
900.173579	2531.405322
900.481165	2530.412214
900.788711	2530.303829
901.096216	2530.669313
901.403681	2530.031607
901.711105	2531.538912
902.018489	2529.083870
902.325832	2533.446989
902.633135	2531.672503
902.940397	2530.044210
903.247619	2529.993798
903.554800	2532.532019
903.861941	2537.096784
904.169041	2537.689120
904.476101	2536.191897
904.783121	2536.953111
905.090100	2534.412370
905.397039	2535.153419
905.703938	2533.172246
906.010796	2535.534027
906.317614	2530.719725
906.624391	2532.713501
906.931129	2530.485311
907.237826	2528.788963
907.544483	2530.908768
907.851099	2530.351720
908.157675	2533.041176
908.464211	2529.630835
908.770707	2524.803931
909.077163	2528.715866
909.383578	2524.929959
909.689954	2526.830474
909.996289	2523.924249
910.302584	2531.574200
910.608839	2531.037317
910.915054	2530.550846
911.221229	2527.518592
911.527363	2529.371216
911.833458	2531.294416
912.139513	2531.027235
912.445527	2529.651000
912.751502	2528.544467
913.057436	2529.804755
913.363331	2530.649148
913.669186	2530.933974
913.975000	2530.991947
914.280775	2528.199148
914.586510	2531.493542
914.892205	2531.967410
915.197859	2533.797349
915.503475	2532.466484
915.809050	2535.947401
916.114585	2536.126362
916.420081	2535.982689
916.725536	2532.562266
917.030952	2536.214582
917.336328	2533.116793
917.641665	2533.046217
917.946961	2534.649304
918.252218	2530.586134
918.557435	2532.602596
918.862612	2529.761905
919.167750	2530.535722
919.472848	2532.274921
919.777906	2530.646628
920.082925	2530.024045
920.387904	2532.428676
920.692843	2527.137985
920.997743	2530.301309
921.302603	2528.980527
921.607423	2528.398273
921.912204	2527.364837
922.216946	2530.003881
922.521647	2531.901875
922.826310	2530.195445
923.130932	2530.984385
923.435516	2528.196627
923.740059	2531.765764
924.044564	2527.511030
924.349028	2530.664272
924.653454	2524.138498
924.957840	2524.609846
925.262186	2524.972809
925.566493	2527.082532
925.870761	2524.690505
926.174989	2527.059847
926.479178	2531.806093
926.783328	2529.729138
927.087438	2528.892306
927.391509	2529.499765
927.695541	2528.078160
927.999533	2526.969106
928.303486	2527.342152
928.607400	2530.303829
928.911275	2527.417769
929.215110	2529.030938
929.518906	2527.969775
929.822663	2529.623274
930.126381	2528.420958
930.430060	2528.362985
930.733699	2529.797193
931.037299	2529.406504
931.340861	2527.246370
931.644383	2526.341483
931.947866	2530.134951
932.251309	2529.333407
932.554714	2526.858201
932.858080	2531.022194
933.161407	2525.623118
933.464694	2529.063706
933.767943	2527.027079
934.071153	2528.993129
934.374323	2527.712676
934.677455	2529.971113
934.980548	2527.548839
935.283602	2529.648479
935.586617	2529.575383
935.889593	2528.516740
936.192530	2527.770650
936.495428	2529.129241
936.798287	2530.356762
937.101108	2528.673016
937.403890	2528.937677
937.706632	2529.436751
938.009336	2526.870804
938.312002	2529.517409
938.614628	2529.199817
938.917216	2528.289888
939.219765	2526.033972
939.522275	2528.647810
939.824747	2528.360465
940.127179	2525.857532
940.429573	2523.609177
940.731929	2526.084384
941.034246	2524.322500
941.336524	2526.016328
941.638763	2528.075639
941.940964	2529.625794
942.243126	2528.907430
942.545250	2528.935156
942.847335	2528.610002
943.149381	2527.989940
943.451389	2527.301822
943.753359	2531.919519
944.055290	2528.501617
944.357182	2529.497245
944.659036	2528.005063
944.960851	2529.585465
945.262628	2530.654190
945.564367	2527.112779
945.866067	2525.325690
946.167729	2527.178314
946.469352	2529.968593
946.770937	2527.029600
947.072484	2530.102183
947.373992	2527.349713
947.675462	2524.854342
947.976893	2526.275948
948.278286	2527.710156
948.579641	2527.700073
948.880958	2524.400638
949.182236	2525.076153
949.483476	2528.065557
949.784678	2527.110258
950.085841	2526.051616
950.386967	2526.911133
950.688054	2529.204858
950.989103	2526.870804
951.290114	2528.761236
951.591087	2526.303674
951.892021	2525.292923
952.192917	2528.819210
952.493776	2528.950280
952.794596	2526.573376
953.095378	2529.976154
953.396122	2527.437933
953.696828	2527.347193
953.997496	2527.062367
954.298126	2525.328211
954.598718	2525.708818
954.899272	2527.107738
955.199788	2529.698891
955.500266	2527.710156
955.800706	2524.234280
956.101108	2523.352078
956.401472	2525.484486
956.701798	2522.227901
957.002087	2526.127233
957.302337	2525.192099
957.602550	2527.798376
957.902724	2527.080012
958.202861	2528.579755
958.502960	2526.807789
958.803022	2528.751154
959.103045	2527.478263
959.403031	2527.644621
959.702979	2526.215454
960.002889	2529.126720
960.302762	2528.741072
960.602596	2527.740403
960.902393	2526.648993
961.202153	2525.335772
961.501875	2527.483304
961.801559	2527.200999
962.101205	2528.168901
962.400814	2527.906761
962.700385	2527.574045
962.999918	2525.550021
963.299414	2529.338448
963.598873	2525.842408
963.898293	2526.807789
964.197677	2527.674868
964.497022	2527.140505
964.796331	2524.942562
965.095601	2524.123375
965.394835	2529.890455
965.694030	2528.211751
965.993189	2526.233098
966.292309	2526.928777
966.591393	2526.953983
966.890439	2526.245701
967.189447	2527.420289
967.488419	2526.538088
967.787353	2530.016484
968.086249	2528.078160
968.385108	2526.865763
968.683930	2525.749147
968.982714	2528.189065
969.281462	2528.325177
969.580172	2529.572862
969.878844	2525.991122
970.177480	2527.253931
970.476078	2525.998684
970.774639	2526.843077
971.073162	2525.812161
971.371649	2525.245032
971.670098	2523.059691
971.968510	2525.030783
972.266885	2523.493231
972.565223	2524.198992
972.863524	2527.783253
973.161788	2527.364837
973.460014	2525.308046
973.758204	2527.626977
974.056356	2525.116482
974.354471	2529.661082
974.652550	2526.316277
974.950591	2528.042872
975.248595	2526.643952
975.546563	2525.587830
975.844493	2527.979858
976.142386	2527.032121
976.440243	2527.538757
976.738062	2525.081194
977.035845	2527.931967
977.333590	2526.535567
977.631299	2528.052954
977.928971	2526.694363
978.226606	2526.104548
978.524204	2528.173942
978.821765	2524.808972
979.119290	2526.369209
979.416777	2526.248221
979.714228	2527.508510
980.011642	2524.226718
980.309020	2528.506658
980.606360	2528.632687
980.903664	2526.286030
981.200931	2526.666637
981.498162	2528.373068
981.795356	2523.599095
982.092513	2526.351565
982.389633	2524.249404
982.686717	2526.827954
982.983764	2529.046062
983.280775	2525.628159
983.577749	2528.337779
983.874686	2529.393901
984.171587	2526.472553
984.468451	2526.316277
984.765279	2528.100845
985.062070	2525.098838
985.358824	2526.404497
985.655543	2527.511030
985.952224	2527.498427
986.248869	2527.682429
986.545478	2521.116327
986.842050	2524.221677
987.138586	2521.570030
987.435086	2522.807634
987.731549	2521.202026
988.027975	2525.217305
988.324366	2525.023221
988.620719	2528.095804
988.917037	2524.483817
989.213318	2528.489014
989.509563	2525.151770
989.805772	2526.482635
990.101944	2525.035824
990.398080	2524.640093
990.694180	2525.015659
990.990244	2525.829805
991.286271	2525.933149
991.582262	2526.507841
991.878217	2524.657737
992.174136	2525.204702
992.470019	2526.661596
992.765865	2525.665968
993.061676	2527.586647
993.357450	2525.920546
993.653188	2525.116482
993.948890	2524.506502
994.244556	2521.328055
994.540186	2526.739734
994.835780	2527.702594
995.131337	2527.516071
995.426859	2525.408869
995.722345	2528.655372
996.017795	2526.439785
996.313208	2524.148581
996.608586	2526.404497
996.903928	2525.171935
997.199234	2523.183200
997.494504	2526.154960
997.789738	2524.536749
998.084936	2527.448016
998.380099	2529.013294
998.675225	2526.875845
998.970316	2526.775022
999.265371	2528.068078
999.560390	2525.499610
999.855373	2523.833508
1000.150320	2525.683612
1000.445232	2527.266534
1000.740108	2525.693694
1001.034948	2524.851822
1001.329752	2526.898530
1001.624521	2526.084384
1001.919254	2522.966430
1002.213951	2522.497603
1002.508613	2522.323683
1002.803239	2524.352747
1003.097829	2521.219670
1003.392384	2527.379960
1003.686903	2526.664116
1003.981386	2526.154960
1004.275834	2524.246883
1004.570246	2525.371060
1004.864623	2524.902233
1005.158964	2527.069929
1005.453270	2526.714528
1005.747540	2526.391894
1006.041775	2526.898530
1006.335974	2526.064219
1006.630138	2524.665299
1006.924266	2526.301153
1007.218359	2527.861390
1007.512416	2525.164373
1007.806438	2525.860052
1008.100425	2526.976668
1008.394376	2524.302336
1008.688292	2525.013138
1008.982172	2524.090607
1009.276017	2526.510361
1009.569827	2525.827285
1009.863602	2527.044723
1010.157341	2522.938704
1010.451045	2527.644621
1010.744714	2524.778725
1011.038347	2525.192099
1011.331945	2523.785617
1011.625508	2528.047913
1011.919036	2524.980371
1012.212528	2525.015659
1012.505986	2524.166225
1012.799408	2528.380629
1013.092795	2524.566996
1013.386147	2526.719569
1013.679464	2526.109589
1013.972745	2523.001718
1014.265992	2524.798889
1014.559204	2523.659589
1014.852380	2524.146060
1015.145521	2526.424662
1015.438628	2523.957017
1015.731699	2524.085566
1016.024736	2523.856194
1016.317737	2525.295443
1016.610703	2524.062881
1016.903635	2521.204547
1017.196531	2522.540453
1017.489393	2523.132788
1017.782219	2519.651871
1018.075011	2524.163704
1018.367768	2524.871986
1018.660490	2524.146060
1018.953177	2524.146060
1019.245829	2524.146060
