Dividing Wavelength (nm)	Counts (n)	Blue Motor Position (mm): 0.000000	Red Motor Position (mm): 11.400000	
326.493990	2126.734258
326.888308	2126.734258
327.282561	2126.734258
327.676750	2094.914495
328.070874	2095.332911
328.464933	2096.439444
328.858929	2102.070413
329.252859	2114.504419
329.646726	2123.762498
330.040528	2136.201545
330.434265	2155.554535
330.827938	2175.439366
331.221547	2191.858404
331.615091	2207.226362
332.008571	2227.428786
332.401986	2250.005593
332.795338	2268.516710
333.188625	2286.329627
333.581847	2303.903090
333.975006	2322.121820
334.368100	2340.083451
334.761129	2359.910309
335.154095	2377.745911
335.546996	2393.101266
335.939833	2406.934192
336.332606	2421.094793
336.725315	2434.496701
337.117960	2443.656477
337.510540	2452.241562
337.903056	2463.349745
338.295508	2471.783595
338.687896	2477.407002
339.080220	2491.993581
339.472480	2497.589262
339.864676	2499.779643
340.256807	2506.224758
340.648875	2505.861795
341.040879	2506.302896
341.432818	2512.017044
341.824694	2510.741632
342.216506	2514.227590
342.608253	2513.567199
342.999937	2512.380007
343.391557	2513.272291
343.783113	2510.812208
344.174605	2511.008813
344.566033	2507.021260
344.957397	2507.590911
345.348697	2505.708040
345.739934	2503.217710
346.131106	2500.011536
346.522215	2500.959273
346.913260	2498.892400
347.304241	2498.027842
347.695159	2492.190186
348.086012	2493.087511
348.476802	2491.494507
348.867528	2491.771770
349.258191	2487.002838
349.648789	2488.111892
350.039324	2486.085348
350.429796	2484.386480
350.820203	2484.749443
351.210548	2485.447643
351.600828	2483.126191
351.991045	2483.461428
352.381198	2481.858341
352.771288	2479.577219
353.161314	2481.361787
353.551276	2479.980511
353.941175	2480.819863
354.331010	2479.236941
354.720782	2479.705768
355.110490	2479.466313
355.500135	2478.755511
355.889717	2479.640233
356.279235	2481.137456
356.668689	2484.000831
357.058080	2483.267343
357.447408	2477.868268
357.836672	2477.233082
358.225873	2482.238948
358.615010	2478.402630
359.004084	2483.348002
359.393095	2484.638537
359.782043	2486.934783
360.170927	2484.693990
360.559748	2486.702890
360.948505	2486.256748
361.337199	2487.103662
361.725830	2486.082828
362.114398	2489.389825
362.502903	2489.162973
362.891344	2491.234887
363.279722	2490.745895
363.668037	2491.764208
364.056289	2491.809579
364.444478	2494.201606
364.832603	2491.426451
365.220665	2491.250011
365.608665	2494.965341
365.996601	2492.394352
366.384474	2492.510299
366.772284	2496.399549
367.160031	2500.003974
367.547715	2500.775271
367.935336	2501.702843
368.322893	2505.168636
368.710388	2505.040087
369.097820	2514.333454
369.485189	2516.329751
369.872495	2523.067253
370.259738	2527.740403
370.646918	2537.936136
371.034035	2541.207845
371.421090	2550.990204
371.808081	2563.759447
372.195010	2575.535582
372.581875	2585.259968
372.968678	2599.992740
373.355418	2607.158740
373.742096	2625.937038
374.128710	2640.019502
374.515262	2656.829229
374.901751	2672.527382
375.288177	2685.722602
375.674540	2705.993082
376.060841	2722.417161
376.447079	2743.869792
376.833254	2763.058944
377.219367	2775.815583
377.605417	2815.370997
377.991404	2821.110351
378.377329	2843.225893
378.763191	2859.234077
379.148991	2900.100190
379.534727	2921.371339
379.920402	2949.962243
380.306013	2965.209213
380.691563	3015.514887
381.077049	3033.171528
381.462474	3054.125084
381.847835	3086.915270
382.233134	3107.820935
382.618371	3108.083075
383.003545	3171.077333
383.388657	3178.054290
383.773706	3206.899772
384.158693	3218.254971
384.543618	3239.246336
384.928480	3265.067126
385.313280	3300.100625
385.698017	3290.993780
386.082692	3329.961899
386.467305	3326.543997
386.851856	3342.920185
387.236344	3351.429653
387.620770	3363.830892
388.005133	3374.566029
388.389435	3381.336298
388.773674	3372.463868
389.157851	3391.501785
389.541965	3384.978532
389.926018	3338.085719
390.310008	3374.737428
390.693936	3365.519678
391.077802	3374.414794
391.461606	3342.345494
391.845348	3358.300746
392.229027	3335.292920
392.612645	3311.995227
392.996200	3339.101511
393.379694	3335.325687
393.763125	3339.706450
394.146494	3291.772638
394.529801	3293.179120
394.913047	3284.031947
395.296230	3235.717528
395.679351	3226.789645
396.062410	3202.677806
396.445408	3164.012156
396.828343	3141.916779
397.211217	3116.469034
397.594028	3052.406051
397.976778	3043.911707
398.359466	3023.051412
398.742092	2997.543174
399.124656	2949.271605
399.507158	2939.363217
399.889598	2921.956113
400.271977	2902.535068
400.654294	2871.443751
401.036549	2845.915348
401.418742	2813.924186
401.800874	2807.582414
402.182944	2787.642130
402.564952	2775.440017
402.946898	2750.456059
403.328783	2729.235322
403.710606	2698.965714
404.092367	2700.226002
404.474067	2682.458455
404.855705	2664.098573
405.237282	2645.411016
405.618797	2639.482619
406.000250	2626.138685
406.381642	2623.693725
406.762972	2609.633947
407.144240	2598.119952
407.525447	2588.685432
407.906593	2582.497416
408.287677	2573.161199
408.668700	2563.386402
409.049661	2558.158725
409.430560	2555.360885
409.811399	2548.825029
410.192176	2546.271684
410.572891	2542.014430
410.953545	2540.398740
411.334138	2537.464788
411.714669	2536.638039
412.095139	2533.678882
412.475547	2531.783408
412.855894	2527.488345
413.236180	2528.967924
413.616405	2528.549508
413.996568	2527.569003
414.376670	2527.301822
414.756711	2525.406348
415.136691	2528.355423
415.516609	2525.406348
415.896466	2527.203520
416.276262	2526.601102
416.655997	2522.069105
417.035670	2522.550535
417.415283	2522.084228
417.794834	2519.004083
418.174324	2522.590864
418.553753	2522.769825
418.933121	2526.885927
419.312428	2523.019362
419.691674	2521.287726
420.070859	2522.938704
420.449983	2525.250073
420.829045	2524.635052
421.208047	2523.319311
421.586988	2526.669158
421.965867	2523.422654
422.344686	2524.503982
422.723444	2528.015146
423.102141	2525.923067
423.480777	2525.204702
423.859352	2524.146060
424.237866	2524.798889
424.616319	2524.413241
424.994712	2523.107582
425.373044	2524.040196
425.751314	2524.690505
426.129524	2525.572707
426.507673	2526.646472
426.885762	2525.376102
427.263789	2529.608150
427.641756	2524.362830
428.019662	2526.036493
428.397508	2526.611184
428.775292	2525.166894
429.153016	2527.644621
429.530679	2528.539426
429.908282	2525.857532
430.285824	2526.785104
430.663305	2526.303674
431.040726	2529.126720
431.418086	2525.759229
431.795385	2527.054806
432.172624	2525.242511
432.549802	2527.347193
432.926920	2527.306863
433.303977	2525.950793
433.680974	2528.599919
434.057910	2527.674868
434.434786	2525.769312
434.811601	2530.770136
435.188355	2527.170752
435.565050	2527.894158
435.941683	2526.404497
436.318257	2527.281658
436.694770	2524.536749
437.071222	2529.653521
437.447614	2526.217974
437.823946	2524.481297
438.200218	2529.817358
438.576429	2529.058664
438.952580	2528.146216
439.328670	2528.206709
439.704700	2527.022038
440.080670	2529.842564
440.456580	2529.169570
440.832429	2530.588655
441.208218	2530.533202
441.583947	2529.361134
441.959616	2530.883562
442.335224	2529.676206
442.710773	2531.017153
443.086261	2531.191073
443.461689	2534.495549
443.837057	2530.959179
444.212365	2531.057482
444.587612	2529.686288
444.962800	2531.022194
445.337927	2531.463295
445.712995	2530.623943
446.088002	2531.768285
446.462949	2533.116793
446.837837	2531.634694
447.212664	2531.924560
447.587431	2532.955476
447.962139	2533.396577
448.336786	2536.756506
448.711374	2535.201310
449.085901	2536.564943
449.460369	2532.816845
449.834776	2532.201824
450.209124	2534.679551
450.583412	2537.051414
450.957640	2533.152081
451.331808	2535.181146
451.705917	2532.327853
452.079965	2533.928419
452.453954	2532.653007
452.827883	2534.253573
453.201752	2534.815662
453.575562	2533.273069
453.949311	2533.542771
454.323001	2532.816845
454.696632	2532.615198
455.070202	2535.970086
455.443713	2533.462112
455.817164	2534.026722
456.190556	2532.632843
456.563888	2533.953625
456.937160	2533.227699
457.310373	2538.198276
457.683526	2533.449509
458.056619	2536.582587
458.429653	2535.977648
458.802628	2537.666435
459.175542	2535.203831
459.548398	2537.104346
459.921194	2536.829603
460.293930	2536.350693
460.666607	2537.311033
461.039224	2539.667773
461.411782	2538.009233
461.784280	2538.321785
462.156719	2540.847403
462.529099	2539.685417
462.901419	2536.746424
463.273680	2539.387989
463.645882	2539.143493
464.018024	2540.313040
464.390106	2539.945036
464.762130	2540.920499
465.134094	2540.234903
465.505999	2543.252033
465.877845	2543.650284
466.249631	2547.126160
466.621358	2544.010727
466.993026	2546.798485
467.364634	2549.666901
467.736184	2544.575336
468.107674	2545.712116
468.479105	2542.372352
468.850477	2541.296065
469.221790	2545.036602
469.593043	2544.129194
469.964238	2542.407640
470.335373	2539.526620
470.706449	2543.037784
471.077467	2540.945705
471.448425	2545.911242
471.819324	2544.666077
472.190164	2546.657333
472.560945	2542.659697
472.931667	2542.256405
473.302330	2540.527289
473.672934	2544.991231
474.043479	2542.543751
474.413965	2541.311189
474.784393	2538.551157
475.154761	2540.875129
475.525070	2539.698020
475.895321	2538.725077
476.265513	2539.952598
476.635645	2543.730943
477.005719	2542.493339
477.375734	2540.580222
477.745691	2542.478216
478.115588	2543.788916
478.485427	2543.085675
478.855207	2544.711447
479.224928	2545.913762
479.594591	2545.538196
479.964194	2547.441232
480.333739	2546.498536
480.703226	2547.743701
481.072653	2548.545245
481.442022	2547.930224
481.811333	2549.979453
482.180584	2548.086500
482.549777	2546.057435
482.918912	2544.988711
483.287988	2545.838145
483.657005	2546.160779
484.025964	2543.441076
484.394864	2543.821683
484.763706	2546.014585
485.132489	2546.596839
485.501213	2545.528114
485.869879	2546.092723
486.238487	2543.494008
486.607036	2544.149358
486.975527	2547.592467
487.343959	2546.072559
487.712333	2547.594987
488.080648	2546.364946
488.448905	2545.782692
488.817104	2546.243958
489.185244	2547.542055
489.553326	2549.150183
489.921350	2547.630275
490.289315	2548.262940
490.657222	2550.428116
491.025070	2551.569937
491.392861	2550.153373
491.760593	2548.038609
492.128267	2549.003990
492.495883	2548.580533
492.863440	2545.696993
493.230939	2546.957281
493.598380	2547.005172
493.965763	2542.402599
494.333088	2546.047353
494.700354	2542.584080
495.067563	2546.985007
495.434713	2540.411343
495.801805	2547.494164
496.168839	2545.724719
496.535815	2544.499719
496.902733	2546.075079
497.269593	2545.361756
497.636395	2546.271684
498.003139	2547.063145
498.369825	2547.990718
498.736453	2546.652291
499.103023	2549.011551
499.469535	2544.406457
499.835989	2547.305121
500.202385	2549.029195
500.568723	2546.821170
500.935003	2547.297559
501.301226	2548.177240
501.667390	2547.791592
502.033497	2548.578012
502.399546	2549.762683
502.765537	2546.629606
503.131470	2545.157589
503.497345	2546.236396
503.863163	2546.896787
504.228923	2547.824360
504.594625	2548.888043
504.960269	2546.188505
505.325856	2545.117260
505.691385	2546.133052
506.056856	2546.256561
506.422270	2546.979966
506.787625	2548.603218
507.152924	2547.070707
507.518164	2549.109854
507.883347	2546.380069
508.248472	2546.410316
508.613540	2546.785882
508.978550	2546.606921
509.343503	2547.204298
509.708398	2552.681511
510.073236	2548.661191
510.438016	2549.263609
510.802738	2547.090872
511.167403	2549.697148
511.532010	2548.885523
511.896561	2547.597508
512.261053	2551.262427
512.625488	2546.337219
512.989866	2544.464431
513.354186	2546.337219
513.718449	2544.015768
514.082655	2545.381921
514.446803	2547.453835
514.810894	2547.002652
515.174927	2550.846531
515.538904	2547.675646
515.902822	2546.856458
516.266684	2544.769420
516.630488	2547.098433
516.994235	2549.992056
517.357925	2548.330996
517.721558	2549.339226
518.085133	2549.293856
518.448651	2548.325954
518.812112	2549.629093
519.175516	2548.825029
519.538863	2549.866027
519.902152	2549.868547
520.265385	2550.251675
520.628560	2548.250337
520.991678	2545.739842
521.354739	2548.081458
521.717743	2548.083979
522.080690	2549.079607
522.443580	2551.511964
522.806413	2552.132026
523.169189	2549.150183
523.531908	2547.647919
523.894569	2549.755122
524.257174	2549.258568
524.619722	2549.374514
524.982213	2551.701007
525.344647	2548.436860
525.707025	2547.221942
526.069345	2551.290153
526.431608	2551.706048
526.793815	2548.038609
527.155964	2548.177240
527.518057	2552.414330
527.880093	2552.525236
528.242072	2548.852755
528.603995	2552.278219
528.965860	2550.087838
529.327669	2550.145811
529.689421	2549.397200
530.051117	2551.522046
530.412755	2546.697662
530.774337	2550.707900
531.135862	2549.624052
531.497331	2546.541386
531.858743	2545.659184
532.220098	2547.312683
532.581396	2546.687579
532.942638	2545.323947
533.303824	2551.494320
533.664953	2548.066335
534.026025	2547.504246
534.387040	2547.020296
534.747999	2549.276212
535.108902	2549.873589
535.469748	2549.843342
535.830537	2551.136398
536.191270	2552.870555
536.551947	2551.333003
536.912567	2546.727909
537.273131	2550.317210
537.633638	2545.487785
537.994089	2546.259081
538.354483	2547.637837
538.714821	2549.256047
539.075103	2547.181612
539.435328	2548.630944
539.795497	2549.782848
540.155609	2549.293856
540.515665	2550.284443
540.875665	2548.673794
541.235609	2548.134391
541.595496	2549.203115
541.955328	2551.325441
542.315102	2549.389638
542.674821	2549.860986
543.034483	2550.410472
543.394090	2548.494833
543.753640	2551.322920
544.113134	2551.597663
544.472571	2551.703527
544.831953	2550.780996
545.191278	2550.498692
545.550548	2548.809905
545.909761	2549.810574
546.268918	2549.429967
546.628019	2548.875440
546.987064	2548.570450
547.346053	2552.623538
547.704986	2549.298897
548.063863	2550.586912
548.422684	2551.010369
548.781449	2550.491130
549.140158	2550.067673
549.498811	2553.462890
549.857408	2549.503064
550.215949	2547.466438
550.574434	2545.639019
550.932864	2548.431819
551.291237	2544.484595
551.649555	2549.573640
552.007817	2550.599515
552.366022	2552.005997
552.724173	2550.937272
553.082267	2550.944834
553.440305	2550.516336
553.798288	2549.752601
554.156215	2551.181768
554.514086	2550.854093
554.871902	2549.866027
555.229661	2550.241593
555.587365	2550.425595
555.945014	2550.491130
556.302606	2551.388455
556.660143	2548.114226
557.017625	2548.394010
557.375050	2552.222766
557.732421	2549.881150
558.089735	2552.003476
558.446994	2550.319731
558.804197	2551.320400
559.161345	2552.888199
559.518437	2550.206305
559.875474	2549.866027
560.232455	2551.428785
560.589381	2551.244782
560.946251	2555.842315
561.303065	2552.076573
561.659825	2553.556152
562.016528	2552.396686
562.373177	2550.002138
562.729770	2553.926676
563.086307	2551.184289
563.442789	2552.250493
563.799216	2550.914587
564.155587	2553.533466
564.511904	2548.794782
564.868164	2550.561706
565.224370	2552.953734
565.580520	2551.496840
565.936615	2551.438867
566.292654	2550.478527
566.648638	2549.545914
567.004567	2550.851572
567.360441	2552.177396
567.716260	2550.176058
568.072023	2550.861655
568.427732	2547.935265
568.783385	2546.798485
569.138982	2544.459389
569.494525	2549.692107
569.850013	2544.933258
570.205445	2550.135729
570.560823	2546.657332
570.916145	2550.725544
571.271412	2548.394010
571.626625	2552.021120
571.981782	2551.232180
572.336884	2552.706717
572.691931	2548.419216
573.046923	2550.203784
573.401860	2549.709751
573.756743	2547.778989
574.111570	2551.832077
574.466342	2549.593805
574.821059	2550.397869
575.175722	2549.271171
575.530330	2550.299566
575.884882	2550.677653
576.239380	2547.080789
576.593823	2550.607077
576.948211	2549.755122
577.302544	2550.947354
577.656823	2551.670760
578.011047	2552.079093
578.365216	2545.974256
578.719330	2548.671273
579.073389	2550.775955
579.427394	2549.351829
579.781344	2550.160934
580.135239	2549.697148
580.489080	2549.540872
580.842866	2549.755122
581.196597	2548.961140
581.550273	2551.534649
581.903895	2547.945347
582.257463	2549.180430
582.610975	2550.498692
582.964434	2549.513146
583.317837	2551.620348
583.671186	2550.715461
584.024481	2547.650440
584.377721	2551.247303
584.730906	2549.876109
585.084037	2551.317879
585.437113	2549.739998
585.790135	2551.075904
586.143103	2550.297046
586.496016	2548.686397
586.848874	2543.995603
587.201679	2547.410985
587.554428	2544.706406
587.907124	2549.608928
588.259765	2542.705068
588.612352	2549.651778
588.964884	2548.157076
589.317362	2551.073383
589.669786	2547.804195
590.022155	2549.924000
590.374470	2547.962991
590.726731	2551.358208
591.078937	2548.136911
591.431090	2548.146993
591.783188	2547.423588
592.135232	2548.857796
592.487222	2550.281922
592.839157	2546.702703
593.191038	2547.723537
593.542866	2548.383928
593.894639	2548.719164
594.246358	2546.725388
594.598022	2546.642209
594.949633	2550.362581
595.301190	2545.795295
595.652692	2546.959802
596.004141	2548.588094
596.355535	2547.920142
596.706876	2547.163968
597.058162	2547.950388
597.409395	2549.026675
597.760573	2547.932744
598.111698	2547.179092
598.462768	2546.140614
598.813785	2549.455173
599.164748	2546.007024
599.515657	2546.445604
599.866511	2547.300080
600.217312	2546.354863
600.568060	2547.289997
600.918753	2549.069525
601.269392	2546.929555
601.619978	2549.538352
601.970510	2549.251006
602.320988	2548.210008
602.671412	2548.751932
603.021783	2547.322765
603.372100	2549.371994
603.722363	2546.695141
604.072572	2546.889226
604.422728	2547.655481
604.772830	2545.961653
605.122878	2542.599204
605.472872	2546.354863
605.822813	2543.186498
606.172701	2546.924514
606.522534	2546.982487
606.872314	2549.263609
607.222041	2547.468958
607.571714	2545.623896
607.921333	2547.037940
608.270899	2548.406613
608.620411	2548.953578
608.969870	2548.036088
609.319276	2548.903167
609.668627	2552.915925
610.017926	2552.371480
610.367171	2555.008004
610.716362	2553.498178
611.065500	2553.699824
611.414585	2551.519525
611.763616	2552.285781
612.112594	2549.903836
612.461518	2552.076573
612.810389	2551.333003
613.159207	2550.949875
613.507971	2547.635316
613.856682	2548.656150
614.205340	2550.458363
614.553945	2547.272353
614.902496	2547.778989
615.250994	2547.443753
615.599439	2548.819987
615.947830	2545.994421
616.296169	2544.933258
616.644454	2549.109854
616.992686	2548.537683
617.340864	2547.663043
617.688990	2548.298228
618.037063	2546.513660
618.385082	2546.475851
618.733048	2550.327292
619.080961	2548.782179
619.428821	2548.366284
619.776628	2547.632796
620.124382	2547.141283
620.472083	2547.854607
620.819731	2546.238917
621.167326	2546.972405
621.514868	2544.819832
621.862357	2545.916283
622.209793	2545.707075
622.557176	2548.409133
622.904506	2546.110367
623.251783	2542.243802
623.599007	2543.297403
623.946179	2545.616334
624.293297	2544.872764
624.640363	2547.070707
624.987376	2548.759494
625.334336	2546.085162
625.681243	2546.309493
626.028097	2546.717826
626.374899	2545.971736
626.721647	2545.696993
627.068343	2549.024154
627.414987	2547.514329
627.761577	2543.274718
628.108115	2545.790254
628.454600	2545.452497
628.801032	2548.578012
629.147412	2546.291849
629.493739	2546.790923
629.840014	2546.306972
630.186236	2548.404092
630.532405	2546.022147
630.878521	2548.439380
631.224585	2544.855120
631.570597	2544.542568
631.916556	2547.922662
632.262462	2547.226983
632.608316	2545.512991
632.954117	2543.496529
633.299866	2544.466951
633.645562	2546.064997
633.991206	2546.304452
634.336797	2543.032743
634.682336	2544.388813
635.027823	2543.393185
635.373257	2543.410829
635.718639	2542.513504
636.063968	2543.952753
636.409245	2545.202960
636.754470	2543.567105
637.099642	2543.683052
637.444762	2542.800850
637.789829	2546.639688
638.134845	2545.734801
638.479808	2542.092568
638.824719	2543.312527
639.169577	2541.359080
639.514383	2541.585932
639.859137	2543.551982
640.203839	2543.430994
640.548489	2543.095757
640.893086	2543.516694
641.237632	2541.419574
641.582125	2542.334543
641.926566	2536.514531
642.270955	2542.785726
642.615292	2545.603731
642.959576	2544.477033
643.303809	2544.628268
643.647990	2543.211704
643.992118	2543.930068
644.336195	2545.112219
644.680219	2541.742207
645.024192	2544.156920
645.368112	2540.638195
645.711981	2539.738349
646.055797	2541.848072
646.399562	2544.502239
646.743274	2542.662218
647.086935	2546.072559
647.430544	2543.849410
647.774101	2544.527445
648.117606	2542.654656
648.461059	2543.730943
648.804460	2544.885367
649.147810	2545.772610
649.491108	2541.911086
649.834354	2539.793802
650.177548	2541.651467
650.520690	2542.644574
650.863781	2543.930068
651.206820	2544.338402
651.549807	2542.165664
651.892742	2541.482588
652.235626	2541.313709
652.578458	2539.380427
652.921238	2544.892929
653.263967	2543.138607
653.606644	2542.909235
653.949269	2543.194060
654.291843	2542.813453
654.634365	2542.460572
654.976836	2541.253216
655.319255	2542.954605
655.661622	2539.314892
656.003938	2541.953936
656.346203	2539.098122
656.688416	2542.836138
657.030577	2540.403781
657.372687	2539.440921
657.714746	2542.437887
658.056753	2541.560726
658.398708	2537.321116
658.740612	2539.249357
659.082465	2537.106867
659.424266	2537.915972
659.766016	2536.622916
660.107715	2543.002496
660.449362	2542.326981
660.790958	2540.297917
661.132503	2539.813966
661.473996	2542.692465
661.815438	2543.415871
662.156829	2541.840510
662.498168	2540.711292
662.839456	2539.763555
663.180693	2540.852444
663.521879	2541.033925
663.863013	2542.027033
664.204097	2543.108360
664.545129	2541.686755
664.886110	2540.691127
665.227040	2540.060983
665.567918	2543.617517
665.908746	2543.274718
666.249522	2544.605583
666.590248	2541.858154
666.930922	2542.279090
667.271545	2541.301107
667.612118	2542.473175
667.952639	2540.580222
668.293109	2543.045346
668.633528	2543.930068
668.973896	2542.977290
669.314213	2542.185829
669.654480	2542.309337
669.994695	2541.996786
670.334859	2540.673483
670.674973	2541.094419
671.015035	2541.023843
671.355047	2542.294214
671.695008	2541.797660
672.034918	2543.874616
672.374777	2541.341436
672.714585	2540.860006
673.054342	2543.645243
673.394049	2541.399409
673.733705	2540.315561
674.073310	2542.793288
674.412864	2542.039636
674.752368	2542.150541
675.091820	2541.971580
675.431223	2542.324461
675.770574	2542.349667
676.109875	2538.941847
676.449125	2539.387989
676.788324	2537.855478
677.127473	2538.984696
677.466571	2536.454037
677.805619	2540.333205
678.144616	2540.454193
678.483562	2540.852444
678.822458	2541.253216
679.161303	2541.217928
679.500098	2540.865047
679.838842	2539.924872
680.177535	2540.358411
680.516179	2540.955788
680.854771	2542.085006
681.193314	2542.107691
681.531805	2543.362938
681.870247	2540.771785
682.208638	2541.406971
682.546978	2540.222300
682.885268	2542.730274
683.223508	2540.950746
683.561697	2543.453679
683.899836	2538.576363
684.237925	2538.979655
684.575963	2542.281611
684.913951	2541.346477
685.251889	2543.405788
685.589776	2540.875129
685.927614	2544.383772
686.265401	2540.839841
686.603137	2542.130376
686.940824	2543.778834
687.278460	2541.374203
687.616046	2540.461754
687.953582	2544.814791
688.291068	2541.923689
688.628504	2543.892260
688.965889	2540.880170
689.303224	2541.323792
689.640510	2540.766744
689.977745	2544.114070
690.314930	2542.034594
690.652065	2542.407640
690.989150	2541.013761
691.326185	2540.988555
691.663170	2537.021167
692.000105	2540.376055
692.336990	2538.898997
692.673825	2541.850592
693.010610	2542.591642
693.347345	2536.544778
693.684030	2537.333718
694.020665	2537.182484
694.357251	2531.919519
694.693786	2540.746580
695.030272	2539.571991
695.366707	2539.292207
695.703093	2537.701723
696.039429	2539.337577
696.375716	2538.793132
696.711952	2537.676517
697.048139	2539.879501
697.384276	2539.927392
697.720363	2536.638039
698.056400	2539.110725
698.392388	2538.069727
698.728326	2540.108874
699.064214	2537.623585
699.400053	2540.980993
699.735842	2540.048380
700.071581	2540.358411
700.407270	2539.624923
700.742910	2539.571991
701.078501	2537.137113
701.414042	2538.407484
701.749533	2539.085519
702.084974	2538.714995
702.420366	2536.718698
702.755709	2537.754655
703.091002	2537.197607
703.426246	2540.411343
703.761440	2539.698020
704.096584	2539.183822
704.431679	2538.198276
704.766725	2537.459747
705.101721	2537.636188
705.436668	2537.910931
705.771565	2539.927392
706.106413	2537.013605
706.441212	2538.780530
706.775961	2537.986548
707.110661	2538.478060
707.445311	2541.091899
707.779913	2537.857998
708.114465	2540.330684
708.448967	2539.879501
708.783421	2537.023688
709.117825	2538.596528
709.452180	2535.443286
709.786485	2540.010571
710.120742	2542.218597
710.454949	2537.837834
710.789107	2537.895807
711.123216	2535.375230
711.457275	2538.301620
711.791286	2533.915816
712.125247	2535.695343
712.459159	2537.827752
712.793023	2539.960160
713.126837	2538.450334
713.460602	2538.838503
713.794318	2537.926054
714.127985	2539.284645
714.461602	2540.103833
714.795171	2537.477391
715.128691	2541.908566
715.462162	2538.036959
715.795584	2536.549819
716.128957	2538.742721
716.462281	2537.358924
716.795556	2537.691640
717.128782	2534.971938
717.461960	2537.981507
717.795088	2539.909748
718.128167	2539.917310
718.461198	2540.658359
718.794180	2539.874460
719.127113	2536.862371
719.459997	2538.198276
719.792833	2536.083512
720.125619	2534.233409
720.458357	2536.413708
720.791046	2536.423790
721.123686	2535.944881
721.456278	2539.261960
721.788821	2536.693492
722.121315	2540.665921
722.453761	2537.260622
722.786158	2536.764068
723.118506	2537.001002
723.450805	2535.352545
723.783056	2535.899510
724.115259	2536.428831
724.447412	2535.508821
724.779518	2538.929244
725.111574	2537.036290
725.443582	2537.086702
725.775542	2539.279604
726.107453	2537.318595
726.439315	2535.649973
726.771129	2542.440407
727.102895	2536.774150
727.434612	2539.125849
727.766281	2539.209028
728.097901	2535.869263
728.429473	2532.784077
728.760996	2536.144006
729.092471	2533.252904
729.423897	2537.568132
729.755276	2538.427649
730.086606	2540.817156
730.417887	2537.283307
730.749120	2537.064017
731.080305	2538.359593
731.411442	2537.936136
731.742530	2538.936805
732.073570	2538.493184
732.404562	2535.244160
732.735506	2538.346990
733.066401	2534.155271
733.397249	2539.193904
733.728048	2536.189377
734.058798	2537.127031
734.389501	2536.456558
734.720156	2537.719367
735.050762	2534.692154
735.381320	2537.084181
735.711831	2539.077958
736.042293	2537.610982
736.372707	2537.525282
736.703073	2535.100487
737.033391	2537.061496
737.363661	2538.384799
737.693883	2537.074099
738.024056	2539.493853
738.354182	2534.699716
738.684260	2533.651156
739.014290	2538.551157
739.344272	2537.840354
739.674207	2537.253060
740.004093	2538.039480
740.333931	2534.528316
740.663722	2536.035621
740.993464	2538.473019
741.323159	2536.317926
741.652806	2536.179294
741.982405	2538.258770
742.311956	2535.034952
742.641460	2536.771630
742.970915	2539.871939
743.300323	2537.268183
743.629683	2536.832124
743.958996	2536.098636
744.288260	2533.694005
744.617477	2537.794984
744.946647	2531.130579
745.275768	2532.375744
745.604842	2531.859025
745.933869	2531.188552
746.262847	2532.131248
746.591778	2537.792463
746.920662	2535.849099
747.249498	2536.590148
747.578286	2536.325488
747.907027	2535.707946
748.235720	2533.794828
748.564365	2532.837009
748.892963	2537.285827
749.221514	2536.640560
749.550017	2534.820703
749.878473	2536.701054
750.206881	2535.095446
750.535242	2536.753986
750.863555	2536.844727
751.191821	2534.840868
751.520039	2537.570653
751.848210	2535.523944
752.176334	2536.479243
752.504411	2535.198790
752.832440	2536.902700
753.160421	2534.457740
753.488356	2537.568132
753.816243	2532.579910
754.144082	2535.778522
754.471875	2535.375230
754.799620	2537.056455
755.127318	2532.781557
755.454969	2534.180477
755.782572	2535.947401
756.110129	2534.848430
756.437638	2538.460416
756.765100	2534.558563
757.092515	2538.084850
757.419882	2534.024201
757.747203	2538.127700
758.074477	2534.866074
758.401703	2534.840868
758.728882	2536.113759
759.056014	2534.616537
759.383099	2533.527647
759.710138	2533.494880
760.037129	2536.358255
760.364073	2537.873122
760.690970	2533.467153
761.017820	2537.507638
761.344623	2535.801208
761.671379	2537.202648
761.998088	2532.277441
762.324751	2532.365661
762.651366	2534.384643
762.977935	2535.554191
763.304456	2535.236598
763.630931	2538.846065
763.957359	2538.057124
764.283740	2536.789274
764.610074	2535.377751
764.936362	2537.081661
765.262602	2536.186856
765.588796	2536.617875
765.914943	2534.467823
766.241044	2536.121321
766.567097	2536.267514
766.893104	2534.624098
767.219064	2533.298275
767.544978	2534.228368
767.870845	2535.279448
768.196665	2534.616537
768.522438	2533.421783
768.848165	2533.573018
769.173846	2534.755168
769.499479	2536.222144
769.825066	2531.682585
770.150607	2534.177956
770.476101	2535.617206
770.801548	2535.120652
771.126949	2534.296423
771.452303	2534.535878
771.777611	2531.536392
772.102872	2536.761547
772.428087	2535.410518
772.753256	2534.404808
773.078378	2534.427493
773.403453	2533.915816
773.728482	2533.923378
774.053465	2531.652338
774.378401	2533.078985
774.703291	2534.997144
775.028135	2536.774150
775.352932	2536.706095
775.677683	2534.737524
776.002388	2537.835313
776.327046	2534.447658
776.651658	2532.370703
776.976224	2533.688964
777.300743	2534.422452
777.625216	2533.542771
777.949643	2532.080836
778.274024	2535.839016
778.598359	2530.444982
778.922647	2531.112935
779.246889	2531.889272
779.571086	2528.045393
779.895236	2534.752648
780.219339	2533.154602
780.543397	2534.240971
780.867409	2533.550333
781.191374	2534.593851
781.515294	2533.971269
781.839167	2535.387833
782.162995	2534.344314
782.486776	2532.567308
782.810511	2533.545291
783.134201	2533.525127
783.457844	2532.398429
783.781441	2535.546629
784.104993	2534.669469
784.428498	2533.981351
784.751958	2531.659900
785.075372	2534.384643
785.398739	2533.749458
785.722061	2531.932122
786.045337	2535.468492
786.368568	2534.573687
786.691752	2533.477236
787.014891	2531.178470
787.337983	2534.016639
787.661030	2533.794828
787.984031	2532.733666
788.306987	2533.862884
788.629897	2534.800539
788.952760	2537.628626
789.275579	2533.232740
789.598351	2535.929757
789.921078	2531.760723
790.243759	2532.668131
790.566395	2532.148892
790.888984	2533.961187
791.211529	2532.786598
791.534027	2536.340611
791.856480	2532.272400
792.178888	2534.588810
792.501249	2533.870446
792.823566	2534.374561
793.145836	2532.716022
793.468062	2532.476567
793.790241	2532.269879
794.112375	2534.823224
794.434464	2532.400949
794.756507	2535.619726
795.078505	2531.468336
795.400457	2531.130579
795.722364	2529.139323
796.044226	2529.832482
796.366042	2528.894827
796.687812	2529.741741
797.009538	2534.359438
797.331218	2535.009747
797.652852	2534.424973
797.974442	2533.787267
798.295986	2532.395908
798.617484	2531.730476
798.938938	2535.080323
799.260346	2532.728624
799.581709	2533.628470
799.903026	2534.682072
800.224299	2532.279962
800.545526	2533.641073
800.866708	2536.252391
801.187845	2533.996475
801.508936	2537.797505
801.829983	2534.508152
802.150984	2534.059489
802.471940	2531.400280
802.792851	2532.592513
803.113717	2535.813811
803.434538	2534.684592
803.755314	2533.590662
804.076045	2535.438245
804.396731	2535.639891
804.717372	2532.458923
805.037967	2533.278110
805.358518	2533.459592
805.679024	2534.019160
805.999485	2530.107224
806.319901	2535.191228
806.640272	2532.920188
806.960598	2530.477749
807.280879	2533.225178
807.601115	2535.965045
807.921306	2532.471526
808.241453	2532.002698
808.561554	2532.300126
808.881611	2531.909437
809.201623	2533.449509
809.521590	2534.868594
809.841513	2533.890610
810.161390	2533.764582
810.481223	2533.938501
810.801011	2532.781557
811.120755	2532.360620
811.440453	2534.891279
811.760107	2530.565969
812.079716	2529.356093
812.399281	2530.591175
812.718801	2532.733666
813.038276	2526.979188
813.357707	2531.922040
813.677093	2531.808614
813.996434	2534.356917
814.315731	2530.835671
814.634983	2533.315919
814.954191	2531.634694
815.273354	2534.498069
815.592473	2531.924560
815.911547	2530.989426
816.230577	2532.453882
816.549562	2533.802390
816.868502	2531.107893
817.187399	2536.741383
817.506250	2533.651156
817.825058	2530.815507
818.143821	2533.872966
818.462539	2532.156453
818.781213	2533.515044
819.099843	2530.563449
819.418429	2533.860363
819.736970	2533.235260
820.055466	2531.785929
820.373919	2538.639377
820.692327	2531.639735
821.010691	2537.366486
821.329011	2536.590148
821.647286	2544.048535
821.965517	2550.314690
822.283704	2552.177396
822.601847	2552.890719
822.919945	2551.348126
823.237999	2549.934083
823.556010	2543.224307
823.873976	2541.076775
824.191897	2541.434697
824.509775	2536.718698
824.827609	2535.680220
825.145398	2536.179294
825.463144	2536.086033
825.780845	2537.341280
826.098502	2538.152906
826.416116	2539.173740
826.733685	2541.545602
827.051210	2541.374203
827.368692	2541.659028
827.686129	2538.556198
828.003522	2535.851619
828.320872	2529.885414
828.638177	2534.674510
828.955439	2531.478418
829.272656	2532.000178
829.589830	2528.960362
829.906960	2534.813142
830.224046	2533.068902
830.541088	2533.706608
830.858086	2536.131403
831.175041	2532.388347
831.491952	2530.540764
831.808819	2532.436238
832.125642	2530.278624
832.442421	2531.130579
832.759157	2532.012781
833.075849	2536.297761
833.392497	2536.015457
833.709101	2537.686599
834.025662	2535.428162
834.342179	2534.334232
834.658653	2535.135775
834.975083	2536.010416
835.291469	2535.203831
835.607811	2536.002854
835.924110	2535.864222
836.240366	2532.844571
836.556578	2533.288192
836.872746	2533.021011
837.188871	2533.754499
837.504952	2533.172246
837.820990	2531.725435
838.136984	2530.376926
838.452935	2533.028573
838.768842	2532.620240
839.084706	2529.870290
839.400526	2532.363141
839.716303	2533.976310
840.032037	2531.546474
840.347727	2535.377751
840.663373	2532.153933
840.978977	2532.632843
841.294537	2532.370703
841.610054	2529.771988
841.925527	2534.427493
842.240957	2531.856505
842.556344	2531.465815
842.871687	2529.948428
843.186987	2532.529499
843.502244	2531.307019
843.817458	2532.191742
844.132629	2527.168232
844.447756	2532.877338
844.762840	2529.943387
845.077881	2530.346679
845.392879	2525.948273
845.707833	2527.001874
846.022745	2528.403314
846.337613	2529.560259
846.652438	2532.489170
846.967221	2532.017822
847.281960	2530.240815
847.596656	2530.681916
847.911309	2529.744261
848.225919	2529.784591
848.540485	2532.259797
848.855009	2527.957172
849.169490	2532.524458
849.483928	2528.521782
849.798323	2532.103521
850.112675	2530.490352
850.426984	2531.997657
850.741251	2531.415404
851.055474	2530.303829
851.369654	2532.355579
851.683792	2531.380116
851.997887	2531.841381
852.311938	2528.761236
852.625947	2532.088398
852.939914	2531.186031
853.253837	2531.584282
853.567718	2530.772657
853.881555	2531.818696
854.195350	2530.513037
854.509103	2531.957328
854.822812	2531.954807
855.136479	2528.574714
855.450103	2531.395239
855.763685	2532.365661
856.077224	2529.688809
856.390720	2529.330887
856.704173	2531.543953
857.017584	2529.865249
857.330953	2530.611340
857.644278	2531.422966
857.957561	2534.092257
858.270802	2532.867256
858.584000	2532.247194
858.897155	2529.424148
859.210268	2532.221988
859.523339	2531.402801
859.836367	2531.859025
860.149352	2530.266021
860.462295	2532.968079
860.775195	2528.126051
861.088054	2526.311236
861.400869	2528.587317
861.713642	2525.885258
862.026373	2529.461957
862.339062	2530.661751
862.651708	2530.122348
862.964312	2531.027235
863.276873	2530.308871
863.589392	2532.252235
863.901869	2528.158818
864.214303	2531.778367
864.526696	2532.529499
864.839045	2528.257121
865.151353	2527.566483
865.463619	2529.315763
865.775842	2530.402132
866.088023	2529.908099
866.400162	2533.046217
866.712258	2533.542771
867.024313	2530.553367
867.336325	2530.596216
867.648296	2532.264838
867.960224	2528.398273
868.272110	2529.131761
868.583954	2530.465146
868.895755	2530.815507
869.207515	2528.347862
869.519233	2529.598068
869.830909	2528.700743
870.142542	2529.706453
870.454134	2531.916999
870.765684	2531.027235
871.077191	2529.008253
871.388657	2532.413552
871.700081	2526.885927
872.011463	2531.332225
872.322803	2528.604961
872.634101	2532.642925
872.945357	2530.893644
873.256571	2527.664785
873.567744	2526.999353
873.878874	2533.522606
874.189963	2531.249046
874.501010	2533.096629
874.812015	2530.727286
875.122979	2531.221319
875.433900	2530.931453
875.744780	2530.354241
876.055618	2526.785104
876.366415	2531.717873
876.677169	2531.054961
876.987882	2529.371216
877.298554	2525.013138
877.609183	2525.887779
877.919771	2526.321318
878.230317	2530.949097
878.540822	2533.530168
878.851285	2529.383819
879.161707	2532.380785
879.472087	2530.447502
879.782425	2528.788963
880.092722	2535.435724
880.402977	2534.331711
880.713191	2536.983358
881.023363	2538.588966
881.333494	2542.720191
881.643583	2541.313709
881.953631	2543.536858
882.263637	2541.086858
882.573602	2538.271373
882.883526	2536.834644
883.193408	2536.960673
883.503248	2535.851619
883.813048	2535.826413
884.122806	2532.378264
884.432522	2534.485467
884.742197	2528.557070
885.051831	2532.511855
885.361424	2530.084539
885.670975	2531.559077
885.980485	2531.702750
886.289954	2532.103521
886.599382	2530.513037
886.908768	2529.459436
887.218113	2529.890455
887.527417	2532.244674
887.836680	2529.507327
888.145901	2531.309540
888.455082	2529.096473
888.764221	2533.746938
889.073319	2531.042358
889.382376	2530.913809
889.691392	2530.147554
890.000366	2531.352389
890.309300	2528.209230
890.618193	2528.385670
890.927044	2529.852646
891.235855	2529.928263
891.544625	2527.523633
891.853353	2531.881711
892.162041	2527.755526
892.470687	2532.073274
892.779293	2529.835002
893.087858	2527.319466
893.396381	2528.005063
893.704864	2526.999353
894.013306	2528.673016
894.321707	2531.241484
894.630068	2533.676361
894.938387	2532.743748
895.246665	2534.180477
895.554903	2534.747607
895.863100	2530.296268
896.171256	2530.838192
896.479371	2531.017153
896.787446	2533.368851
897.095480	2528.040351
897.403473	2528.993129
897.711425	2530.142512
898.019336	2530.371885
898.327207	2530.694519
898.635038	2528.257121
898.942827	2530.694519
899.250576	2528.509179
899.558284	2530.462626
899.865952	2528.221833
900.173579	2526.827954
900.481165	2531.125537
900.788711	2529.381298
901.096216	2531.047400
901.403681	2527.435413
901.711105	2531.266690
902.018489	2528.733510
902.325832	2532.920188
902.633135	2530.576052
902.940397	2527.695032
903.247619	2530.472708
903.554800	2531.186031
903.861941	2531.344828
904.169041	2534.629139
904.476101	2535.130734
904.783121	2533.283151
905.090100	2534.790456
905.397039	2534.939170
905.703938	2531.949766
906.010796	2532.471526
906.317614	2532.526978
906.624391	2530.369364
906.931129	2531.049920
907.237826	2530.364323
907.544483	2532.680733
907.851099	2532.660569
908.157675	2532.710980
908.464211	2528.778880
908.770707	2525.456760
909.077163	2526.419620
909.383578	2526.555732
909.689954	2525.890299
909.996289	2524.657737
910.302584	2532.010260
910.608839	2530.785260
910.915054	2529.098994
911.221229	2529.013294
911.527363	2528.065557
911.833458	2528.647810
912.139513	2530.034128
912.445527	2529.361134
912.751502	2529.156967
913.057436	2529.593027
913.363331	2528.615043
913.669186	2528.930115
913.975000	2529.782070
914.280775	2531.085208
914.586510	2530.727286
914.892205	2533.656197
915.197859	2531.203675
915.503475	2532.232071
915.809050	2537.253060
916.114585	2533.109232
916.420081	2535.221475
916.725536	2529.855167
917.030952	2533.653676
917.336328	2531.758202
917.641665	2534.188038
917.946961	2531.896834
918.252218	2531.654859
918.557435	2531.886752
918.862612	2531.755682
919.167750	2530.376926
919.472848	2528.678057
919.777906	2528.126051
920.082925	2529.807276
920.387904	2526.268386
920.692843	2530.520599
920.997743	2527.987419
921.302603	2526.558252
921.607423	2531.024714
921.912204	2531.226361
922.216946	2529.890455
922.521647	2527.737882
922.826310	2528.950280
923.130932	2530.568490
923.435516	2532.012781
923.740059	2527.513551
924.044564	2528.380629
924.349028	2527.379960
924.653454	2524.309897
924.957840	2526.558252
925.262186	2526.170083
925.566493	2525.900382
925.870761	2525.151770
926.174989	2528.514220
926.479178	2530.119827
926.783328	2527.594209
927.087438	2525.607995
927.391509	2529.136802
927.695541	2528.683098
927.999533	2527.470701
928.303486	2527.826102
928.607400	2529.280475
928.911275	2526.762419
929.215110	2529.277955
929.518906	2529.008253
929.822663	2530.046731
930.126381	2530.069416
930.430060	2530.608819
930.733699	2528.370547
931.037299	2528.657893
931.340861	2529.013294
931.644383	2531.589324
931.947866	2530.094622
932.251309	2529.028417
932.554714	2530.664272
932.858080	2529.882893
933.161407	2529.293078
933.464694	2527.899199
933.767943	2529.018335
934.071153	2529.056144
934.374323	2527.730320
934.677455	2528.902389
934.980548	2527.175793
935.283602	2528.191586
935.586617	2527.097656
935.889593	2531.450692
936.192530	2530.119827
936.495428	2527.319466
936.798287	2529.610671
937.101108	2526.472553
937.403890	2529.068747
937.706632	2523.364681
938.009336	2526.583458
938.312002	2529.159487
938.614628	2528.400794
938.917216	2530.714683
939.219765	2528.584796
939.522275	2528.925074
939.824747	2529.562780
940.127179	2527.294261
940.429573	2523.412572
940.731929	2524.181348
941.034246	2527.339631
941.336524	2525.416431
941.638763	2529.393901
941.940964	2528.741072
942.243126	2527.407687
942.545250	2526.505320
942.847335	2529.098994
943.149381	2524.972809
943.451389	2526.318797
943.753359	2528.010104
944.055290	2528.788963
944.357182	2526.752337
944.659036	2528.244518
944.960851	2529.983716
945.262628	2525.713859
945.564367	2530.243336
945.866067	2528.007584
946.167729	2529.590506
946.469352	2527.440454
946.770937	2526.424662
947.072484	2530.061854
947.373992	2526.119672
947.675462	2526.409538
947.976893	2524.188910
948.278286	2527.871473
948.579641	2528.113448
948.880958	2528.194107
949.182236	2528.461288
949.483476	2525.325690
949.784678	2528.098325
950.085841	2526.122192
950.386967	2528.032790
950.688054	2527.221164
950.989103	2530.235774
951.290114	2526.976668
951.591087	2528.340300
951.892021	2525.824764
952.192917	2527.632018
952.493776	2525.527336
952.794596	2528.990609
953.095378	2527.584127
953.396122	2528.763757
953.696828	2528.428520
953.997496	2527.604292
954.298126	2528.305012
954.598718	2529.519930
954.899272	2527.894158
955.199788	2530.124868
955.500266	2524.103210
955.800706	2526.157480
956.101108	2522.215298
956.401472	2523.969620
956.701798	2523.258817
957.002087	2526.172604
957.302337	2531.561597
957.602550	2527.090094
957.902724	2525.514733
958.202861	2528.567152
958.502960	2527.856349
958.803022	2528.572193
959.103045	2528.330218
959.403031	2525.935670
959.702979	2525.242511
960.002889	2528.849457
960.302762	2528.897347
960.602596	2524.897192
960.902393	2524.317459
961.202153	2526.220495
961.501875	2527.042203
961.801559	2526.772501
962.101205	2527.984899
962.400814	2528.917512
962.700385	2525.038344
962.999918	2527.526154
963.299414	2523.924249
963.598873	2528.521782
963.898293	2525.300484
964.197677	2528.047913
964.497022	2525.837367
964.796331	2525.935670
965.095601	2525.265196
965.394835	2530.046731
965.694030	2526.616225
965.993189	2525.607995
966.292309	2525.983561
966.591393	2528.002543
966.890439	2527.470701
967.189447	2526.099507
967.488419	2525.794517
967.787353	2527.508510
968.086249	2525.847449
968.385108	2526.475073
968.683930	2525.164373
968.982714	2527.004394
969.281462	2527.170752
969.580172	2527.190917
969.878844	2526.775022
970.177480	2524.871986
970.476078	2525.277799
970.774639	2526.732172
971.073162	2528.347862
971.371649	2524.962727
971.670098	2525.275278
971.968510	2524.856863
972.266885	2520.415606
972.565223	2527.992460
972.863524	2525.285361
973.161788	2525.734023
973.460014	2525.696215
973.758204	2527.952131
974.056356	2523.934332
974.354471	2526.255783
974.652550	2528.158818
974.950591	2523.218488
975.248595	2525.653365
975.546563	2524.420803
975.844493	2526.636390
976.142386	2525.320649
976.440243	2529.366175
976.738062	2528.158818
977.035845	2525.343334
977.333590	2524.960206
977.631299	2527.475742
977.928971	2525.615556
978.226606	2527.266534
978.524204	2527.385001
978.821765	2527.256452
979.119290	2528.214271
979.416777	2527.992460
979.714228	2527.135464
980.011642	2527.818541
980.309020	2529.625794
980.606360	2525.774353
980.903664	2528.128572
981.200931	2525.986081
981.498162	2526.328880
981.795356	2524.430885
982.092513	2528.352903
982.389633	2526.853160
982.686717	2526.530526
982.983764	2526.177645
983.280775	2527.115300
983.577749	2527.611853
983.874686	2528.481452
984.171587	2525.696215
984.468451	2525.537418
984.765279	2525.958355
985.062070	2524.826616
985.358824	2526.724610
985.655543	2524.796369
985.952224	2526.144877
986.248869	2525.512213
986.545478	2522.666481
986.842050	2522.507685
987.138586	2522.578261
987.435086	2521.900226
987.731549	2519.987108
988.027975	2525.371060
988.324366	2522.495082
988.620719	2526.906092
988.917037	2528.930115
989.213318	2526.033972
989.509563	2526.452388
989.805772	2528.773839
990.101944	2524.466173
990.398080	2526.621267
990.694180	2526.280989
990.990244	2526.084384
991.286271	2527.737882
991.582262	2524.294774
991.878217	2526.674199
992.174136	2528.010104
992.470019	2523.982222
992.765865	2525.852491
993.061676	2524.002387
993.357450	2524.808972
993.653188	2524.745957
993.948890	2523.929290
994.244556	2528.481452
994.540186	2529.635877
994.835780	2523.752850
995.131337	2525.968437
995.426859	2525.855011
995.722345	2523.082377
996.017795	2524.519105
996.313208	2527.977337
996.608586	2524.443488
996.903928	2525.958355
997.199234	2526.064219
997.494504	2527.569003
997.789738	2525.580268
998.084936	2529.373737
998.380099	2527.160670
998.675225	2523.233611
998.970316	2526.464991
999.265371	2527.518592
999.560390	2524.624970
999.855373	2528.733510
1000.150320	2525.963396
1000.445232	2526.366688
1000.740108	2523.856194
1001.034948	2526.802748
1001.329752	2524.196472
1001.624521	2525.671009
1001.919254	2523.762932
1002.213951	2524.120854
1002.508613	2523.130268
1002.803239	2525.522295
1003.097829	2518.691532
1003.392384	2526.371729
1003.686903	2525.156811
1003.981386	2528.864580
1004.275834	2522.527850
1004.570246	2528.312574
1004.864623	2523.601615
1005.158964	2527.087573
1005.453270	2524.342665
1005.747540	2525.683612
1006.041775	2522.996677
1006.335974	2528.612522
1006.630138	2524.259486
1006.924266	2526.739734
1007.218359	2524.511544
1007.512416	2526.966586
1007.806438	2525.066071
1008.100425	2524.141019
1008.394376	2523.818385
1008.688292	2525.829805
1008.982172	2525.159332
1009.276017	2526.424662
1009.569827	2524.589682
1009.863602	2525.870135
1010.157341	2525.681091
1010.451045	2526.359127
1010.744714	2527.284178
1011.038347	2526.449867
1011.331945	2525.960875
1011.625508	2523.498272
1011.919036	2527.284178
1012.212528	2524.635052
1012.505986	2525.867614
1012.799408	2524.372912
1013.092795	2525.393746
1013.386147	2525.983561
1013.679464	2526.699404
1013.972745	2525.300484
1014.265992	2526.651513
1014.559204	2527.722759
1014.852380	2525.061029
1015.145521	2527.904240
1015.438628	2526.374250
1015.731699	2526.414579
1016.024736	2525.406348
1016.317737	2525.260155
1016.610703	2526.759898
1016.903635	2520.899557
1017.196531	2522.490041
1017.489393	2521.229752
1017.782219	2521.312932
1018.075011	2522.013652
1018.367768	2524.612367
1018.660490	2526.908612
1018.953177	2526.908612
1019.245829	2526.908612
