Dividing Wavelength (nm)	Counts (n)	Blue Motor Position (mm): 0.000000	Red Motor Position (mm): 35.800000	
326.493990	2126.346089
326.888308	2126.346089
327.282561	2126.346089
327.676750	2093.692015
328.070874	2095.774012
328.464933	2097.233426
328.858929	2102.322471
329.252859	2113.710437
329.646726	2126.898096
330.040528	2140.494088
330.434265	2156.426654
330.827938	2171.126659
331.221547	2190.764474
331.615091	2209.699048
332.008571	2226.213868
332.401986	2249.975346
332.795338	2266.583428
333.188625	2286.909360
333.581847	2304.054324
333.975006	2324.995277
334.368100	2339.904490
334.761129	2358.140864
335.154095	2374.905221
335.546996	2394.243087
335.939833	2414.322003
336.332606	2429.813469
336.725315	2443.442228
337.117960	2453.348095
337.510540	2460.234312
337.903056	2469.822586
338.295508	2479.514204
338.687896	2488.000987
339.080220	2497.526247
339.472480	2502.451454
339.864676	2508.241220
340.256807	2510.300531
340.648875	2514.025944
341.040879	2518.285719
341.432818	2519.820750
341.824694	2518.167252
342.216506	2518.925945
342.608253	2519.351923
342.999937	2519.727489
343.391557	2519.563651
343.783113	2518.941069
344.174605	2518.227745
344.566033	2513.355470
344.957397	2517.375790
345.348697	2515.114833
345.739934	2514.141890
346.131106	2510.280366
346.522215	2508.019409
346.913260	2506.640653
347.304241	2504.692247
347.695159	2501.559170
348.086012	2502.096053
348.476802	2498.259735
348.867528	2501.017246
349.258191	2493.884013
349.648789	2496.528099
350.039324	2492.787563
350.429796	2490.766060
350.820203	2492.422079
351.210548	2490.708087
351.600828	2490.972747
351.991045	2490.090545
352.381198	2491.789414
352.771288	2489.031903
353.161314	2490.786224
353.551276	2490.650113
353.941175	2490.382932
354.331010	2489.583909
354.720782	2488.658857
355.110490	2491.980978
355.500135	2488.701707
355.889717	2490.070381
356.279235	2487.564927
356.668689	2492.636328
357.058080	2489.856132
357.447408	2489.132726
357.836672	2487.869917
358.225873	2491.229846
358.615010	2486.531491
359.004084	2494.224291
359.393095	2493.790752
359.782043	2494.985506
360.170927	2494.710763
360.559748	2496.628922
360.948505	2494.466267
361.337199	2495.638335
361.725830	2497.392657
362.114398	2496.273520
362.502903	2497.937101
362.891344	2498.791577
363.279722	2497.034735
363.668037	2500.009015
364.056289	2499.056237
364.444478	2501.395333
364.832603	2502.181753
365.220665	2503.933554
365.608665	2501.493635
365.996601	2504.767865
366.384474	2505.612258
366.772284	2507.442197
367.160031	2505.579490
367.547715	2510.003103
367.935336	2511.492764
368.322893	2513.070645
368.710388	2517.786644
369.097820	2527.276617
369.485189	2527.866432
369.872495	2533.809952
370.259738	2537.618544
370.646918	2549.823177
371.034035	2553.561193
371.421090	2564.200548
371.808081	2575.953998
372.195010	2584.251737
372.581875	2597.361258
372.968678	2609.114708
373.355418	2622.065432
373.742096	2638.915489
374.128710	2654.361584
374.515262	2667.279541
374.901751	2687.262675
375.288177	2699.633667
375.674540	2721.542521
376.060841	2738.208576
376.447079	2758.632811
376.833254	2779.697272
377.219367	2794.397277
377.605417	2829.902123
377.991404	2839.480315
378.377329	2861.583254
378.763191	2877.044473
379.148991	2918.578540
379.534727	2940.570573
379.920402	2968.296920
380.306013	2979.757983
380.691563	3033.922660
381.077049	3053.144580
381.462474	3066.579255
381.847835	3109.590380
382.233134	3131.252218
382.618371	3127.564614
383.003545	3199.171683
383.388657	3208.076882
383.773706	3238.838002
384.158693	3254.568923
384.543618	3281.967594
384.928480	3320.081238
385.313280	3364.965151
385.698017	3361.436343
386.082692	3416.074889
386.467305	3423.649223
386.851856	3453.737350
387.236344	3478.499498
387.620770	3507.274404
388.005133	3534.415976
388.389435	3562.585944
388.773674	3573.457192
389.157851	3616.856485
389.541965	3629.323259
389.926018	3595.479472
390.310008	3666.037982
390.693936	3684.266795
391.077802	3725.637024
391.461606	3713.843244
391.845348	3775.141154
392.229027	3774.695012
392.612645	3787.746560
392.996200	3867.842932
393.379694	3908.623347
393.763125	3971.289930
394.146494	3938.950928
394.529801	3997.917305
394.913047	4048.580901
395.296230	4016.662835
395.679351	4072.168460
396.062410	4092.239814
396.445408	4075.253646
396.828343	4111.035756
397.211217	4134.822440
397.594028	4051.507291
397.976778	4118.983135
398.359466	4147.808453
398.742092	4176.338863
399.124656	4097.475052
399.507158	4176.439686
399.889598	4201.161504
400.271977	4266.502420
400.654294	4234.748192
401.036549	4240.104418
401.418742	4211.107701
401.800874	4316.770285
402.182944	4337.680992
402.564952	4405.245056
402.946898	4388.112695
403.328783	4382.048187
403.710606	4296.855207
404.092367	4488.678673
404.474067	4452.798260
404.855705	4463.823264
405.237282	4390.058580
405.618797	4502.592257
406.000250	4532.554355
406.381642	4616.429073
406.762972	4578.219647
407.144240	4591.803036
407.525447	4586.827418
407.906593	4648.062313
408.287677	4688.257953
408.668700	4617.039053
409.049661	4667.763142
409.430560	4712.883990
409.811399	4635.918174
410.192176	4798.414727
410.572891	4740.932970
410.953545	4845.514227
411.334138	4726.590887
411.714669	4785.249753
412.095139	4685.364331
412.475547	4827.413964
412.855894	4808.481911
413.236180	4818.702850
413.616405	4772.031848
413.996568	4861.338409
414.376670	4801.890602
414.756711	4751.864712
415.136691	4788.229075
415.516609	4864.416033
415.896466	4902.743926
416.276262	4932.791724
416.655997	4913.957973
417.035670	5100.896560
417.415283	5185.497204
417.794834	5137.555831
418.174324	5083.670938
418.553753	4990.525538
418.933121	5179.528478
419.312428	5247.901648
419.691674	5186.084499
420.070859	5309.171832
420.449983	5225.299634
420.829045	5339.322973
421.208047	5244.350155
421.586988	5318.805477
421.965867	5327.536755
422.344686	5462.644719
422.723444	5317.151978
423.102141	5134.558865
423.480777	5435.293939
423.859352	5203.887333
424.237866	5460.550120
424.616319	5454.218431
424.994712	5568.193878
425.373044	5444.037820
425.751314	5583.317339
426.129524	5384.373244
426.507673	5577.739303
426.885762	5667.986039
427.263789	5595.015337
427.641756	5478.055527
428.019662	5600.084217
428.397508	5606.272233
428.775292	5553.020005
429.153016	5654.085057
429.530679	5576.824333
429.908282	5658.561602
430.285824	5526.748032
430.663305	5809.125744
431.040726	5543.388880
431.418086	5545.186052
431.795385	5649.749665
432.172624	5663.701058
432.549802	5656.048587
432.926920	5666.887067
433.303977	5673.861504
433.680974	5714.820879
434.057910	5729.765379
434.434786	5739.751905
434.811601	5706.167738
435.188355	5938.204488
435.565050	5811.071629
435.941683	5802.453777
436.318257	6014.638462
436.694770	5994.310010
437.071222	6027.251429
437.447614	5963.155679
437.823946	5871.671339
438.200218	6027.148086
438.576429	5891.508280
438.952580	5993.568960
439.328670	6039.103182
439.704700	5949.385767
440.080670	5931.179640
440.456580	6201.420774
440.832429	6082.557928
441.208218	5927.819711
441.583947	6085.723773
441.959616	6089.786943
442.335224	6018.860429
442.710773	6156.370503
443.086261	6180.714235
443.461689	5971.592050
443.837057	6125.261543
444.212365	6280.919770
444.587612	6172.902967
444.962800	6327.245454
445.337927	6303.859541
445.712995	5918.120531
446.088002	6497.833059
446.462949	6328.253684
446.837837	6254.859526
447.212664	6429.046514
447.587431	6569.059521
447.962139	7113.259641
448.336786	8041.840179
448.711374	7779.864017
449.085901	6855.490321
449.460369	6773.790861
449.834776	6710.151335
450.209124	7102.038032
450.583412	7250.663851
450.957640	7395.034935
451.331808	7166.791653
451.705917	6717.773560
452.079965	6640.817826
452.453954	6854.514858
452.827883	6730.441979
453.201752	6822.415311
453.575562	6616.718590
453.949311	6828.215158
454.323001	6717.524023
454.696632	6789.773840
455.070202	6925.406084
455.443713	7081.777635
455.817164	7185.005342
456.190556	7265.746983
456.563888	7331.710481
456.937160	7378.968778
457.310373	7039.704165
457.683526	7064.060500
458.056619	6951.640248
458.429653	6940.448887
458.802628	6875.730554
459.175542	6985.726010
459.548398	7340.671132
459.921194	7501.115935
460.293930	7508.375197
460.666607	8034.895990
461.039224	8338.552412
461.411782	8468.347000
461.784280	8489.262748
462.156719	8378.725367
462.529099	8259.149198
462.901419	7847.027309
463.273680	7739.439004
463.645882	7756.465501
464.018024	7618.161445
464.390106	7782.198071
464.762130	8174.435128
465.134094	8641.954257
465.505999	9664.585082
465.877845	10877.403518
466.249631	11535.753005
466.621358	11152.090950
466.993026	10526.919817
467.364634	10268.762329
467.736184	9909.844778
468.107674	9566.300226
468.479105	9606.596689
468.850477	9374.113797
469.221790	9141.517479
469.593043	8809.149165
469.964238	8673.237137
470.335373	8686.145011
470.706449	8738.134431
471.077467	8716.908652
471.448425	10030.159476
471.819324	11115.285486
472.190164	11132.080090
472.560945	9886.836952
472.931667	9093.608874
473.302330	8962.788411
473.672934	8596.805683
474.043479	8957.800189
474.413965	8902.375223
474.784393	8782.645299
475.154761	8940.287221
475.525070	9028.386425
475.895321	8849.004527
476.265513	9029.117392
476.635645	9203.634577
477.005719	9202.089463
477.375734	9309.397985
477.745691	9548.043687
478.115588	9682.816415
478.485427	9933.628942
478.855207	10465.203492
479.224928	11282.828234
479.594591	11904.989798
479.964194	11725.128990
480.333739	11664.151193
480.703226	11584.372413
481.072653	11668.796616
481.442022	11906.199674
481.811333	12093.778488
482.180584	11902.224725
482.549777	11606.707245
482.918912	11432.613518
483.287988	11457.494132
483.657005	11469.938221
484.025964	11146.911164
484.394864	11284.063317
484.763706	11247.668706
485.132489	11009.988385
485.501213	10971.690739
485.869879	11056.714840
486.238487	10892.927751
486.607036	10999.964050
486.975527	10783.338108
487.343959	10965.860645
487.712333	11015.876453
488.080648	10948.327512
488.448905	10985.627009
488.817104	10932.175655
489.185244	11192.962105
489.553326	11345.119251
489.921350	11889.553784
490.289315	12954.568111
490.657222	13295.511427
491.025070	13203.807798
491.392861	13077.322727
491.760593	12703.629554
492.128267	12350.771470
492.495883	12009.576096
492.863440	11678.069819
493.230939	11352.113852
493.598380	11283.743203
493.965763	11146.913685
494.333088	11048.515403
494.700354	10964.794441
495.067563	11031.577126
495.434713	10855.991217
495.801805	10988.618934
496.168839	10906.377550
496.535815	10841.036634
496.902733	10838.458084
497.269593	10776.693867
497.636395	10879.684640
498.003139	10862.685869
498.369825	10727.136804
498.736453	10888.509180
499.103023	10810.895575
499.469535	10840.323311
499.835989	10831.276960
500.202385	10791.454366
500.568723	10644.285441
500.935003	10869.017559
501.301226	10669.249235
501.667390	10923.467061
502.033497	11024.524552
502.399546	10882.227902
502.765537	10793.639706
503.131470	10864.785510
503.497345	11037.991994
503.863163	10649.155195
504.228923	10961.754625
504.594625	11022.107319
504.960269	10776.766964
505.325856	10993.516415
505.691385	10787.673500
506.056856	10938.053640
506.422270	10966.437857
506.787625	10851.403767
507.152924	10970.526232
507.518164	10946.318612
507.883347	10867.623680
508.248472	10785.536051
508.613540	11015.367296
508.978550	10902.717672
509.343503	10875.515606
509.708398	10987.303193
510.073236	11099.514236
510.438016	11107.108734
510.802738	11045.694878
511.167403	11104.220153
511.532010	10996.039512
511.896561	11223.050232
512.261053	11279.397729
512.625488	11153.245374
512.989866	11137.527057
513.354186	11130.708896
513.718449	11017.446772
514.082655	11211.667306
514.446803	11105.835843
514.810894	11222.178112
515.174927	11085.736762
515.538904	11104.220153
515.902822	11257.594738
516.266684	11139.755247
516.630488	11071.876110
516.994235	11124.946857
517.357925	11183.930878
517.721558	11262.774524
518.085133	11273.875145
518.448651	11279.231371
518.812112	11161.250727
519.175516	11166.178454
519.538863	11274.124682
519.902152	11185.123111
520.265385	11335.142808
520.628560	11245.677451
520.991678	11209.328211
521.354739	11270.124526
521.717743	11193.478823
522.080690	11161.457414
522.443580	11283.120621
522.806413	11228.469472
523.169189	11250.834551
523.531908	11291.708226
523.894569	11107.373395
524.257174	11100.446849
524.619722	11202.331089
524.982213	11146.848150
525.344647	11172.184989
525.707025	11116.076947
526.069345	11194.262722
526.431608	11102.140677
526.793815	11186.617813
527.155964	10968.746705
527.518057	11016.851916
527.880093	10950.497728
528.242072	10998.441622
528.603995	10891.861547
528.965860	10802.524739
529.327669	10828.103554
529.689421	10768.461663
530.051117	10721.218490
530.412755	10792.923862
530.774337	10672.737713
531.135862	10632.264809
531.497331	10648.396502
531.858743	10485.395833
532.220098	10614.835020
532.581396	10476.725049
532.942638	10439.959914
533.303824	10379.425738
533.664953	10366.124654
534.026025	10265.127657
534.387040	10328.691566
534.747999	10308.726076
535.108902	10331.486886
535.469748	10094.187171
535.830537	10158.416512
536.191270	10116.166602
536.551947	10105.118913
536.912567	10075.300488
537.273131	9984.567281
537.633638	9919.889277
537.994089	9888.845852
538.354483	9813.762906
538.714821	9918.175285
539.075103	9892.268795
539.435328	9821.536366
539.795497	9649.285180
540.155609	9746.004757
540.515665	9794.740112
540.875665	9528.340337
541.235609	9551.663236
541.595496	9519.672073
541.955328	9610.869067
542.315102	9488.731992
542.674821	9403.869208
543.034483	9371.290751
543.394090	9330.580913
543.753640	9239.857788
544.113134	9377.758551
544.472571	9221.381959
544.831953	9295.376015
545.191278	9097.876210
545.550548	9081.605886
545.909761	9156.099017
546.268918	9090.485879
546.628019	9119.744736
546.987064	8963.514337
547.346053	8869.088484
547.704986	8890.634376
548.063863	8845.137962
548.422684	8803.399729
548.781449	8694.984674
549.140158	8739.112415
549.498811	8600.412628
549.857408	8457.871483
550.215949	8566.667144
550.574434	8427.536339
550.932864	8446.057539
551.291237	8455.784445
551.649555	8359.838684
552.007817	8330.491607
552.366022	8260.951411
552.724173	8202.451341
553.082267	8157.133888
553.440305	8185.976850
553.798288	8024.140688
554.156215	8068.497801
554.514086	8007.865323
554.871902	7862.337294
555.229661	7841.081268
555.587365	7784.534646
555.945014	7680.616300
556.302606	7693.554422
556.660143	7595.932478
557.017625	7628.077395
557.375050	7520.196703
557.732421	7556.767753
558.089735	7451.649613
558.446994	7409.210660
558.804197	7385.121506
559.161345	7338.899166
559.518437	7209.142387
559.875474	7208.338323
560.232455	7178.913108
560.589381	7106.219669
560.946251	7040.009155
561.303065	7070.639206
561.659825	6977.007335
562.016528	6897.899028
562.373177	6794.525127
562.729770	6794.872967
563.086307	6712.245935
563.442789	6720.853705
563.799216	6587.908396
564.155587	6574.725778
564.511904	6502.118039
564.868164	6455.152130
565.224370	6421.767088
565.580520	6326.421225
565.936615	6305.891126
566.292654	6183.484349
566.648638	6208.871600
567.004567	6140.241331
567.360441	6090.439772
567.716260	5997.632130
568.072023	6001.226473
568.427732	5926.811480
568.783385	5861.969639
569.138982	5829.822201
569.494525	5798.045288
569.850013	5705.144384
570.205445	5694.139545
570.560823	5617.168687
570.916145	5540.734713
571.271412	5522.084964
571.626625	5463.148835
571.981782	5419.202576
572.336884	5362.865161
572.691931	5340.363971
573.046923	5264.799595
573.401860	5217.228747
573.756743	5154.294983
574.111570	5126.881188
574.466342	5094.600159
574.821059	5061.225200
575.175722	4992.496629
575.530330	4948.724290
575.884882	4917.685906
576.239380	4854.704251
576.593823	4812.028363
576.948211	4780.566522
577.302544	4716.054876
577.656823	4675.372764
578.011047	4652.722860
578.365216	4602.921301
578.719330	4554.458169
579.073389	4519.787633
579.427394	4476.395901
579.781344	4438.670427
580.135239	4394.146956
580.489080	4368.379098
580.842866	4307.623112
581.196597	4285.673928
581.550273	4266.777163
581.903895	4223.088003
582.257463	4216.060634
582.610975	4151.581756
582.964434	4138.099190
583.317837	4086.727312
583.671186	4061.140936
584.024481	4028.267571
584.377721	3987.971108
584.730906	3953.121612
585.084037	3936.120320
585.437113	3900.996081
585.790135	3875.835682
586.143103	3836.010567
586.496016	3806.245074
586.848874	3789.349647
587.201679	3768.733848
587.554428	3720.449676
587.907124	3708.761761
588.259765	3683.682021
588.612352	3663.308198
588.964884	3628.725882
589.317362	3606.822069
589.669786	3587.259871
590.022155	3576.386102
590.374470	3555.611507
590.726731	3531.056047
591.078937	3488.319665
591.431090	3474.935402
591.783188	3444.454065
592.135232	3419.465065
592.487222	3409.133221
592.839157	3393.815675
593.191038	3370.444885
593.542866	3345.990248
593.894639	3311.561688
594.246358	3303.475677
594.598022	3288.687452
594.949633	3262.249121
595.301190	3244.143817
595.652692	3235.084863
596.004141	3224.934500
596.355535	3191.468800
596.706876	3173.701254
597.058162	3152.528407
597.409395	3146.337871
597.760573	3139.219761
598.111698	3118.787965
598.462768	3103.803135
598.813785	3087.951227
599.164748	3071.164184
599.515657	3061.240673
599.866511	3040.705533
600.217312	3041.922972
600.568060	3015.729136
600.918753	3017.125536
601.269392	3003.789163
601.619978	2985.923314
601.970510	2979.667242
602.320988	2970.550315
602.671412	2962.615539
603.021783	2951.754373
603.372100	2941.966973
603.722363	2929.258224
604.072572	2921.570465
604.422728	2914.258271
604.772830	2895.598440
605.122878	2888.160218
605.472872	2883.524877
605.822813	2873.785367
606.172701	2866.266486
606.522534	2861.031248
606.872314	2859.609643
607.222041	2847.969618
607.571714	2845.953157
607.921333	2835.560818
608.270899	2827.099242
608.620411	2829.113182
608.969870	2816.389310
609.319276	2814.700524
609.668627	2809.276242
610.017926	2808.419246
610.367171	2803.347845
610.716362	2796.922895
611.065500	2790.606329
611.414585	2783.165586
611.763616	2780.662653
612.112594	2774.814914
612.461518	2768.717639
612.810389	2768.518513
613.159207	2759.348654
613.507971	2756.331524
613.856682	2756.452512
614.205340	2750.357757
614.553945	2746.390368
614.902496	2740.081364
615.250994	2737.699419
615.599439	2734.284037
615.947830	2728.010322
616.296169	2727.901937
616.644454	2726.129971
616.992686	2721.408931
617.340864	2720.383056
617.688990	2714.742005
618.037063	2715.467931
618.385082	2707.747404
618.733048	2709.410984
619.080961	2707.893597
619.428821	2704.974769
619.776628	2700.795652
620.124382	2697.198789
620.472083	2693.186031
620.819731	2691.819878
621.167326	2684.424505
621.514868	2684.366532
621.862357	2674.848834
622.209793	2675.073165
622.557176	2671.289779
622.904506	2665.903306
623.251783	2663.198727
623.599007	2659.286792
623.946179	2653.302942
624.293297	2653.953251
624.640363	2652.904691
624.987376	2651.644402
625.334336	2647.719864
625.681243	2645.327837
626.028097	2644.168371
626.374899	2642.504791
626.721647	2639.424646
627.068343	2641.045377
627.414987	2635.686630
627.761577	2634.438944
628.108115	2634.559932
628.454600	2631.772174
628.801032	2629.213788
629.147412	2628.308901
629.493739	2630.637914
629.840014	2629.077677
630.186236	2627.595578
630.532405	2626.670526
630.878521	2624.361678
631.224585	2623.053498
631.570597	2621.185751
631.916556	2620.260699
632.262462	2621.329424
632.608316	2618.042592
632.954117	2615.302724
633.299866	2616.923455
633.645562	2616.525204
633.991206	2614.929679
634.336797	2614.014710
634.682336	2612.525049
635.027823	2607.902311
635.373257	2607.698144
635.718639	2607.892228
636.063968	2606.299224
636.409245	2606.561364
636.754470	2604.123966
637.099642	2603.156064
637.444762	2603.448451
637.789829	2600.809407
638.134845	2599.118100
638.479808	2599.700353
638.824719	2602.707402
639.169577	2599.460898
639.514383	2600.597679
639.859137	2593.870259
640.203839	2599.503748
640.548489	2599.055086
640.893086	2593.814806
641.237632	2590.719538
641.582125	2591.238777
641.926566	2592.483942
642.270955	2593.610639
642.615292	2594.092070
642.959576	2595.654827
643.303809	2593.592995
643.647990	2592.191555
643.992118	2592.310022
644.336195	2591.296750
644.680219	2592.557038
645.024192	2593.000660
645.368112	2592.531832
645.711981	2591.999991
646.055797	2593.877821
646.399562	2595.627101
646.743274	2593.592995
647.086935	2594.631473
647.430544	2594.858325
647.774101	2592.980495
648.117606	2595.201123
648.461059	2595.745568
648.804460	2594.583582
649.147810	2592.688108
649.491108	2589.524784
649.834354	2593.161977
650.177548	2591.521081
650.520690	2588.420772
650.863781	2586.719382
651.206820	2591.667275
651.549807	2586.376584
651.892742	2588.508992
652.235626	2586.991604
652.578458	2585.627972
652.921238	2586.298446
653.263967	2589.305494
653.606644	2585.174268
653.949269	2583.077148
654.291843	2583.616552
654.634365	2587.183168
654.976836	2584.985225
655.319255	2584.592015
655.661622	2581.433732
656.003938	2585.083528
656.346203	2584.559248
656.688416	2582.968764
657.030577	2583.571182
657.372687	2583.641758
657.714746	2580.075141
658.056753	2580.178485
658.398708	2575.999368
658.740612	2579.790316
659.082465	2582.605801
659.424266	2578.585480
659.766016	2575.669173
660.107715	2581.310224
660.449362	2579.213104
660.790958	2581.085893
661.132503	2583.747622
661.473996	2578.973649
661.815438	2581.022878
662.156829	2581.481623
662.498168	2578.109091
662.839456	2581.562282
663.180693	2581.179154
663.521879	2582.338619
663.863013	2579.092116
664.204097	2579.268557
664.545129	2580.445666
664.886110	2582.381469
665.227040	2579.276118
665.567918	2584.433219
665.908746	2579.427353
666.249522	2579.727302
666.590248	2581.824422
666.930922	2581.595049
667.271545	2576.884091
667.612118	2581.181675
667.952639	2581.683269
668.293109	2583.175451
668.633528	2581.552199
668.973896	2579.742425
669.314213	2578.567836
669.654480	2581.683269
669.994695	2580.256623
670.334859	2580.707806
670.674973	2576.296797
671.015035	2579.860892
671.355047	2580.995152
671.695008	2577.491550
672.034918	2577.443659
672.374777	2580.014648
672.714585	2579.359298
673.054342	2580.627148
673.394049	2581.862230
673.733705	2580.095306
674.073310	2580.675039
674.412864	2579.215625
674.752368	2578.146900
675.091820	2577.242013
675.431223	2577.388206
675.770574	2577.526838
676.109875	2572.725139
676.449125	2573.317475
676.788324	2573.670355
677.127473	2572.909141
677.466571	2573.509038
677.805619	2576.027095
678.144616	2576.606827
678.483562	2576.132959
678.822458	2574.391240
679.161303	2574.860068
679.500098	2574.308061
679.838842	2573.924934
680.177535	2576.440469
680.516179	2575.220510
680.854771	2574.721436
681.193314	2575.959039
681.531805	2578.819894
681.870247	2579.286201
682.208638	2579.334092
682.546978	2580.037333
682.885268	2579.273598
683.223508	2577.955336
683.561697	2579.150090
683.899836	2578.386355
684.237925	2577.667990
684.575963	2579.797878
684.913951	2574.043401
685.251889	2577.756211
685.589776	2577.045408
685.927614	2579.439956
686.265401	2577.035326
686.603137	2576.969791
686.940824	2578.605645
687.278460	2576.344687
687.616046	2579.777713
687.953582	2577.894842
688.291068	2577.783937
688.628504	2581.158989
688.965889	2579.487847
689.303224	2579.581108
689.640510	2580.720409
689.977745	2575.376786
690.314930	2576.929461
690.652065	2578.240161
690.989150	2576.412743
691.326185	2574.355952
691.663170	2573.841755
692.000105	2572.367217
692.336990	2572.725139
692.673825	2571.243040
693.010610	2572.979717
693.347345	2568.006619
693.684030	2567.318502
694.020665	2566.521999
694.357251	2561.614436
694.693786	2568.674572
695.030272	2563.577965
695.366707	2568.815724
695.703093	2568.898903
696.039429	2569.859243
696.375716	2567.484860
696.711952	2565.233984
697.048139	2565.034859
697.384276	2566.040569
697.720363	2566.491752
698.056400	2564.908830
698.392388	2563.661144
698.728326	2566.191804
699.064214	2569.488718
699.400053	2565.849005
699.735842	2566.101063
700.071581	2563.368757
700.407270	2566.257339
700.742910	2562.327759
701.078501	2565.733059
701.414042	2563.915723
701.749533	2563.149467
702.084974	2563.719118
702.420366	2565.412945
702.755709	2563.000753
703.091002	2559.623180
703.426246	2560.472615
703.761440	2565.443192
704.096584	2563.522513
704.431679	2564.147616
704.766725	2562.249621
705.101721	2565.677606
705.436668	2564.319015
705.771565	2563.008315
706.106413	2560.686864
706.441212	2560.359189
706.775961	2562.846998
707.110661	2560.734755
707.445311	2562.902451
707.779913	2563.935887
708.114465	2563.787173
708.448967	2565.105435
708.783421	2563.847667
709.117825	2566.234653
709.452180	2565.435631
709.786485	2565.362534
710.120742	2568.843451
710.454949	2567.406722
710.789107	2566.209448
711.123216	2563.913202
711.457275	2567.815055
711.791286	2564.233315
712.125247	2565.481001
712.459159	2569.191290
712.793023	2571.986610
713.126837	2569.070302
713.460602	2565.856567
713.794318	2568.596434
714.127985	2567.706670
714.461602	2567.638615
714.795171	2567.084088
715.128691	2564.918912
715.462162	2566.146433
715.795584	2565.286917
716.128957	2563.938408
716.462281	2563.908161
716.795556	2564.180383
717.128782	2564.850857
717.461960	2562.723490
717.795088	2559.761812
718.128167	2561.122923
718.461198	2560.432285
718.794180	2560.023952
719.127113	2558.108313
719.459997	2557.558828
719.792833	2559.378684
720.125619	2558.783828
720.458357	2556.928683
720.791046	2557.485731
721.123686	2557.581513
721.456278	2559.487069
721.788821	2558.408262
722.121315	2558.677964
722.453761	2556.217881
722.786158	2557.977243
723.118506	2556.588406
723.450805	2556.512788
723.783056	2559.040927
724.115259	2557.006821
724.447412	2560.255845
724.779518	2558.622511
725.111574	2556.356512
725.443582	2558.559497
725.775542	2561.256514
726.107453	2561.228788
726.439315	2559.086297
726.771129	2563.512430
727.102895	2558.007490
727.434612	2558.930022
727.766281	2562.358006
728.097901	2559.441699
728.429473	2556.532953
728.760996	2556.477500
729.092471	2558.486400
729.423897	2559.315670
729.755276	2557.687377
730.086606	2559.446740
730.417887	2561.130485
730.749120	2562.915054
731.080305	2560.674261
731.411442	2561.944632
731.742530	2563.162070
732.073570	2563.971175
732.404562	2565.473439
732.735506	2565.874211
733.066401	2562.869683
733.397249	2564.165260
733.728048	2560.863304
734.058798	2560.943962
734.389501	2557.589075
734.720156	2560.139898
735.050762	2556.495144
735.381320	2556.129661
735.711831	2557.596636
736.042293	2556.311142
736.372707	2556.790052
736.703073	2556.560679
737.033391	2558.461194
737.363661	2556.931204
737.693883	2556.938766
738.024056	2559.797100
738.354182	2559.224929
738.684260	2558.483879
739.014290	2560.018911
739.344272	2557.447922
739.674207	2560.638973
740.004093	2561.364899
740.333931	2557.072356
740.663722	2556.658982
740.993464	2558.894733
741.323159	2561.133006
741.652806	2558.892213
741.982405	2559.713921
742.311956	2558.735937
742.641460	2558.998077
742.970915	2555.948179
743.300323	2556.351471
743.629683	2556.353992
743.958996	2555.176882
744.288260	2556.195196
744.617477	2554.045143
744.946647	2550.914587
745.275768	2553.530946
745.604842	2550.768393
745.933869	2552.656306
746.262847	2548.792261
746.591778	2554.934907
746.920662	2553.029351
747.249498	2551.892571
747.578286	2554.022458
747.907027	2556.885834
748.235720	2556.157387
748.564365	2558.060422
748.892963	2554.448436
749.221514	2553.891388
749.550017	2555.605381
749.878473	2552.749567
750.206881	2552.497509
750.535242	2552.946172
750.863555	2553.876265
751.191821	2554.685370
751.520039	2554.503888
751.848210	2555.360885
752.176334	2553.553631
752.504411	2554.647561
752.832440	2553.359547
753.160421	2553.972047
753.488356	2554.307283
753.816243	2555.156718
754.144082	2553.440205
754.471875	2552.421892
754.799620	2553.440205
755.127318	2554.695452
755.454969	2551.721172
755.782572	2552.275698
756.110129	2553.815771
756.437638	2553.281409
756.765100	2551.912735
757.092515	2550.723023
757.419882	2552.207643
757.747203	2553.230997
758.074477	2550.896943
758.401703	2554.342572
758.728882	2549.906356
759.056014	2552.137067
759.383099	2551.078424
759.710138	2553.588919
760.037129	2554.801317
760.364073	2555.189485
760.690970	2554.672767
761.017820	2555.948179
761.344623	2555.207129
761.671379	2555.461708
761.998088	2553.745195
762.324751	2555.507078
762.651366	2561.279199
762.977935	2570.973338
763.304456	2573.652711
763.630931	2579.787796
763.957359	2575.338977
764.283740	2570.118862
764.610074	2567.172308
764.936362	2561.468242
765.262602	2559.713921
765.588796	2559.729044
765.914943	2558.231822
766.241044	2554.972716
766.567097	2552.731923
766.893104	2552.298384
767.219064	2548.003321
767.544978	2551.985832
767.870845	2551.474155
768.196665	2550.861655
768.522438	2551.385935
768.848165	2548.033567
769.173846	2546.619524
769.499479	2551.108671
769.825066	2548.600697
770.150607	2546.687579
770.476101	2548.668753
770.801548	2548.799823
771.126949	2547.027857
771.452303	2549.860986
771.777611	2546.924514
772.102872	2546.833773
772.428087	2549.462735
772.753256	2547.302600
773.078378	2545.596170
773.403453	2542.987372
773.728482	2545.510470
774.053465	2546.433001
774.378401	2544.686241
774.703291	2546.503577
775.028135	2543.647764
775.352932	2544.330840
775.677683	2547.234545
776.002388	2542.982331
776.327046	2546.188505
776.651658	2546.569112
776.976224	2545.462579
777.300743	2544.978628
777.625216	2542.823535
777.949643	2545.891077
778.274024	2543.617517
778.598359	2541.575849
778.922647	2539.214069
779.246889	2540.930582
779.571086	2538.205838
779.895236	2543.262115
780.219339	2545.497867
780.543397	2541.585932
780.867409	2543.178936
781.191374	2542.863864
781.515294	2542.989893
781.839167	2546.453166
782.162995	2543.340253
782.486776	2545.709596
782.810511	2543.115922
783.134201	2544.517363
783.457844	2542.952084
783.781441	2543.947712
784.104993	2544.507280
784.428498	2542.929399
784.751958	2544.169523
785.075372	2547.214380
785.398739	2543.216745
785.722061	2543.683052
786.045337	2543.541899
786.368568	2545.631458
786.691752	2542.957126
787.014891	2543.937630
787.337983	2545.424770
787.661030	2548.043650
787.984031	2547.700851
788.306987	2548.567930
788.629897	2547.055584
788.952760	2549.666901
789.275579	2549.893753
789.598351	2547.736139
789.921078	2546.674977
790.243759	2544.222455
790.566395	2543.735984
790.888984	2543.453679
791.211529	2544.925696
791.534027	2543.037784
791.856480	2544.023330
792.178888	2543.166333
792.501249	2543.836807
792.823566	2546.667415
793.145836	2545.392003
793.468062	2544.880326
793.790241	2543.998124
794.112375	2544.293031
794.434464	2542.102650
794.756507	2544.230017
795.078505	2543.506611
795.400457	2543.294883
795.722364	2541.210366
796.044226	2541.941333
796.366042	2542.460572
796.687812	2542.067362
797.009538	2545.129863
797.331218	2545.485264
797.652852	2544.635830
797.974442	2544.088865
798.295986	2547.065666
798.617484	2543.380583
798.938938	2545.873433
799.260346	2544.572815
799.581709	2543.047866
799.903026	2549.117416
800.224299	2544.852599
800.545526	2543.640202
800.866708	2542.942002
801.187845	2544.088865
801.508936	2540.403781
801.829983	2543.272198
802.150984	2541.709440
802.471940	2547.433670
802.792851	2543.362938
803.113717	2546.269164
803.434538	2543.259595
803.755314	2543.609955
804.076045	2539.362783
804.396731	2541.653987
804.717372	2540.794471
805.037967	2541.520397
805.358518	2541.303627
805.679024	2542.384955
805.999485	2538.548637
806.319901	2545.896118
806.640272	2540.943185
806.960598	2543.496529
807.280879	2542.503422
807.601115	2542.377393
807.921306	2542.919317
808.241453	2542.185829
808.561554	2544.139276
808.881611	2540.744059
809.201623	2545.434853
809.521590	2543.688093
809.841513	2543.337733
810.161390	2542.669780
810.481223	2543.231868
810.801011	2542.586601
811.120755	2544.587939
811.440453	2542.599204
811.760107	2543.062990
812.079716	2538.785571
812.399281	2536.660724
812.718801	2539.146013
813.038276	2537.810108
813.357707	2541.946374
813.677093	2542.132897
813.996434	2539.997968
814.315731	2540.751621
814.634983	2541.979142
814.954191	2542.553833
815.273354	2540.282793
815.592473	2540.406302
815.911547	2545.265974
816.230577	2543.481406
816.549562	2544.797147
816.868502	2545.034081
817.187399	2540.849923
817.506250	2542.553833
817.825058	2541.331353
818.143821	2543.758669
818.462539	2545.240768
818.781213	2544.655994
819.099843	2546.775800
819.418429	2548.625903
819.736970	2556.817778
820.055466	2555.751574
820.373919	2557.208468
820.692327	2561.236349
821.010691	2566.244736
821.329011	2586.041347
821.647286	2621.962089
821.965517	2662.233346
822.283704	2681.107426
822.601847	2690.443643
822.919945	2672.723987
823.237999	2651.326810
823.556010	2628.497945
823.873976	2612.628392
824.191897	2598.140116
824.509775	2585.204515
824.827609	2579.051787
825.145398	2574.320664
825.463144	2573.367886
825.780845	2575.517938
826.098502	2581.330389
826.416116	2586.245514
826.733685	2597.850250
827.051210	2605.190170
827.368692	2600.764037
827.686129	2588.806420
828.003522	2578.588001
828.320872	2566.050651
828.638177	2560.386915
828.955439	2552.058929
829.272656	2553.752757
829.589830	2546.269164
829.906960	2547.461397
830.224046	2545.497867
830.541088	2546.170861
830.858086	2547.053063
831.175041	2543.899821
831.491952	2544.487116
831.808819	2547.020296
832.125642	2546.039791
832.442421	2548.414175
832.759157	2551.746377
833.075849	2560.228119
833.392497	2566.998388
833.709101	2575.671693
834.025662	2573.640108
834.342179	2567.328584
834.658653	2564.087122
834.975083	2557.458005
835.291469	2560.341545
835.607811	2553.488096
835.924110	2546.143135
836.240366	2545.447456
836.556578	2544.338402
836.872746	2544.270346
837.188871	2542.306817
837.504952	2541.525438
837.820990	2537.585776
838.136984	2541.301107
838.452935	2541.971580
838.768842	2540.476878
839.084706	2540.693647
839.400526	2543.317568
839.716303	2550.019782
840.032037	2555.514640
840.347727	2553.478014
840.663373	2550.481048
840.978977	2547.857127
841.294537	2546.485933
841.610054	2539.854295
841.925527	2541.835469
842.240957	2539.869419
842.556344	2540.935623
842.871687	2537.507638
843.186987	2538.072248
843.502244	2537.721887
843.817458	2540.063503
844.132629	2536.582587
844.447756	2538.714995
844.762840	2534.455220
845.077881	2536.973276
845.392879	2532.970600
845.707833	2536.045704
846.022745	2532.925229
846.337613	2538.427649
846.652438	2534.112421
846.967221	2535.276928
847.281960	2539.473688
847.596656	2535.586959
847.911309	2536.113759
848.225919	2533.013450
848.540485	2535.886907
848.855009	2535.269366
849.169490	2537.190046
849.483928	2535.924716
849.798323	2533.802390
850.112675	2535.869263
850.426984	2536.464119
850.741251	2536.718698
851.055474	2536.554860
851.369654	2535.680220
851.683792	2536.963194
851.997887	2534.528316
852.311938	2535.874304
852.625947	2538.606610
852.939914	2536.501928
853.253837	2535.496218
853.567718	2534.770292
853.881555	2535.985210
854.195350	2535.183666
854.509103	2534.281300
854.822812	2534.319108
855.136479	2535.980169
855.450103	2536.363296
855.763685	2538.399922
856.077224	2533.741896
856.390720	2536.817000
856.704173	2534.218285
857.017584	2534.727442
857.330953	2535.977648
857.644278	2535.218954
857.957561	2540.101312
858.270802	2538.813297
858.584000	2536.151568
858.897155	2536.401105
859.210268	2536.272556
859.523339	2537.298430
859.836367	2534.684592
860.149352	2537.227854
860.462295	2535.448327
860.775195	2534.422452
861.088054	2530.311391
861.400869	2534.661907
861.713642	2531.806093
862.026373	2534.329191
862.339062	2533.739376
862.651708	2536.927906
862.964312	2536.880015
863.276873	2538.291538
863.589392	2537.144675
863.901869	2535.763399
864.214303	2536.564943
864.526696	2538.253729
864.839045	2535.281969
865.151353	2537.013605
865.463619	2537.021167
865.775842	2537.908410
866.088023	2537.822710
866.400162	2539.690458
866.712258	2535.294572
867.024313	2537.149716
867.336325	2537.621064
867.648296	2538.548637
867.960224	2535.876825
868.272110	2535.302133
868.583954	2538.967052
868.895755	2538.049562
869.207515	2538.498225
869.519233	2535.155940
869.830909	2535.992772
870.142542	2537.726928
870.454134	2540.302958
870.765684	2536.454037
871.077191	2536.847247
871.388657	2538.962011
871.700081	2536.252391
872.011463	2536.305323
872.322803	2537.043852
872.634101	2538.528472
872.945357	2538.329346
873.256571	2542.700027
873.567744	2540.486960
873.878874	2538.273894
874.189963	2538.092412
874.501010	2537.860519
874.812015	2537.290869
875.122979	2536.970755
875.433900	2541.104502
875.744780	2542.909235
876.055618	2538.982176
876.366415	2537.681558
876.677169	2539.602238
876.987882	2535.508821
877.298554	2533.895652
877.609183	2537.789943
877.919771	2536.388502
878.230317	2539.824048
878.540822	2544.295552
878.851285	2544.398896
879.161707	2546.304452
879.472087	2548.971222
879.782425	2551.738816
880.092722	2557.886503
880.402977	2570.708677
880.713191	2588.067891
881.023363	2608.419029
881.333494	2623.900412
881.643583	2625.982409
881.953631	2624.860752
882.263637	2619.743981
882.573602	2612.313320
882.883526	2600.161619
883.193408	2589.978488
883.503248	2585.078487
883.813048	2578.303176
884.122806	2572.203380
884.432522	2565.914540
884.742197	2559.058571
885.051831	2560.457491
885.361424	2554.960113
885.670975	2551.176727
885.980485	2550.039947
886.289954	2546.128011
886.599382	2547.879812
886.908768	2545.507949
887.218113	2544.451828
887.527417	2540.829759
887.836680	2541.427135
888.145901	2539.876981
888.455082	2542.561395
888.764221	2542.170706
889.073319	2540.865047
889.382376	2539.100643
889.691392	2539.453524
890.000366	2539.297248
890.309300	2539.559388
890.618193	2542.531148
890.927044	2540.721374
891.235855	2540.295396
891.544625	2540.053421
891.853353	2542.687424
892.162041	2540.393699
892.470687	2543.269677
892.779293	2541.676672
893.087858	2542.858823
893.396381	2544.446787
893.704864	2552.457180
894.013306	2549.787889
894.321707	2560.676781
894.630068	2565.995199
894.938387	2570.406208
895.246665	2569.150961
895.554903	2564.573593
895.863100	2559.781977
896.171256	2558.836760
896.479371	2551.443908
896.787446	2553.294012
897.095480	2549.739998
897.403473	2544.555171
897.711425	2547.171530
898.019336	2545.384441
898.327207	2543.783875
898.635038	2544.093906
898.942827	2540.209697
899.250576	2541.921168
899.558284	2540.910417
899.865952	2540.050900
900.173579	2538.878832
900.481165	2540.028215
900.788711	2539.932433
901.096216	2539.851775
901.403681	2539.251877
901.711105	2538.432690
902.018489	2539.390509
902.325832	2540.691127
902.633135	2538.697351
902.940397	2541.628782
903.247619	2543.138607
903.554800	2550.445760
903.861941	2558.715772
904.169041	2574.287897
904.476101	2580.412899
904.783121	2580.329720
905.090100	2572.420149
905.397039	2567.532751
905.703938	2560.651576
906.010796	2555.428940
906.317614	2551.189330
906.624391	2544.046015
906.931129	2542.074924
907.237826	2542.843700
907.544483	2542.352187
907.851099	2538.906558
908.157675	2536.456558
908.464211	2540.769265
908.770707	2530.939015
909.077163	2537.401774
909.383578	2532.839530
909.689954	2533.739376
909.996289	2529.335928
910.302584	2538.178112
910.608839	2534.800539
910.915054	2536.935467
911.221229	2535.108049
911.527363	2538.127700
911.833458	2534.810621
912.139513	2536.890097
912.445527	2535.682741
912.751502	2536.963194
913.057436	2534.309026
913.363331	2539.551826
913.669186	2541.780016
913.975000	2539.307330
914.280775	2545.288659
914.586510	2544.363608
914.892205	2549.462735
915.197859	2555.340720
915.503475	2559.285423
915.809050	2569.392936
916.114585	2578.232600
916.420081	2578.088927
916.725536	2576.090109
917.030952	2573.877043
917.336328	2567.759602
917.641665	2562.582338
917.946961	2560.215516
918.252218	2556.510268
918.557435	2551.915256
918.862612	2548.613300
919.167750	2547.617672
919.472848	2545.162630
919.777906	2544.981149
920.082925	2541.822866
920.387904	2542.261446
920.692843	2539.408153
920.997743	2536.219623
921.302603	2539.408153
921.607423	2538.203318
921.912204	2541.790098
922.216946	2537.898328
922.521647	2536.433872
922.826310	2537.484953
923.130932	2537.232895
923.435516	2536.232226
923.740059	2533.371372
924.044564	2531.198634
924.349028	2536.963194
924.653454	2529.414066
924.957840	2533.353728
925.262186	2528.279806
925.566493	2531.503624
925.870761	2530.447502
926.174989	2532.773995
926.479178	2534.014119
926.783328	2532.093439
927.087438	2529.628315
927.391509	2531.760723
927.695541	2530.243336
927.999533	2532.060672
928.303486	2533.285672
928.607400	2529.000691
928.911275	2533.630991
929.215110	2531.622091
929.518906	2531.677544
929.822663	2532.927750
930.126381	2531.460774
930.430060	2531.591844
930.733699	2533.658717
931.037299	2532.373223
931.340861	2531.833820
931.644383	2532.582431
931.947866	2532.602596
932.251309	2530.455064
932.554714	2533.983872
932.858080	2533.086546
933.161407	2530.387008
933.464694	2534.835827
933.767943	2532.156453
934.071153	2531.793490
934.374323	2530.185362
934.677455	2531.831299
934.980548	2529.547656
935.283602	2532.244674
935.586617	2531.528830
935.889593	2531.420445
936.192530	2531.904396
936.495428	2532.400949
936.798287	2531.077647
937.101108	2531.193593
937.403890	2530.321473
937.706632	2532.751310
938.009336	2533.769623
938.312002	2534.810621
938.614628	2530.903727
938.917216	2536.716177
939.219765	2533.305837
939.522275	2534.747607
939.824747	2537.784902
940.127179	2531.334745
940.429573	2528.998171
940.731929	2530.381967
941.034246	2529.456916
941.336524	2533.691485
941.638763	2530.802904
941.940964	2533.822555
942.243126	2532.670651
942.545250	2533.217616
942.847335	2530.949097
943.149381	2531.617050
943.451389	2530.810465
943.753359	2531.264169
944.055290	2532.622760
944.357182	2530.780218
944.659036	2531.763243
944.960851	2530.046731
945.262628	2530.908768
945.564367	2530.893644
945.866067	2531.039838
946.167729	2530.893644
946.469352	2531.884231
946.770937	2532.892462
947.072484	2532.179139
947.373992	2530.873480
947.675462	2528.126051
947.976893	2532.816845
948.278286	2533.787267
948.579641	2532.176618
948.880958	2529.083870
949.182236	2532.978162
949.483476	2531.778367
949.784678	2531.138140
950.085841	2529.134282
950.386967	2533.620909
950.688054	2528.080681
950.989103	2530.291227
951.290114	2531.203675
951.591087	2530.124868
951.892021	2530.787780
952.192917	2532.229550
952.493776	2534.495549
952.794596	2533.527647
953.095378	2530.752492
953.396122	2534.175436
953.696828	2530.356762
953.997496	2534.155271
954.298126	2532.350538
954.598718	2530.132430
954.899272	2530.195445
955.199788	2528.857018
955.500266	2532.930271
955.800706	2531.967410
956.101108	2522.991636
956.401472	2527.082532
956.701798	2525.308046
957.002087	2526.291071
957.302337	2529.285516
957.602550	2529.174611
957.902724	2529.840043
958.202861	2529.240146
958.502960	2527.485824
958.803022	2529.653521
959.103045	2530.835671
959.403031	2529.799714
959.702979	2528.315094
960.002889	2530.177801
960.302762	2530.553367
960.602596	2528.652852
960.902393	2528.415917
961.202153	2529.905578
961.501875	2526.190248
961.801559	2528.652852
962.101205	2528.662934
962.400814	2531.372554
962.700385	2529.532533
962.999918	2529.303160
963.299414	2528.799045
963.598873	2528.196627
963.898293	2529.454395
964.197677	2526.394415
964.497022	2529.615712
964.796331	2526.449867
965.095601	2527.891637
965.394835	2530.664272
965.694030	2528.035310
965.993189	2527.478263
966.292309	2527.374919
966.591393	2527.596730
966.890439	2526.719569
967.189447	2528.552028
967.488419	2527.511030
967.787353	2528.786442
968.086249	2527.984899
968.385108	2530.387008
968.683930	2528.171421
968.982714	2527.841226
969.281462	2529.835002
969.580172	2529.262831
969.878844	2528.105886
970.177480	2530.291227
970.476078	2528.662934
970.774639	2528.491535
971.073162	2528.000022
971.371649	2526.470032
971.670098	2526.006246
971.968510	2525.814682
972.266885	2523.972140
972.565223	2528.239477
972.863524	2525.665968
973.161788	2530.336597
973.460014	2524.864424
973.758204	2530.656710
974.056356	2527.558921
974.354471	2529.676206
974.652550	2529.774508
974.950591	2527.884076
975.248595	2525.602953
975.546563	2528.524302
975.844493	2528.574714
976.142386	2530.323994
976.440243	2528.594878
976.738062	2527.672347
977.035845	2526.767460
977.333590	2528.206709
977.631299	2526.170083
977.928971	2526.565814
978.226606	2527.110258
978.524204	2528.272244
978.821765	2529.189734
979.119290	2527.115300
979.416777	2529.708973
979.714228	2526.563293
980.011642	2525.434075
980.309020	2528.652852
980.606360	2526.223015
980.903664	2529.325846
981.200931	2531.244005
981.498162	2524.667819
981.795356	2529.217461
982.092513	2530.639066
982.389633	2527.876514
982.686717	2528.090763
982.983764	2528.052954
983.280775	2529.242667
983.577749	2529.678726
983.874686	2530.911288
984.171587	2529.489683
984.468451	2530.129910
984.765279	2528.126051
985.062070	2527.816020
985.358824	2528.781401
985.655543	2528.123530
985.952224	2525.169414
986.248869	2528.854498
986.545478	2521.819568
986.842050	2528.287368
987.138586	2521.557427
987.435086	2525.179497
987.731549	2524.584640
988.027975	2527.747964
988.324366	2527.949611
988.620719	2526.747295
988.917037	2525.791997
989.213318	2529.421628
989.509563	2528.713345
989.805772	2529.313243
990.101944	2523.959537
990.398080	2526.349044
990.694180	2527.458098
990.990244	2525.479445
991.286271	2527.632018
991.582262	2529.101514
991.878217	2529.824920
992.174136	2526.578417
992.470019	2529.272913
992.765865	2525.020700
993.061676	2523.654547
993.357450	2525.192099
993.653188	2524.370391
993.948890	2526.628828
994.244556	2524.834177
994.540186	2525.204702
994.835780	2529.199817
995.131337	2526.717048
995.426859	2526.046575
995.722345	2526.959024
996.017795	2524.448529
996.313208	2525.948272
996.608586	2527.632018
996.903928	2529.025897
997.199234	2523.899043
997.494504	2526.442306
997.789738	2523.997346
998.084936	2530.870959
998.380099	2525.713859
998.675225	2529.524971
998.970316	2528.068078
999.265371	2525.169414
999.560390	2525.673530
999.855373	2525.635721
1000.150320	2528.234436
1000.445232	2527.669827
1000.740108	2525.552542
1001.034948	2526.467511
1001.329752	2526.505320
1001.624521	2527.969775
1001.919254	2521.151615
1002.213951	2523.997346
1002.508613	2522.986595
1002.803239	2524.405679
1003.097829	2520.886954
1003.392384	2526.762419
1003.686903	2526.709487
1003.981386	2526.485155
1004.275834	2526.200330
1004.570246	2526.560773
1004.864623	2523.231091
1005.158964	2525.131606
1005.453270	2527.175793
1005.747540	2525.038344
1006.041775	2526.777542
1006.335974	2524.446009
1006.630138	2525.925587
1006.924266	2527.463139
1007.218359	2526.764939
1007.512416	2526.568334
1007.806438	2524.428365
1008.100425	2528.181504
1008.394376	2525.635721
1008.688292	2524.718231
1008.982172	2526.321318
1009.276017	2524.446009
1009.569827	2528.955321
1009.863602	2528.526823
1010.157341	2525.129085
1010.451045	2527.178314
1010.744714	2524.078004
1011.038347	2525.802079
1011.331945	2527.148067
1011.625508	2524.110772
1011.919036	2525.834847
1012.212528	2524.335103
1012.505986	2525.408869
1012.799408	2525.479445
1013.092795	2526.838036
1013.386147	2525.532377
1013.679464	2526.878365
1013.972745	2526.059178
1014.265992	2527.332069
1014.559204	2528.289888
1014.852380	2528.602440
1015.145521	2526.714528
1015.438628	2525.542460
1015.731699	2527.140505
1016.024736	2524.647655
1016.317737	2526.543129
1016.610703	2527.934487
1016.903635	2523.624301
1017.196531	2519.525843
1017.489393	2522.958868
1017.782219	2518.076511
1018.075011	2523.296626
1018.367768	2524.022552
1018.660490	2524.322500
1018.953177	2524.322500
1019.245829	2524.322500
