Dividing Wavelength (nm)	Counts (n)	Blue Motor Position (mm): 0.000000	Red Motor Position (mm): 34.900000	
326.493990	2125.408435
326.888308	2125.408435
327.282561	2125.408435
327.676750	2094.901892
328.070874	2091.718404
328.464933	2096.704105
328.858929	2103.061000
329.252859	2113.080293
329.646726	2123.858280
330.040528	2136.226751
330.434265	2151.249389
330.827938	2170.299910
331.221547	2189.403362
331.615091	2207.445652
332.008571	2229.684702
332.401986	2245.410582
332.795338	2265.948242
333.188625	2286.364915
333.581847	2304.845785
333.975006	2321.080821
334.368100	2340.824500
334.761129	2358.909640
335.154095	2376.001672
335.546996	2393.302912
335.939833	2413.797723
336.332606	2428.447316
336.725315	2441.697989
337.117960	2450.552776
337.510540	2457.464197
337.903056	2470.661938
338.295508	2474.790643
338.687896	2487.143991
339.080220	2492.026348
339.472480	2500.702174
339.864676	2504.311640
340.256807	2510.633247
340.648875	2511.598628
341.040879	2516.201202
341.432818	2518.288239
341.824694	2518.063908
342.216506	2518.625997
342.608253	2516.239010
342.999937	2518.943589
343.391557	2516.778414
343.783113	2516.339833
344.174605	2517.441325
344.566033	2512.793382
344.957397	2514.237672
345.348697	2512.616941
345.739934	2509.491426
346.131106	2508.594100
346.522215	2505.037566
346.913260	2505.428256
347.304241	2502.743841
347.695159	2504.268790
348.086012	2499.963645
348.476802	2498.801659
348.867528	2498.668068
349.258191	2495.716473
349.648789	2494.209168
350.039324	2491.804538
350.429796	2494.138592
350.820203	2490.698004
351.210548	2488.880668
351.600828	2487.701038
351.991045	2488.346306
352.381198	2487.431337
352.771288	2489.034423
353.161314	2486.965030
353.551276	2487.360760
353.941175	2488.016110
354.331010	2486.453353
354.720782	2488.426964
355.110490	2487.146511
355.500135	2486.171048
355.889717	2487.907726
356.279235	2488.981491
356.668689	2489.074753
357.058080	2487.980822
357.447408	2488.454691
357.836672	2482.821201
358.225873	2489.054588
358.615010	2487.423775
359.004084	2491.887717
359.393095	2490.967706
359.782043	2492.069198
360.170927	2490.813951
360.559748	2494.153715
360.948505	2493.568941
361.337199	2494.098263
361.725830	2494.725886
362.114398	2495.401401
362.502903	2497.150681
362.891344	2494.884683
363.279722	2499.371309
363.668037	2499.280569
364.056289	2499.787205
364.444478	2499.323418
364.832603	2498.516834
365.220665	2498.773933
365.608665	2503.005981
365.996601	2502.859788
366.384474	2505.234171
366.772284	2506.426404
367.160031	2508.410098
367.547715	2507.154851
367.935336	2510.885305
368.322893	2513.078207
368.710388	2516.483506
369.097820	2524.544311
369.485189	2525.116482
369.872495	2533.106711
370.259738	2539.831610
370.646918	2545.255892
371.034035	2555.312994
371.421090	2564.508058
371.808081	2575.719584
372.195010	2583.966912
372.581875	2597.426793
372.968678	2608.426591
373.355418	2618.367746
373.742096	2639.054121
374.128710	2650.222797
374.515262	2666.077226
374.901751	2681.790502
375.288177	2695.542770
375.674540	2718.159907
376.060841	2733.711867
376.447079	2754.473859
376.833254	2776.465892
377.219367	2786.560803
377.605417	2826.945486
377.991404	2832.846157
378.377329	2859.133254
378.763191	2874.488608
379.148991	2911.357087
379.534727	2938.619647
379.920402	2965.655355
380.306013	2979.886532
380.691563	3025.735827
381.077049	3049.696431
381.462474	3066.004563
381.847835	3106.570728
382.233134	3127.952782
382.618371	3125.233080
383.003545	3194.438040
383.388657	3201.059596
383.773706	3233.864904
384.158693	3250.306627
384.543618	3279.484826
384.928480	3313.802481
385.313280	3362.792414
385.698017	3361.151518
386.082692	3411.076585
386.467305	3413.874426
386.851856	3447.488840
387.236344	3472.427428
387.620770	3503.203672
388.005133	3532.626366
388.389435	3555.533369
388.773674	3569.615833
389.157851	3610.857512
389.541965	3623.450315
389.926018	3590.203905
390.310008	3660.507837
390.693936	3681.632792
391.077802	3721.314234
391.461606	3709.669169
391.845348	3774.574025
392.229027	3770.551184
392.612645	3784.527783
392.996200	3868.727655
393.379694	3904.141761
393.763125	3968.439157
394.146494	3935.936318
394.529801	3996.561234
394.913047	4045.717525
395.296230	4011.369624
395.679351	4069.229467
396.062410	4088.350563
396.445408	4073.940425
396.828343	4105.356896
397.211217	4129.375473
397.594028	4051.426632
397.976778	4115.227475
398.359466	4137.980723
398.742092	4171.111186
399.124656	4094.528497
399.507158	4172.941125
399.889598	4198.141853
400.271977	4262.000669
400.654294	4229.628900
401.036549	4240.137185
401.418742	4205.708625
401.800874	4312.092095
402.182944	4330.608253
402.564952	4394.146956
402.946898	4384.926685
403.328783	4381.249164
403.710606	4292.827325
404.092367	4483.929906
404.474067	4451.197694
404.855705	4462.378973
405.237282	4386.023136
405.618797	4494.183613
406.000250	4530.167369
406.381642	4610.664513
406.762972	4573.808638
407.144240	4585.935133
407.525447	4583.280966
407.906593	4642.615347
408.287677	4684.477088
408.668700	4614.762972
409.049661	4664.181403
409.430560	4705.652455
409.811399	4635.635869
410.192176	4795.397596
410.572891	4734.936517
410.953545	4835.878062
411.334138	4714.325760
411.714669	4785.620278
412.095139	4678.697405
412.475547	4821.460362
412.855894	4800.652999
413.236180	4812.424093
413.616405	4764.875930
413.996568	4852.166030
414.376670	4791.591525
414.756711	4749.565946
415.136691	4781.055513
415.516609	4859.604252
415.896466	4897.385180
416.276262	4931.614614
416.655997	4908.190893
417.035670	5095.552937
417.415283	5183.243808
417.794834	5127.758349
418.174324	5079.907716
418.553753	4988.191484
418.933121	5173.640410
419.312428	5240.917129
419.691674	5180.864384
420.070859	5305.421213
420.449983	5215.408891
420.829045	5330.994987
421.208047	5237.163990
421.586988	5308.818951
421.965867	5319.488553
422.344686	5454.667093
422.723444	5307.092356
423.102141	5128.753977
423.480777	5425.950160
423.859352	5195.496333
424.237866	5453.941167
424.616319	5449.739365
424.994712	5555.840530
425.373044	5430.910656
425.751314	5573.459363
426.129524	5377.696236
426.507673	5572.574641
426.885762	5655.579759
427.263789	5587.551909
427.641756	5468.245441
428.019662	5589.338998
428.397508	5597.566161
428.775292	5541.518612
429.153016	5647.145909
429.530679	5568.796296
429.908282	5655.693185
430.285824	5524.860119
430.663305	5797.591584
431.040726	5532.557961
431.418086	5530.904463
431.795385	5639.863962
432.172624	5655.423483
432.549802	5643.735568
432.926920	5658.932127
433.303977	5668.074259
433.680974	5707.496082
434.057910	5721.230706
434.434786	5727.169185
434.811601	5696.057704
435.188355	5933.276760
435.565050	5807.149611
435.941683	5790.372651
436.318257	6003.963819
436.694770	5982.244008
437.071222	6020.634915
437.447614	5957.963290
437.823946	5864.530545
438.200218	6014.008318
438.576429	5885.761364
438.952580	5985.188042
439.328670	6026.462489
439.704700	5933.750628
440.080670	5918.496097
440.456580	6192.596234
440.832429	6077.257155
441.208218	5921.583804
441.583947	6077.975519
441.959616	6077.710859
442.335224	6005.077914
442.710773	6147.523278
443.086261	6176.295663
443.461689	5966.034178
443.837057	6110.737978
444.212365	6269.108347
444.587612	6163.617162
444.962800	6318.178938
445.337927	6298.324354
445.712995	5907.879427
446.088002	6483.138095
446.462949	6313.886396
446.837837	6245.845942
447.212664	6417.265338
447.587431	6561.306227
447.962139	7102.433763
448.336786	8028.902058
448.711374	7766.005885
449.085901	6843.895667
449.460369	6765.160406
449.834776	6697.540889
450.209124	7088.910868
450.583412	7236.064669
450.957640	7390.593678
451.331808	7151.935373
451.705917	6696.951074
452.079965	6627.352904
452.453954	6837.160686
452.827883	6720.483180
453.201752	6813.101779
453.575562	6611.168279
453.949311	6809.525080
454.323001	6699.277566
454.696632	6772.331447
455.070202	6911.989053
455.443713	7071.166006
455.817164	7164.578587
456.190556	7245.741164
456.563888	7330.069585
456.937160	7367.696758
457.310373	7026.206476
457.683526	7055.896351
458.056619	6938.772703
458.429653	6929.388595
458.802628	6862.684048
459.175542	6972.581202
459.548398	7327.181004
459.921194	7489.473391
460.293930	7495.948753
460.666607	8025.935339
461.039224	8328.923808
461.411782	8456.638921
461.784280	8471.510324
462.156719	8365.996454
462.529099	8244.202177
462.901419	7839.445414
463.273680	7729.008857
463.645882	7740.356494
464.018024	7604.580577
464.390106	7768.813808
464.762130	8154.202457
465.134094	8631.609809
465.505999	9651.604111
465.877845	10869.428413
466.249631	11516.654593
466.621358	11133.456325
466.993026	10506.359472
467.364634	10252.953271
467.736184	9890.259895
468.107674	9555.020644
468.479105	9583.722453
468.850477	9349.686886
469.221790	9117.312379
469.593043	8795.616187
469.964238	8653.037233
470.335373	8667.346548
470.706449	8730.751661
471.077467	8706.208803
471.448425	10011.875211
471.819324	11084.330281
472.190164	11117.254056
472.560945	9865.926246
472.931667	9073.746728
473.302330	8942.321326
473.672934	8586.249507
474.043479	8944.317623
474.413965	8885.913335
474.784393	8767.065613
475.154761	8924.475642
475.525070	9014.031740
475.895321	8831.201692
476.265513	9013.388993
476.635645	9183.704375
477.005719	9183.469962
477.375734	9295.630593
477.745691	9535.602119
478.115588	9664.811934
478.485427	9911.788143
478.855207	10444.716242
479.224928	11255.306054
479.594591	11890.461192
479.964194	11698.955319
480.333739	11643.056485
480.703226	11555.300079
481.072653	11642.091104
481.442022	11881.805531
481.811333	12076.008421
482.180584	11884.038762
482.549777	11589.584966
482.918912	11414.664489
483.287988	11435.837335
483.657005	11443.895620
484.025964	11130.416509
484.394864	11256.606672
484.763706	11225.114584
485.132489	10982.670372
485.501213	10943.949269
485.869879	11026.278873
486.238487	10866.486899
486.607036	10975.819444
486.975527	10754.951371
487.343959	10947.747779
487.712333	10989.549027
488.080648	10928.425036
488.448905	10964.675973
488.817104	10904.081304
489.185244	11169.009062
489.553326	11325.597383
489.921350	11857.950791
490.289315	12923.590220
490.657222	13264.168053
491.025070	13177.495495
491.392861	13037.313610
491.760593	12674.690811
492.128267	12318.903816
492.495883	11987.165646
492.863440	11653.388330
493.230939	11327.472692
493.598380	11259.643967
493.965763	11123.565581
494.333088	11014.921154
494.700354	10939.223188
495.067563	10999.457414
495.434713	10825.653553
495.801805	10952.670466
496.168839	10879.024249
496.535815	10818.316154
496.902733	10818.190125
497.269593	10749.902655
497.636395	10844.247849
498.003139	10831.208905
498.369825	10701.807527
498.736453	10856.704540
499.103023	10779.874835
499.469535	10814.273148
499.835989	10797.526435
500.202385	10761.525035
500.568723	10605.191293
500.935003	10824.768831
501.301226	10635.037444
501.667390	10887.211083
502.033497	10980.653911
502.399546	10844.338590
502.765537	10751.041956
503.131470	10816.319857
503.497345	10989.793523
503.863163	10605.193813
504.228923	10910.266800
504.594625	10970.591767
504.960269	10716.346214
505.325856	10925.488564
505.691385	10726.819212
506.056856	10874.255317
506.422270	10891.410364
506.787625	10778.128075
507.152924	10891.105374
507.518164	10869.017559
507.883347	10775.909968
508.248472	10695.987515
508.613540	10925.879253
508.978550	10792.792792
509.343503	10768.887640
509.708398	10869.335151
510.073236	10985.957204
510.438016	10981.727676
510.802738	10920.654097
511.167403	10964.577671
511.532010	10858.557164
511.896561	11069.196737
512.261053	11135.898764
512.625488	10995.699234
512.989866	10964.514657
513.354186	10959.239089
513.718449	10844.678868
514.082655	11025.124449
514.446803	10906.435523
514.810894	11012.531647
515.174927	10873.887313
515.538904	10880.831503
515.902822	11018.661690
516.266684	10891.876671
516.630488	10815.369599
516.994235	10859.688903
517.357925	10895.420602
517.721558	10977.457819
518.085133	10970.954731
518.448651	10963.014913
518.812112	10831.483648
519.175516	10828.695890
519.538863	10923.020919
519.902152	10828.055663
520.265385	10957.449479
520.628560	10859.242761
520.991678	10804.858794
521.354739	10846.655000
521.717743	10763.722978
522.080690	10724.248223
522.443580	10819.407564
522.806413	10748.317212
523.169189	10753.257543
523.531908	10783.834662
523.894569	10595.880282
524.257174	10563.805940
524.619722	10645.714608
524.982213	10575.130892
525.344647	10586.029867
525.707025	10503.334779
526.069345	10569.895654
526.431608	10457.921545
526.793815	10519.584939
527.155964	10299.654520
527.518057	10321.507922
527.880093	10242.616385
528.242072	10264.951217
528.603995	10144.901179
528.965860	10044.718329
529.327669	10056.617972
529.689421	9972.304674
530.051117	9915.377444
530.412755	9949.528741
530.774337	9826.166665
531.135862	9759.827601
531.497331	9756.046736
531.858743	9587.450387
532.220098	9681.198204
532.581396	9528.796562
532.942638	9483.574891
533.303824	9412.436649
533.664953	9373.125731
534.026025	9262.013659
534.387040	9298.062950
534.747999	9260.203885
535.108902	9258.391590
535.469748	9023.680508
535.830537	9062.998988
536.191270	8996.881734
536.551947	8970.808887
536.912567	8917.370135
537.273131	8825.464859
537.633638	8759.662678
537.994089	8700.708905
538.354483	8622.218139
538.714821	8687.828757
539.075103	8640.008371
539.435328	8560.653048
539.795497	8403.434583
540.155609	8453.876368
540.515665	8468.473029
540.875665	8238.503153
541.235609	8232.191628
541.595496	8185.452570
541.955328	8232.867142
542.315102	8112.315510
542.674821	8023.681943
543.034483	7974.543296
543.394090	7923.385667
543.753640	7823.810275
544.113134	7906.908655
544.472571	7766.613344
544.831953	7799.370762
545.191278	7628.331973
545.550548	7594.460461
545.909761	7629.199052
546.268918	7556.445119
546.628019	7553.223822
546.987064	7410.612100
547.346053	7328.509348
547.704986	7319.556259
548.063863	7268.585152
548.422684	7218.017338
548.781449	7109.367870
549.140158	7112.906760
549.498811	6994.303533
549.857408	6878.241048
550.215949	6928.009840
550.574434	6806.802857
550.932864	6800.274563
551.291237	6791.021525
551.649555	6699.935437
552.007817	6664.649881
552.366022	6600.264264
552.724173	6544.325100
553.082267	6490.775443
553.440305	6490.059599
553.798288	6364.116453
554.156215	6371.242124
554.514086	6311.292722
554.871902	6198.857348
555.229661	6162.780330
555.587365	6103.748418
555.945014	6017.900089
556.302606	6007.840467
556.660143	5928.444814
557.017625	5927.285349
557.375050	5840.945507
557.732421	5849.225602
558.089735	5761.113794
558.446994	5719.990582
558.804197	5684.435324
559.161345	5636.609897
559.518437	5542.229415
559.875474	5515.211351
560.232455	5481.130630
560.589381	5423.369090
560.946251	5359.296024
561.303065	5372.261872
561.659825	5285.274242
562.016528	5224.427515
562.373177	5145.241070
562.729770	5119.553871
563.086307	5061.525149
563.442789	5057.688831
563.799216	4956.084375
564.155587	4942.518630
564.511904	4880.822469
564.868164	4842.401315
565.224370	4810.977282
565.580520	4731.906784
565.936615	4715.822983
566.292654	4629.420126
566.648638	4637.438082
567.004567	4578.751489
567.360441	4543.012229
567.716260	4478.523268
568.072023	4466.210250
568.427732	4412.204369
568.783385	4373.092577
569.138982	4344.209286
569.494525	4315.300789
569.850013	4251.888115
570.205445	4235.196854
570.560823	4190.270091
570.916145	4133.612563
571.271412	4116.568422
571.626625	4075.409922
571.981782	4039.597565
572.336884	4004.019621
572.691931	3985.223679
573.046923	3934.250052
573.401860	3896.600195
573.756743	3860.404710
574.111570	3836.610464
574.466342	3812.969973
574.821059	3785.142804
575.175722	3746.542689
575.530330	3712.782081
575.884882	3689.517156
576.239380	3651.826970
576.593823	3623.929224
576.948211	3599.540122
577.302544	3570.167839
577.656823	3540.281358
578.011047	3522.246631
578.365216	3493.317969
578.719330	3468.298723
579.073389	3444.252419
579.427394	3416.261412
579.781344	3393.556055
580.135239	3368.962786
580.489080	3354.156917
580.842866	3321.694407
581.196597	3303.828558
581.550273	3293.108544
581.903895	3266.549225
582.257463	3261.266096
582.610975	3232.082856
582.964434	3221.708162
583.317837	3195.365612
583.671186	3182.540917
584.024481	3166.305881
584.377721	3144.180257
584.730906	3125.956486
585.084037	3115.566668
585.437113	3098.010849
585.790135	3082.985690
586.143103	3064.262845
586.496016	3047.589228
586.848874	3036.143289
587.201679	3030.063657
587.554428	3004.933505
587.907124	2997.943945
588.259765	2985.232676
588.612352	2976.524083
588.964884	2961.756023
589.317362	2951.837552
589.669786	2940.988989
590.022155	2937.707198
590.374470	2924.305291
590.726731	2915.294228
591.078937	2897.521640
591.431090	2892.697256
591.783188	2876.926006
592.135232	2865.500231
592.487222	2863.004860
592.839157	2853.444312
593.191038	2841.504339
593.542866	2830.834737
593.894639	2819.779486
594.246358	2815.872592
594.598022	2810.140800
594.949633	2796.842236
595.301190	2791.344858
595.652692	2787.684980
596.004141	2784.078035
596.355535	2771.533123
596.706876	2765.120776
597.058162	2754.463776
597.409395	2752.953951
597.760573	2749.437746
598.111698	2740.822414
598.462768	2734.241188
598.813785	2729.515106
599.164748	2726.845815
599.515657	2718.114537
599.866511	2714.419371
600.217312	2716.566902
600.568060	2706.650953
600.918753	2705.773792
601.269392	2700.886393
601.619978	2694.310208
601.970510	2694.867256
602.320988	2688.764939
602.671412	2690.206709
603.021783	2684.507684
603.372100	2681.735050
603.722363	2679.453928
604.072572	2676.671211
604.422728	2675.199194
604.772830	2666.520847
605.122878	2661.681340
605.472872	2663.493635
605.822813	2659.828716
606.172701	2656.723365
606.522534	2660.312667
606.872314	2655.107675
607.222041	2654.948879
607.571714	2651.714979
607.921333	2650.215235
608.270899	2649.852272
608.620411	2650.331182
608.969870	2646.850265
609.319276	2647.185502
609.668627	2649.002838
610.017926	2651.367139
610.367171	2648.813795
610.716362	2646.757004
611.065500	2643.341622
611.414585	2642.572846
611.763616	2641.743576
612.112594	2638.910448
612.461518	2639.096971
612.810389	2638.451703
613.159207	2636.241157
613.507971	2632.482977
613.856682	2634.116311
614.205340	2634.305354
614.553945	2632.528347
614.902496	2630.353089
615.250994	2628.046761
615.599439	2627.870321
615.947830	2628.553397
616.296169	2627.023407
616.644454	2628.046761
616.992686	2625.201030
617.340864	2626.937707
617.688990	2624.580968
618.037063	2624.258334
618.385082	2625.632049
618.733048	2625.705145
619.080961	2626.012656
619.428821	2621.629372
619.776628	2624.903602
620.124382	2623.308077
620.472083	2618.077880
620.819731	2621.861266
621.167326	2619.504526
621.514868	2617.422530
621.862357	2615.053187
622.209793	2615.955554
622.557176	2612.943464
622.904506	2610.553957
623.251783	2609.770058
623.599007	2610.354832
623.946179	2607.320057
624.293297	2605.384254
624.640363	2605.631271
624.987376	2606.422732
625.334336	2607.897269
625.681243	2607.451127
626.028097	2604.406270
626.374899	2607.829214
626.721647	2606.180757
627.068343	2605.222937
627.414987	2601.558018
627.761577	2601.696650
628.108115	2601.313522
628.454600	2600.859819
628.801032	2598.737493
629.147412	2601.366455
629.493739	2600.204469
629.840014	2598.629108
630.186236	2601.847885
630.532405	2601.167329
630.878521	2596.345465
631.224585	2601.550457
631.570597	2596.796649
631.916556	2596.612647
632.262462	2595.700198
632.608316	2597.595672
632.954117	2592.536874
633.299866	2593.683736
633.645562	2594.560897
633.991206	2595.611977
634.336797	2593.517378
634.682336	2592.559559
635.027823	2589.015628
635.373257	2592.022676
635.718639	2586.482448
636.063968	2591.911771
636.409245	2588.869434
636.754470	2585.670822
637.099642	2587.331882
637.444762	2590.298601
637.789829	2589.623087
638.134845	2587.715010
638.479808	2587.165524
638.824719	2586.610997
639.169577	2585.038157
639.514383	2585.239803
639.859137	2586.174937
640.203839	2583.714854
640.548489	2583.316603
640.893086	2581.474062
641.237632	2576.432908
641.582125	2581.050605
641.926566	2581.388362
642.270955	2585.592684
642.615292	2581.315265
642.959576	2584.667632
643.303809	2584.728126
643.647990	2585.156624
643.992118	2583.750142
644.336195	2583.117478
644.680219	2585.060842
645.024192	2583.437591
645.368112	2583.177972
645.711981	2583.616552
646.055797	2586.245514
646.399562	2584.672674
646.743274	2585.950606
647.086935	2586.646285
647.430544	2585.796851
647.774101	2587.273909
648.117606	2587.803230
648.461059	2584.864237
648.804460	2587.520926
649.147810	2586.527818
649.491108	2587.372212
649.834354	2583.692169
650.177548	2584.697879
650.520690	2581.980697
650.863781	2580.004565
651.206820	2585.270050
651.549807	2581.776531
651.892742	2582.182344
652.235626	2578.162023
652.578458	2578.156982
652.921238	2578.978690
653.263967	2581.703434
653.606644	2579.049267
653.949269	2580.397775
654.291843	2578.948443
654.634365	2580.120512
654.976836	2576.881570
655.319255	2580.150759
655.661622	2578.764441
656.003938	2576.639595
656.346203	2577.592373
656.688416	2578.222517
657.030577	2576.652198
657.372687	2575.971642
657.714746	2576.105233
658.056753	2577.806622
658.398708	2571.358986
658.740612	2573.516600
659.082465	2574.746642
659.424266	2574.829821
659.766016	2573.282187
660.107715	2573.856878
660.449362	2575.533062
660.790958	2575.533062
661.132503	2574.749162
661.473996	2575.911148
661.815438	2579.238310
662.156829	2576.828638
662.498168	2575.381827
662.839456	2576.107753
663.180693	2575.938875
663.521879	2576.332085
663.863013	2576.687486
664.204097	2572.417629
664.545129	2577.010120
664.886110	2577.403330
665.227040	2575.757393
665.567918	2575.419636
665.908746	2578.741756
666.249522	2576.773186
666.590248	2578.010789
666.930922	2575.684296
667.271545	2578.708989
667.612118	2577.922569
667.952639	2577.347877
668.293109	2578.356108
668.633528	2577.017682
668.973896	2578.247723
669.314213	2577.577250
669.654480	2575.800243
669.994695	2576.896694
670.334859	2578.247723
670.674973	2576.097671
671.015035	2578.764441
671.355047	2576.246385
671.695008	2577.433577
672.034918	2576.374934
672.374777	2578.237641
672.714585	2574.116497
673.054342	2577.146231
673.394049	2577.398289
673.733705	2576.576581
674.073310	2577.824266
674.412864	2577.070614
674.752368	2575.308730
675.091820	2577.181519
675.431223	2578.318299
675.770574	2573.670355
676.109875	2569.347566
676.449125	2572.105077
676.788324	2571.364027
677.127473	2575.543144
677.466571	2570.267577
677.805619	2573.277145
678.144616	2571.966445
678.483562	2573.929975
678.822458	2571.805128
679.161303	2573.700602
679.500098	2572.278997
679.838842	2571.805128
680.177535	2573.584656
680.516179	2573.211610
680.854771	2572.367217
681.193314	2572.213462
681.531805	2572.538616
681.870247	2576.029615
682.208638	2577.781416
682.546978	2576.989955
682.885268	2577.242013
683.223508	2576.669842
683.561697	2574.723957
683.899836	2577.231931
684.237925	2575.931313
684.575963	2575.530541
684.913951	2571.853019
685.251889	2575.311251
685.589776	2573.879563
685.927614	2576.410222
686.265401	2574.446693
686.603137	2574.355952
686.940824	2572.694892
687.278460	2577.783937
687.616046	2579.195460
687.953582	2578.035995
688.291068	2576.359811
688.628504	2581.302662
688.965889	2576.899214
689.303224	2577.529359
689.640510	2574.005592
689.977745	2574.960891
690.314930	2574.706312
690.652065	2573.602300
690.989150	2576.314441
691.326185	2570.544840
691.663170	2569.443348
692.000105	2570.721280
692.336990	2570.378482
692.673825	2569.511403
693.010610	2568.581311
693.347345	2565.654921
693.684030	2560.606205
694.020665	2563.036041
694.357251	2561.652245
694.693786	2566.501835
695.030272	2563.734241
695.366707	2566.902606
695.703093	2566.393450
696.039429	2566.511917
696.375716	2564.724828
696.711952	2565.443192
697.048139	2566.045610
697.384276	2564.538305
697.720363	2562.519323
698.056400	2563.048644
698.392388	2565.561659
698.728326	2567.084088
699.064214	2564.939077
699.400053	2565.193655
699.735842	2563.008315
700.071581	2561.548901
700.407270	2562.259704
700.742910	2565.055023
701.078501	2559.098900
701.414042	2562.252142
701.749533	2561.894220
702.084974	2560.601164
702.420366	2561.095197
702.755709	2563.605692
703.091002	2559.260217
703.426246	2562.342883
703.761440	2563.078891
704.096584	2561.256514
704.431679	2562.002605
704.766725	2560.286092
705.101721	2560.286092
705.436668	2560.263407
705.771565	2559.131668
706.106413	2561.160732
706.441212	2558.945145
706.775961	2558.143602
707.110661	2562.143757
707.445311	2561.977399
707.779913	2560.865825
708.114465	2562.967986
708.448967	2559.943293
708.783421	2563.096535
709.117825	2561.652245
709.452180	2563.799776
709.786485	2563.867832
710.120742	2564.750034
710.454949	2567.378995
710.789107	2563.973696
711.123216	2561.811041
711.457275	2563.003274
711.791286	2565.687688
712.125247	2566.834551
712.459159	2566.010322
712.793023	2569.067782
713.126837	2565.846485
713.460602	2564.891186
713.794318	2565.995199
714.127985	2566.683316
714.461602	2566.214489
714.795171	2566.821948
715.128691	2562.453788
715.462162	2562.910012
715.795584	2563.908161
716.128957	2561.715259
716.462281	2561.783315
716.795556	2559.151832
717.128782	2558.713252
717.461960	2559.406411
717.795088	2558.728375
718.128167	2560.734755
718.461198	2560.775084
718.794180	2560.270968
719.127113	2557.614280
719.459997	2557.092521
719.792833	2556.749723
720.125619	2560.147460
720.458357	2555.648230
720.791046	2558.345248
721.123686	2557.999929
721.456278	2557.251317
721.788821	2554.390462
722.121315	2557.795762
722.453761	2553.803168
722.786158	2558.231822
723.118506	2557.357182
723.450805	2553.639331
723.783056	2555.464228
724.115259	2555.333158
724.447412	2554.329969
724.779518	2559.108983
725.111574	2558.693087
725.443582	2558.743499
725.775542	2554.864331
726.107453	2558.410783
726.439315	2558.924980
726.771129	2563.318346
727.102895	2559.164435
727.434612	2559.895402
727.766281	2558.171328
728.097901	2555.489434
728.429473	2556.848025
728.760996	2555.340720
729.092471	2555.670916
729.423897	2559.139229
729.755276	2560.739796
730.086606	2559.126627
730.417887	2562.625187
730.749120	2559.986143
731.080305	2559.237532
731.411442	2561.357337
731.742530	2561.848850
732.073570	2564.329097
732.404562	2561.085115
732.735506	2563.570404
733.066401	2562.095866
733.397249	2560.482697
733.728048	2562.000084
734.058798	2557.740309
734.389501	2557.374826
734.720156	2558.050340
735.050762	2555.310473
735.381320	2558.819116
735.711831	2554.183775
736.042293	2553.316697
736.372707	2557.629404
736.703073	2553.331820
737.033391	2556.127140
737.363661	2554.082952
737.693883	2554.193858
738.024056	2559.058571
738.354182	2557.412634
738.684260	2555.368446
739.014290	2555.711245
739.344272	2556.858107
739.674207	2555.870041
740.004093	2558.060422
740.333931	2555.648230
740.663722	2558.176369
740.993464	2557.601677
741.323159	2559.686195
741.652806	2556.754764
741.982405	2556.840463
742.311956	2554.529094
742.641460	2557.838612
742.970915	2554.685370
743.300323	2556.653941
743.629683	2556.711914
743.958996	2555.451625
744.288260	2554.697973
744.617477	2554.980277
744.946647	2550.899463
745.275768	2552.056408
745.604842	2546.138094
745.933869	2549.155224
746.262847	2550.844011
746.591778	2554.655123
746.920662	2553.982129
747.249498	2553.969526
747.578286	2550.773435
747.907027	2554.027499
748.235720	2553.535987
748.564365	2552.608415
748.892963	2550.536500
749.221514	2551.625390
749.550017	2555.562531
749.878473	2553.626728
750.206881	2554.672767
750.535242	2553.049516
750.863555	2550.044988
751.191821	2551.459032
751.520039	2549.840821
751.848210	2554.208981
752.176334	2550.818805
752.504411	2554.226625
752.832440	2550.032385
753.160421	2552.401727
753.488356	2548.946016
753.816243	2553.886347
754.144082	2552.500030
754.471875	2552.689073
754.799620	2551.252344
755.127318	2549.699669
755.454969	2552.704197
755.782572	2550.884340
756.110129	2551.471634
756.437638	2551.509443
756.765100	2553.808209
757.092515	2551.615307
757.419882	2550.912066
757.747203	2549.505584
758.074477	2551.451470
758.401703	2549.797971
758.728882	2551.774104
759.056014	2550.420554
759.383099	2551.867365
759.710138	2552.593291
760.037129	2552.192519
760.364073	2552.820143
760.690970	2551.970709
761.017820	2552.500030
761.344623	2554.813919
761.671379	2552.873075
761.998088	2550.070194
762.324751	2552.338713
762.651366	2560.119734
762.977935	2568.840930
763.304456	2573.511559
763.630931	2577.597414
763.957359	2573.897207
764.283740	2568.546023
764.610074	2563.862791
764.936362	2559.855073
765.262602	2559.330793
765.588796	2555.602860
765.914943	2551.660678
766.241044	2552.439536
766.567097	2553.725030
766.893104	2549.308979
767.219064	2550.755791
767.544978	2551.978270
767.870845	2550.352498
768.196665	2545.470141
768.522438	2550.412992
768.848165	2546.538865
769.173846	2546.700182
769.499479	2547.804195
769.825066	2547.378217
770.150607	2543.320089
770.476101	2546.982487
770.801548	2544.008206
771.126949	2547.214380
771.452303	2548.721685
771.777611	2548.149514
772.102872	2543.849410
772.428087	2546.070038
772.753256	2544.116591
773.078378	2545.341591
773.403453	2544.819832
773.728482	2542.402599
774.053465	2544.822353
774.378401	2544.381252
774.703291	2545.442414
775.028135	2545.616334
775.352932	2545.724719
775.677683	2546.158258
776.002388	2544.474513
776.327046	2540.499563
776.651658	2546.183464
776.976224	2544.958464
777.300743	2544.121632
777.625216	2546.216232
777.949643	2541.691796
778.274024	2544.434184
778.598359	2539.062834
778.922647	2540.295396
779.246889	2540.572660
779.571086	2538.588966
779.895236	2544.764379
780.219339	2543.473844
780.543397	2542.354708
780.867409	2541.724563
781.191374	2540.933102
781.515294	2545.656663
781.839167	2543.166333
782.162995	2543.032743
782.486776	2543.315047
782.810511	2543.614996
783.134201	2543.642722
783.457844	2544.000644
783.781441	2543.090716
784.104993	2544.996272
784.428498	2545.114739
784.751958	2542.513504
785.075372	2543.373021
785.398739	2542.808412
785.722061	2545.228165
786.045337	2543.221786
786.368568	2543.569626
786.691752	2542.188350
787.014891	2543.375541
787.337983	2542.503422
787.661030	2544.905532
787.984031	2547.607590
788.306987	2548.575492
788.629897	2545.228165
788.952760	2547.179092
789.275579	2544.691282
789.598351	2544.958464
789.921078	2544.003165
790.243759	2544.204811
790.566395	2543.781354
790.888984	2545.223124
791.211529	2542.412681
791.534027	2541.749769
791.856480	2545.407126
792.178888	2541.477547
792.501249	2541.444779
792.823566	2543.002496
793.145836	2544.537527
793.468062	2545.576005
793.790241	2541.674152
794.112375	2543.123484
794.434464	2544.776982
794.756507	2540.635674
795.078505	2543.239430
795.400457	2541.177598
795.722364	2540.156765
796.044226	2545.016437
796.366042	2542.805891
796.687812	2541.288504
797.009538	2542.092568
797.331218	2546.864020
797.652852	2543.254554
797.974442	2541.069213
798.295986	2542.977290
798.617484	2544.557692
798.938938	2543.042825
799.260346	2541.908566
799.581709	2543.138607
799.903026	2542.712630
800.224299	2541.780016
800.545526	2542.669780
800.866708	2543.940151
801.187845	2544.499719
801.508936	2541.782537
801.829983	2541.154913
802.150984	2542.979811
802.471940	2542.657177
802.792851	2540.882691
803.113717	2540.169367
803.434538	2542.253885
803.755314	2539.892104
804.076045	2541.946374
804.396731	2542.818494
804.717372	2539.451003
805.037967	2542.747918
805.358518	2542.168185
805.679024	2541.873277
805.999485	2541.530479
806.319901	2541.976621
806.640272	2540.315561
806.960598	2542.942002
807.280879	2540.391178
807.601115	2541.023843
807.921306	2540.295396
808.241453	2540.421425
808.561554	2544.935778
808.881611	2544.459389
809.201623	2541.112063
809.521590	2539.771116
809.841513	2542.631971
810.161390	2539.327495
810.481223	2538.513348
810.801011	2542.634492
811.120755	2543.123484
811.440453	2538.780530
811.760107	2539.917310
812.079716	2540.328164
812.399281	2537.918492
812.718801	2538.147865
813.038276	2535.042514
813.357707	2543.483926
813.677093	2540.726415
813.996434	2538.946888
814.315731	2539.801363
814.634983	2541.253216
814.954191	2542.657177
815.273354	2541.210366
815.592473	2541.774975
815.911547	2540.262629
816.230577	2541.664070
816.549562	2543.022661
816.868502	2540.809594
817.187399	2544.149358
817.506250	2544.247661
817.825058	2541.631302
818.143821	2546.276725
818.462539	2542.949564
818.781213	2546.599359
819.099843	2546.248999
819.418429	2548.111705
819.736970	2552.895760
820.055466	2553.972047
820.373919	2553.520863
820.692327	2561.059909
821.010691	2566.383368
821.329011	2582.983887
821.647286	2618.866820
821.965517	2652.549290
822.283704	2680.121881
822.601847	2687.285360
822.919945	2668.867505
823.237999	2648.133239
823.556010	2624.477624
823.873976	2607.549430
824.191897	2596.068202
824.509775	2583.742581
824.827609	2576.226220
825.145398	2572.142886
825.463144	2571.001064
825.780845	2574.691189
826.098502	2577.015161
826.416116	2585.804413
826.733685	2596.698346
827.051210	2600.922833
827.368692	2596.713470
827.686129	2586.709300
828.003522	2573.882084
828.320872	2564.618964
828.638177	2560.185269
828.955439	2551.476676
829.272656	2549.281253
829.589830	2545.339071
829.906960	2549.891233
830.224046	2544.943340
830.541088	2545.540717
830.858086	2546.460727
831.175041	2545.500388
831.491952	2543.683052
831.808819	2543.093237
832.125642	2545.747404
832.442421	2548.330996
832.759157	2549.480379
833.075849	2557.193344
833.392497	2566.196845
833.709101	2570.456620
834.025662	2571.999213
834.342179	2568.961918
834.658653	2563.237688
834.975083	2555.819630
835.291469	2558.746019
835.607811	2547.867209
835.924110	2546.425439
836.240366	2548.593136
836.556578	2540.882691
836.872746	2543.703216
837.188871	2542.856302
837.504952	2541.472506
837.820990	2542.473175
838.136984	2539.322454
838.452935	2540.779347
838.768842	2537.565612
839.084706	2540.524769
839.400526	2544.159441
839.716303	2546.911911
840.032037	2552.666388
840.347727	2552.588250
840.663373	2547.834442
840.978977	2546.226314
841.294537	2543.264636
841.610054	2543.080634
841.925527	2539.554347
842.240957	2540.834800
842.556344	2540.050900
842.871687	2539.156096
843.186987	2538.402443
843.502244	2535.803728
843.817458	2536.355735
844.132629	2536.859850
844.447756	2536.375899
844.762840	2531.349869
845.077881	2533.457071
845.392879	2531.639735
845.707833	2534.397246
846.022745	2533.010929
846.337613	2534.987061
846.652438	2534.283820
846.967221	2537.084181
847.281960	2535.665097
847.596656	2534.273738
847.911309	2532.849612
848.225919	2534.956814
848.540485	2534.419932
848.855009	2535.566794
849.169490	2532.368182
849.483928	2536.592669
849.798323	2532.121165
850.112675	2533.504962
850.426984	2532.955476
850.741251	2533.878008
851.055474	2532.968079
851.369654	2535.113090
851.683792	2534.994623
851.997887	2534.606454
852.311938	2535.289531
852.625947	2534.145189
852.939914	2538.268853
853.253837	2536.194418
853.567718	2535.581918
853.881555	2533.008408
854.195350	2535.092926
854.509103	2533.784746
854.822812	2533.487318
855.136479	2536.927906
855.450103	2533.809952
855.763685	2537.474871
856.077224	2534.548481
856.390720	2532.166536
856.704173	2535.571835
857.017584	2537.426980
857.330953	2536.963194
857.644278	2535.274407
857.957561	2538.026877
858.270802	2535.770961
858.584000	2535.218954
858.897155	2535.680220
859.210268	2535.423121
859.523339	2536.842206
859.836367	2536.529654
860.149352	2536.973276
860.462295	2535.821372
860.775195	2533.484798
861.088054	2531.231402
861.400869	2531.256607
861.713642	2532.937832
862.026373	2534.616537
862.339062	2536.320447
862.651708	2535.574356
862.964312	2536.723739
863.276873	2536.512010
863.589392	2536.781712
863.901869	2536.547298
864.214303	2534.387164
864.526696	2535.947401
864.839045	2534.097298
865.151353	2537.321116
865.463619	2535.796167
865.775842	2534.472864
866.088023	2534.188038
866.400162	2536.562422
866.712258	2531.685106
867.024313	2534.901362
867.336325	2536.963194
867.648296	2537.091743
867.960224	2535.166022
868.272110	2534.387164
868.583954	2534.377082
868.895755	2534.866074
869.207515	2534.961856
869.519233	2536.466640
869.830909	2533.603265
870.142542	2534.969417
870.454134	2535.743234
870.765684	2537.298430
871.077191	2535.622247
871.388657	2537.190046
871.700081	2535.181146
872.011463	2535.922195
872.322803	2538.261291
872.634101	2534.442617
872.945357	2536.569984
873.256571	2537.863040
873.567744	2536.496887
873.878874	2537.668955
874.189963	2540.023174
874.501010	2536.358255
874.812015	2534.931609
875.122979	2538.130221
875.433900	2540.703730
875.744780	2536.267514
876.055618	2536.814480
876.366415	2539.720705
876.677169	2538.092412
876.987882	2536.867412
877.298554	2534.533357
877.609183	2538.387320
877.919771	2534.316588
878.230317	2538.599048
878.540822	2540.902855
878.851285	2543.093237
879.161707	2542.271529
879.472087	2547.872251
879.782425	2550.533980
880.092722	2556.792572
880.402977	2569.826476
880.713191	2585.123857
881.023363	2607.176384
881.333494	2621.725154
881.643583	2627.333438
881.953631	2619.587705
882.263637	2617.346912
882.573602	2608.751745
882.883526	2597.827565
883.193408	2588.990422
883.503248	2579.533217
883.813048	2573.340160
884.122806	2568.820765
884.432522	2563.499827
884.742197	2560.442368
885.051831	2554.960113
885.361424	2552.099258
885.670975	2550.092879
885.980485	2548.114226
886.289954	2545.170192
886.599382	2542.788247
886.908768	2545.845707
887.218113	2543.126004
887.527417	2540.839841
887.836680	2540.295396
888.145901	2539.350180
888.455082	2539.481250
888.764221	2539.914789
889.073319	2538.344470
889.382376	2536.527134
889.691392	2540.093750
890.000366	2537.061496
890.309300	2539.047711
890.618193	2540.446631
890.927044	2539.889583
891.235855	2540.663401
891.544625	2542.488298
891.853353	2542.639533
892.162041	2541.066693
892.470687	2543.418391
892.779293	2542.415202
893.087858	2542.473175
893.396381	2542.465613
893.704864	2544.950902
894.013306	2547.035419
894.321707	2559.345917
894.630068	2564.006463
894.938387	2567.983934
895.246665	2566.519479
895.554903	2562.531926
895.863100	2557.642007
896.171256	2555.023127
896.479371	2551.426264
896.787446	2551.078424
897.095480	2545.132383
897.403473	2545.833104
897.711425	2542.818494
898.019336	2541.752290
898.327207	2545.555840
898.635038	2541.061652
898.942827	2540.716333
899.250576	2541.298586
899.558284	2538.883873
899.865952	2539.879501
900.173579	2538.856147
900.481165	2538.044521
900.788711	2540.081147
901.096216	2541.328833
901.403681	2536.532175
901.711105	2537.981507
902.018489	2537.076620
902.325832	2540.426466
902.633135	2538.606610
902.940397	2538.566281
903.247619	2540.187012
903.554800	2549.014072
903.861941	2560.104610
904.169041	2571.137176
904.476101	2578.431725
904.783121	2576.349729
905.090100	2573.549368
905.397039	2563.323387
905.703938	2556.255689
906.010796	2553.649413
906.317614	2546.674977
906.624391	2547.335368
906.931129	2542.019471
907.237826	2542.987373
907.544483	2540.136600
907.851099	2539.806404
908.157675	2537.605941
908.464211	2535.723070
908.770707	2531.770805
909.077163	2534.664428
909.383578	2530.069416
909.689954	2532.688295
909.996289	2532.279962
910.302584	2534.397246
910.608839	2533.852802
910.915054	2534.366999
911.221229	2537.326157
911.527363	2533.187369
911.833458	2535.133255
912.139513	2537.157278
912.445527	2538.896476
912.751502	2535.274407
913.057436	2533.504962
913.363331	2539.816487
913.669186	2534.762730
913.975000	2539.871939
914.280775	2540.837320
914.586510	2544.058618
914.892205	2546.208670
915.197859	2553.946841
915.503475	2559.605536
915.809050	2566.806824
916.114585	2573.067937
916.420081	2577.612538
916.725536	2574.643298
917.030952	2570.723801
917.336328	2562.156360
917.641665	2559.600495
917.946961	2553.606563
918.252218	2552.079093
918.557435	2551.085986
918.862612	2547.201777
919.167750	2545.633978
919.472848	2544.366128
919.777906	2543.410829
920.082925	2540.713812
920.387904	2539.206507
920.692843	2540.494522
920.997743	2537.628626
921.302603	2536.925385
921.607423	2537.369007
921.912204	2536.852288
922.216946	2536.945550
922.521647	2535.443286
922.826310	2531.990095
923.130932	2536.234747
923.435516	2533.268028
923.740059	2537.051414
924.044564	2535.765920
924.349028	2533.452030
924.653454	2526.175124
924.957840	2530.724766
925.262186	2529.862728
925.566493	2530.112266
925.870761	2528.821730
926.174989	2532.080836
926.479178	2531.763243
926.783328	2531.087729
927.087438	2531.060003
927.391509	2532.380785
927.695541	2531.112935
927.999533	2530.520599
928.303486	2529.988757
928.607400	2532.716022
928.911275	2529.595547
929.215110	2531.420445
929.518906	2530.097142
929.822663	2531.304498
930.126381	2531.362472
930.430060	2528.597399
930.733699	2529.020856
931.037299	2528.937677
931.340861	2529.532533
931.644383	2530.099663
931.947866	2531.491021
932.251309	2532.020342
932.554714	2531.004550
932.858080	2533.154602
933.161407	2530.233253
933.464694	2533.928419
933.767943	2529.497245
934.071153	2531.770805
934.374323	2530.376926
934.677455	2532.272400
934.980548	2531.589324
935.283602	2531.990095
935.586617	2532.093439
935.889593	2527.735362
936.192530	2531.785929
936.495428	2532.353058
936.798287	2527.979858
937.101108	2530.969262
937.403890	2531.339787
937.706632	2532.363141
938.009336	2532.768954
938.312002	2532.458923
938.614628	2532.002698
938.917216	2533.283151
939.219765	2532.088398
939.522275	2534.475384
939.824747	2534.372041
940.127179	2530.568490
940.429573	2528.504138
940.731929	2528.627646
941.034246	2528.166380
941.336524	2534.155271
941.638763	2530.442461
941.940964	2531.647297
942.243126	2529.744261
942.545250	2533.323481
942.847335	2530.606299
943.149381	2531.911958
943.451389	2530.238294
943.753359	2530.714683
944.055290	2532.892462
944.357182	2529.391381
944.659036	2531.183511
944.960851	2532.393388
945.262628	2530.318953
945.564367	2530.139992
945.866067	2532.239632
946.167729	2532.758871
946.469352	2530.124868
946.770937	2530.076978
947.072484	2531.458254
947.373992	2528.927594
947.675462	2530.767616
947.976893	2531.990095
948.278286	2531.037317
948.579641	2530.006401
948.880958	2530.906247
949.182236	2534.402288
949.483476	2530.727286
949.784678	2532.504293
950.085841	2531.425486
950.386967	2531.720394
950.688054	2530.278624
950.989103	2532.589993
951.290114	2531.329704
951.591087	2531.380116
951.892021	2529.424148
952.192917	2531.294416
952.493776	2531.120496
952.794596	2530.291227
953.095378	2531.148223
953.396122	2533.386495
953.696828	2531.435568
953.997496	2529.547656
954.298126	2528.698222
954.598718	2531.039838
954.899272	2531.301978
955.199788	2530.150074
955.500266	2530.452543
955.800706	2526.316277
956.101108	2527.720238
956.401472	2528.189065
956.701798	2526.916174
957.002087	2524.181348
957.302337	2529.557739
957.602550	2528.501617
957.902724	2525.363499
958.202861	2529.532533
958.502960	2525.905423
958.803022	2527.649662
959.103045	2526.966586
959.403031	2527.745444
959.702979	2527.528674
960.002889	2529.845084
960.302762	2529.025897
960.602596	2525.887779
960.902393	2529.106555
961.202153	2528.877183
961.501875	2529.162008
961.801559	2528.365506
962.101205	2528.887265
962.400814	2529.232584
962.700385	2529.005732
962.999918	2529.313243
963.299414	2528.133613
963.598873	2527.407687
963.898293	2528.110928
964.197677	2529.371216
964.497022	2526.492717
964.796331	2527.881555
965.095601	2524.811492
965.394835	2530.596216
965.694030	2525.693694
965.993189	2530.286185
966.292309	2528.733510
966.591393	2526.384332
966.890439	2526.878365
967.189447	2525.323169
967.488419	2528.211751
967.787353	2525.676050
968.086249	2528.085722
968.385108	2528.219312
968.683930	2527.695032
968.982714	2528.753675
969.281462	2528.118489
969.580172	2528.448685
969.878844	2527.569003
970.177480	2529.832482
970.476078	2530.213089
970.774639	2526.936339
971.073162	2527.914323
971.371649	2523.372243
971.670098	2525.958355
971.968510	2525.033303
972.266885	2523.646986
972.565223	2526.691843
972.863524	2526.502799
973.161788	2529.156967
973.460014	2530.371885
973.758204	2525.534898
974.056356	2527.697553
974.354471	2528.741072
974.652550	2526.611184
974.950591	2529.325846
975.248595	2527.183355
975.546563	2526.039013
975.844493	2526.994312
976.142386	2526.296112
976.440243	2526.631349
976.738062	2527.634538
977.035845	2526.389373
977.333590	2529.401463
977.631299	2526.729651
977.928971	2527.281658
978.226606	2527.503468
978.524204	2528.252080
978.821765	2529.245187
979.119290	2526.447347
979.416777	2527.243849
979.714228	2527.352234
980.011642	2529.081350
980.309020	2529.106555
980.606360	2529.507327
980.903664	2529.925743
981.200931	2526.245701
981.498162	2528.657893
981.795356	2527.705115
982.092513	2527.379960
982.389633	2526.971627
982.686717	2529.020856
982.983764	2529.809796
983.280775	2529.454395
983.577749	2531.327184
983.874686	2529.058664
984.171587	2528.700742
984.468451	2526.878365
984.765279	2524.819054
985.062070	2527.805938
985.358824	2527.304343
985.655543	2524.814013
985.952224	2526.772501
986.248869	2524.577079
986.545478	2521.648168
986.842050	2522.162366
987.138586	2522.051461
987.435086	2523.710000
987.731549	2523.659589
988.027975	2527.415248
988.324366	2525.776873
988.620719	2529.504807
988.917037	2526.835516
989.213318	2527.165711
989.509563	2526.026410
989.805772	2526.291071
990.101944	2526.573376
990.398080	2524.877027
990.694180	2527.556401
990.990244	2527.868952
991.286271	2525.008097
991.582262	2524.975330
991.878217	2523.684794
992.174136	2525.053468
992.470019	2527.216123
992.765865	2528.163860
993.061676	2528.360465
993.357450	2526.654034
993.653188	2525.602953
993.948890	2527.407687
994.244556	2527.589168
994.540186	2527.332069
994.835780	2525.129085
995.131337	2525.469363
995.426859	2524.796369
995.722345	2523.578930
996.017795	2525.018180
996.313208	2525.325690
996.608586	2527.521112
996.903928	2527.442975
997.199234	2526.112110
997.494504	2526.394415
997.789738	2524.075484
998.084936	2525.920546
998.380099	2525.769312
998.675225	2523.203364
998.970316	2527.541277
999.265371	2523.710000
999.560390	2526.893489
999.855373	2524.783766
1000.150320	2527.357275
1000.445232	2527.200999
1000.740108	2525.242511
1001.034948	2530.513037
1001.329752	2524.428365
1001.624521	2526.769981
1001.919254	2520.239166
1002.213951	2523.019362
1002.508613	2523.291584
1002.803239	2525.003056
1003.097829	2519.331758
1003.392384	2525.779394
1003.686903	2528.012625
1003.981386	2524.682943
1004.275834	2527.856349
1004.570246	2524.902233
1004.864623	2525.713859
1005.158964	2525.371060
1005.453270	2525.292923
1005.747540	2524.158663
1006.041775	2524.897192
1006.335974	2524.509023
1006.630138	2523.866276
1006.924266	2526.616225
1007.218359	2525.421472
1007.512416	2526.969106
1007.806438	2526.328880
1008.100425	2526.248221
1008.394376	2524.831657
1008.688292	2525.650844
1008.982172	2524.519105
1009.276017	2526.858201
1009.569827	2524.773684
1009.863602	2528.171421
1010.157341	2526.258303
1010.451045	2524.894671
1010.744714	2522.497603
1011.038347	2525.174455
1011.331945	2525.504651
1011.625508	2527.518592
1011.919036	2524.844260
1012.212528	2524.511544
1012.505986	2524.599764
1012.799408	2528.131092
1013.092795	2524.846780
1013.386147	2522.941224
1013.679464	2522.366533
1013.972745	2526.109589
1014.265992	2526.258303
1014.559204	2524.004908
1014.852380	2524.821575
1015.145521	2526.704446
1015.438628	2524.660258
1015.731699	2525.396266
1016.024736	2525.537418
1016.317737	2523.881399
1016.610703	2530.724766
1016.903635	2522.180010
1017.196531	2518.643641
1017.489393	2523.596574
1017.782219	2521.943076
1018.075011	2525.315608
1018.367768	2525.524816
1018.660490	2524.367871
1018.953177	2524.367871
1019.245829	2524.367871
