Dividing Wavelength (nm)	Counts (n)	Blue Motor Position (mm): 0.000000	Red Motor Position (mm): 20.800000	
326.493990	2127.961779
326.888308	2127.961779
327.282561	2127.961779
327.676750	2096.865422
328.070874	2094.589341
328.464933	2098.526482
328.858929	2104.190218
329.252859	2113.070211
329.646726	2126.194855
330.040528	2137.852523
330.434265	2154.637045
330.827938	2171.338388
331.221547	2191.492921
331.615091	2208.824408
332.008571	2230.113200
332.401986	2251.399472
332.795338	2268.511669
333.188625	2286.226284
333.581847	2306.700930
333.975006	2322.721717
334.368100	2339.659994
334.761129	2359.151615
335.154095	2376.858668
335.546996	2393.365926
335.939833	2409.588359
336.332606	2423.743919
336.725315	2437.937288
337.117960	2446.464400
337.510540	2455.213322
337.903056	2469.620940
338.295508	2474.962042
338.687896	2479.252064
339.080220	2490.841677
339.472480	2494.559528
339.864676	2502.950529
340.256807	2507.863133
340.648875	2508.165602
341.040879	2510.915552
341.432818	2512.243896
341.824694	2512.667353
342.216506	2515.223218
342.608253	2515.583660
342.999937	2513.713392
343.391557	2515.462672
343.783113	2511.875892
344.174605	2512.468227
344.566033	2510.040912
344.957397	2511.853206
345.348697	2508.374810
345.739934	2506.244923
346.131106	2501.554129
346.522215	2501.551608
346.913260	2502.897597
347.304241	2500.097236
347.695159	2497.526247
348.086012	2493.684888
348.476802	2495.754282
348.867528	2493.689929
349.258191	2491.171873
349.648789	2490.622387
350.039324	2490.587099
350.429796	2488.827736
350.820203	2484.399083
351.210548	2485.624083
351.600828	2484.121819
351.991045	2482.518732
352.381198	2482.574185
352.771288	2484.124340
353.161314	2478.440439
353.551276	2483.456387
353.941175	2481.124853
354.331010	2485.999649
354.720782	2481.603763
355.110490	2483.284987
355.500135	2483.978146
355.889717	2480.736684
356.279235	2483.471510
356.668689	2484.313383
357.058080	2485.225832
357.447408	2483.917652
357.836672	2480.325830
358.225873	2483.348002
358.615010	2481.192909
359.004084	2489.266317
359.393095	2487.519557
359.782043	2488.411841
360.170927	2486.692807
360.559748	2489.422592
360.948505	2491.917963
361.337199	2491.577686
361.725830	2489.215905
362.114398	2491.338231
362.502903	2492.164980
362.891344	2490.750936
363.279722	2494.244456
363.668037	2494.022645
364.056289	2494.010042
364.444478	2495.638335
364.832603	2493.279075
365.220665	2497.027173
365.608665	2499.295692
365.996601	2499.411639
366.384474	2498.158912
366.772284	2501.992709
367.160031	2500.747544
367.547715	2503.883142
367.935336	2505.950015
368.322893	2510.580315
368.710388	2510.925634
369.097820	2520.503826
369.485189	2521.189423
369.872495	2527.589168
370.259738	2532.322812
370.646918	2543.055428
371.034035	2549.631613
371.421090	2557.475649
371.808081	2569.892011
372.195010	2578.895511
372.581875	2592.708273
372.968678	2605.774944
373.355418	2614.843979
373.742096	2632.745117
374.128710	2647.364463
374.515262	2661.696463
374.901751	2679.063238
375.288177	2690.685618
375.674540	2713.038095
376.060841	2731.168604
376.447079	2748.633682
376.833254	2773.105963
377.219367	2785.509722
377.605417	2824.034220
377.991404	2833.720797
378.377329	2857.444467
378.763191	2872.819986
379.148991	2910.467323
379.534727	2934.533792
379.920402	2962.018163
380.306013	2973.113742
380.691563	3025.887061
381.077049	3047.059907
381.462474	3062.616908
381.847835	3105.693568
382.233134	3124.194602
382.618371	3121.820219
383.003545	3191.882175
383.388657	3199.630428
383.773706	3234.114441
384.158693	3250.064652
384.543618	3272.787653
384.928480	3309.814928
385.313280	3357.602546
385.698017	3353.126001
386.082692	3406.559712
386.467305	3411.999117
386.851856	3444.138993
387.236344	3465.790749
387.620770	3498.076818
388.005133	3524.895757
388.389435	3553.600087
388.773674	3562.467477
389.157851	3607.527830
389.541965	3622.989049
389.926018	3584.600662
390.310008	3659.610511
390.693936	3677.557019
391.077802	3718.521435
391.461606	3704.602809
391.845348	3769.265690
392.229027	3768.592696
392.612645	3780.504942
392.996200	3861.130636
393.379694	3899.108169
393.763125	3961.484886
394.146494	3930.675874
394.529801	3993.249196
394.913047	4039.403480
395.296230	4008.997761
395.679351	4060.581367
396.062410	4081.736570
396.445408	4064.538673
396.828343	4096.514712
397.211217	4122.635451
397.594028	4045.543606
397.976778	4108.139613
398.359466	4133.869662
398.742092	4160.975946
399.124656	4086.997014
399.507158	4167.166483
399.889598	4187.605842
400.271977	4251.568002
400.654294	4222.220924
401.036549	4230.478334
401.418742	4203.051937
401.800874	4303.083553
402.182944	4324.818488
402.564952	4388.145462
402.946898	4378.723546
403.328783	4370.798852
403.710606	4284.564874
404.092367	4477.993947
404.474067	4442.297537
404.855705	4454.260195
405.237282	4379.336046
405.618797	4487.851923
406.000250	4518.683620
406.381642	4604.332824
406.762972	4564.832863
407.144240	4574.887445
407.525447	4578.305347
407.906593	4631.333244
408.287677	4676.685985
408.668700	4600.771249
409.049661	4658.752080
409.430560	4694.849262
409.811399	4624.573057
410.192176	4783.674393
410.572891	4724.271957
410.953545	4825.581505
411.334138	4704.296384
411.714669	4770.438843
412.095139	4660.254344
412.475547	4806.089883
412.855894	4778.928147
413.236180	4790.739570
413.616405	4743.314915
413.996568	4824.316175
414.376670	4762.365436
414.756711	4715.369279
415.136691	4741.943721
415.516609	4809.860667
415.896466	4843.394422
416.276262	4868.315366
416.655997	4840.523485
417.035670	5010.874156
417.415283	5091.570426
417.794834	5022.078120
418.174324	4969.309842
418.553753	4870.397362
418.933121	5034.083628
419.312428	5083.895269
419.691674	5011.894989
420.070859	5116.090598
420.449983	5014.821379
420.829045	5104.145584
421.208047	4997.280684
421.586988	5041.365575
421.965867	5029.486096
422.344686	5125.837669
422.723444	4978.172191
423.102141	4795.626969
423.480777	5033.697980
423.859352	4804.706087
424.237866	4998.520808
424.616319	4963.515036
424.994712	5023.315723
425.373044	4891.388727
425.751314	4966.330520
426.129524	4774.030666
426.507673	4896.452566
426.885762	4927.543883
427.263789	4829.352288
427.641756	4706.779153
428.019662	4752.010906
428.397508	4720.075196
428.775292	4636.444974
429.153016	4668.080735
429.530679	4573.284358
429.908282	4581.534206
430.285824	4457.831852
430.663305	4583.117128
431.040726	4367.925394
431.418086	4327.341585
431.795385	4339.044624
432.172624	4302.070281
432.549802	4249.443155
432.926920	4206.369016
433.303977	4162.077438
433.680974	4134.751864
434.057910	4089.270574
434.434786	4043.156619
434.811601	3981.435252
435.188355	4035.327707
435.565050	3930.421296
435.941683	3873.310064
436.318257	3906.884148
436.694770	3846.349973
437.071222	3809.489056
437.447614	3733.478538
437.823946	3660.071777
438.200218	3662.325173
438.576429	3572.189342
438.952580	3550.139335
439.328670	3518.372504
439.704700	3453.442442
440.080670	3409.831420
440.456580	3424.150818
440.832429	3356.901826
441.208218	3283.784930
441.583947	3278.428704
441.959616	3242.107191
442.335224	3187.902184
442.710773	3175.967252
443.086261	3139.832262
443.461689	3079.663570
443.837057	3067.426169
444.212365	3056.106258
444.587612	3012.124711
444.962800	3001.901251
445.337927	2969.017805
445.712995	2898.557597
446.088002	2933.596137
446.462949	2892.707338
446.837837	2860.922863
447.212664	2852.778879
447.587431	2839.472754
447.962139	2857.762060
448.336786	2900.732855
448.711374	2861.704242
449.085901	2781.222221
449.460369	2753.450504
449.834776	2736.557598
450.209124	2737.570870
450.583412	2727.682647
450.957640	2721.179558
451.331808	2696.855991
451.705917	2669.588390
452.079965	2656.919970
452.453954	2651.175575
452.827883	2639.848102
453.201752	2636.770478
453.575562	2621.659619
453.949311	2616.505040
454.323001	2611.829369
454.696632	2605.658997
455.070202	2605.774944
455.443713	2601.605909
455.817164	2596.713470
456.190556	2594.132399
456.563888	2590.565782
456.937160	2583.067066
457.310373	2582.552868
457.683526	2579.855851
458.056619	2577.894842
458.429653	2576.054821
458.802628	2572.967114
459.175542	2573.894687
459.548398	2574.252609
459.921194	2573.740932
460.293930	2571.376630
460.666607	2575.291086
461.039224	2575.407033
461.411782	2576.851323
461.784280	2573.297310
462.156719	2571.474933
462.529099	2571.369069
462.901419	2568.104922
463.273680	2568.082236
463.645882	2566.365723
464.018024	2565.032338
464.390106	2566.065775
464.762130	2569.103070
465.134094	2569.037535
465.505999	2577.491550
465.877845	2581.058166
466.249631	2586.545462
466.621358	2584.821388
466.993026	2581.889957
467.364634	2583.563620
467.736184	2574.418967
468.107674	2573.093143
468.479105	2574.847465
468.850477	2573.887125
469.221790	2572.699933
469.593043	2568.054510
469.964238	2567.235322
470.335373	2568.372103
470.706449	2570.360838
471.077467	2565.423028
471.448425	2579.815522
471.819324	2585.696028
472.190164	2581.768969
472.560945	2575.303689
472.931667	2573.156158
473.302330	2569.907134
473.672934	2570.073492
474.043479	2571.369069
474.413965	2569.884449
474.784393	2565.352452
475.154761	2569.254305
475.525070	2568.853533
475.895321	2568.147771
476.265513	2565.115517
476.635645	2573.226734
477.005719	2569.660117
477.375734	2576.382496
477.745691	2575.386868
478.115588	2574.297979
478.485427	2576.430387
478.855207	2579.555902
479.224928	2583.916501
479.594591	2587.004207
479.964194	2585.718713
480.333739	2587.853642
480.703226	2586.212746
481.072653	2588.443457
481.442022	2588.158632
481.811333	2588.448498
482.180584	2588.065370
482.549777	2588.882037
482.918912	2583.024216
483.287988	2585.181830
483.657005	2585.428847
484.025964	2582.131932
484.394864	2582.628486
484.763706	2586.497571
485.132489	2583.717375
485.501213	2585.527149
485.869879	2579.813001
486.238487	2580.637230
486.607036	2582.772159
486.975527	2581.398444
487.343959	2581.196798
487.712333	2583.427509
488.080648	2580.065059
488.448905	2578.872826
488.817104	2581.252251
489.185244	2580.876685
489.553326	2584.042529
489.921350	2587.036975
490.289315	2590.593509
490.657222	2592.451174
491.025070	2592.988057
491.392861	2593.088880
491.760593	2589.585278
492.128267	2587.649475
492.495883	2584.924731
492.863440	2586.802561
493.230939	2581.602611
493.598380	2580.365008
493.965763	2577.274780
494.333088	2575.838052
494.700354	2578.003227
495.067563	2580.140676
495.434713	2574.809656
495.801805	2576.528690
496.168839	2576.828638
496.535815	2579.598752
496.902733	2580.130594
497.269593	2579.553382
497.636395	2578.577919
498.003139	2577.010120
498.369825	2576.773186
498.736453	2578.545151
499.103023	2576.798391
499.469535	2578.716550
499.835989	2579.102199
500.202385	2575.782599
500.568723	2576.243864
500.935003	2578.867785
501.301226	2574.822259
501.667390	2577.398289
502.033497	2575.601117
502.399546	2577.171437
502.765537	2576.566498
503.131470	2575.921231
503.497345	2578.066242
503.863163	2575.316292
504.228923	2576.674883
504.594625	2576.821077
504.960269	2575.023905
505.325856	2581.390882
505.691385	2574.928123
506.056856	2579.150090
506.422270	2577.650346
506.787625	2576.561457
507.152924	2578.368711
507.518164	2577.509194
507.883347	2578.799729
508.248472	2578.048597
508.613540	2578.058680
508.978550	2575.679255
509.343503	2576.697568
509.708398	2576.412743
510.073236	2579.155131
510.438016	2581.156469
510.802738	2578.948443
511.167403	2577.383165
511.532010	2578.305696
511.896561	2577.476427
512.261053	2583.377097
512.625488	2575.686817
512.989866	2574.623133
513.354186	2579.702096
513.718449	2574.550037
514.082655	2579.939030
514.446803	2581.423650
514.810894	2578.484657
515.174927	2580.037333
515.538904	2578.227558
515.902822	2584.110585
516.266684	2581.169072
516.630488	2579.336612
516.994235	2581.852148
517.357925	2581.373238
517.721558	2584.203846
518.085133	2579.833166
518.448651	2581.360636
518.812112	2581.660584
519.175516	2581.658064
519.538863	2580.962384
519.902152	2582.517580
520.265385	2582.754515
520.628560	2581.340471
520.991678	2581.211922
521.354739	2581.000193
521.717743	2580.831314
522.080690	2581.592529
522.443580	2584.476069
522.806413	2584.531521
523.169189	2584.410534
523.531908	2582.396593
523.894569	2583.087231
524.257174	2583.593867
524.619722	2583.283836
524.982213	2585.184351
525.344647	2582.958681
525.707025	2585.388517
526.069345	2588.645103
526.431608	2584.400451
526.793815	2584.153435
527.155964	2583.586305
527.518057	2583.092272
527.880093	2583.172930
528.242072	2584.944896
528.603995	2585.733837
528.965860	2585.411203
529.327669	2584.599577
529.689421	2582.739391
530.051117	2585.343147
530.412755	2582.802406
530.774337	2580.672518
531.135862	2580.995152
531.497331	2581.441294
531.858743	2579.187898
532.220098	2578.746797
532.581396	2577.446180
532.942638	2578.000707
533.303824	2582.573033
533.664953	2583.119998
534.026025	2580.861561
534.387040	2583.843404
534.747999	2582.850297
535.108902	2586.588312
535.469748	2580.332240
535.830537	2582.948599
536.191270	2584.047571
536.551947	2582.457087
536.912567	2583.203177
537.273131	2583.528332
537.633638	2581.831983
537.994089	2580.629668
538.354483	2579.898701
538.714821	2582.875502
539.075103	2583.719896
539.435328	2579.543300
539.795497	2582.726788
540.155609	2582.053794
540.515665	2581.960533
540.875665	2583.619072
541.235609	2584.982705
541.595496	2583.230904
541.955328	2583.639237
542.315102	2582.830132
542.674821	2582.827611
543.034483	2582.830132
543.394090	2583.593867
543.753640	2581.537076
544.113134	2580.415419
544.472571	2582.227714
544.831953	2583.165369
545.191278	2581.101016
545.550548	2580.233938
545.909761	2585.141501
546.268918	2582.124370
546.628019	2584.942375
546.987064	2583.329206
547.346053	2582.449525
547.704986	2581.375759
548.063863	2579.586149
548.422684	2584.521439
548.781449	2581.736202
549.140158	2583.767787
549.498811	2583.934145
549.857408	2581.388362
550.215949	2581.327868
550.574434	2576.639595
550.932864	2580.801067
551.291237	2578.653536
551.649555	2582.946078
552.007817	2584.130750
552.366022	2582.673856
552.724173	2584.075297
553.082267	2580.879205
553.440305	2582.499936
553.798288	2580.511201
554.156215	2585.940524
554.514086	2582.447004
554.871902	2579.450038
555.229661	2583.346850
555.587365	2581.466500
555.945014	2579.238310
556.302606	2583.369535
556.660143	2581.360636
557.017625	2582.862899
557.375050	2581.804257
557.732421	2584.423137
558.089735	2581.559761
558.446994	2582.951120
558.804197	2580.690162
559.161345	2581.456418
559.518437	2581.297621
559.875474	2584.113106
560.232455	2582.247879
560.589381	2581.927765
560.946251	2584.483630
561.303065	2581.078331
561.659825	2583.379618
562.016528	2582.608321
562.373177	2581.995821
562.729770	2580.392734
563.086307	2582.878023
563.442789	2583.205698
563.799216	2580.395255
564.155587	2583.276274
564.511904	2583.248548
564.868164	2582.194947
565.224370	2584.728126
565.580520	2580.992631
565.936615	2584.486151
566.292654	2582.550348
566.648638	2579.908783
567.004567	2583.654361
567.360441	2579.538258
567.716260	2578.807291
568.072023	2581.116140
568.427732	2575.792681
568.783385	2580.473393
569.138982	2576.826118
569.494525	2577.612538
569.850013	2575.404512
570.205445	2578.882908
570.560823	2577.801581
570.916145	2579.797878
571.271412	2580.017168
571.626625	2580.266705
571.981782	2581.025399
572.336884	2578.230079
572.691931	2580.793506
573.046923	2577.531879
573.401860	2576.420305
573.756743	2577.766293
574.111570	2579.739905
574.466342	2581.806778
574.821059	2578.283011
575.175722	2576.763103
575.530330	2577.403330
575.884882	2579.182857
576.239380	2577.673032
576.593823	2580.312076
576.948211	2579.533217
577.302544	2576.760583
577.656823	2579.192939
578.011047	2579.235789
578.365216	2579.313927
578.719330	2576.500963
579.073389	2577.728484
579.427394	2576.836200
579.781344	2575.064234
580.135239	2575.855696
580.489080	2577.141190
580.842866	2574.744121
581.196597	2580.183526
581.550273	2576.506004
581.903895	2575.827969
582.257463	2576.934502
582.610975	2580.528845
582.964434	2576.052301
583.317837	2575.921231
583.671186	2576.808474
584.024481	2575.669173
584.377721	2576.478278
584.730906	2573.400654
585.084037	2576.785788
585.437113	2573.120870
585.790135	2576.246385
586.143103	2575.855696
586.496016	2572.026939
586.848874	2572.163050
587.201679	2574.308061
587.554428	2572.052145
587.907124	2571.792526
588.259765	2569.327401
588.612352	2575.492732
588.964884	2572.609192
589.317362	2571.270766
589.669786	2572.173133
590.022155	2573.249419
590.374470	2572.581466
590.726731	2573.879563
591.078937	2571.190108
591.431090	2571.689182
591.783188	2572.031980
592.135232	2571.172464
592.487222	2571.326219
592.839157	2570.774212
593.191038	2571.532906
593.542866	2572.392423
593.894639	2568.601475
594.246358	2570.408729
594.598022	2572.526013
594.949633	2568.926630
595.301190	2569.708008
595.652692	2569.750858
596.004141	2574.053483
596.355535	2571.963925
596.706876	2568.563667
597.058162	2568.656928
597.409395	2568.752710
597.760573	2571.059038
598.111698	2570.065930
598.462768	2569.029973
598.813785	2570.078533
599.164748	2571.865622
599.515657	2571.369069
599.866511	2569.317319
600.217312	2569.642473
600.568060	2566.075857
600.918753	2571.787484
601.269392	2569.297154
601.619978	2569.219017
601.970510	2569.753379
602.320988	2568.253636
602.671412	2569.413101
603.021783	2570.922927
603.372100	2568.485529
603.722363	2567.883111
604.072572	2569.660118
604.422728	2570.078533
604.772830	2564.371947
605.122878	2565.120558
605.472872	2562.957903
605.822813	2561.710218
606.172701	2564.661813
606.522534	2570.139027
606.872314	2568.951835
607.222041	2568.447720
607.571714	2569.309757
607.921333	2568.089798
608.270899	2568.014181
608.620411	2568.891342
608.969870	2570.688513
609.319276	2569.181208
609.668627	2572.604151
610.017926	2575.303689
610.367171	2577.892322
610.716362	2578.046077
611.065500	2572.475602
611.414585	2571.575756
611.763616	2575.185222
612.112594	2572.147927
612.461518	2570.063410
612.810389	2571.721949
613.159207	2569.841599
613.507971	2570.766651
613.856682	2570.806980
614.205340	2569.806311
614.553945	2570.375961
614.902496	2569.657597
615.250994	2570.169274
615.599439	2569.551733
615.947830	2569.637432
616.296169	2571.089285
616.644454	2568.848492
616.992686	2570.002916
617.340864	2570.350756
617.688990	2566.080898
618.037063	2572.208421
618.385082	2571.878225
618.733048	2568.150292
619.080961	2566.965621
619.428821	2568.495611
619.776628	2569.193811
620.124382	2568.195662
620.472083	2565.775908
620.819731	2568.964438
621.167326	2568.314129
621.514868	2570.547361
621.862357	2566.562328
622.209793	2571.878225
622.557176	2566.380847
622.904506	2562.539488
623.251783	2562.647872
623.599007	2564.979406
623.946179	2563.998902
624.293297	2563.434293
624.640363	2563.363716
624.987376	2567.008471
625.334336	2563.537636
625.681243	2564.467729
626.028097	2565.992678
626.374899	2562.284909
626.721647	2564.041752
627.068343	2563.860270
627.414987	2565.856567
627.761577	2565.029818
628.108115	2562.874724
628.454600	2563.802297
628.801032	2561.649724
629.147412	2564.931515
629.493739	2563.222564
629.840014	2564.273645
630.186236	2566.882442
630.532405	2561.637121
630.878521	2562.080743
631.224585	2563.724159
631.570597	2558.408262
631.916556	2562.292471
632.262462	2561.982440
632.608316	2564.334138
632.954117	2560.520506
633.299866	2563.779612
633.645562	2561.644683
633.991206	2563.141906
634.336797	2559.809703
634.682336	2560.815413
635.027823	2560.152501
635.373257	2561.753068
635.718639	2562.985630
636.063968	2557.707542
636.409245	2560.601164
636.754470	2557.402552
637.099642	2558.330124
637.444762	2560.207954
637.789829	2558.456153
638.134845	2557.717624
638.479808	2557.911708
638.824719	2555.827191
639.169577	2557.788200
639.514383	2558.158725
639.859137	2558.065464
640.203839	2559.003118
640.548489	2558.967830
640.893086	2555.660833
641.237632	2553.674619
641.582125	2555.985988
641.926566	2550.362581
642.270955	2559.114024
642.615292	2556.721996
642.959576	2558.448591
643.303809	2560.591082
643.647990	2556.343910
643.992118	2557.420196
644.336195	2559.613098
644.680219	2556.210319
645.024192	2558.168807
645.368112	2558.078067
645.711981	2560.575958
646.055797	2560.616287
646.399562	2558.307439
646.743274	2557.952038
647.086935	2561.127965
647.430544	2559.171997
647.774101	2555.164280
648.117606	2563.358675
648.461059	2560.674261
648.804460	2558.985474
649.147810	2558.025134
649.491108	2558.960268
649.834354	2560.341545
650.177548	2554.992880
650.520690	2556.414486
650.863781	2553.873744
651.206820	2562.176525
651.549807	2558.269630
651.892742	2556.626214
652.235626	2554.067829
652.578458	2557.011863
652.921238	2554.879454
653.263967	2557.578992
653.606644	2555.640669
653.949269	2556.215360
654.291843	2554.990360
654.634365	2556.779969
654.976836	2554.874413
655.319255	2556.585885
655.661622	2556.754764
656.003938	2556.853066
656.346203	2554.055226
656.688416	2555.164280
657.030577	2554.519012
657.372687	2553.102448
657.714746	2555.131512
658.056753	2555.859959
658.398708	2546.730429
658.740612	2553.152859
659.082465	2550.304607
659.424266	2553.046995
659.766016	2549.238403
660.107715	2555.091183
660.449362	2554.788714
660.790958	2554.924825
661.132503	2553.314176
661.473996	2555.859959
661.815438	2553.901471
662.156829	2555.900288
662.498168	2554.594629
662.839456	2553.785524
663.180693	2554.256872
663.521879	2556.911039
663.863013	2555.123950
664.204097	2556.427089
664.545129	2554.972716
664.886110	2554.715617
665.227040	2554.607232
665.567918	2552.724361
665.908746	2553.394835
666.249522	2556.492624
666.590248	2554.589588
666.930922	2556.515309
667.271545	2558.675443
667.612118	2558.125958
667.952639	2555.897768
668.293109	2551.206974
668.633528	2554.203940
668.973896	2554.274516
669.314213	2556.651420
669.654480	2554.569423
669.994695	2553.989691
670.334859	2554.977757
670.674973	2550.687735
671.015035	2553.840977
671.355047	2552.913404
671.695008	2554.924825
672.034918	2552.353836
672.374777	2556.545556
672.714585	2555.275185
673.054342	2553.571275
673.394049	2552.689073
673.733705	2555.779300
674.073310	2554.897098
674.412864	2555.214691
674.752368	2552.638662
675.091820	2556.623694
675.431223	2553.820812
675.770574	2553.795606
676.109875	2548.651109
676.449125	2551.272509
676.788324	2550.889381
677.127473	2551.239741
677.466571	2547.589946
677.805619	2554.100596
678.144616	2553.167983
678.483562	2555.237376
678.822458	2552.883157
679.161303	2553.301573
679.500098	2552.910884
679.838842	2553.346944
680.177535	2553.518343
680.516179	2554.738302
680.854771	2553.793086
681.193314	2552.507592
681.531805	2555.633107
681.870247	2557.054712
682.208638	2557.463046
682.546978	2556.568241
682.885268	2556.578323
683.223508	2554.138405
683.561697	2554.965154
683.899836	2554.450956
684.237925	2552.978939
684.575963	2552.288301
684.913951	2551.219577
685.251889	2554.327448
685.589776	2552.298384
685.927614	2556.177552
686.265401	2552.182437
686.603137	2553.286450
686.940824	2556.699311
687.278460	2557.372305
687.616046	2552.729402
687.953582	2556.976574
688.291068	2554.728220
688.628504	2553.104968
688.965889	2554.294681
689.303224	2556.389280
689.640510	2553.606563
689.977745	2555.086142
690.314930	2552.757129
690.652065	2550.866696
690.989150	2553.788045
691.326185	2551.317879
691.663170	2553.460370
692.000105	2551.595143
692.336990	2550.929710
692.673825	2552.197561
693.010610	2552.356357
693.347345	2549.001469
693.684030	2544.136756
694.020665	2547.511808
694.357251	2542.730274
694.693786	2547.287477
695.030272	2547.388300
695.366707	2549.881150
695.703093	2548.890564
696.039429	2547.368135
696.375716	2548.026006
696.711952	2547.342929
697.048139	2549.187992
697.384276	2548.741850
697.720363	2548.386448
698.056400	2548.986346
698.392388	2547.852086
698.728326	2550.493651
699.064214	2546.400234
699.400053	2550.102961
699.735842	2550.561706
700.071581	2549.687066
700.407270	2547.421067
700.742910	2549.591284
701.078501	2547.118598
701.414042	2546.120450
701.749533	2546.992569
702.084974	2549.003990
702.420366	2547.111036
702.755709	2550.251675
703.091002	2546.876623
703.426246	2546.861499
703.761440	2546.871582
704.096584	2546.770758
704.431679	2548.399051
704.766725	2548.635985
705.101721	2547.128680
705.436668	2550.607077
705.771565	2545.800336
706.106413	2545.505429
706.441212	2548.303269
706.775961	2547.952909
707.110661	2547.650440
707.445311	2547.965512
707.779913	2546.947199
708.114465	2548.814946
708.448967	2546.490974
708.783421	2547.582384
709.117825	2545.840666
709.452180	2546.387631
709.786485	2545.820501
710.120742	2547.857127
710.454949	2550.546583
710.789107	2546.899308
711.123216	2543.204142
711.457275	2547.673125
711.791286	2548.807385
712.125247	2546.236396
712.459159	2546.770758
712.793023	2550.758311
713.126837	2548.724206
713.460602	2550.163455
713.794318	2546.987528
714.127985	2548.116747
714.461602	2547.675646
714.795171	2546.589277
715.128691	2548.078938
715.462162	2548.509957
715.795584	2545.941489
716.128957	2546.049873
716.462281	2547.209339
716.795556	2545.265974
717.128782	2546.692621
717.461960	2546.831252
717.795088	2546.120450
718.128167	2546.443083
718.461198	2547.431150
718.794180	2545.676828
719.127113	2544.151879
719.459997	2545.719678
719.792833	2545.087013
720.125619	2546.543907
720.458357	2544.645912
720.791046	2545.213042
721.123686	2547.093392
721.456278	2544.151879
721.788821	2543.582229
722.121315	2546.634647
722.453761	2545.079451
722.786158	2543.430994
723.118506	2542.755479
723.450805	2542.785726
723.783056	2545.525593
724.115259	2546.458207
724.447412	2544.736653
724.779518	2548.237734
725.111574	2544.701365
725.443582	2547.529452
725.775542	2546.458207
726.107453	2544.487116
726.439315	2545.054246
726.771129	2551.280071
727.102895	2546.135573
727.434612	2543.436035
727.766281	2543.126004
728.097901	2544.860161
728.429473	2541.764893
728.760996	2542.450490
729.092471	2540.900335
729.423897	2546.473330
729.755276	2543.095757
730.086606	2546.695141
730.417887	2547.176571
730.749120	2548.641027
731.080305	2547.045501
731.411442	2545.502908
731.742530	2543.589790
732.073570	2547.526932
732.404562	2546.995090
732.735506	2547.017775
733.066401	2545.187836
733.397249	2545.175233
733.728048	2545.444935
734.058798	2547.962991
734.389501	2546.644730
734.720156	2546.180943
735.050762	2545.936448
735.381320	2545.742363
735.711831	2545.729760
736.042293	2542.500901
736.372707	2544.963505
736.703073	2544.819832
737.033391	2541.774975
737.363661	2544.555171
737.693883	2544.877805
738.024056	2547.572302
738.354182	2541.898483
738.684260	2545.722198
739.014290	2541.805222
739.344272	2543.143648
739.674207	2544.703885
740.004093	2544.870243
740.333931	2546.125491
740.663722	2545.817980
740.993464	2543.241951
741.323159	2545.548279
741.652806	2543.385624
741.982405	2543.872095
742.311956	2548.031047
742.641460	2544.224976
742.970915	2545.316386
743.300323	2542.800850
743.629683	2543.662887
743.958996	2542.911755
744.288260	2543.826725
744.617477	2542.490819
744.946647	2538.369676
745.275768	2540.524769
745.604842	2536.350693
745.933869	2542.175747
746.262847	2537.369007
746.591778	2541.588452
746.920662	2540.363452
747.249498	2542.455531
747.578286	2541.590973
747.907027	2543.080634
748.235720	2544.623227
748.564365	2545.598690
748.892963	2543.637681
749.221514	2543.100798
749.550017	2542.589121
749.878473	2543.244471
750.206881	2542.412681
750.535242	2542.962167
750.863555	2542.594162
751.191821	2542.818494
751.520039	2543.138607
751.848210	2542.694986
752.176334	2541.825387
752.504411	2542.989893
752.832440	2541.996786
753.160421	2544.330840
753.488356	2541.729605
753.816243	2541.996786
754.144082	2543.052907
754.471875	2542.909235
754.799620	2543.481406
755.127318	2539.672814
755.454969	2543.312527
755.782572	2543.393185
756.110129	2541.112063
756.437638	2543.231868
756.765100	2539.471168
757.092515	2542.309337
757.419882	2540.214738
757.747203	2542.137938
758.074477	2541.018802
758.401703	2539.695499
758.728882	2540.862526
759.056014	2539.330015
759.383099	2538.911600
759.710138	2542.468134
760.037129	2541.364121
760.364073	2541.689275
760.690970	2543.862013
761.017820	2543.443597
761.344623	2543.289842
761.671379	2543.221786
761.998088	2540.159285
762.324751	2540.839841
762.651366	2544.724050
762.977935	2550.165976
763.304456	2546.259081
763.630931	2554.917263
763.957359	2550.849052
764.283740	2551.915256
764.610074	2548.341078
764.936362	2546.937117
765.262602	2542.914276
765.588796	2542.410160
765.914943	2543.252033
766.241044	2541.477547
766.567097	2541.580891
766.893104	2539.382947
767.219064	2541.006199
767.544978	2539.592155
767.870845	2539.125849
768.196665	2539.917310
768.522438	2542.291693
768.848165	2540.373534
769.173846	2540.265149
769.499479	2540.570139
769.825066	2537.404295
770.150607	2539.637526
770.476101	2538.967052
770.801548	2541.064172
771.126949	2538.959491
771.452303	2540.812115
771.777611	2538.667104
772.102872	2541.321271
772.428087	2538.601569
772.753256	2542.054759
773.078378	2537.923533
773.403453	2539.677855
773.728482	2537.905889
774.053465	2541.228010
774.378401	2537.558050
774.703291	2538.480581
775.028135	2538.659542
775.352932	2539.602238
775.677683	2535.672658
776.002388	2538.657021
776.327046	2539.098122
776.651658	2536.297761
776.976224	2537.580735
777.300743	2536.065868
777.625216	2538.442772
777.949643	2537.832793
778.274024	2543.204142
778.598359	2534.122503
778.922647	2534.815662
779.246889	2537.704243
779.571086	2531.438089
779.895236	2537.555529
780.219339	2538.049562
780.543397	2537.653832
780.867409	2536.380940
781.191374	2538.263811
781.515294	2537.921013
781.839167	2536.275076
782.162995	2538.636857
782.486776	2538.667104
782.810511	2538.780530
783.134201	2540.542413
783.457844	2536.249870
783.781441	2540.983514
784.104993	2538.021836
784.428498	2536.791794
784.751958	2536.993441
785.075372	2539.854295
785.398739	2538.457896
785.722061	2537.389171
786.045337	2536.811959
786.368568	2537.832793
786.691752	2535.839016
787.014891	2538.601569
787.337983	2538.450334
787.661030	2537.464788
787.984031	2538.735159
788.306987	2541.832948
788.629897	2540.388658
788.952760	2538.064686
789.275579	2538.352032
789.598351	2539.819007
789.921078	2538.568801
790.243759	2538.936805
790.566395	2536.917823
790.888984	2537.777340
791.211529	2540.701209
791.534027	2538.541075
791.856480	2536.448996
792.178888	2535.738193
792.501249	2537.774819
792.823566	2538.939326
793.145836	2539.352701
793.468062	2534.813142
793.790241	2539.166178
794.112375	2537.121990
794.434464	2537.406815
794.756507	2541.459903
795.078505	2535.995292
795.400457	2536.310364
795.722364	2533.946063
796.044226	2538.447813
796.366042	2535.541588
796.687812	2535.912113
797.009538	2535.095446
797.331218	2538.846065
797.652852	2537.704243
797.974442	2536.693492
798.295986	2539.203987
798.617484	2537.520241
798.938938	2537.926054
799.260346	2540.098791
799.581709	2536.486805
799.903026	2541.049049
800.224299	2538.210879
800.545526	2537.275745
800.866708	2535.554191
801.187845	2540.602907
801.508936	2536.050745
801.829983	2538.226003
802.150984	2537.522762
802.471940	2538.843544
802.792851	2539.680376
803.113717	2538.107536
803.434538	2536.363296
803.755314	2538.866229
804.076045	2537.616023
804.396731	2536.958153
804.717372	2537.653832
805.037967	2537.570653
805.358518	2536.275076
805.679024	2538.168029
805.999485	2536.474202
806.319901	2537.840354
806.640272	2533.799870
806.960598	2536.585107
807.280879	2532.768954
807.601115	2538.702392
807.921306	2535.392874
808.241453	2537.079140
808.561554	2534.944212
808.881611	2539.440921
809.201623	2538.397402
809.521590	2536.794315
809.841513	2537.613502
810.161390	2533.436907
810.481223	2537.384130
810.801011	2537.290869
811.120755	2534.790456
811.440453	2537.263142
811.760107	2534.341794
812.079716	2537.152237
812.399281	2533.313398
812.718801	2533.638553
813.038276	2530.732328
813.357707	2539.892104
813.677093	2536.111239
813.996434	2536.960673
814.315731	2533.230219
814.634983	2539.745911
814.954191	2537.442103
815.273354	2536.532175
815.592473	2533.711649
815.911547	2539.284645
816.230577	2539.357742
816.549562	2534.929088
816.868502	2536.549819
817.187399	2538.866229
817.506250	2535.302133
817.825058	2537.414377
818.143821	2538.571322
818.462539	2537.142155
818.781213	2538.553678
819.099843	2538.964532
819.418429	2539.619882
819.736970	2539.967721
820.055466	2542.437887
820.373919	2542.021992
820.692327	2543.350336
821.010691	2547.791592
821.329011	2558.035217
821.647286	2572.919223
821.965517	2592.158787
822.283704	2602.188163
822.601847	2605.797629
822.919945	2599.443254
823.237999	2585.171748
823.556010	2578.673701
823.873976	2567.774726
824.191897	2561.982440
824.509775	2555.910370
824.827609	2551.658157
825.145398	2550.423074
825.463144	2552.628579
825.780845	2548.267981
826.098502	2552.694114
826.416116	2555.383570
826.733685	2564.528223
827.051210	2564.560990
827.368692	2559.804662
827.686129	2556.606050
828.003522	2549.397200
828.320872	2543.940151
828.638177	2541.989224
828.955439	2538.946888
829.272656	2540.139121
829.589830	2535.932278
829.906960	2538.659542
830.224046	2540.053421
830.541088	2538.888914
830.858086	2539.284645
831.175041	2537.358924
831.491952	2536.504449
831.808819	2539.405633
832.125642	2537.893287
832.442421	2538.931764
832.759157	2541.162475
833.075849	2543.481406
833.392497	2548.260419
833.709101	2549.419885
834.025662	2552.109340
834.342179	2549.114895
834.658653	2544.938299
834.975083	2544.245140
835.291469	2546.775800
835.607811	2541.036446
835.924110	2539.813966
836.240366	2536.900179
836.556578	2537.144675
836.872746	2538.624254
837.188871	2538.488143
837.504952	2536.262473
837.820990	2536.814480
838.136984	2536.328008
838.452935	2537.807587
838.768842	2535.770961
839.084706	2537.414377
839.400526	2536.907741
839.716303	2540.184491
840.032037	2541.162475
840.347727	2542.301776
840.663373	2536.461599
840.978977	2538.097453
841.294537	2535.067720
841.610054	2535.715508
841.925527	2538.241126
842.240957	2534.949253
842.556344	2534.818183
842.871687	2534.142668
843.186987	2535.206352
843.502244	2531.450692
843.817458	2534.495549
844.132629	2533.477236
844.447756	2535.307175
844.762840	2533.129396
845.077881	2532.037986
845.392879	2531.730476
845.707833	2532.766433
846.022745	2529.194776
846.337613	2534.150230
846.652438	2533.373892
846.967221	2532.133768
847.281960	2533.547812
847.596656	2535.092926
847.911309	2532.942873
848.225919	2530.492873
848.540485	2532.988244
848.855009	2533.056299
849.169490	2533.444468
849.483928	2533.845240
849.798323	2535.816331
850.112675	2535.634850
850.426984	2533.966228
850.741251	2535.554191
851.055474	2530.225692
851.369654	2534.813142
851.683792	2533.749458
851.997887	2532.572349
852.311938	2536.474202
852.625947	2533.694005
852.939914	2531.753161
853.253837	2532.534540
853.567718	2535.803728
853.881555	2532.942873
854.195350	2532.456402
854.509103	2535.196269
854.822812	2532.945394
855.136479	2533.704088
855.450103	2532.194262
855.763685	2535.702905
856.077224	2531.246525
856.390720	2532.776515
856.704173	2533.746937
857.017584	2533.671320
857.330953	2533.189890
857.644278	2530.427338
857.957561	2534.863553
858.270802	2535.095446
858.584000	2532.378264
858.897155	2533.706608
859.210268	2531.503624
859.523339	2533.305837
859.836367	2533.429345
860.149352	2533.898172
860.462295	2536.262473
860.775195	2532.287523
861.088054	2530.873480
861.400869	2530.520599
861.713642	2529.391381
862.026373	2530.560928
862.339062	2531.705270
862.651708	2535.287010
862.964312	2532.905065
863.276873	2534.079654
863.589392	2534.833306
863.901869	2530.986906
864.214303	2533.114273
864.526696	2534.064530
864.839045	2534.004036
865.151353	2530.134951
865.463619	2533.673841
865.775842	2531.654859
866.088023	2532.804242
866.400162	2534.924047
866.712258	2533.436907
867.024313	2531.899355
867.336325	2534.820703
867.648296	2533.071423
867.960224	2531.516227
868.272110	2535.528985
868.583954	2533.973789
868.895755	2533.724252
869.207515	2533.688964
869.519233	2533.898172
869.830909	2533.996475
870.142542	2535.226516
870.454134	2533.694005
870.765684	2534.029242
871.077191	2536.423790
871.388657	2535.617206
871.700081	2533.106711
872.011463	2535.372710
872.322803	2534.084695
872.634101	2533.089067
872.945357	2535.405477
873.256571	2532.312729
873.567744	2533.247863
873.878874	2534.205683
874.189963	2535.375230
874.501010	2535.556712
874.812015	2536.239788
875.122979	2532.290044
875.433900	2534.268697
875.744780	2533.820034
876.055618	2537.792463
876.366415	2534.717360
876.677169	2536.416228
876.987882	2532.544622
877.298554	2531.140661
877.609183	2532.688295
877.919771	2529.794673
878.230317	2531.090249
878.540822	2540.237423
878.851285	2537.553009
879.161707	2536.764068
879.472087	2537.981507
879.782425	2539.650129
880.092722	2540.517207
880.402977	2549.742519
880.713191	2558.521688
881.023363	2564.785322
881.333494	2574.930644
881.643583	2576.773186
881.953631	2571.316137
882.263637	2569.836558
882.573602	2566.153995
882.883526	2564.336659
883.193408	2555.648230
883.503248	2554.014897
883.813048	2550.082797
884.122806	2547.378217
884.432522	2547.640357
884.742197	2543.320089
885.051831	2542.914276
885.361424	2540.965870
885.670975	2540.302958
885.980485	2538.924203
886.289954	2537.880684
886.599382	2535.256763
886.908768	2538.919161
887.218113	2535.256763
887.527417	2538.304141
887.836680	2533.986392
888.145901	2534.926568
888.455082	2536.801877
888.764221	2533.671320
889.073319	2534.679551
889.382376	2535.365148
889.691392	2538.767927
890.000366	2536.443955
890.309300	2534.137627
890.618193	2534.755168
890.927044	2535.541588
891.235855	2537.008564
891.544625	2533.459592
891.853353	2535.813811
892.162041	2537.147196
892.470687	2537.129552
892.779293	2535.637370
893.087858	2535.135775
893.396381	2532.947915
893.704864	2533.870446
894.013306	2536.806918
894.321707	2542.977290
894.630068	2545.573484
894.938387	2549.934082
895.246665	2544.824873
895.554903	2547.887374
895.863100	2540.640715
896.171256	2543.110881
896.479371	2539.183822
896.787446	2540.136600
897.095480	2536.983358
897.403473	2538.074768
897.711425	2535.816331
898.019336	2536.811959
898.327207	2535.841537
898.635038	2538.039480
898.942827	2537.900848
899.250576	2536.012936
899.558284	2535.695343
899.865952	2533.699047
900.173579	2535.597041
900.481165	2532.305167
900.788711	2534.830786
901.096216	2533.051258
901.403681	2530.540764
901.711105	2533.557894
902.018489	2536.277597
902.325832	2536.108718
902.633135	2535.632329
902.940397	2534.465302
903.247619	2537.588297
903.554800	2539.466127
903.861941	2542.014430
904.169041	2548.883002
904.476101	2552.522715
904.783121	2553.052036
905.090100	2547.799154
905.397039	2547.416026
905.703938	2542.571477
906.010796	2541.170037
906.317614	2536.486805
906.624391	2536.317926
906.931129	2536.696012
907.237826	2536.126362
907.544483	2534.311547
907.851099	2534.924047
908.157675	2533.396577
908.464211	2529.522451
908.770707	2530.054292
909.077163	2530.712163
909.383578	2527.833664
909.689954	2530.238294
909.996289	2531.206196
910.302584	2531.201155
910.608839	2533.777184
910.915054	2534.331711
911.221229	2532.010260
911.527363	2534.649304
911.833458	2528.930115
912.139513	2530.719725
912.445527	2533.119314
912.751502	2533.401618
913.057436	2532.837009
913.363331	2533.797349
913.669186	2533.666279
913.975000	2533.510003
914.280775	2537.217772
914.586510	2538.178112
914.892205	2539.831610
915.197859	2540.544933
915.503475	2541.699358
915.809050	2546.672456
916.114585	2549.770245
916.420081	2550.216387
916.725536	2549.916438
917.030952	2549.487940
917.336328	2542.062321
917.641665	2543.105840
917.946961	2541.701878
918.252218	2539.335057
918.557435	2538.253729
918.862612	2538.105015
919.167750	2535.365148
919.472848	2535.982689
919.777906	2534.677030
920.082925	2533.177287
920.387904	2535.728111
920.692843	2535.662576
920.997743	2533.041176
921.302603	2533.951104
921.607423	2531.289375
921.912204	2532.837009
922.216946	2531.332225
922.521647	2533.139478
922.826310	2531.163346
923.130932	2532.380785
923.435516	2531.775846
923.740059	2531.889272
924.044564	2532.431196
924.349028	2529.419107
924.653454	2527.148067
924.957840	2528.199148
925.262186	2525.802079
925.566493	2531.180990
925.870761	2527.349713
926.174989	2531.614529
926.479178	2527.044723
926.783328	2531.677544
927.087438	2530.142513
927.391509	2534.210724
927.695541	2531.168387
927.999533	2531.307019
928.303486	2532.335414
928.607400	2528.136133
928.911275	2532.143851
929.215110	2530.160157
929.518906	2530.870959
929.822663	2532.519417
930.126381	2530.702081
930.430060	2529.454395
930.733699	2529.015815
931.037299	2530.631504
931.340861	2527.092614
931.644383	2530.697039
931.947866	2530.646628
932.251309	2528.088242
932.554714	2531.135620
932.858080	2529.429189
933.161407	2529.930784
933.464694	2529.875331
933.767943	2529.535053
934.071153	2529.991278
934.374323	2530.084539
934.677455	2532.312729
934.980548	2529.378778
935.283602	2529.482121
935.586617	2532.423635
935.889593	2529.991278
936.192530	2528.907430
936.495428	2529.300640
936.798287	2530.490352
937.101108	2529.812317
937.403890	2530.573531
937.706632	2534.782895
938.009336	2530.006401
938.312002	2530.681916
938.614628	2530.452543
938.917216	2533.958666
939.219765	2528.017666
939.522275	2527.581606
939.824747	2533.227699
940.127179	2527.478263
940.429573	2527.448016
940.731929	2529.494724
941.034246	2527.712676
941.336524	2529.197296
941.638763	2529.582944
941.940964	2533.404139
942.243126	2530.094622
942.545250	2530.359282
942.847335	2530.709642
943.149381	2531.564118
943.451389	2528.103366
943.753359	2529.855167
944.055290	2531.483459
944.357182	2532.113604
944.659036	2529.063706
944.960851	2530.515558
945.262628	2530.634025
945.564367	2529.953469
945.866067	2529.961031
946.167729	2528.463808
946.469352	2531.662420
946.770937	2528.546987
947.072484	2526.568334
947.373992	2529.835002
947.675462	2528.907430
947.976893	2531.395239
948.278286	2528.070598
948.579641	2533.482277
948.880958	2527.478263
949.182236	2533.109232
949.483476	2527.521113
949.784678	2531.075126
950.085841	2529.164529
950.386967	2532.229550
950.688054	2531.672503
950.989103	2527.788294
951.290114	2529.716535
951.591087	2530.689478
951.892021	2527.611853
952.192917	2530.066895
952.493776	2530.850795
952.794596	2529.436751
953.095378	2531.057482
953.396122	2530.016484
953.696828	2532.569828
953.997496	2531.281813
954.298126	2532.330373
954.598718	2530.928932
954.899272	2529.777029
955.199788	2530.187883
955.500266	2528.083201
955.800706	2528.544467
956.101108	2527.137985
956.401472	2525.711338
956.701798	2525.918026
957.002087	2525.774353
957.302337	2528.907430
957.602550	2531.370033
957.902724	2526.543129
958.202861	2528.552028
958.502960	2526.122192
958.803022	2529.714014
959.103045	2527.921884
959.403031	2528.274765
959.702979	2530.581093
960.002889	2529.340969
960.302762	2527.566483
960.602596	2528.655372
960.902393	2528.299971
961.202153	2530.228212
961.501875	2527.284178
961.801559	2530.538243
962.101205	2528.201668
962.400814	2530.434899
962.700385	2528.859539
962.999918	2530.051772
963.299414	2530.266021
963.598873	2530.480270
963.898293	2529.298119
964.197677	2529.119158
964.497022	2529.487163
964.796331	2528.867101
965.095601	2528.662934
965.394835	2529.469518
965.694030	2527.377440
965.993189	2529.182173
966.292309	2528.234436
966.591393	2529.966072
966.890439	2526.901051
967.189447	2531.642256
967.488419	2526.820392
967.787353	2527.508510
968.086249	2527.957172
968.385108	2531.304498
968.683930	2525.955834
968.982714	2528.007584
969.281462	2528.814168
969.580172	2528.022707
969.878844	2528.060516
970.177480	2526.568334
970.476078	2527.430372
970.774639	2529.376257
971.073162	2526.817872
971.371649	2523.735206
971.670098	2522.873169
971.968510	2527.037162
972.266885	2523.619259
972.565223	2527.468180
972.863524	2529.726617
973.161788	2527.526154
973.460014	2528.110927
973.758204	2530.281144
974.056356	2527.725279
974.354471	2529.961031
974.652550	2526.596061
974.950591	2528.100845
975.248595	2528.854498
975.546563	2528.103366
975.844493	2526.364168
976.142386	2527.478263
976.440243	2528.463808
976.738062	2528.529343
977.035845	2529.880372
977.333590	2527.044723
977.631299	2524.486338
977.928971	2525.935670
978.226606	2529.777029
978.524204	2527.183355
978.821765	2529.035979
979.119290	2527.909281
979.416777	2527.541277
979.714228	2529.454395
980.011642	2528.620084
980.309020	2528.965403
980.606360	2529.270393
980.903664	2528.335259
981.200931	2523.778056
981.498162	2528.075639
981.795356	2525.686133
982.092513	2527.957172
982.389633	2526.558252
982.686717	2530.124868
982.983764	2531.443130
983.280775	2528.176462
983.577749	2529.653521
983.874686	2529.472039
984.171587	2528.501617
984.468451	2531.518747
984.765279	2529.867770
985.062070	2525.623118
985.358824	2529.323325
985.655543	2527.405166
985.952224	2526.167563
986.248869	2527.332069
986.545478	2524.892151
986.842050	2525.015659
987.138586	2524.335103
987.435086	2522.878210
987.731549	2523.031965
988.027975	2527.387522
988.324366	2526.427182
988.620719	2528.441123
988.917037	2527.745444
989.213318	2525.786956
989.509563	2527.742923
989.805772	2527.947090
990.101944	2526.780063
990.398080	2526.747295
990.694180	2527.511030
990.990244	2528.002543
991.286271	2528.720907
991.582262	2526.838036
991.878217	2526.981709
992.174136	2529.421628
992.470019	2526.959024
992.765865	2527.004394
993.061676	2524.975330
993.357450	2526.346524
993.653188	2527.531195
993.948890	2528.368026
994.244556	2529.729138
994.540186	2527.687471
994.835780	2527.316946
995.131337	2529.272913
995.426859	2526.757378
995.722345	2526.399456
996.017795	2527.248890
996.313208	2528.294930
996.608586	2524.569517
996.903928	2528.730989
997.199234	2526.714528
997.494504	2527.722759
997.789738	2525.781914
998.084936	2526.608664
998.380099	2531.796011
998.675225	2527.231246
998.970316	2528.057995
999.265371	2526.235618
999.560390	2527.876514
999.855373	2528.105886
1000.150320	2527.072450
1000.445232	2525.028262
1000.740108	2525.920546
1001.034948	2526.223015
1001.329752	2528.962883
1001.624521	2528.967924
1001.919254	2522.626152
1002.213951	2524.700587
1002.508613	2524.355268
1002.803239	2525.013138
1003.097829	2522.815195
1003.392384	2528.083201
1003.686903	2525.691174
1003.981386	2527.193438
1004.275834	2526.938859
1004.570246	2526.202851
1004.864623	2525.628159
1005.158964	2524.325021
1005.453270	2525.192099
1005.747540	2527.387522
1006.041775	2526.565814
1006.335974	2525.252593
1006.630138	2527.553880
1006.924266	2525.335772
1007.218359	2526.160001
1007.512416	2525.030783
1007.806438	2524.667819
1008.100425	2526.381812
1008.394376	2527.016997
1008.688292	2527.450536
1008.982172	2526.953983
1009.276017	2527.808458
1009.569827	2527.085053
1009.863602	2526.906092
1010.157341	2525.444157
1010.451045	2525.756709
1010.744714	2527.695032
1011.038347	2529.325846
1011.331945	2526.250742
1011.625508	2528.282327
1011.919036	2525.635721
1012.212528	2524.730834
1012.505986	2525.812161
1012.799408	2526.429703
1013.092795	2527.291740
1013.386147	2525.970958
1013.679464	2524.715710
1013.972745	2526.719569
1014.265992	2528.463808
1014.559204	2524.750998
1014.852380	2527.770650
1015.145521	2526.752337
1015.438628	2526.573376
1015.731699	2525.744106
1016.024736	2525.645803
1016.317737	2527.097656
1016.610703	2527.362316
1016.903635	2525.207223
1017.196531	2521.436440
1017.489393	2523.188241
1017.782219	2521.731347
1018.075011	2522.051461
1018.367768	2526.550690
1018.660490	2526.114631
1018.953177	2526.114631
1019.245829	2526.114631
