Dividing Wavelength (nm)	Counts (n)	Blue Motor Position (mm): 0.000000	Red Motor Position (mm): 10.600000	
326.493990	2128.198713
326.888308	2128.198713
327.282561	2128.198713
327.676750	2097.200658
328.070874	2095.123703
328.464933	2099.141503
328.858929	2103.320619
329.252859	2114.302773
329.646726	2126.257869
330.040528	2138.742287
330.434265	2156.608136
330.827938	2173.609427
331.221547	2190.847653
331.615091	2208.947916
332.008571	2227.307798
332.401986	2246.048288
332.795338	2267.528644
333.188625	2285.961623
333.581847	2307.144552
333.975006	2323.926553
334.368100	2341.333657
334.761129	2360.197655
335.154095	2378.388658
335.546996	2394.888355
335.939833	2410.468041
336.332606	2420.605801
336.725315	2436.349325
337.117960	2445.138576
337.510540	2456.171142
337.903056	2463.972327
338.295508	2473.048925
338.687896	2484.479741
339.080220	2489.054588
339.472480	2497.306957
339.864676	2498.194200
340.256807	2503.832731
340.648875	2507.787516
341.040879	2510.756755
341.432818	2513.985614
341.824694	2511.835562
342.216506	2515.432426
342.608253	2512.700120
342.999937	2514.688855
343.391557	2510.413957
343.783113	2511.580984
344.174605	2511.646519
344.566033	2509.803977
344.957397	2507.674090
345.348697	2505.466064
345.739934	2507.422032
346.131106	2504.924140
346.522215	2502.022956
346.913260	2499.336021
347.304241	2496.255876
347.695159	2495.797131
348.086012	2496.606237
348.476802	2490.710607
348.867528	2490.241780
349.258191	2489.190699
349.648789	2488.787407
350.039324	2485.505616
350.429796	2487.789258
350.820203	2484.273054
351.210548	2483.156438
351.600828	2482.082672
351.991045	2484.106696
352.381198	2482.057467
352.771288	2484.318424
353.161314	2479.859523
353.551276	2483.131232
353.941175	2481.689462
354.331010	2480.275419
354.720782	2481.323979
355.110490	2484.759525
355.500135	2480.288022
355.889717	2484.328506
356.279235	2482.299442
356.668689	2482.982518
357.058080	2482.677528
357.447408	2480.580408
357.836672	2476.638226
358.225873	2480.996304
358.615010	2478.284163
359.004084	2486.115595
359.393095	2483.244658
359.782043	2485.465287
360.170927	2486.402941
360.559748	2486.856645
360.948505	2487.819505
361.337199	2487.650627
361.725830	2486.743219
362.114398	2491.252531
362.502903	2488.482417
362.891344	2488.583240
363.279722	2489.969558
363.668037	2494.186483
364.056289	2490.897130
364.444478	2493.808396
364.832603	2490.864362
365.220665	2492.061636
365.608665	2491.678509
365.996601	2493.531133
366.384474	2494.461226
366.772284	2495.671102
367.160031	2499.089005
367.547715	2499.429283
367.935336	2502.791732
368.322893	2506.600324
368.710388	2508.815911
369.097820	2513.259688
369.485189	2515.233300
369.872495	2522.495082
370.259738	2530.853315
370.646918	2537.742052
371.034035	2541.921168
371.421090	2553.243600
371.808081	2563.706515
372.195010	2570.854871
372.581875	2585.885071
372.968678	2599.085332
373.355418	2607.683020
373.742096	2628.462657
374.128710	2642.227527
374.515262	2655.876451
374.901751	2673.323885
375.288177	2684.580781
375.674540	2707.555840
376.060841	2725.124261
376.447079	2745.399782
376.833254	2763.162287
377.219367	2780.004782
377.605417	2813.934268
377.991404	2821.143118
378.377329	2844.408043
378.763191	2860.769108
379.148991	2899.333935
379.534727	2922.556010
379.920402	2949.541307
380.306013	2962.124027
380.691563	3007.791839
381.077049	3026.456712
381.462474	3043.878939
381.847835	3077.173240
382.233134	3093.070518
382.618371	3087.308480
383.003545	3145.866523
383.388657	3143.819814
383.773706	3167.677075
384.158693	3172.577076
384.543618	3186.636854
384.928480	3208.454968
385.313280	3237.512179
385.698017	3223.139849
386.082692	3252.532297
386.467305	3239.548805
386.851856	3254.889036
387.236344	3255.806526
387.620770	3260.459511
388.005133	3260.346085
388.389435	3261.513112
388.773674	3248.063314
389.157851	3256.061105
389.541965	3249.046339
389.926018	3202.768547
390.310008	3219.578274
390.693936	3207.035883
391.077802	3204.540512
391.461606	3172.748476
391.845348	3179.838858
392.229027	3154.343223
392.612645	3131.385808
392.996200	3137.954432
393.379694	3127.955303
393.763125	3130.697691
394.146494	3083.532655
394.529801	3079.310689
394.913047	3062.415262
395.296230	3017.528828
395.679351	3009.067251
396.062410	2983.485916
396.445408	2950.645319
396.828343	2928.829726
397.211217	2904.037332
397.594028	2857.648634
397.976778	2842.116839
398.359466	2826.005311
398.742092	2801.666620
399.124656	2772.586724
399.507158	2761.692791
399.889598	2744.265522
400.271977	2730.641804
400.654294	2712.455841
401.036549	2692.182841
401.418742	2671.935047
401.800874	2665.280724
402.182944	2651.820843
402.564952	2640.836169
402.946898	2627.018366
403.328783	2615.426233
403.710606	2596.894951
404.092367	2597.696495
404.474067	2587.321800
404.855705	2578.552713
405.237282	2569.110632
405.618797	2562.660475
406.000250	2558.453632
406.381642	2554.619835
406.762972	2551.418702
407.144240	2543.665408
407.525447	2541.837989
407.906593	2537.023687
408.287677	2537.179963
408.668700	2534.346835
409.049661	2532.080836
409.430560	2530.661751
409.811399	2529.512368
410.192176	2527.498427
410.572891	2528.720907
410.953545	2527.503468
411.334138	2522.845442
411.714669	2528.196627
412.095139	2525.121523
412.475547	2525.963396
412.855894	2523.662109
413.236180	2524.345186
413.616405	2523.941893
413.996568	2523.944414
414.376670	2525.053468
414.756711	2519.626666
415.136691	2525.068591
415.516609	2522.439629
415.896466	2522.011131
416.276262	2524.672861
416.655997	2517.781603
417.035670	2521.126409
417.415283	2519.914011
417.794834	2520.274454
418.174324	2523.384846
418.553753	2523.097500
418.933121	2522.119516
419.312428	2523.997346
419.691674	2524.761081
420.070859	2521.953158
420.449983	2523.730165
420.829045	2523.589013
421.208047	2525.182017
421.586988	2522.860566
421.965867	2526.626308
422.344686	2524.357788
422.723444	2523.548683
423.102141	2524.750998
423.480777	2526.293592
423.859352	2524.153622
424.237866	2527.069929
424.616319	2526.089425
424.994712	2525.991122
425.373044	2526.749816
425.751314	2526.399456
426.129524	2524.274609
426.507673	2527.110258
426.885762	2528.549508
427.263789	2526.228057
427.641756	2524.476256
428.019662	2526.248221
428.397508	2523.571368
428.775292	2528.350382
429.153016	2526.144877
429.530679	2525.514733
429.908282	2526.361647
430.285824	2525.605474
430.663305	2526.699404
431.040726	2526.931297
431.418086	2528.073119
431.795385	2530.029087
432.172624	2527.579086
432.549802	2525.960875
432.926920	2528.604961
433.303977	2531.528830
433.680974	2527.657224
434.057910	2529.174611
434.434786	2529.850126
434.811601	2527.798376
435.188355	2530.455064
435.565050	2528.423479
435.941683	2528.342821
436.318257	2526.366688
436.694770	2527.503468
437.071222	2526.235618
437.447614	2525.711338
437.823946	2523.367202
438.200218	2527.405166
438.576429	2528.778880
438.952580	2532.499252
439.328670	2528.738551
439.704700	2527.354754
440.080670	2530.984385
440.456580	2529.199817
440.832429	2528.748633
441.208218	2528.463808
441.583947	2529.330887
441.959616	2530.767616
442.335224	2531.112935
442.710773	2528.027748
443.086261	2530.588655
443.461689	2529.363654
443.837057	2531.117976
444.212365	2530.311391
444.587612	2529.877852
444.962800	2529.739220
445.337927	2530.013963
445.712995	2530.739889
446.088002	2531.367513
446.462949	2532.640404
446.837837	2530.576052
447.212664	2532.844571
447.587431	2532.451361
447.962139	2533.857843
448.336786	2535.738193
448.711374	2535.833975
449.085901	2537.356404
449.460369	2530.145033
449.834776	2533.754499
450.209124	2533.061341
450.583412	2533.812473
450.957640	2533.424304
451.331808	2532.622760
451.705917	2531.783408
452.079965	2535.317257
452.453954	2532.852133
452.827883	2534.334232
453.201752	2531.861546
453.575562	2535.045035
453.949311	2534.384643
454.323001	2535.176105
454.696632	2536.572504
455.070202	2535.934798
455.443713	2534.813142
455.817164	2531.135620
456.190556	2530.356762
456.563888	2531.889272
456.937160	2531.032276
457.310373	2532.272400
457.683526	2533.913296
458.056619	2535.839016
458.429653	2536.814480
458.802628	2537.512679
459.175542	2535.319778
459.548398	2536.607792
459.921194	2537.169881
460.293930	2536.448996
460.666607	2536.212062
461.039224	2540.363452
461.411782	2537.174922
461.784280	2539.415715
462.156719	2538.220962
462.529099	2540.668442
462.901419	2535.932278
463.273680	2540.139121
463.645882	2538.447813
464.018024	2538.077289
464.390106	2539.614841
464.762130	2540.302958
465.134094	2540.497043
465.505999	2539.269522
465.877845	2545.442414
466.249631	2543.027702
466.621358	2543.236910
466.993026	2544.870243
467.364634	2546.836293
467.736184	2541.527958
468.107674	2543.156251
468.479105	2540.343287
468.850477	2541.933771
469.221790	2543.451159
469.593043	2543.393185
469.964238	2541.843031
470.335373	2539.546785
470.706449	2540.615510
471.077467	2541.462423
471.448425	2544.005686
471.819324	2545.321427
472.190164	2545.276056
472.560945	2542.631971
472.931667	2541.719522
473.302330	2539.582073
473.672934	2540.320602
474.043479	2540.996117
474.413965	2540.529810
474.784393	2536.476722
475.154761	2540.214738
475.525070	2537.800025
475.895321	2537.515200
476.265513	2537.585776
476.635645	2542.697506
477.005719	2542.689944
477.375734	2542.679862
477.745691	2542.899152
478.115588	2545.147507
478.485427	2541.091899
478.855207	2546.785882
479.224928	2545.654143
479.594591	2545.694472
479.964194	2544.978628
480.333739	2544.852599
480.703226	2544.202291
481.072653	2545.134904
481.442022	2546.425439
481.811333	2544.529966
482.180584	2545.013916
482.549777	2545.772610
482.918912	2541.873278
483.287988	2546.211190
483.657005	2547.791592
484.025964	2547.022816
484.394864	2543.688093
484.763706	2543.557023
485.132489	2546.289328
485.501213	2543.693134
485.869879	2543.015099
486.238487	2543.501570
486.607036	2544.527445
486.975527	2543.246992
487.343959	2544.736653
487.712333	2543.216745
488.080648	2544.847558
488.448905	2547.345450
488.817104	2545.530635
489.185244	2543.771272
489.553326	2543.761190
489.921350	2545.742363
490.289315	2547.511808
490.657222	2546.611962
491.025070	2547.476520
491.392861	2550.604556
491.760593	2546.218752
492.128267	2548.704041
492.495883	2546.264123
492.863440	2544.774462
493.230939	2546.939637
493.598380	2546.100285
493.965763	2540.532331
494.333088	2544.759338
494.700354	2540.512166
495.067563	2544.724050
495.434713	2543.100798
495.801805	2544.371169
496.168839	2542.629451
496.535815	2546.420398
496.902733	2545.152548
497.269593	2550.871737
497.636395	2542.314378
498.003139	2545.702034
498.369825	2545.712116
498.736453	2544.771941
499.103023	2547.809236
499.469535	2546.808567
499.835989	2547.516849
500.202385	2544.635830
500.568723	2545.313865
500.935003	2544.731612
501.301226	2545.157589
501.667390	2544.681200
502.033497	2545.921324
502.399546	2547.247148
502.765537	2544.872764
503.131470	2545.926365
503.497345	2544.184647
503.863163	2547.544576
504.228923	2547.131201
504.594625	2546.853937
504.960269	2548.772097
505.325856	2544.179605
505.691385	2545.901159
506.056856	2549.301418
506.422270	2544.167002
506.787625	2547.620193
507.152924	2546.044832
507.518164	2545.961653
507.883347	2544.308155
508.248472	2543.940151
508.613540	2544.282949
508.978550	2543.466282
509.343503	2546.869061
509.708398	2547.569781
510.073236	2545.641540
510.438016	2547.509287
510.802738	2547.481561
511.167403	2543.700696
511.532010	2548.089020
511.896561	2547.642878
512.261053	2547.849565
512.625488	2544.434184
512.989866	2540.996117
513.354186	2546.697662
513.718449	2540.005530
514.082655	2545.016437
514.446803	2547.902497
514.810894	2547.884853
515.174927	2549.114895
515.538904	2549.361912
515.902822	2547.733619
516.266684	2548.971222
516.630488	2544.945861
516.994235	2546.453166
517.357925	2546.619524
517.721558	2548.837632
518.085133	2547.524411
518.448651	2549.281253
518.812112	2547.342929
519.175516	2548.983825
519.538863	2550.944834
519.902152	2548.343598
520.265385	2548.141952
520.628560	2547.834442
520.991678	2547.872251
521.354739	2548.572971
521.717743	2547.826880
522.080690	2549.354350
522.443580	2548.278063
522.806413	2548.888043
523.169189	2549.941644
523.531908	2548.184802
523.894569	2547.950388
524.257174	2548.527601
524.619722	2550.349978
524.982213	2551.091027
525.344647	2548.199926
525.707025	2546.493495
526.069345	2548.865358
526.431608	2547.642878
526.793815	2547.816798
527.155964	2550.866696
527.518057	2549.341747
527.880093	2550.518856
528.242072	2550.072714
528.603995	2549.583722
528.965860	2549.813095
529.327669	2548.799823
529.689421	2547.635316
530.051117	2550.914587
530.412755	2547.907539
530.774337	2549.404761
531.135862	2548.855276
531.497331	2541.863195
531.858743	2541.805222
532.220098	2546.944678
532.581396	2545.689431
532.942638	2545.888557
533.303824	2547.945347
533.664953	2548.333516
534.026025	2547.322765
534.387040	2551.814433
534.747999	2546.617003
535.108902	2547.037940
535.469748	2547.073228
535.830537	2550.566747
536.191270	2548.855276
536.551947	2550.052550
536.912567	2548.656150
537.273131	2547.761345
537.633638	2545.880995
537.994089	2548.401572
538.354483	2549.608928
538.714821	2548.787220
539.075103	2549.571119
539.435328	2547.118598
539.795497	2548.870399
540.155609	2550.304607
540.515665	2548.983825
540.875665	2548.762014
541.235609	2548.310831
541.595496	2550.856614
541.955328	2551.915256
542.315102	2551.320400
542.674821	2550.493651
543.034483	2549.041798
543.394090	2551.088507
543.753640	2551.118754
544.113134	2550.181099
544.472571	2548.227652
544.831953	2549.689587
545.191278	2550.647406
545.550548	2550.009700
545.909761	2548.366284
546.268918	2548.915769
546.628019	2546.990049
546.987064	2550.294525
547.346053	2550.440718
547.704986	2549.102292
548.063863	2551.582540
548.422684	2550.108002
548.781449	2548.270502
549.140158	2548.704041
549.498811	2550.276881
549.857408	2548.003321
550.215949	2546.866540
550.574434	2543.993083
550.932864	2545.495347
551.291237	2547.763866
551.649555	2553.016748
552.007817	2549.785368
552.366022	2548.976263
552.724173	2550.549103
553.082267	2551.002807
553.440305	2549.490461
553.798288	2550.453321
554.156215	2550.518856
554.514086	2547.910059
554.871902	2551.370811
555.229661	2549.697148
555.587365	2551.348126
555.945014	2550.488609
556.302606	2548.590615
556.660143	2551.408620
557.017625	2550.274360
557.375050	2549.036757
557.732421	2552.502550
558.089735	2550.423074
558.446994	2549.314021
558.804197	2549.576161
559.161345	2549.371994
559.518437	2550.803682
559.875474	2548.782179
560.232455	2551.219577
560.589381	2548.451983
560.946251	2550.508774
561.303065	2548.192364
561.659825	2550.884340
562.016528	2552.295863
562.373177	2550.125646
562.729770	2549.296377
563.086307	2551.816953
563.442789	2549.780327
563.799216	2549.780327
564.155587	2550.811243
564.511904	2548.630944
564.868164	2553.014227
565.224370	2548.986346
565.580520	2546.856458
565.936615	2549.843342
566.292654	2549.760163
566.648638	2549.298897
567.004567	2550.907025
567.360441	2550.851572
567.716260	2550.634803
568.072023	2551.869886
568.427732	2543.844369
568.783385	2547.534493
569.138982	2544.978628
569.494525	2548.996428
569.850013	2545.462579
570.205445	2551.269988
570.560823	2551.267468
570.916145	2550.183620
571.271412	2549.465255
571.626625	2549.613969
571.981782	2548.376366
572.336884	2550.491130
572.691931	2549.661860
573.046923	2550.450801
573.401860	2547.229503
573.756743	2550.183620
574.111570	2549.218239
574.466342	2551.022972
574.821059	2546.740512
575.175722	2551.068342
575.530330	2551.761501
575.884882	2552.144628
576.239380	2547.995759
576.593823	2549.024154
576.948211	2550.758311
577.302544	2549.316541
577.656823	2547.743701
578.011047	2551.373332
578.365216	2549.808054
578.719330	2551.547252
579.073389	2546.836293
579.427394	2547.501726
579.781344	2546.914431
580.135239	2548.562889
580.489080	2546.314534
580.842866	2548.809905
581.196597	2550.849052
581.550273	2549.818136
581.903895	2550.100441
582.257463	2548.487271
582.610975	2547.481561
582.964434	2551.181768
583.317837	2550.987684
583.671186	2549.755122
584.024481	2549.913918
584.377721	2549.558517
584.730906	2548.701520
585.084037	2550.158414
585.437113	2549.840821
585.790135	2549.508105
586.143103	2550.120605
586.496016	2550.251675
586.848874	2547.854607
587.201679	2546.768238
587.554428	2544.613145
587.907124	2545.487785
588.259765	2545.482744
588.612352	2549.099772
588.964884	2546.254040
589.317362	2549.850903
589.669786	2547.627755
590.022155	2550.387786
590.374470	2548.920811
590.726731	2545.301262
591.078937	2548.635985
591.431090	2549.417364
591.783188	2549.379556
592.135232	2548.310831
592.487222	2547.894936
592.839157	2549.843342
593.191038	2549.402241
593.542866	2547.395862
593.894639	2547.463917
594.246358	2550.019782
594.598022	2548.152035
594.949633	2546.916952
595.301190	2548.683876
595.652692	2549.107333
596.004141	2545.490305
596.355535	2546.669935
596.706876	2549.276212
597.058162	2547.499205
597.409395	2548.756973
597.760573	2547.557178
598.111698	2545.301262
598.462768	2549.248486
598.813785	2546.581715
599.164748	2547.232024
599.515657	2547.032898
599.866511	2547.151366
600.217312	2547.602549
600.568060	2547.693290
600.918753	2549.440049
601.269392	2549.593805
601.619978	2549.044319
601.970510	2547.252189
602.320988	2549.719833
602.671412	2547.988197
603.021783	2547.849565
603.372100	2546.717826
603.722363	2548.756973
604.072572	2547.988197
604.422728	2549.349309
604.772830	2545.326468
605.122878	2541.885880
605.472872	2545.480223
605.822813	2543.257074
606.172701	2545.155069
606.522534	2546.435522
606.872314	2548.711603
607.222041	2547.816798
607.571714	2548.283105
607.921333	2548.280584
608.270899	2546.327137
608.620411	2548.333516
608.969870	2549.059442
609.319276	2549.835780
609.668627	2551.479196
610.017926	2553.309135
610.367171	2555.449105
610.716362	2555.197047
611.065500	2554.587067
611.414585	2552.938610
611.763616	2551.758980
612.112594	2549.785368
612.461518	2547.282436
612.810389	2549.329144
613.159207	2551.159083
613.507971	2550.176058
613.856682	2550.191181
614.205340	2548.981304
614.553945	2547.673125
614.902496	2548.409133
615.250994	2546.884184
615.599439	2548.376366
615.947830	2546.914431
616.296169	2548.005841
616.644454	2547.968032
616.992686	2547.804195
617.340864	2546.100285
617.688990	2547.960471
618.037063	2546.405275
618.385082	2544.262784
618.733048	2549.581202
619.080961	2548.872920
619.428821	2549.311500
619.776628	2550.176058
620.124382	2549.825698
620.472083	2547.431150
620.819731	2549.152704
621.167326	2544.986190
621.514868	2545.651622
621.862357	2547.799154
622.209793	2547.731098
622.557176	2548.346119
622.904506	2543.327650
623.251783	2543.093237
623.599007	2541.515356
623.946179	2543.990562
624.293297	2544.174564
624.640363	2545.633978
624.987376	2546.256561
625.334336	2545.392003
625.681243	2547.872251
626.028097	2546.425439
626.374899	2542.579039
626.721647	2544.766900
627.068343	2546.985007
627.414987	2546.463248
627.761577	2546.397713
628.108115	2546.916952
628.454600	2545.051725
628.801032	2547.174051
629.147412	2547.547096
629.493739	2542.326981
629.840014	2545.432332
630.186236	2546.364946
630.532405	2545.419729
630.878521	2546.831252
631.224585	2544.366128
631.570597	2543.970397
631.916556	2545.321427
632.262462	2548.988866
632.608316	2547.993238
632.954117	2544.383772
633.299866	2544.628268
633.645562	2545.381921
633.991206	2543.998124
634.336797	2543.715819
634.682336	2543.453679
635.027823	2541.626261
635.373257	2543.667928
635.718639	2542.881508
636.063968	2544.290511
636.409245	2544.159441
636.754470	2544.598021
637.099642	2541.969059
637.444762	2546.375028
637.789829	2541.797660
638.134845	2543.224307
638.479808	2541.958977
638.824719	2545.916283
639.169577	2543.062990
639.514383	2541.999306
639.859137	2544.562733
640.203839	2547.148845
640.548489	2543.650284
640.893086	2542.067362
641.237632	2536.940508
641.582125	2538.193235
641.926566	2538.906558
642.270955	2544.993752
642.615292	2542.619368
642.959576	2546.087682
643.303809	2544.111550
643.647990	2542.059800
643.992118	2542.029553
644.336195	2544.393854
644.680219	2541.933771
645.024192	2545.407126
645.368112	2542.387475
645.711981	2543.791437
646.055797	2543.806560
646.399562	2542.092568
646.743274	2543.494008
647.086935	2542.747918
647.430544	2541.742207
647.774101	2541.767413
648.117606	2544.676159
648.461059	2543.302445
648.804460	2542.561395
649.147810	2544.857641
649.491108	2543.730943
649.834354	2546.143135
650.177548	2543.272198
650.520690	2543.990562
650.863781	2541.870757
651.206820	2544.804708
651.549807	2543.095757
651.892742	2540.252547
652.235626	2544.073741
652.578458	2540.287835
652.921238	2539.718184
653.263967	2543.022661
653.606644	2542.190870
653.949269	2540.708771
654.291843	2542.652136
654.634365	2541.689275
654.976836	2542.100129
655.319255	2541.908566
655.661622	2541.802701
656.003938	2540.638195
656.346203	2541.469985
656.688416	2541.230530
657.030577	2542.304296
657.372687	2541.490150
657.714746	2542.765562
658.056753	2544.903011
658.398708	2537.855478
658.740612	2539.289686
659.082465	2541.132228
659.424266	2537.313554
659.766016	2537.873122
660.107715	2541.185160
660.449362	2540.534851
660.790958	2542.599204
661.132503	2543.299924
661.473996	2541.530479
661.815438	2541.575849
662.156829	2542.488298
662.498168	2541.517876
662.839456	2545.044163
663.180693	2541.696837
663.521879	2542.546272
663.863013	2541.603576
664.204097	2541.263298
664.545129	2542.700027
664.886110	2542.042156
665.227040	2543.062990
665.567918	2543.234389
665.908746	2543.993083
666.249522	2542.936961
666.590248	2542.203473
666.930922	2542.130376
667.271545	2543.257074
667.612118	2543.168854
667.952639	2541.008720
668.293109	2542.019471
668.633528	2540.945705
668.973896	2540.607948
669.314213	2542.324461
669.654480	2545.031560
669.994695	2540.335726
670.334859	2545.182795
670.674973	2540.282793
671.015035	2538.770447
671.355047	2540.895294
671.695008	2539.778678
672.034918	2540.834800
672.374777	2540.489481
672.714585	2541.991745
673.054342	2543.746066
673.394049	2541.780016
673.733705	2543.574667
674.073310	2543.652805
674.412864	2542.674821
674.752368	2540.638195
675.091820	2541.913607
675.431223	2540.038297
675.770574	2540.456713
676.109875	2534.253573
676.449125	2540.537372
676.788324	2537.905889
677.127473	2542.246323
677.466571	2540.302958
677.805619	2542.274049
678.144616	2541.936292
678.483562	2542.266488
678.822458	2540.129038
679.161303	2540.197094
679.500098	2540.209697
679.838842	2540.451672
680.177535	2541.850592
680.516179	2542.115253
680.854771	2541.225489
681.193314	2542.541230
681.531805	2538.168029
681.870247	2542.276570
682.208638	2542.458051
682.546978	2540.948226
682.885268	2542.929399
683.223508	2542.359749
683.561697	2543.531817
683.899836	2543.952753
684.237925	2540.928061
684.575963	2541.757331
684.913951	2541.243133
685.251889	2542.357228
685.589776	2542.906714
685.927614	2538.767927
686.265401	2540.562578
686.603137	2540.912938
686.940824	2542.969728
687.278460	2543.620037
687.616046	2543.549461
687.953582	2541.164995
688.291068	2542.936961
688.628504	2542.047197
688.965889	2541.220448
689.303224	2541.601055
689.640510	2539.267001
689.977745	2542.125335
690.314930	2544.161961
690.652065	2541.908566
690.989150	2542.851261
691.326185	2541.548123
691.663170	2539.077958
692.000105	2540.595345
692.336990	2541.883360
692.673825	2542.644574
693.010610	2541.946374
693.347345	2537.525282
693.684030	2538.367155
694.020665	2535.274407
694.357251	2534.785415
694.693786	2539.211548
695.030272	2536.542257
695.366707	2538.367155
695.703093	2539.519059
696.039429	2538.866229
696.375716	2539.682896
696.711952	2541.255736
697.048139	2541.162475
697.384276	2538.016795
697.720363	2538.689789
698.056400	2536.088553
698.392388	2537.374048
698.728326	2540.552495
699.064214	2538.581404
699.400053	2537.563091
699.735842	2539.579553
700.071581	2539.589635
700.407270	2536.743903
700.742910	2541.515356
701.078501	2537.245498
701.414042	2540.653318
701.749533	2537.653832
702.084974	2541.606096
702.420366	2536.403626
702.755709	2538.399922
703.091002	2536.643080
703.426246	2541.089378
703.761440	2537.459747
704.096584	2542.926879
704.431679	2538.132741
704.766725	2538.243647
705.101721	2538.785571
705.436668	2539.352701
705.771565	2536.680889
706.106413	2542.039636
706.441212	2539.811446
706.775961	2538.949408
707.110661	2539.743390
707.445311	2540.378575
707.779913	2542.800850
708.114465	2541.608617
708.448967	2538.684748
708.783421	2539.110725
709.117825	2538.099974
709.452180	2537.999151
709.786485	2538.432690
710.120742	2536.456558
710.454949	2542.029553
710.789107	2539.902186
711.123216	2536.358255
711.457275	2539.453524
711.791286	2537.164840
712.125247	2537.578214
712.459159	2540.552495
712.793023	2541.326312
713.126837	2540.625592
713.460602	2538.853626
713.794318	2537.348842
714.127985	2541.633823
714.461602	2538.904038
714.795171	2540.013092
715.128691	2537.636188
715.462162	2536.849768
715.795584	2540.943185
716.128957	2539.551826
716.462281	2539.410674
716.795556	2540.066024
717.128782	2539.750952
717.461960	2537.994110
717.795088	2537.714326
718.128167	2536.035621
718.461198	2539.075437
718.794180	2538.377237
719.127113	2536.713657
719.459997	2537.782381
719.792833	2539.934954
720.125619	2541.031405
720.458357	2537.694161
720.791046	2538.261291
721.123686	2537.797505
721.456278	2538.367155
721.788821	2538.639377
722.121315	2538.742721
722.453761	2537.600900
722.786158	2537.638708
723.118506	2535.667617
723.450805	2536.597710
723.783056	2540.141641
724.115259	2537.656352
724.447412	2538.384799
724.779518	2537.847916
725.111574	2538.551157
725.443582	2537.958822
725.775542	2537.210210
726.107453	2539.277083
726.439315	2536.937988
726.771129	2543.577187
727.102895	2537.484953
727.434612	2539.887063
727.766281	2537.704243
728.097901	2539.839172
728.429473	2535.415559
728.760996	2536.569984
729.092471	2532.050589
729.423897	2539.680376
729.755276	2537.570653
730.086606	2540.255067
730.417887	2537.903369
730.749120	2536.895138
731.080305	2539.604758
731.411442	2543.093237
731.742530	2539.287166
732.073570	2538.099974
732.404562	2534.624098
732.735506	2541.343956
733.066401	2540.522248
733.397249	2538.916641
733.728048	2541.429656
734.058798	2538.553678
734.389501	2535.118131
734.720156	2539.713143
735.050762	2539.577032
735.381320	2540.741538
735.711831	2536.703574
736.042293	2537.016126
736.372707	2537.197607
736.703073	2537.827752
737.033391	2537.613503
737.363661	2536.817000
737.693883	2538.147865
738.024056	2540.227341
738.354182	2536.436393
738.684260	2538.042001
739.014290	2536.196938
739.344272	2539.438400
739.674207	2538.110056
740.004093	2539.662732
740.333931	2537.553009
740.663722	2536.252391
740.993464	2539.123328
741.323159	2538.147865
741.652806	2539.821528
741.982405	2536.388502
742.311956	2537.076620
742.641460	2537.200128
742.970915	2542.642053
743.300323	2539.148534
743.629683	2534.586290
743.958996	2537.681558
744.288260	2536.338091
744.617477	2540.582742
744.946647	2531.654859
745.275768	2536.091074
745.604842	2533.757020
745.933869	2530.704601
746.262847	2531.659900
746.591778	2537.215251
746.920662	2535.889428
747.249498	2538.178112
747.578286	2537.358924
747.907027	2535.339942
748.235720	2534.813142
748.564365	2536.572504
748.892963	2537.489994
749.221514	2539.019984
749.550017	2537.401774
749.878473	2537.162319
750.206881	2538.651980
750.535242	2537.762217
750.863555	2535.965045
751.191821	2538.039480
751.520039	2537.280786
751.848210	2535.849099
752.176334	2536.499408
752.504411	2536.859850
752.832440	2538.896476
753.160421	2536.554860
753.488356	2535.226516
753.816243	2536.416228
754.144082	2536.963194
754.471875	2536.527134
754.799620	2535.985210
755.127318	2535.584438
755.454969	2534.992103
755.782572	2537.152237
756.110129	2537.517721
756.437638	2538.611651
756.765100	2534.976979
757.092515	2535.750796
757.419882	2533.386495
757.747203	2537.280786
758.074477	2535.244160
758.401703	2535.229037
758.728882	2534.679551
759.056014	2536.627957
759.383099	2537.386651
759.710138	2540.144162
760.037129	2532.930271
760.364073	2537.172402
760.690970	2535.342463
761.017820	2536.012936
761.344623	2536.542257
761.671379	2537.449665
761.998088	2532.965559
762.324751	2532.884900
762.651366	2534.876156
762.977935	2536.070909
763.304456	2537.537885
763.630931	2536.562422
763.957359	2537.946219
764.283740	2536.953111
764.610074	2538.087371
764.936362	2539.471168
765.262602	2535.178625
765.588796	2538.747762
765.914943	2536.965714
766.241044	2534.795497
766.567097	2537.671476
766.893104	2536.829603
767.219064	2534.114942
767.544978	2536.655683
767.870845	2534.966897
768.196665	2534.906403
768.522438	2537.338760
768.848165	2535.957483
769.173846	2536.388502
769.499479	2539.514017
769.825066	2533.136958
770.150607	2536.275076
770.476101	2534.808100
770.801548	2537.361445
771.126949	2534.364479
771.452303	2537.358924
771.777611	2530.656710
772.102872	2534.614016
772.428087	2536.209541
772.753256	2536.068389
773.078378	2535.902031
773.403453	2533.003367
773.728482	2536.322967
774.053465	2534.097298
774.378401	2537.288348
774.703291	2533.494880
775.028135	2533.878007
775.352932	2535.186187
775.677683	2533.373892
776.002388	2537.396733
776.327046	2531.944725
776.651658	2534.341794
776.976224	2535.385312
777.300743	2536.575025
777.625216	2533.232740
777.949643	2533.820034
778.274024	2535.549150
778.598359	2529.671165
778.922647	2530.477749
779.246889	2532.360620
779.571086	2528.909950
779.895236	2535.249201
780.219339	2536.252391
780.543397	2532.998326
780.867409	2533.010929
781.191374	2536.678368
781.515294	2532.065713
781.839167	2532.398429
782.162995	2531.760723
782.486776	2535.191228
782.810511	2535.554191
783.134201	2535.781043
783.457844	2534.848430
783.781441	2534.263656
784.104993	2532.010260
784.428498	2533.510003
784.751958	2536.088553
785.075372	2535.344983
785.398739	2534.619057
785.722061	2536.126362
786.045337	2536.718698
786.368568	2534.462781
786.691752	2533.759540
787.014891	2535.728111
787.337983	2534.515713
787.661030	2534.440096
787.984031	2536.083512
788.306987	2533.136958
788.629897	2534.934129
788.952760	2536.680889
789.275579	2537.754655
789.598351	2537.389171
789.921078	2536.562422
790.243759	2535.894469
790.566395	2536.073430
790.888984	2534.571166
791.211529	2534.082174
791.534027	2534.084695
791.856480	2535.241640
792.178888	2535.954963
792.501249	2531.763243
792.823566	2535.869263
793.145836	2534.301464
793.468062	2533.144520
793.790241	2533.101670
794.112375	2534.966897
794.434464	2534.457740
794.756507	2534.218285
795.078505	2534.876156
795.400457	2531.937163
795.722364	2529.933305
796.044226	2529.950949
796.366042	2530.437420
796.687812	2531.884231
797.009538	2534.624098
797.331218	2535.397915
797.652852	2533.194931
797.974442	2535.024870
798.295986	2532.683254
798.617484	2534.240971
798.938938	2535.256763
799.260346	2533.464633
799.581709	2535.728111
799.903026	2534.160312
800.224299	2535.806249
800.545526	2534.288862
800.866708	2537.479912
801.187845	2532.383305
801.508936	2535.410518
801.829983	2534.755168
802.150984	2535.100487
802.471940	2531.435568
802.792851	2534.077133
803.113717	2534.621578
803.434538	2535.682741
803.755314	2533.285672
804.076045	2534.787936
804.396731	2536.920344
804.717372	2531.642256
805.037967	2534.064530
805.358518	2534.740045
805.679024	2532.335414
805.999485	2533.623429
806.319901	2533.769623
806.640272	2533.925898
806.960598	2533.101670
807.280879	2532.582431
807.601115	2534.669469
807.921306	2535.738193
808.241453	2533.638553
808.561554	2533.353728
808.881611	2533.454551
809.201623	2533.013450
809.521590	2534.150230
809.841513	2533.787267
810.161390	2534.828265
810.481223	2531.992616
810.801011	2533.557894
811.120755	2535.967566
811.440453	2532.627801
811.760107	2533.331042
812.079716	2531.755682
812.399281	2528.292409
812.718801	2531.438089
813.038276	2528.615043
813.357707	2532.794159
813.677093	2532.718542
813.996434	2534.346835
814.315731	2531.947246
814.634983	2530.984385
814.954191	2534.127545
815.273354	2532.526978
815.592473	2535.019829
815.911547	2535.584438
816.230577	2533.472195
816.549562	2535.125693
816.868502	2535.544109
817.187399	2531.470857
817.506250	2533.089067
817.825058	2534.150230
818.143821	2534.430014
818.462539	2535.957483
818.781213	2532.957997
819.099843	2535.808769
819.418429	2536.360776
819.736970	2533.636032
820.055466	2533.759540
820.373919	2534.450178
820.692327	2536.960673
821.010691	2536.133924
821.329011	2536.764068
821.647286	2543.761190
821.965517	2549.349309
822.283704	2547.647919
822.601847	2548.290666
822.919945	2548.041129
823.237999	2545.432332
823.556010	2542.637012
823.873976	2540.746580
824.191897	2538.558719
824.509775	2538.281455
824.827609	2539.559388
825.145398	2537.832793
825.463144	2536.471681
825.780845	2538.520910
826.098502	2537.013605
826.416116	2536.048224
826.733685	2538.087371
827.051210	2541.490150
827.368692	2538.276414
827.686129	2537.069058
828.003522	2536.688451
828.320872	2534.515713
828.638177	2536.461599
828.955439	2531.412883
829.272656	2530.397091
829.589830	2529.114117
829.906960	2535.476053
830.224046	2536.020498
830.541088	2534.835827
830.858086	2531.924560
831.175041	2536.070909
831.491952	2532.075795
831.808819	2536.801877
832.125642	2530.840712
832.442421	2535.428162
832.759157	2532.927750
833.075849	2534.901362
833.392497	2537.500077
833.709101	2537.489994
834.025662	2536.446475
834.342179	2537.414377
834.658653	2535.085364
834.975083	2534.487987
835.291469	2536.632998
835.607811	2536.927906
835.924110	2533.696526
836.240366	2533.986392
836.556578	2532.189221
836.872746	2533.799870
837.188871	2535.491177
837.504952	2533.699047
837.820990	2533.998995
838.136984	2533.421783
838.452935	2530.414735
838.768842	2532.370703
839.084706	2530.434899
839.400526	2533.068902
839.716303	2531.594365
840.032037	2534.835827
840.347727	2531.944725
840.663373	2534.465302
840.978977	2532.773995
841.294537	2535.307175
841.610054	2533.245343
841.925527	2531.609488
842.240957	2534.520755
842.556344	2531.846422
842.871687	2532.801721
843.186987	2531.410363
843.502244	2532.761392
843.817458	2531.821217
844.132629	2532.345497
844.447756	2533.268028
844.762840	2529.098994
845.077881	2529.477080
845.392879	2527.359796
845.707833	2529.751823
846.022745	2527.505989
846.337613	2531.564118
846.652438	2529.318284
846.967221	2532.826927
847.281960	2532.050589
847.596656	2533.192411
847.911309	2532.746268
848.225919	2532.655528
848.540485	2531.964890
848.855009	2533.179808
849.169490	2531.485980
849.483928	2530.863398
849.798323	2532.844571
850.112675	2531.208717
850.426984	2531.165867
850.741251	2532.486649
851.055474	2534.185518
851.369654	2530.576052
851.683792	2534.490508
851.997887	2532.595034
852.311938	2532.831968
852.625947	2534.392205
852.939914	2531.364992
853.253837	2535.962525
853.567718	2531.133099
853.881555	2531.453213
854.195350	2534.235929
854.509103	2529.870290
854.822812	2528.794004
855.136479	2533.653676
855.450103	2529.023376
855.763685	2534.041845
856.077224	2530.775177
856.390720	2530.727286
856.704173	2533.857843
857.017584	2531.082688
857.330953	2533.935981
857.644278	2531.410363
857.957561	2532.713501
858.270802	2534.520755
858.584000	2529.764426
858.897155	2531.120496
859.210268	2532.874818
859.523339	2532.345497
859.836367	2531.097811
860.149352	2532.383305
860.462295	2528.650331
860.775195	2527.858870
861.088054	2529.668644
861.400869	2528.050434
861.713642	2525.439116
862.026373	2528.388191
862.339062	2530.644107
862.651708	2533.920857
862.964312	2530.402132
863.276873	2531.531350
863.589392	2530.747451
863.901869	2529.267872
864.214303	2530.742410
864.526696	2532.910106
864.839045	2533.162164
865.151353	2530.225692
865.463619	2530.974303
865.775842	2531.632173
866.088023	2530.591175
866.400162	2531.707791
866.712258	2531.972451
867.024313	2532.653007
867.336325	2532.448840
867.648296	2532.572349
867.960224	2529.794673
868.272110	2532.181659
868.583954	2529.086391
868.895755	2531.541433
869.207515	2530.888603
869.519233	2533.293234
869.830909	2531.942204
870.142542	2533.477236
870.454134	2532.279962
870.765684	2532.247194
871.077191	2531.997657
871.388657	2533.925898
871.700081	2529.547656
872.011463	2530.742410
872.322803	2530.351720
872.634101	2530.848274
872.945357	2530.666793
873.256571	2531.609488
873.567744	2529.240146
873.878874	2530.760054
874.189963	2528.834333
874.501010	2531.158305
874.812015	2532.111083
875.122979	2532.806762
875.433900	2533.237781
875.744780	2532.068233
876.055618	2529.925743
876.366415	2530.283665
876.677169	2531.196114
876.987882	2529.441792
877.298554	2527.427851
877.609183	2530.812986
877.919771	2525.847449
878.230317	2527.390042
878.540822	2533.459592
878.851285	2534.031763
879.161707	2534.132586
879.472087	2534.515713
879.782425	2533.915816
880.092722	2532.577390
880.402977	2530.235774
880.713191	2537.527803
881.023363	2538.631816
881.333494	2540.628113
881.643583	2541.880839
881.953631	2542.158103
882.263637	2539.393030
882.573602	2538.616692
882.883526	2537.951260
883.193408	2536.809438
883.503248	2533.830117
883.813048	2533.492359
884.122806	2533.696526
884.432522	2535.816331
884.742197	2534.319108
885.051831	2534.422452
885.361424	2534.631660
885.670975	2530.994468
885.980485	2528.867101
886.289954	2531.140661
886.599382	2531.596885
886.908768	2532.602596
887.218113	2529.393901
887.527417	2532.048069
887.836680	2531.375075
888.145901	2529.663603
888.455082	2531.473377
888.764221	2531.342307
889.073319	2531.707791
889.382376	2531.105373
889.691392	2528.312574
890.000366	2531.498583
890.309300	2528.463808
890.618193	2532.451361
890.927044	2529.391381
891.235855	2531.168387
891.544625	2530.190403
891.853353	2530.850795
892.162041	2531.773326
892.470687	2529.542615
892.779293	2533.628470
893.087858	2530.707122
893.396381	2529.194776
893.704864	2530.129910
894.013306	2528.730989
894.321707	2531.337266
894.630068	2533.429345
894.938387	2534.624098
895.246665	2534.838347
895.554903	2532.128727
895.863100	2531.594365
896.171256	2530.487832
896.479371	2530.346679
896.787446	2532.053110
897.095480	2533.068902
897.403473	2531.173428
897.711425	2533.220137
898.019336	2532.773995
898.327207	2534.261135
898.635038	2530.192924
898.942827	2533.013450
899.250576	2532.335414
899.558284	2530.986906
899.865952	2528.489014
900.173579	2531.541433
900.481165	2528.249559
900.788711	2531.269210
901.096216	2530.649148
901.403681	2531.488501
901.711105	2531.440610
902.018489	2531.004550
902.325832	2532.847092
902.633135	2531.380116
902.940397	2533.578059
903.247619	2529.724097
903.554800	2531.107893
903.861941	2533.169725
904.169041	2531.138140
904.476101	2531.871628
904.783121	2539.009902
905.090100	2534.684592
905.397039	2533.086546
905.703938	2532.436237
906.010796	2531.687626
906.317614	2532.118645
906.624391	2531.649818
906.931129	2532.169056
907.237826	2530.699560
907.544483	2531.216278
907.851099	2529.429189
908.157675	2530.248377
908.464211	2529.041020
908.770707	2525.161853
909.077163	2528.448685
909.383578	2528.773839
909.689954	2526.659075
909.996289	2527.148067
910.302584	2531.521268
910.608839	2528.889786
910.915054	2531.367513
911.221229	2528.468849
911.527363	2531.039838
911.833458	2529.058664
912.139513	2528.163860
912.445527	2529.272913
912.751502	2531.120496
913.057436	2529.479601
913.363331	2530.260980
913.669186	2531.115455
913.975000	2530.737369
914.280775	2530.129910
914.586510	2529.587986
914.892205	2532.577390
915.197859	2532.970600
915.503475	2530.197965
915.809050	2532.267359
916.114585	2534.455220
916.420081	2533.971269
916.725536	2533.205013
917.030952	2533.981351
917.336328	2533.323481
917.641665	2531.743079
917.946961	2531.932122
918.252218	2529.330887
918.557435	2530.180321
918.862612	2531.599406
919.167750	2530.666793
919.472848	2530.865918
919.777906	2529.474560
920.082925	2532.418593
920.387904	2530.785260
920.692843	2531.911958
920.997743	2529.202337
921.302603	2529.706453
921.607423	2531.375075
921.912204	2529.033459
922.216946	2530.190403
922.521647	2528.110927
922.826310	2531.120496
923.130932	2527.914323
923.435516	2529.530012
923.740059	2529.656041
924.044564	2531.463295
924.349028	2528.541946
924.653454	2528.312574
924.957840	2527.488345
925.262186	2523.611698
925.566493	2526.812830
925.870761	2526.369209
926.174989	2528.768798
926.479178	2526.986750
926.783328	2529.225022
927.087438	2530.996988
927.391509	2530.248377
927.695541	2527.316946
927.999533	2527.589168
928.303486	2529.850126
928.607400	2529.492204
928.911275	2529.610671
929.215110	2530.208048
929.518906	2528.249559
929.822663	2530.873480
930.126381	2527.500948
930.430060	2530.318953
930.733699	2530.170239
931.037299	2530.326515
931.340861	2528.453726
931.644383	2530.253418
931.947866	2525.290402
932.251309	2527.269055
932.554714	2527.150588
932.858080	2528.178983
933.161407	2530.601258
933.464694	2531.811134
933.767943	2528.098325
934.071153	2529.948428
934.374323	2530.218130
934.677455	2528.022707
934.980548	2529.388860
935.283602	2529.426669
935.586617	2530.089580
935.889593	2530.291227
936.192530	2526.583458
936.495428	2530.303829
936.798287	2526.873324
937.101108	2530.313912
937.403890	2528.897348
937.706632	2531.125538
938.009336	2528.849457
938.312002	2529.426669
938.614628	2530.200486
938.917216	2531.067564
939.219765	2529.270393
939.522275	2528.294930
939.824747	2531.007070
940.127179	2527.148067
940.429573	2525.940711
940.731929	2524.677902
941.034246	2524.428365
941.336524	2524.856863
941.638763	2526.661596
941.940964	2532.050589
942.243126	2527.931967
942.545250	2529.681247
942.847335	2529.600588
943.149381	2528.373068
943.451389	2528.209230
943.753359	2530.598737
944.055290	2528.970444
944.357182	2528.806607
944.659036	2529.835002
944.960851	2528.063037
945.262628	2529.542615
945.564367	2528.708304
945.866067	2530.649148
946.167729	2530.724766
946.469352	2524.967768
946.770937	2532.282482
947.072484	2526.278468
947.373992	2530.233253
947.675462	2525.610515
947.976893	2528.950280
948.278286	2527.984899
948.579641	2528.022707
948.880958	2528.597399
949.182236	2529.308202
949.483476	2528.340300
949.784678	2530.006401
950.085841	2527.558921
950.386967	2529.434230
950.688054	2529.466998
950.989103	2528.620084
951.290114	2528.040351
951.591087	2530.195445
951.892021	2529.787111
952.192917	2530.727286
952.493776	2526.515402
952.794596	2527.732841
953.095378	2530.392050
953.396122	2530.104704
953.696828	2528.284847
953.997496	2529.623274
954.298126	2527.279137
954.598718	2529.983716
954.899272	2528.405835
955.199788	2525.338293
955.500266	2529.908099
955.800706	2527.163191
956.101108	2521.368384
956.401472	2526.044054
956.701798	2525.098838
957.002087	2527.039682
957.302337	2526.797707
957.602550	2530.621422
957.902724	2525.802079
958.202861	2526.638911
958.502960	2528.035310
958.803022	2528.118489
959.103045	2529.504807
959.403031	2527.319466
959.702979	2525.736544
960.002889	2528.244518
960.302762	2528.972965
960.602596	2526.437264
960.902393	2529.789632
961.202153	2526.293592
961.501875	2527.521113
961.801559	2528.022707
962.101205	2526.959024
962.400814	2529.285516
962.700385	2528.383150
962.999918	2529.290557
963.299414	2527.914323
963.598873	2529.111597
963.898293	2528.468849
964.197677	2530.082019
964.497022	2528.216792
964.796331	2524.622449
965.095601	2529.076308
965.394835	2528.131092
965.694030	2529.603109
965.993189	2528.108407
966.292309	2528.040351
966.591393	2527.846267
966.890439	2526.207892
967.189447	2526.974147
967.488419	2526.522964
967.787353	2527.490866
968.086249	2524.957686
968.385108	2531.054961
968.683930	2527.836185
968.982714	2529.630835
969.281462	2528.408356
969.580172	2528.519261
969.878844	2528.355423
970.177480	2528.368026
970.476078	2526.500279
970.774639	2529.605630
971.073162	2527.647141
971.371649	2525.320649
971.670098	2522.575741
971.968510	2526.626308
972.266885	2522.230422
972.565223	2531.148223
972.863524	2526.853160
973.161788	2526.215454
973.460014	2528.299971
973.758204	2528.902389
974.056356	2528.458767
974.354471	2531.387678
974.652550	2529.464477
974.950591	2526.691843
975.248595	2526.412059
975.546563	2528.587317
975.844493	2525.703777
976.142386	2529.376257
976.440243	2528.123530
976.738062	2526.858201
977.035845	2527.707635
977.333590	2528.567152
977.631299	2526.147398
977.928971	2527.493386
978.226606	2525.892820
978.524204	2527.208561
978.821765	2526.812830
979.119290	2525.923067
979.416777	2526.989271
979.714228	2528.604961
980.011642	2527.866432
980.309020	2527.768129
980.606360	2526.359127
980.903664	2527.717718
981.200931	2526.981709
981.498162	2525.550021
981.795356	2526.933818
982.092513	2530.039169
982.389633	2524.413241
982.686717	2527.321987
982.983764	2527.896678
983.280775	2526.661596
983.577749	2526.591020
983.874686	2528.940197
984.171587	2527.800897
984.468451	2529.517409
984.765279	2523.528519
985.062070	2526.407018
985.358824	2526.656555
985.655543	2526.545649
985.952224	2526.931298
986.248869	2527.586647
986.545478	2522.081707
986.842050	2528.302491
987.138586	2525.600433
987.435086	2525.328211
987.731549	2519.820750
988.027975	2530.162677
988.324366	2527.642100
988.620719	2528.418438
988.917037	2527.556401
989.213318	2526.923736
989.509563	2524.014990
989.805772	2525.880217
990.101944	2525.975999
990.398080	2525.275278
990.694180	2528.703263
990.990244	2527.440454
991.286271	2526.805269
991.582262	2529.502286
991.878217	2526.981709
992.174136	2526.623787
992.470019	2527.765608
992.765865	2527.364837
993.061676	2525.212264
993.357450	2527.009435
993.653188	2527.750485
993.948890	2526.177645
994.244556	2529.527492
994.540186	2527.856349
994.835780	2526.979188
995.131337	2525.867614
995.426859	2528.925074
995.722345	2526.462470
996.017795	2528.418438
996.313208	2526.800227
996.608586	2526.243180
996.903928	2525.139167
997.199234	2524.433406
997.494504	2526.139836
997.789738	2528.917512
998.084936	2525.565145
998.380099	2525.890299
998.675225	2527.110258
998.970316	2528.020187
999.265371	2527.069929
999.560390	2527.790814
999.855373	2526.384332
1000.150320	2526.643952
1000.445232	2526.517923
1000.740108	2527.994981
1001.034948	2525.794517
1001.329752	2524.398118
1001.624521	2527.695032
1001.919254	2522.729496
1002.213951	2524.566996
1002.508613	2523.722603
1002.803239	2526.820392
1003.097829	2522.948786
1003.392384	2527.747964
1003.686903	2528.322656
1003.981386	2527.873993
1004.275834	2524.400638
1004.570246	2529.159487
1004.864623	2526.311236
1005.158964	2526.386853
1005.453270	2524.700587
1005.747540	2523.248735
1006.041775	2526.908612
1006.335974	2526.059178
1006.630138	2525.746626
1006.924266	2527.440454
1007.218359	2524.229239
1007.512416	2524.869466
1007.806438	2527.294261
1008.100425	2526.921215
1008.394376	2524.403159
1008.688292	2526.845598
1008.982172	2524.957686
1009.276017	2527.062367
1009.569827	2527.942049
1009.863602	2527.087573
1010.157341	2525.340813
1010.451045	2526.938859
1010.744714	2525.890299
1011.038347	2527.049765
1011.331945	2527.291740
1011.625508	2529.318284
1011.919036	2525.514733
1012.212528	2526.457429
1012.505986	2525.978519
1012.799408	2525.832326
1013.092795	2526.734692
1013.386147	2526.457429
1013.679464	2525.900382
1013.972745	2526.036493
1014.265992	2527.705115
1014.559204	2530.608819
1014.852380	2528.478932
1015.145521	2527.982378
1015.438628	2525.418951
1015.731699	2527.248890
1016.024736	2526.583458
1016.317737	2524.864424
1016.610703	2525.418951
1016.903635	2525.391225
1017.196531	2521.229752
1017.489393	2526.293592
1017.782219	2521.983405
1018.075011	2525.507172
1018.367768	2525.630680
1018.660490	2528.050434
1018.953177	2528.050434
1019.245829	2528.050434
