Dividing Wavelength (nm)	Counts (n)	Blue Motor Position (mm): 0.000000	Red Motor Position (mm): 34.700000	
326.493990	2127.384567
326.888308	2127.384567
327.282561	2127.384567
327.676750	2092.734196
328.070874	2093.961717
328.464933	2096.366348
328.858929	2104.490167
329.252859	2112.959305
329.646726	2124.206120
330.040528	2136.430918
330.434265	2154.929432
330.827938	2171.434169
331.221547	2189.108455
331.615091	2210.876157
332.008571	2227.660679
332.401986	2246.227248
332.795338	2266.376740
333.188625	2286.422889
333.581847	2305.170940
333.975006	2324.508806
334.368100	2340.942968
334.761129	2359.875021
335.154095	2379.026364
335.546996	2397.635784
335.939833	2415.123546
336.332606	2431.149374
336.725315	2442.340736
337.117960	2451.051850
337.510540	2457.683488
337.903056	2471.876856
338.295508	2478.400109
338.687896	2485.379587
339.080220	2494.607419
339.472480	2501.659993
339.864676	2506.766682
340.256807	2511.049142
340.648875	2512.679956
341.040879	2515.059380
341.432818	2517.232118
341.824694	2519.853518
342.216506	2519.722448
342.608253	2519.117509
342.999937	2517.486696
343.391557	2519.329237
343.783113	2518.482324
344.174605	2518.938548
344.566033	2514.666170
344.957397	2512.805984
345.348697	2512.939575
345.739934	2512.989987
346.131106	2507.442197
346.522215	2509.496467
346.913260	2504.253667
347.304241	2507.474964
347.695159	2501.218892
348.086012	2501.874242
348.476802	2498.443737
348.867528	2497.788387
349.258191	2497.049858
349.648789	2494.539363
350.039324	2492.238077
350.429796	2495.608088
350.820203	2493.158087
351.210548	2494.065495
351.600828	2487.060812
351.991045	2490.158601
352.381198	2489.024341
352.771288	2490.551811
353.161314	2489.412510
353.551276	2488.550473
353.941175	2487.456542
354.331010	2487.297746
354.720782	2488.086687
355.110490	2487.335555
355.500135	2490.607263
355.889717	2489.556183
356.279235	2489.467963
356.668689	2488.857983
357.058080	2491.103817
357.447408	2488.709269
357.836672	2487.678353
358.225873	2490.458549
358.615010	2486.539052
359.004084	2491.287819
359.393095	2490.723210
359.782043	2492.853098
360.170927	2492.772439
360.559748	2494.337717
360.948505	2495.093890
361.337199	2496.573469
361.725830	2497.629591
362.114398	2497.816113
362.502903	2495.416524
362.891344	2497.904334
363.279722	2496.041627
363.668037	2501.415497
364.056289	2495.671103
364.444478	2499.270486
364.832603	2500.558501
365.220665	2502.212000
365.608665	2503.003461
365.996601	2504.452793
366.384474	2502.287617
366.772284	2503.885663
367.160031	2505.082937
367.547715	2511.311282
367.935336	2511.938906
368.322893	2516.874196
368.710388	2514.328413
369.097820	2527.180835
369.485189	2525.887779
369.872495	2534.404808
370.259738	2540.595345
370.646918	2549.644216
371.034035	2553.901471
371.421090	2565.975034
371.808081	2575.117167
372.195010	2583.646799
372.581875	2598.654314
372.968678	2609.817949
373.355418	2621.692387
373.742096	2642.424132
374.128710	2652.995432
374.515262	2667.725683
374.901751	2683.007941
375.288177	2695.746937
375.674540	2718.245607
376.060841	2737.875860
376.447079	2757.306987
376.833254	2777.756428
377.219367	2790.165228
377.605417	2824.969354
377.991404	2834.766837
378.377329	2860.065867
378.763191	2875.333002
379.148991	2910.880698
379.534727	2938.481015
379.920402	2965.572176
380.306013	2981.419043
380.691563	3029.151208
381.077049	3050.651729
381.462474	3065.986919
381.847835	3111.153137
382.233134	3128.668626
382.618371	3126.594192
383.003545	3196.804862
383.388657	3205.077395
383.773706	3236.261973
384.158693	3251.975249
384.543618	3275.434259
384.928480	3314.596463
385.313280	3359.152701
385.698017	3360.627238
386.082692	3411.928540
386.467305	3417.090682
386.851856	3451.501598
387.236344	3475.938591
387.620770	3505.671317
388.005133	3530.047816
388.389435	3552.549006
388.773674	3573.036256
389.157851	3610.560084
389.541965	3627.291674
389.926018	3589.258689
390.310008	3662.178979
390.693936	3683.898790
391.077802	3724.396900
391.461606	3709.535578
391.845348	3777.896145
392.229027	3770.730145
392.612645	3791.154380
392.996200	3866.169269
393.379694	3902.594127
393.763125	3966.447902
394.146494	3935.873304
394.529801	3999.069208
394.913047	4046.256929
395.296230	4012.624871
395.679351	4065.869538
396.062410	4090.067076
396.445408	4070.570414
396.828343	4103.842029
397.211217	4127.727016
397.594028	4048.343967
397.976778	4112.737145
398.359466	4141.706136
398.742092	4172.681506
399.124656	4089.066407
399.507158	4171.474149
399.889598	4195.908622
400.271977	4257.566975
400.654294	4231.882296
401.036549	4238.634921
401.418742	4208.806414
401.800874	4308.313750
402.182944	4328.760670
402.564952	4393.894898
402.946898	4381.309658
403.328783	4380.256056
403.710606	4297.346720
404.092367	4486.692458
404.474067	4453.483857
404.855705	4457.426039
405.237282	4385.851737
405.618797	4495.401051
406.000250	4531.397410
406.381642	4610.288948
406.762972	4570.920057
407.144240	4581.337601
407.525447	4585.113425
407.906593	4642.580058
408.287677	4682.286707
408.668700	4610.669555
409.049661	4666.182741
409.430560	4704.931570
409.811399	4632.646465
410.192176	4793.338285
410.572891	4732.625148
410.953545	4838.718752
411.334138	4717.330288
411.714669	4783.944095
412.095139	4680.696223
412.475547	4820.595804
412.855894	4804.048216
413.236180	4809.051561
413.616405	4762.279736
413.996568	4850.699054
414.376670	4792.909787
414.756711	4745.127210
415.136691	4778.537457
415.516609	4856.962687
415.896466	4895.938368
416.276262	4929.305766
416.655997	4907.427158
417.035670	5093.629737
417.415283	5184.983007
417.794834	5124.060662
418.174324	5079.670782
418.553753	4991.097709
418.933121	5172.196120
419.312428	5239.613991
419.691674	5179.445299
420.070859	5304.236542
420.449983	5217.264035
420.829045	5330.473227
421.208047	5239.553497
421.586988	5308.498837
421.965867	5317.640970
422.344686	5450.409839
422.723444	5304.685205
423.102141	5125.817504
423.480777	5427.137352
423.859352	5193.462227
424.237866	5452.466630
424.616319	5448.340445
424.994712	5558.439245
425.373044	5432.687662
425.751314	5573.802162
426.129524	5380.206730
426.507673	5572.032717
426.885762	5653.288555
427.263789	5584.134006
427.641756	5468.474814
428.019662	5589.465027
428.397508	5593.671869
428.775292	5544.636566
429.153016	5640.536956
429.530679	5567.162962
429.908282	5654.425335
430.285824	5526.241396
430.663305	5798.940092
431.040726	5534.297159
431.418086	5533.561151
431.795385	5636.456142
432.172624	5650.377288
432.549802	5649.386702
432.926920	5664.260626
433.303977	5664.847921
433.680974	5706.568510
434.057910	5721.565943
434.434786	5729.122632
434.811601	5696.143404
435.188355	5935.179796
435.565050	5808.248583
435.941683	5786.506086
436.318257	6005.342575
436.694770	5984.389019
437.071222	6015.981930
437.447614	5950.336025
437.823946	5863.464341
438.200218	6015.293813
438.576429	5884.773298
438.952580	5984.555377
439.328670	6026.606162
439.704700	5937.990239
440.080670	5924.689154
440.456580	6191.194794
440.832429	6069.297173
441.208218	5921.074647
441.583947	6070.363377
441.959616	6078.925777
442.335224	6006.108830
442.710773	6145.453884
443.086261	6174.042268
443.461689	5962.626358
443.837057	6114.017249
444.212365	6272.138080
444.587612	6163.899466
444.962800	6318.922509
445.337927	6296.615403
445.712995	5903.042440
446.088002	6484.000132
446.462949	6311.985881
446.837837	6246.884420
447.212664	6416.962869
447.587431	6559.272121
447.962139	7105.246727
448.336786	8026.320987
448.711374	7765.927747
449.085901	6846.688467
449.460369	6762.813749
449.834776	6698.977618
450.209124	7086.909530
450.583412	7237.488795
450.957640	7384.698049
451.331808	7144.504712
451.705917	6702.907197
452.079965	6624.429035
452.453954	6835.703792
452.827883	6717.947480
453.201752	6806.724719
453.575562	6607.957064
453.949311	6809.174720
454.323001	6701.079779
454.696632	6776.046778
455.070202	6914.350833
455.443713	7071.564257
455.817164	7170.030595
456.190556	7256.695591
456.563888	7325.194790
456.937160	7369.798919
457.310373	7022.733121
457.683526	7048.634569
458.056619	6941.663805
458.429653	6926.978924
458.802628	6866.883329
459.175542	6968.621375
459.548398	7326.833165
459.921194	7482.904767
460.293930	7491.106724
460.666607	8023.384515
461.039224	8336.392278
461.411782	8457.828633
461.784280	8473.370510
462.156719	8362.626443
462.529099	8245.152434
462.901419	7827.810431
463.273680	7724.643218
463.645882	7735.751400
464.018024	7602.637212
464.390106	7769.214579
464.762130	8152.397724
465.134094	8621.524981
465.505999	9648.312237
465.877845	10872.995029
466.249631	11519.041580
466.621358	11128.057249
466.993026	10503.594399
467.364634	10251.224155
467.736184	9882.909893
468.107674	9553.498216
468.479105	9583.651877
468.850477	9346.314354
469.221790	9118.469324
469.593043	8794.454202
469.964238	8652.699476
470.335373	8666.444182
470.706449	8718.216832
471.077467	8705.009009
471.448425	10009.175673
471.819324	11088.892525
472.190164	11117.453182
472.560945	9859.899546
472.931667	9073.461902
473.302330	8941.071120
473.672934	8586.826719
474.043479	8936.113145
474.413965	8881.320844
474.784393	8766.662320
475.154761	8917.271833
475.525070	9007.601748
475.895321	8837.861057
476.265513	9010.215586
476.635645	9180.528448
477.005719	9177.612141
477.375734	9293.903998
477.745691	9534.974496
478.115588	9661.827571
478.485427	9907.435107
478.855207	10439.544018
479.224928	11257.498956
479.594591	11888.270811
479.964194	11693.336953
480.333739	11638.063222
480.703226	11550.052238
481.072653	11640.082204
481.442022	11883.627908
481.811333	12075.665623
482.180584	11870.457894
482.549777	11587.896179
482.918912	11410.830692
483.287988	11429.336767
483.657005	11441.125506
484.025964	11127.114553
484.394864	11256.629357
484.763706	11226.508463
485.132489	10979.247429
485.501213	10947.160484
485.869879	11019.516166
486.238487	10862.927845
486.607036	10967.688063
486.975527	10750.396688
487.343959	10939.737385
487.712333	10989.841413
488.080648	10926.330437
488.448905	10964.623041
488.817104	10899.017465
489.185244	11167.073259
489.553326	11318.610344
489.921350	11857.844927
490.289315	12916.913212
490.657222	13255.555242
491.025070	13171.221779
491.392861	13042.533725
491.760593	12667.585304
492.128267	12311.702528
492.495883	11983.288999
492.863440	11647.651497
493.230939	11313.019704
493.598380	11250.592576
493.965763	11115.469488
494.333088	11012.955104
494.700354	10926.711044
495.067563	10996.861220
495.434713	10823.627009
495.801805	10950.477564
496.168839	10873.983095
496.535815	10812.662500
496.902733	10803.008690
497.269593	10736.893958
497.636395	10835.594709
498.003139	10827.102885
498.369825	10694.157576
498.736453	10844.063847
499.103023	10773.097004
499.469535	10801.655140
499.835989	10780.320977
500.202385	10747.697150
500.568723	10595.131670
500.935003	10811.992026
501.301226	10620.556730
501.667390	10871.540656
502.033497	10967.536828
502.399546	10819.208438
502.765537	10734.080994
503.131470	10795.081476
503.497345	10970.677467
503.863163	10579.942674
504.228923	10883.296627
504.594625	10937.559607
504.960269	10679.870946
505.325856	10905.971737
505.691385	10695.185971
506.056856	10847.935453
506.422270	10861.753256
506.787625	10745.027859
507.152924	10857.420384
507.518164	10830.278812
507.883347	10739.263300
508.248472	10657.984776
508.613540	10872.657272
508.978550	10751.266287
509.343503	10719.678417
509.708398	10834.722589
510.073236	10933.330079
510.438016	10925.672566
510.802738	10862.484223
511.167403	10907.859649
511.532010	10801.350151
511.896561	11012.899651
512.261053	11068.367467
512.625488	10929.849162
512.989866	10896.678370
513.354186	10873.395801
513.718449	10764.829512
514.082655	10940.410379
514.446803	10825.270426
514.810894	10930.295304
515.174927	10781.230906
515.538904	10787.839858
515.902822	10918.536813
516.266684	10789.815991
516.630488	10718.806298
516.994235	10749.085988
517.357925	10785.644436
517.721558	10857.450631
518.085133	10854.282266
518.448651	10834.420120
518.812112	10708.842457
519.175516	10697.663698
519.538863	10785.445310
519.902152	10689.330671
520.265385	10805.015069
520.628560	10703.035048
520.991678	10652.444548
521.354739	10687.735146
521.717743	10598.927659
522.080690	10556.055166
522.443580	10637.537856
522.806413	10568.451363
523.169189	10575.035110
523.531908	10586.075237
523.894569	10391.756401
524.257174	10368.373008
524.619722	10434.961610
524.982213	10356.916986
525.344647	10361.494354
525.707025	10285.861923
526.069345	10330.602163
526.431608	10216.893897
526.793815	10282.194483
527.155964	10047.533813
527.518057	10071.015508
527.880093	9983.312034
528.242072	10009.725159
528.603995	9880.911076
528.965860	9779.178070
529.327669	9773.917626
529.689421	9694.705976
530.051117	9633.087952
530.412755	9662.402262
530.774337	9536.665803
531.135862	9469.721800
531.497331	9456.531621
531.858743	9278.946895
532.220098	9378.678562
532.581396	9230.256910
532.942638	9168.003702
533.303824	9092.903112
533.664953	9051.152276
534.026025	8947.594373
534.387040	8966.730593
534.747999	8927.003780
535.108902	8917.763345
535.469748	8689.197430
535.830537	8719.963592
536.191270	8656.240887
536.551947	8618.878375
536.912567	8572.393895
537.273131	8467.981517
537.633638	8402.948112
537.994089	8344.770676
538.354483	8253.407324
538.714821	8311.390675
539.075103	8261.354703
539.435328	8186.390225
539.795497	8024.735544
540.155609	8071.779592
540.515665	8080.649502
540.875665	7856.045934
541.235609	7843.478337
541.595496	7789.280892
541.955328	7827.092067
542.315102	7703.833334
542.674821	7616.860828
543.034483	7567.016419
543.394090	7514.225456
543.753640	7419.600478
544.113134	7486.131106
544.472571	7353.788214
544.831953	7379.593881
545.191278	7213.641617
545.550548	7185.733789
545.909761	7209.812860
546.268918	7137.847869
546.628019	7131.362424
546.987064	6992.917216
547.346053	6916.921822
547.704986	6901.269039
548.063863	6850.199630
548.422684	6808.176572
548.781449	6699.363266
549.140158	6698.339912
549.498811	6586.196924
549.857408	6475.188196
550.215949	6512.459967
550.574434	6399.913686
550.932864	6385.979937
551.291237	6370.193564
551.649555	6279.241066
552.007817	6247.804431
552.366022	6180.139543
552.724173	6122.551922
553.082267	6079.087094
553.440305	6061.168312
553.798288	5948.107835
554.156215	5946.560200
554.514086	5886.351179
554.871902	5786.322084
555.229661	5749.907309
555.587365	5691.649215
555.945014	5612.021669
556.302606	5596.631027
556.660143	5526.004461
557.017625	5518.903996
557.375050	5440.123364
557.732421	5436.047592
558.089735	5359.626220
558.446994	5317.714067
558.804197	5280.018839
559.161345	5235.283640
559.518437	5149.576463
559.875474	5120.957832
560.232455	5085.972224
560.589381	5039.681829
560.946251	4975.054237
561.303065	4980.029856
561.659825	4912.881687
562.016528	4851.727449
562.373177	4785.012819
562.729770	4761.062297
563.086307	4706.327969
563.442789	4695.625600
563.799216	4611.483701
564.155587	4590.328499
564.511904	4531.273902
564.868164	4499.912884
565.224370	4468.135971
565.580520	4406.470056
565.936615	4383.079103
566.292654	4306.808965
566.648638	4309.001867
567.004567	4260.851286
567.360441	4228.988673
567.716260	4170.826361
568.072023	4162.957120
568.427732	4107.282617
568.783385	4073.915219
569.138982	4043.824572
569.494525	4015.631919
569.850013	3964.242397
570.205445	3945.499387
570.560823	3907.484046
570.916145	3854.297352
571.271412	3839.153726
571.626625	3806.497131
571.981782	3775.670476
572.336884	3739.371647
572.691931	3719.645612
573.046923	3680.858975
573.401860	3647.809170
573.756743	3614.356073
574.111570	3592.754729
574.466342	3570.142633
574.821059	3550.983728
575.175722	3511.269518
575.530330	3487.780262
575.884882	3465.213537
576.239380	3433.507199
576.593823	3406.186666
576.948211	3388.270405
577.302544	3360.677650
577.656823	3337.069926
578.011047	3321.512926
578.365216	3298.084163
578.719330	3274.196656
579.073389	3254.979777
579.427394	3234.729462
579.781344	3217.224055
580.135239	3195.080787
580.489080	3181.751976
580.842866	3155.759787
581.196597	3141.082468
581.550273	3131.171559
581.903895	3111.309413
582.257463	3106.356479
582.610975	3082.801688
582.964434	3071.549833
583.317837	3048.955381
583.671186	3042.396840
584.024481	3026.721372
584.377721	3011.824763
584.730906	2997.394460
585.084037	2986.939107
585.437113	2973.764051
585.790135	2962.098821
586.143103	2946.572067
586.496016	2931.526743
586.848874	2923.919642
587.201679	2915.503436
587.554428	2896.523492
587.907124	2892.457801
588.259765	2881.458003
588.612352	2874.821324
588.964884	2862.339427
589.317362	2851.682428
589.669786	2845.718743
590.022155	2844.216479
590.374470	2833.178873
590.726731	2823.202430
591.078937	2810.082827
591.431090	2810.070224
591.783188	2793.855352
592.135232	2792.000208
592.487222	2782.933693
592.839157	2784.357819
593.191038	2771.339039
593.542866	2762.953079
593.894639	2756.893612
594.246358	2755.250196
594.598022	2747.925400
594.949633	2740.149420
595.301190	2733.492576
595.652692	2728.766495
596.004141	2727.201216
596.355535	2720.544373
596.706876	2713.645554
597.058162	2707.863350
597.409395	2704.568956
597.760573	2705.163812
598.111698	2696.949252
598.462768	2695.845239
598.813785	2692.147553
599.164748	2684.268230
599.515657	2683.297807
599.866511	2677.250943
600.217312	2678.299503
600.568060	2674.185922
600.918753	2673.714574
601.269392	2669.333811
601.619978	2667.506393
601.970510	2667.024963
602.320988	2660.453819
602.671412	2658.863335
603.021783	2656.143632
603.372100	2657.461894
603.722363	2653.277736
604.072572	2650.495019
604.422728	2650.061480
604.772830	2646.041160
605.122878	2639.351549
605.472872	2643.281128
605.822813	2641.972949
606.172701	2640.891621
606.522534	2639.109573
606.872314	2639.081847
607.222041	2637.451034
607.571714	2638.877680
607.921333	2637.319964
608.270899	2634.020529
608.620411	2636.193266
608.969870	2633.067751
609.319276	2634.295272
609.668627	2637.042700
610.017926	2638.310551
610.367171	2639.560757
610.716362	2638.698719
611.065500	2634.202010
611.414585	2634.532206
611.763616	2632.029273
612.112594	2629.289406
612.461518	2628.470218
612.810389	2627.416617
613.159207	2627.247738
613.507971	2623.693725
613.856682	2624.104579
614.205340	2622.526698
614.553945	2627.225053
614.902496	2620.500154
615.250994	2623.199692
615.599439	2622.753550
615.947830	2624.265896
616.296169	2621.886471
616.644454	2619.829681
616.992686	2621.836060
617.340864	2622.516616
617.688990	2616.842797
618.037063	2619.436471
618.385082	2616.638630
618.733048	2620.149794
619.080961	2618.609721
619.428821	2616.938579
619.776628	2616.890688
620.124382	2618.065277
620.472083	2617.498147
620.819731	2617.563682
621.167326	2611.088320
621.514868	2613.989504
621.862357	2612.202415
622.209793	2612.076386
622.557176	2611.055552
622.904506	2605.729573
623.251783	2605.898452
623.599007	2607.698144
623.946179	2602.936774
624.293297	2603.009871
624.640363	2601.578183
624.987376	2603.035077
625.334336	2603.556836
625.681243	2603.014912
626.028097	2603.423245
626.374899	2601.013574
626.721647	2597.409149
627.068343	2602.054572
627.414987	2599.942329
627.761577	2602.016763
628.108115	2599.985178
628.454600	2600.486773
628.801032	2598.659355
629.147412	2595.745568
629.493739	2597.386464
629.840014	2600.302771
630.186236	2598.593820
630.532405	2596.557194
630.878521	2593.983685
631.224585	2597.121803
631.570597	2594.117275
631.916556	2594.334045
632.262462	2595.997626
632.608316	2597.295723
632.954117	2594.255907
633.299866	2597.656165
633.645562	2592.226843
633.991206	2591.508478
634.336797	2589.847418
634.682336	2592.804055
635.027823	2590.152408
635.373257	2589.504620
635.718639	2587.636872
636.063968	2588.728282
636.409245	2587.563775
636.754470	2587.175607
637.099642	2588.365319
637.444762	2587.956985
637.789829	2589.494537
638.134845	2586.921028
638.479808	2586.921028
638.824719	2587.891450
639.169577	2585.446491
639.514383	2587.021851
639.859137	2582.951120
640.203839	2584.213929
640.548489	2585.398600
640.893086	2580.823753
641.237632	2578.033474
641.582125	2581.080852
641.926566	2578.882908
642.270955	2583.261151
642.615292	2583.228383
642.959576	2581.620255
643.303809	2585.103692
643.647990	2581.572364
643.992118	2584.730647
644.336195	2582.913311
644.680219	2581.307703
645.024192	2582.028588
645.368112	2583.147725
645.711981	2583.266192
646.055797	2584.410534
646.399562	2583.586305
646.743274	2586.179979
647.086935	2584.559248
647.430544	2584.634865
647.774101	2584.022365
648.117606	2584.806264
648.461059	2586.293405
648.804460	2587.110072
649.147810	2584.516398
649.491108	2586.802561
649.834354	2585.012952
650.177548	2583.157807
650.520690	2582.215111
650.863781	2582.701582
651.206820	2586.568147
651.549807	2579.588670
651.892742	2581.970615
652.235626	2579.666808
652.578458	2581.917683
652.921238	2577.625141
653.263967	2580.972467
653.606644	2581.390883
653.949269	2581.640420
654.291843	2578.610686
654.634365	2579.172775
654.976836	2576.861406
655.319255	2577.451221
655.661622	2580.173444
656.003938	2578.494740
656.346203	2577.423494
656.688416	2578.194791
657.030577	2576.891653
657.372687	2576.054821
657.714746	2577.831828
658.056753	2576.856365
658.398708	2573.914851
658.740612	2574.988617
659.082465	2573.514080
659.424266	2576.861406
659.766016	2570.721280
660.107715	2576.105233
660.449362	2578.635892
660.790958	2580.531366
661.132503	2576.737897
661.473996	2576.490881
661.815438	2577.993145
662.156829	2578.530028
662.498168	2579.457600
662.839456	2578.504822
663.180693	2577.756211
663.521879	2579.845769
663.863013	2576.571539
664.204097	2577.176478
664.545129	2579.628999
664.886110	2581.345512
665.227040	2580.183526
665.567918	2579.094637
665.908746	2576.097671
666.249522	2579.427353
666.590248	2576.175809
666.930922	2577.055490
667.271545	2579.394586
667.612118	2579.694534
667.952639	2578.308217
668.293109	2578.514904
668.633528	2578.240161
668.973896	2575.154975
669.314213	2576.667321
669.654480	2574.630695
669.994695	2578.446849
670.334859	2573.869481
670.674973	2578.658577
671.015035	2578.862744
671.355047	2576.203535
671.695008	2576.816035
672.034918	2575.409553
672.374777	2575.777558
672.714585	2577.816704
673.054342	2577.451221
673.394049	2578.726633
673.733705	2577.012640
674.073310	2579.296283
674.412864	2577.088258
674.752368	2575.875860
675.091820	2578.993814
675.431223	2576.919379
675.770574	2575.820407
676.109875	2571.202711
676.449125	2576.087589
676.788324	2572.725139
677.127473	2571.961404
677.466571	2570.146589
677.805619	2573.070458
678.144616	2573.786302
678.483562	2575.553226
678.822458	2571.301013
679.161303	2574.146744
679.500098	2573.186405
679.838842	2573.279666
680.177535	2572.019377
680.516179	2576.987435
680.854771	2572.848647
681.193314	2574.318144
681.531805	2574.920562
681.870247	2574.502146
682.208638	2579.197981
682.546978	2578.519945
682.885268	2575.099522
683.223508	2578.716550
683.561697	2576.637074
683.899836	2577.557085
684.237925	2576.609348
684.575963	2576.097671
684.913951	2573.859399
685.251889	2576.485840
685.589776	2576.926941
685.927614	2575.422156
686.265401	2574.950808
686.603137	2575.371745
686.940824	2578.915676
687.278460	2578.819894
687.616046	2578.656057
687.953582	2577.567167
688.291068	2578.335943
688.628504	2579.361818
688.965889	2577.814184
689.303224	2576.553895
689.640510	2578.630851
689.977745	2577.844431
690.314930	2572.856209
690.652065	2572.740263
690.989150	2574.393761
691.326185	2574.111456
691.663170	2572.520972
692.000105	2569.949984
692.336990	2569.392936
692.673825	2572.634398
693.010610	2568.697257
693.347345	2564.586196
693.684030	2564.145095
694.020665	2565.627194
694.357251	2560.512944
694.693786	2564.926474
695.030272	2566.902606
695.366707	2569.060220
695.703093	2563.462019
696.039429	2566.148954
696.375716	2567.464695
696.711952	2562.320197
697.048139	2568.140210
697.384276	2564.989488
697.720363	2564.387071
698.056400	2567.210117
698.392388	2565.541495
698.728326	2565.246587
699.064214	2565.854046
699.400053	2565.450754
699.735842	2563.134344
700.071581	2563.827502
700.407270	2563.968655
700.742910	2561.790876
701.078501	2561.742985
701.414042	2563.885476
701.749533	2562.751216
702.084974	2561.117882
702.420366	2560.739796
702.755709	2562.481514
703.091002	2560.782646
703.426246	2558.378015
703.761440	2560.656617
704.096584	2559.986143
704.431679	2560.517985
704.766725	2561.364899
705.101721	2561.657286
705.436668	2559.320711
705.771565	2560.344065
706.106413	2562.259704
706.441212	2559.514795
706.775961	2560.991853
707.110661	2559.464384
707.445311	2563.073850
707.779913	2562.534447
708.114465	2564.064437
708.448967	2561.760629
708.783421	2562.421021
709.117825	2563.429251
709.452180	2564.213151
709.786485	2562.831875
710.120742	2565.697771
710.454949	2567.991496
710.789107	2558.811554
711.123216	2563.230126
711.457275	2565.412945
711.791286	2562.426062
712.125247	2565.203737
712.459159	2567.593244
712.793023	2570.053327
713.126837	2567.194993
713.460602	2567.215158
713.794318	2566.842112
714.127985	2567.084088
714.461602	2564.744993
714.795171	2565.428069
715.128691	2564.077040
715.462162	2564.992009
715.795584	2563.595609
716.128957	2565.022256
716.462281	2561.838767
716.795556	2561.196020
717.128782	2560.268448
717.461960	2560.684343
717.795088	2560.112172
718.128167	2557.142932
718.461198	2559.219888
718.794180	2561.392625
719.127113	2561.163253
719.459997	2558.559497
719.792833	2560.858263
720.125619	2560.714590
720.458357	2558.335165
720.791046	2556.046482
721.123686	2556.142263
721.456278	2560.835578
721.788821	2560.200392
722.121315	2556.779969
722.453761	2556.603529
722.786158	2553.445246
723.118506	2554.985319
723.450805	2557.541184
723.783056	2555.605381
724.115259	2556.701832
724.447412	2553.919115
724.779518	2557.236194
725.111574	2556.807696
725.443582	2558.017573
725.775542	2555.660833
726.107453	2556.323745
726.439315	2558.967830
726.771129	2564.414797
727.102895	2558.022614
727.434612	2560.951524
727.766281	2558.912378
728.097901	2556.250648
728.429473	2555.935576
728.760996	2557.856256
729.092471	2554.786193
729.423897	2562.047975
729.755276	2558.499003
730.086606	2558.693087
730.417887	2560.376833
730.749120	2563.255332
731.080305	2560.545711
731.411442	2562.204251
731.742530	2560.530588
732.073570	2563.227605
732.404562	2564.354303
732.735506	2562.761298
733.066401	2561.977399
733.397249	2560.744837
733.728048	2560.293654
734.058798	2557.954558
734.389501	2560.170145
734.720156	2557.576472
735.050762	2557.430278
735.381320	2555.529763
735.711831	2556.106975
736.042293	2559.295505
736.372707	2556.341389
736.703073	2554.249310
737.033391	2555.292829
737.363661	2556.172510
737.693883	2555.217212
738.024056	2559.335834
738.354182	2554.849207
738.684260	2557.359702
739.014290	2556.689229
739.344272	2553.974567
739.674207	2559.229970
740.004093	2560.102090
740.333931	2559.514795
740.663722	2560.422203
740.993464	2556.235525
741.323159	2562.579817
741.652806	2558.622511
741.982405	2556.343910
742.311956	2558.178890
742.641460	2555.030689
742.970915	2556.825340
743.300323	2554.982798
743.629683	2556.338868
743.958996	2555.045813
744.288260	2554.145967
744.617477	2552.994063
744.946647	2550.470965
745.275768	2552.754608
745.604842	2549.238403
745.933869	2550.838970
746.262847	2549.739998
746.591778	2552.913404
746.920662	2553.394835
747.249498	2552.381563
747.578286	2553.999773
747.907027	2553.069680
748.235720	2556.606050
748.564365	2553.470452
748.892963	2553.601522
749.221514	2554.632438
749.550017	2554.387942
749.878473	2552.520194
750.206881	2551.496840
750.535242	2554.413148
750.863555	2554.309804
751.191821	2553.586398
751.520039	2556.303580
751.848210	2553.921635
752.176334	2553.805689
752.504411	2552.376522
752.832440	2553.530946
753.160421	2554.261913
753.488356	2552.749567
753.816243	2552.684032
754.144082	2554.473642
754.471875	2551.408620
754.799620	2550.952396
755.127318	2550.841490
755.454969	2551.101110
755.782572	2551.811912
756.110129	2553.886347
756.437638	2553.074721
756.765100	2551.842159
757.092515	2550.700338
757.419882	2554.040102
757.747203	2552.200081
758.074477	2550.153373
758.401703	2551.854762
758.728882	2550.365101
759.056014	2551.277550
759.383099	2551.441388
759.710138	2553.586398
760.037129	2553.815771
760.364073	2553.321738
760.690970	2554.367777
761.017820	2558.405742
761.344623	2550.213867
761.671379	2555.038251
761.998088	2553.659495
762.324751	2555.610422
762.651366	2562.186607
762.977935	2571.984089
763.304456	2572.899059
763.630931	2576.667321
763.957359	2575.354101
764.283740	2567.152143
764.610074	2562.597461
764.936362	2563.512430
765.262602	2559.068653
765.588796	2557.611760
765.914943	2556.177552
766.241044	2552.789896
766.567097	2551.640513
766.893104	2552.547921
767.219064	2549.117416
767.544978	2548.353681
767.870845	2547.884853
768.196665	2553.407437
768.522438	2550.498692
768.848165	2550.415513
769.173846	2549.873589
769.499479	2549.298897
769.825066	2548.706562
770.150607	2548.736808
770.476101	2546.450645
770.801548	2550.105482
771.126949	2546.314534
771.452303	2547.325285
771.777611	2547.179092
772.102872	2546.453166
772.428087	2546.531304
772.753256	2545.455017
773.078378	2545.606252
773.403453	2544.721529
773.728482	2545.180274
774.053465	2546.306972
774.378401	2546.304452
774.703291	2547.753783
775.028135	2543.287321
775.352932	2546.775800
775.677683	2545.679349
776.002388	2543.846889
776.327046	2543.554502
776.651658	2545.691952
776.976224	2544.648433
777.300743	2545.795295
777.625216	2542.349667
777.949643	2546.324616
778.274024	2544.761859
778.598359	2540.905376
778.922647	2538.576363
779.246889	2541.858154
779.571086	2540.391178
779.895236	2543.206663
780.219339	2544.477033
780.543397	2543.070552
780.867409	2544.161961
781.191374	2542.480737
781.515294	2542.737835
781.839167	2543.380582
782.162995	2543.100798
782.486776	2543.284801
782.810511	2543.783875
783.134201	2546.901828
783.457844	2543.952753
783.781441	2545.129863
784.104993	2543.977959
784.428498	2545.361756
784.751958	2544.784544
785.075372	2542.689944
785.398739	2543.957795
785.722061	2541.853113
786.045337	2543.176416
786.368568	2542.021992
786.691752	2542.662218
787.014891	2544.827394
787.337983	2543.430994
787.661030	2546.632127
787.984031	2548.215049
788.306987	2546.750594
788.629897	2549.503064
788.952760	2547.920142
789.275579	2546.846376
789.598351	2546.561551
789.921078	2546.821170
790.243759	2542.470654
790.566395	2544.882846
790.888984	2543.105840
791.211529	2543.378062
791.534027	2543.521735
791.856480	2543.602393
792.178888	2543.919986
792.501249	2543.420912
792.823566	2543.577187
793.145836	2542.442928
793.468062	2541.901004
793.790241	2542.221117
794.112375	2543.748587
794.434464	2542.473175
794.756507	2546.682538
795.078505	2543.342774
795.400457	2541.979142
795.722364	2540.779347
796.044226	2543.108360
796.366042	2540.277752
796.687812	2543.395706
797.009538	2544.809750
797.331218	2546.160779
797.652852	2543.927548
797.974442	2545.349153
798.295986	2543.952753
798.617484	2546.528783
798.938938	2544.141797
799.260346	2544.943340
799.581709	2543.564585
799.903026	2545.097095
800.224299	2544.562733
800.545526	2543.683052
800.866708	2540.993596
801.187845	2541.840510
801.508936	2543.597352
801.829983	2542.001827
802.150984	2542.473175
802.471940	2541.538041
802.792851	2541.129707
803.113717	2542.906714
803.434538	2541.091899
803.755314	2543.090716
804.076045	2542.468134
804.396731	2544.386293
804.717372	2541.701878
805.037967	2542.072403
805.358518	2540.731456
805.679024	2543.060469
805.999485	2541.429656
806.319901	2541.172557
806.640272	2543.201622
806.960598	2542.387475
807.280879	2542.064841
807.601115	2542.508463
807.921306	2543.262115
808.241453	2543.075593
808.561554	2541.916127
808.881611	2542.107691
809.201623	2542.851261
809.521590	2543.088196
809.841513	2541.487629
810.161390	2540.912938
810.481223	2544.293031
810.801011	2539.435880
811.120755	2539.980324
811.440453	2544.802188
811.760107	2541.182639
812.079716	2539.393030
812.399281	2539.440921
812.718801	2541.505273
813.038276	2537.537885
813.357707	2540.234903
813.677093	2540.217258
813.996434	2540.867567
814.315731	2541.694317
814.634983	2543.955274
814.954191	2541.590973
815.273354	2540.355890
815.592473	2541.429656
815.911547	2543.494008
816.230577	2544.131714
816.549562	2543.844369
816.868502	2544.109029
817.187399	2543.476364
817.506250	2544.023330
817.825058	2542.828576
818.143821	2543.277239
818.462539	2545.923845
818.781213	2545.200439
819.099843	2547.186654
819.418429	2550.382745
819.736970	2553.183106
820.055466	2551.484237
820.373919	2557.652089
820.692327	2560.253324
821.010691	2567.694067
821.329011	2585.791810
821.647286	2619.759104
821.965517	2659.145639
822.283704	2678.387724
822.601847	2684.016172
822.919945	2670.130314
823.237999	2646.005872
823.556010	2627.041051
823.873976	2606.236209
824.191897	2596.058120
824.509775	2584.208887
824.827609	2574.668504
825.145398	2574.176991
825.463144	2570.373441
825.780845	2571.535427
826.098502	2576.420305
826.416116	2585.141501
826.733685	2595.581731
827.051210	2598.606423
827.368692	2597.883017
827.686129	2585.484299
828.003522	2577.231931
828.320872	2563.875393
828.638177	2561.828685
828.955439	2554.942469
829.272656	2548.676315
829.589830	2545.966694
829.906960	2548.162117
830.224046	2544.897970
830.541088	2546.553989
830.858086	2547.272353
831.175041	2545.651622
831.491952	2542.831097
831.808819	2545.969215
832.125642	2545.417209
832.442421	2550.609597
832.759157	2551.285112
833.075849	2555.612942
833.392497	2567.200034
833.709101	2572.510890
834.025662	2571.941240
834.342179	2567.326063
834.658653	2558.577141
834.975083	2556.273333
835.291469	2557.720145
835.607811	2548.991387
835.924110	2543.189019
836.240366	2544.184647
836.556578	2541.500232
836.872746	2544.270346
837.188871	2541.903524
837.504952	2540.567619
837.820990	2541.590973
838.136984	2540.683565
838.452935	2540.371014
838.768842	2543.199101
839.084706	2542.357228
839.400526	2545.787733
839.716303	2547.413506
840.032037	2550.740667
840.347727	2552.109340
840.663373	2548.492313
840.978977	2546.861499
841.294537	2542.889070
841.610054	2543.126004
841.925527	2539.435880
842.240957	2539.750952
842.556344	2538.606610
842.871687	2541.117104
843.186987	2540.091230
843.502244	2537.978986
843.817458	2538.173071
844.132629	2536.247350
844.447756	2536.653163
844.762840	2532.642925
845.077881	2535.866743
845.392879	2533.073943
845.707833	2534.349355
846.022745	2530.104704
846.337613	2535.531506
846.652438	2535.947401
846.967221	2537.721887
847.281960	2534.979500
847.596656	2536.285158
847.911309	2535.612164
848.225919	2534.757689
848.540485	2534.916485
848.855009	2536.632998
849.169490	2537.099305
849.483928	2534.987061
849.798323	2534.603934
850.112675	2536.433872
850.426984	2534.493028
850.741251	2534.666948
851.055474	2536.650642
851.369654	2537.268183
851.683792	2534.707277
851.997887	2534.997144
852.311938	2533.704088
852.625947	2536.736342
852.939914	2534.843388
853.253837	2537.139634
853.567718	2536.023018
853.881555	2535.357586
854.195350	2535.360107
854.509103	2536.839685
854.822812	2533.802390
855.136479	2537.258101
855.450103	2536.348173
855.763685	2535.975128
856.077224	2532.673172
856.390720	2534.440096
856.704173	2534.861033
857.017584	2533.925898
857.330953	2534.087215
857.644278	2537.704243
857.957561	2538.533513
858.270802	2534.770292
858.584000	2538.331867
858.897155	2537.081661
859.210268	2534.656866
859.523339	2537.764737
859.836367	2531.886752
860.149352	2537.774819
860.462295	2538.425128
860.775195	2530.845753
861.088054	2531.566638
861.400869	2531.934643
861.713642	2532.506814
862.026373	2533.515044
862.339062	2536.660724
862.651708	2536.572504
862.964312	2534.992102
863.276873	2537.865560
863.589392	2538.140303
863.901869	2534.200641
864.214303	2536.224665
864.526696	2534.117462
864.839045	2536.794315
865.151353	2535.622247
865.463619	2538.026877
865.775842	2536.804397
866.088023	2536.479243
866.400162	2536.151568
866.712258	2538.057124
867.024313	2537.316074
867.336325	2538.130221
867.648296	2536.186856
867.960224	2537.008564
868.272110	2539.347659
868.583954	2535.985210
868.895755	2536.267514
869.207515	2537.648791
869.519233	2536.590148
869.830909	2537.857998
870.142542	2536.663245
870.454134	2538.704912
870.765684	2535.155940
871.077191	2535.828934
871.388657	2538.750283
871.700081	2537.910931
872.011463	2537.820190
872.322803	2535.707946
872.634101	2538.992258
872.945357	2536.391023
873.256571	2540.116435
873.567744	2537.316074
873.878874	2540.277752
874.189963	2543.521735
874.501010	2537.933616
874.812015	2538.684748
875.122979	2542.422763
875.433900	2539.314892
875.744780	2539.808925
876.055618	2540.363452
876.366415	2542.480737
876.677169	2538.636857
876.987882	2536.529654
877.298554	2534.442617
877.609183	2537.711805
877.919771	2535.072761
878.230317	2539.123328
878.540822	2545.175233
878.851285	2543.352856
879.161707	2541.858154
879.472087	2546.561551
879.782425	2550.866696
880.092722	2558.393139
880.402977	2568.203224
880.713191	2587.039495
881.023363	2606.132866
881.333494	2620.671553
881.643583	2623.497120
881.953631	2619.726337
882.263637	2616.873044
882.573602	2609.260902
882.883526	2599.055086
883.193408	2592.378077
883.503248	2578.930799
883.813048	2576.319482
884.122806	2568.137689
884.432522	2563.020918
884.742197	2556.681667
885.051831	2556.180072
885.361424	2551.577499
885.670975	2552.303425
885.980485	2546.687579
886.289954	2547.753783
886.599382	2544.383772
886.908768	2541.517876
887.218113	2543.065510
887.527417	2544.046015
887.836680	2542.833617
888.145901	2543.307486
888.455082	2539.395550
888.764221	2539.670293
889.073319	2537.789943
889.382376	2539.592155
889.691392	2537.361445
890.000366	2543.983000
890.309300	2539.826569
890.618193	2540.963349
890.927044	2541.974101
891.235855	2537.439583
891.544625	2540.003009
891.853353	2540.393699
892.162041	2541.462423
892.470687	2539.292207
892.779293	2543.257074
893.087858	2542.553833
893.396381	2544.235058
893.704864	2545.422250
894.013306	2548.852755
894.321707	2560.729713
894.630068	2564.586196
894.938387	2568.407391
895.246665	2566.983265
895.554903	2562.562173
895.863100	2559.441699
896.171256	2556.570762
896.479371	2553.339382
896.787446	2549.460214
897.095480	2549.172868
897.403473	2543.985521
897.711425	2544.938299
898.019336	2545.013916
898.327207	2541.752290
898.635038	2543.320089
898.942827	2544.638350
899.250576	2540.595345
899.558284	2541.643905
899.865952	2538.707433
900.173579	2539.055273
900.481165	2540.451672
900.788711	2541.676672
901.096216	2539.733308
901.403681	2536.151568
901.711105	2537.696682
902.018489	2538.087371
902.325832	2541.933771
902.633135	2538.898997
902.940397	2540.698689
903.247619	2542.901673
903.554800	2550.138249
903.861941	2561.251473
904.169041	2571.535427
904.476101	2577.834348
904.783121	2578.247723
905.090100	2573.115828
905.397039	2563.406566
905.703938	2559.653427
906.010796	2556.185113
906.317614	2547.605069
906.624391	2545.855789
906.931129	2541.918648
907.237826	2543.173895
907.544483	2540.000489
907.851099	2539.100643
908.157675	2535.937319
908.464211	2536.141486
908.770707	2530.893644
909.077163	2535.503780
909.383578	2533.192411
909.689954	2532.529499
909.996289	2529.978675
910.302584	2534.971938
910.608839	2533.119314
910.915054	2533.774664
911.221229	2538.205838
911.527363	2535.723070
911.833458	2533.857843
912.139513	2534.303985
912.445527	2535.027391
912.751502	2534.009077
913.057436	2533.515044
913.363331	2537.873122
913.669186	2537.081661
913.975000	2542.606765
914.280775	2540.582742
914.586510	2547.567261
914.892205	2550.014741
915.197859	2550.271840
915.503475	2559.227450
915.809050	2568.155333
916.114585	2574.320664
916.420081	2575.820407
916.725536	2574.658422
917.030952	2570.025601
917.336328	2563.799776
917.641665	2560.270968
917.946961	2557.243756
918.252218	2555.297870
918.557435	2553.054557
918.862612	2548.338557
919.167750	2546.750594
919.472848	2546.049873
919.777906	2543.138607
920.082925	2541.192722
920.387904	2539.977804
920.692843	2539.312371
920.997743	2538.762886
921.302603	2535.569315
921.607423	2538.742721
921.912204	2539.299768
922.216946	2537.348842
922.521647	2536.993441
922.826310	2536.015457
923.130932	2534.724921
923.435516	2537.505118
923.740059	2534.828265
924.044564	2532.844571
924.349028	2534.651825
924.653454	2528.670496
924.957840	2528.534384
925.262186	2529.668644
925.566493	2532.285003
925.870761	2531.528830
926.174989	2532.416073
926.479178	2531.508665
926.783328	2532.461443
927.087438	2532.244674
927.391509	2534.087215
927.695541	2532.806762
927.999533	2534.281300
928.303486	2532.161495
928.607400	2534.336752
928.911275	2531.117976
929.215110	2534.263656
929.518906	2529.426669
929.822663	2531.468336
930.126381	2533.666279
930.430060	2532.587472
930.733699	2531.002029
931.037299	2532.131248
931.340861	2527.672347
931.644383	2535.776002
931.947866	2529.441792
932.251309	2531.637215
932.554714	2531.445651
932.858080	2532.983203
933.161407	2530.558408
933.464694	2529.812317
933.767943	2529.867770
934.071153	2533.429345
934.374323	2531.115455
934.677455	2531.899355
934.980548	2530.543284
935.283602	2530.893644
935.586617	2530.691998
935.889593	2529.877852
936.192530	2529.953469
936.495428	2531.614529
936.798287	2529.310722
937.101108	2531.551515
937.403890	2532.048069
937.706632	2533.086546
938.009336	2533.099149
938.312002	2535.110570
938.614628	2533.000847
938.917216	2533.247863
939.219765	2534.142668
939.522275	2533.202493
939.824747	2535.266845
940.127179	2531.793490
940.429573	2530.507996
940.731929	2529.250228
941.034246	2529.426669
941.336524	2533.512524
941.638763	2529.976154
941.940964	2534.893800
942.243126	2532.658048
942.545250	2531.601927
942.847335	2534.094777
943.149381	2530.296268
943.451389	2529.235105
943.753359	2532.791639
944.055290	2531.606968
944.357182	2533.169725
944.659036	2532.484128
944.960851	2532.658048
945.262628	2529.111597
945.564367	2532.017822
945.866067	2531.400280
946.167729	2533.774664
946.469352	2528.136133
946.770937	2533.522606
947.072484	2530.898686
947.373992	2529.930784
947.675462	2527.722759
947.976893	2531.803573
948.278286	2531.158305
948.579641	2529.703932
948.880958	2531.543953
949.182236	2530.082019
949.483476	2529.925743
949.784678	2529.557739
950.085841	2531.080167
950.386967	2532.784077
950.688054	2532.731145
950.989103	2530.384488
951.290114	2532.509334
951.591087	2529.915661
951.892021	2529.550177
952.192917	2532.335414
952.493776	2530.596216
952.794596	2534.762730
953.095378	2531.707791
953.396122	2531.440610
953.696828	2532.521937
953.997496	2531.163346
954.298126	2531.155784
954.598718	2530.535722
954.899272	2529.784591
955.199788	2532.539581
955.500266	2530.444982
955.800706	2529.824920
956.101108	2527.604292
956.401472	2527.614374
956.701798	2526.621267
957.002087	2527.508510
957.302337	2526.976668
957.602550	2527.810979
957.902724	2528.307532
958.202861	2530.288706
958.502960	2527.616894
958.803022	2527.505989
959.103045	2530.129910
959.403031	2529.504807
959.702979	2529.774508
960.002889	2528.957841
960.302762	2529.986237
960.602596	2528.113448
960.902393	2528.736031
961.202153	2527.584127
961.501875	2528.962883
961.801559	2530.026566
962.101205	2526.792666
962.400814	2528.824251
962.700385	2529.005732
962.999918	2526.351565
963.299414	2530.187883
963.598873	2531.395239
963.898293	2525.323169
964.197677	2530.215609
964.497022	2528.226874
964.796331	2529.136802
965.095601	2530.893644
965.394835	2529.777029
965.694030	2529.179652
965.993189	2529.472039
966.292309	2526.989271
966.591393	2527.899199
966.890439	2527.853829
967.189447	2525.701256
967.488419	2528.244518
967.787353	2527.400125
968.086249	2526.296112
968.385108	2525.804600
968.683930	2529.499765
968.982714	2528.040351
969.281462	2527.505989
969.580172	2526.215454
969.878844	2530.066895
970.177480	2528.133613
970.476078	2528.884745
970.774639	2531.049920
971.073162	2525.781914
971.371649	2528.468849
971.670098	2524.057840
971.968510	2526.316277
972.266885	2524.929959
972.565223	2529.242667
972.863524	2529.328366
973.161788	2529.035979
973.460014	2530.094622
973.758204	2528.514220
974.056356	2527.727800
974.354471	2530.583613
974.652550	2528.446164
974.950591	2530.462626
975.248595	2527.395084
975.546563	2527.503468
975.844493	2528.131092
976.142386	2526.633869
976.440243	2528.083201
976.738062	2530.061854
977.035845	2526.039013
977.333590	2526.248221
977.631299	2528.504138
977.928971	2529.724097
978.226606	2528.239477
978.524204	2529.807276
978.821765	2525.774353
979.119290	2527.894158
979.416777	2527.208561
979.714228	2531.191072
980.011642	2526.520443
980.309020	2530.545805
980.606360	2526.689322
980.903664	2526.601102
981.200931	2529.129241
981.498162	2524.708149
981.795356	2528.262162
982.092513	2529.101514
982.389633	2530.762574
982.686717	2531.460774
982.983764	2529.232584
983.280775	2532.080836
983.577749	2527.574045
983.874686	2530.855836
984.171587	2529.938346
984.468451	2530.744930
984.765279	2530.109745
985.062070	2530.923891
985.358824	2529.235105
985.655543	2525.030782
985.952224	2532.905065
986.248869	2529.744261
986.545478	2525.610515
986.842050	2524.871986
987.138586	2522.971471
987.435086	2523.561286
987.731549	2521.106244
988.027975	2527.861390
988.324366	2527.480783
988.620719	2524.047758
988.917037	2528.037831
989.213318	2526.835516
989.509563	2527.770650
989.805772	2528.645290
990.101944	2528.617563
990.398080	2530.281144
990.694180	2526.953983
990.990244	2528.052954
991.286271	2531.042358
991.582262	2525.388704
991.878217	2527.253931
992.174136	2525.212264
992.470019	2526.560773
992.765865	2530.528161
993.061676	2527.397604
993.357450	2526.790145
993.653188	2526.502799
993.948890	2525.928108
994.244556	2526.117151
994.540186	2525.819723
994.835780	2528.489014
995.131337	2524.627490
995.426859	2527.745444
995.722345	2526.288550
996.017795	2528.841895
996.313208	2528.151257
996.608586	2526.578417
996.903928	2528.289888
997.199234	2529.225023
997.494504	2526.298633
997.789738	2526.404497
998.084936	2527.853829
998.380099	2526.195289
998.675225	2529.522451
998.970316	2528.756195
999.265371	2528.327697
999.560390	2525.918026
999.855373	2527.964734
1000.150320	2523.836029
1000.445232	2528.635207
1000.740108	2524.577079
1001.034948	2528.761236
1001.329752	2526.162522
1001.624521	2526.341482
1001.919254	2521.867458
1002.213951	2523.699918
1002.508613	2524.750998
1002.803239	2527.873993
1003.097829	2518.321007
1003.392384	2528.579755
1003.686903	2526.223015
1003.981386	2525.892820
1004.275834	2523.823426
1004.570246	2530.024045
1004.864623	2523.140350
1005.158964	2529.587986
1005.453270	2525.139167
1005.747540	2528.552028
1006.041775	2526.969106
1006.335974	2527.316946
1006.630138	2526.429703
1006.924266	2526.706966
1007.218359	2526.843077
1007.512416	2528.017666
1007.806438	2525.726462
1008.100425	2524.579599
1008.394376	2524.078004
1008.688292	2526.966586
1008.982172	2527.566483
1009.276017	2525.963396
1009.569827	2526.838036
1009.863602	2526.795186
1010.157341	2526.089425
1010.451045	2525.819723
1010.744714	2525.640762
1011.038347	2526.893489
1011.331945	2527.654703
1011.625508	2525.771832
1011.919036	2524.559435
1012.212528	2525.615556
1012.505986	2528.851977
1012.799408	2526.182686
1013.092795	2525.975999
1013.386147	2526.394415
1013.679464	2527.180835
1013.972745	2525.063550
1014.265992	2528.317615
1014.559204	2525.613036
1014.852380	2522.560617
1015.145521	2526.278468
1015.438628	2522.036337
1015.731699	2527.407687
1016.024736	2525.731503
1016.317737	2526.666637
1016.610703	2526.202851
1016.903635	2521.559948
1017.196531	2520.798734
1017.489393	2522.948786
1017.782219	2521.665812
1018.075011	2525.497089
1018.367768	2523.924249
1018.660490	2524.012469
1018.953177	2524.012469
1019.245829	2524.012469
