Dividing Wavelength (nm)	Counts (n)	Blue Motor Position (mm): 0.000000	Red Motor Position (mm): 42.600000	
326.493990	2126.157046
326.888308	2126.157046
327.282561	2126.157046
327.676750	2094.727973
328.070874	2094.007088
328.464933	2096.273086
328.858929	2102.781216
329.252859	2113.392845
329.646726	2124.601850
330.040528	2136.274642
330.434265	2152.824750
330.827938	2167.355876
331.221547	2191.122396
331.615091	2206.883563
332.008571	2227.837119
332.401986	2246.093658
332.795338	2264.357758
333.188625	2284.464400
333.581847	2306.136321
333.975006	2322.678867
334.368100	2343.551765
334.761129	2358.231605
335.154095	2376.820859
335.546996	2395.218550
335.939833	2418.211253
336.332606	2432.570980
336.725315	2445.330140
337.117960	2454.956223
337.510540	2463.049796
337.903056	2473.696713
338.295508	2480.915645
338.687896	2492.427120
339.080220	2500.936588
339.472480	2506.108812
339.864676	2509.279697
340.256807	2516.697755
340.648875	2517.332941
341.040879	2518.930986
341.432818	2521.454084
341.824694	2520.370236
342.216506	2523.452901
342.608253	2524.095648
342.999937	2526.575896
343.391557	2525.784435
343.783113	2522.815195
344.174605	2520.234125
344.566033	2518.817560
344.957397	2517.748836
345.348697	2513.970491
345.739934	2516.055008
346.131106	2515.182888
346.522215	2511.427229
346.913260	2510.855058
347.304241	2511.318844
347.695159	2508.173164
348.086012	2505.798781
348.476802	2502.852226
348.867528	2500.762668
349.258191	2501.917092
349.648789	2499.209993
350.039324	2499.129334
350.429796	2498.075733
350.820203	2498.083295
351.210548	2494.342758
351.600828	2493.132882
351.991045	2492.318735
352.381198	2492.578355
352.771288	2492.018787
353.161314	2490.284630
353.551276	2492.275885
353.941175	2493.609271
354.331010	2493.082470
354.720782	2492.664054
355.110490	2490.861842
355.500135	2492.656492
355.889717	2490.438385
356.279235	2493.079949
356.668689	2493.778149
357.058080	2493.815958
357.447408	2491.933087
357.836672	2488.989053
358.225873	2493.962151
358.615010	2490.960144
359.004084	2495.860146
359.393095	2496.271000
359.782043	2496.180259
360.170927	2495.686226
360.559748	2499.804849
360.948505	2499.262925
361.337199	2501.400374
361.725830	2497.047337
362.114398	2501.970024
362.502903	2501.387771
362.891344	2501.465909
363.279722	2502.842144
363.668037	2501.773419
364.056289	2503.182422
364.444478	2503.888183
364.832603	2504.409943
365.220665	2506.343225
365.608665	2505.478667
365.996601	2506.832217
366.384474	2508.669718
366.772284	2509.173833
367.160031	2511.996879
367.547715	2510.655932
367.935336	2512.077538
368.322893	2515.276150
368.710388	2521.018024
369.097820	2527.574045
369.485189	2529.265352
369.872495	2538.399922
370.259738	2542.445448
370.646918	2553.883827
371.034035	2560.313818
371.421090	2569.564336
371.808081	2579.361818
372.195010	2589.088724
372.581875	2599.468460
372.968678	2613.220728
373.355418	2625.503499
373.742096	2641.690644
374.128710	2656.499034
374.515262	2672.545026
374.901751	2688.238138
375.288177	2698.968234
375.674540	2724.292471
376.060841	2739.549523
376.447079	2762.587596
376.833254	2781.988476
377.219367	2790.145063
377.605417	2829.458502
377.991404	2842.656242
378.377329	2863.582072
378.763191	2877.682179
379.148991	2918.921338
379.534727	2941.039401
379.920402	2971.626602
380.306013	2983.092706
380.691563	3034.527599
381.077049	3055.897050
381.462474	3072.429514
381.847835	3110.061728
382.233134	3133.694657
382.618371	3130.092752
383.003545	3202.188814
383.388657	3209.649722
383.773706	3240.683065
384.158693	3259.791558
384.543618	3282.282666
384.928480	3319.564520
385.313280	3367.722662
385.698017	3361.388453
386.082692	3420.558996
386.467305	3421.050508
386.851856	3453.792803
387.236344	3476.394816
387.620770	3511.004857
388.005133	3534.221892
388.389435	3560.987898
388.773674	3573.792429
389.157851	3618.015951
389.541965	3632.531953
389.926018	3595.524843
390.310008	3668.021676
390.693936	3684.168492
391.077802	3728.752457
391.461606	3718.980180
391.845348	3777.260960
392.229027	3778.720374
392.612645	3790.194040
392.996200	3866.771687
393.379694	3907.002616
393.763125	3971.582317
394.146494	3936.465639
394.529801	4002.827388
394.913047	4050.564595
395.296230	4015.435314
395.679351	4070.373809
396.062410	4095.448508
396.445408	4074.389088
396.828343	4109.435189
397.211217	4132.874034
397.594028	4052.543248
397.976778	4121.339874
398.359466	4145.537413
398.742092	4176.452289
399.124656	4100.353551
399.507158	4178.834234
399.889598	4204.592009
400.271977	4264.238942
400.654294	4238.259355
401.036549	4241.175663
401.418742	4213.245150
401.800874	4320.112570
402.182944	4339.740303
402.564952	4402.106938
402.946898	4388.301738
403.328783	4382.464082
403.710606	4300.331083
404.092367	4493.729909
404.474067	4456.473261
404.855705	4463.465342
405.237282	4393.826843
405.618797	4501.634438
406.000250	4538.069377
406.381642	4615.965287
406.762972	4576.177980
407.144240	4588.370011
407.525447	4589.471503
407.906593	4651.185308
408.287677	4693.909087
408.668700	4619.095843
409.049661	4671.778422
409.430560	4716.644691
409.811399	4639.245335
410.192176	4798.134943
410.572891	4742.732662
410.953545	4844.140513
411.334138	4722.973859
411.714669	4792.458603
412.095139	4686.095298
412.475547	4829.574099
412.855894	4811.781346
413.236180	4818.801153
413.616405	4770.970685
413.996568	4857.058469
414.376670	4801.809944
414.756711	4755.824538
415.136691	4783.782778
415.516609	4865.701528
415.896466	4901.642434
416.276262	4936.968320
416.655997	4915.732459
417.035670	5096.719964
417.415283	5187.407802
417.794834	5132.691118
418.174324	5088.807873
418.553753	4996.085931
418.933121	5180.319939
419.312428	5246.346452
419.691674	5188.201783
420.070859	5310.089322
420.449983	5227.742073
420.829045	5339.272561
421.208047	5248.914920
421.586988	5317.855219
421.965867	5328.499615
422.344686	5459.083144
422.723444	5316.665507
423.102141	5139.090863
423.480777	5433.000214
423.859352	5203.902457
424.237866	5459.698165
424.616319	5453.928564
424.994712	5565.138939
425.373044	5439.702428
425.751314	5583.168625
426.129524	5388.633019
426.507673	5579.546556
426.885762	5664.185009
427.263789	5593.064410
427.641756	5477.785825
428.019662	5600.941213
428.397508	5605.994970
428.775292	5556.352207
429.153016	5652.885262
429.530679	5572.546914
429.908282	5661.092261
430.285824	5533.593918
430.663305	5810.673378
431.040726	5544.568510
431.418086	5540.069281
431.795385	5645.598275
432.172624	5662.463455
432.549802	5652.373585
432.926920	5664.706768
433.303977	5680.319222
433.680974	5720.976128
434.057910	5727.643053
434.434786	5737.115382
434.811601	5708.534560
435.188355	5943.827895
435.565050	5813.698070
435.941683	5796.369104
436.318257	6014.744327
436.694770	5995.333364
437.071222	6029.925762
437.447614	5960.443538
437.823946	5874.345672
438.200218	6026.507859
438.576429	5893.842334
438.952580	5991.670966
439.328670	6035.665115
439.704700	5946.512309
440.080670	5933.995124
440.456580	6201.982863
440.832429	6085.638073
441.208218	5927.698723
441.583947	6085.655717
441.959616	6093.477068
442.335224	6017.864801
442.710773	6152.458567
443.086261	6178.917063
443.461689	5977.497762
443.837057	6126.511749
444.212365	6278.391632
444.587612	6170.788203
444.962800	6322.219423
445.337927	6305.833153
445.712995	5915.478966
446.088002	6494.100084
446.462949	6325.367624
446.837837	6252.858187
447.212664	6428.592811
447.587431	6569.215797
447.962139	7114.615711
448.336786	8039.561578
448.711374	7778.671784
449.085901	6857.748758
449.460369	6776.102230
449.834776	6705.296704
450.209124	7095.807166
450.583412	7249.330465
450.957640	7394.427476
451.331808	7163.043556
451.705917	6709.082611
452.079965	6640.454863
452.453954	6848.999836
452.827883	6727.094653
453.201752	6821.699467
453.575562	6614.742458
453.949311	6825.147616
454.323001	6708.628907
454.696632	6782.983405
455.070202	6920.042296
455.443713	7082.057419
455.817164	7179.533170
456.190556	7261.608196
456.563888	7341.369332
456.937160	7377.695886
457.310373	7039.235338
457.683526	7060.932464
458.056619	6950.352234
458.429653	6938.271108
458.802628	6872.176540
459.175542	6984.190979
459.548398	7336.388672
459.921194	7501.824218
460.293930	7499.938826
460.666607	8033.108901
461.039224	8340.014347
461.411782	8468.946898
461.784280	8487.069846
462.156719	8376.933237
462.529099	8252.598219
462.901419	7846.215684
463.273680	7734.496153
463.645882	7749.478462
464.018024	7612.850590
464.390106	7778.649099
464.762130	8169.406577
465.134094	8633.076785
465.505999	9662.613991
465.877845	10880.592048
466.249631	11530.883250
466.621358	11147.649693
466.993026	10519.456389
467.364634	10263.706052
467.736184	9898.998736
468.107674	9569.856760
468.479105	9600.078477
468.850477	9363.376139
469.221790	9136.700657
469.593043	8810.230493
469.964238	8670.986262
470.335373	8680.385493
470.706449	8737.002692
471.077467	8725.019869
471.448425	10030.880361
471.819324	11108.326173
472.190164	11134.819957
472.560945	9886.481551
472.931667	9090.642155
473.302330	8957.311197
473.672934	8602.608051
474.043479	8952.320455
474.413965	8900.167198
474.784393	8781.662274
475.154761	8936.178680
475.525070	9023.607411
475.895321	8850.151390
476.265513	9029.440026
476.635645	9196.208957
477.005719	9196.501344
477.375734	9310.224734
477.745691	9541.845588
478.115588	9684.517804
478.485427	9928.003014
478.855207	10461.866248
479.224928	11276.831781
479.594591	11908.400138
479.964194	11714.053575
480.333739	11656.914617
480.703226	11577.075343
481.072653	11665.807212
481.442022	11901.385372
481.811333	12083.688619
482.180584	11898.022923
482.549777	11614.251332
482.918912	11429.649319
483.287988	11451.611106
483.657005	11468.138529
484.025964	11141.222222
484.394864	11277.121648
484.763706	11253.864284
485.132489	11006.530153
485.501213	10964.819646
485.869879	11040.535257
486.238487	10884.715712
486.607036	11002.187199
486.975527	10773.076839
487.343959	10962.956940
487.712333	11016.332677
488.080648	10939.147570
488.448905	10995.311065
488.817104	10923.676269
489.185244	11188.631754
489.553326	11348.791732
489.921350	11886.645039
490.289315	12943.777521
490.657222	13289.222588
491.025070	13203.825442
491.392861	13074.623189
491.760593	12695.001620
492.128267	12343.040861
492.495883	12016.941222
492.863440	11674.737616
493.230939	11342.911226
493.598380	11278.681885
493.965763	11144.178859
494.333088	11039.300174
494.700354	10967.274688
495.067563	11026.218380
495.434713	10852.482574
495.801805	10984.704478
496.168839	10911.748899
496.535815	10846.637356
496.902733	10843.113590
497.269593	10775.993147
497.636395	10874.978723
498.003139	10863.396672
498.369825	10730.118647
498.736453	10884.829138
499.103023	10816.201390
499.469535	10846.206338
499.835989	10833.495068
500.202385	10791.363625
500.568723	10649.581173
500.935003	10866.978412
501.301226	10677.536892
501.667390	10926.274984
502.033497	11027.360201
502.399546	10887.387523
502.765537	10798.035592
503.131470	10871.462518
503.497345	11048.109590
503.863163	10654.702985
504.228923	10964.514657
504.594625	11034.937055
504.960269	10777.044227
505.325856	10998.802064
505.691385	10788.321288
506.056856	10947.810793
506.422270	10977.561163
506.787625	10863.242917
507.152924	10976.502520
507.518164	10962.714965
507.883347	10875.961748
508.248472	10802.315532
508.613540	11033.865810
508.978550	10919.426577
509.343503	10888.874664
509.708398	11007.177942
510.073236	11115.741710
510.438016	11128.127825
510.802738	11077.640669
511.167403	11130.252672
511.532010	11024.700992
511.896561	11261.269739
512.261053	11331.866058
512.625488	11195.268433
512.989866	11179.139261
513.354186	11166.062508
513.718449	11064.831097
514.082655	11259.424677
514.446803	11159.161168
514.810894	11278.250866
515.174927	11152.179170
515.538904	11176.298571
515.902822	11326.338433
516.266684	11212.589837
516.630488	11158.709985
516.994235	11209.711338
517.357925	11272.319949
517.721558	11364.222704
518.085133	11379.898172
518.448651	11382.880014
518.812112	11267.692169
519.175516	11287.861826
519.538863	11401.423899
519.902152	11319.074130
520.265385	11478.835857
520.628560	11397.932900
520.991678	11365.785462
521.354739	11433.704927
521.717743	11366.559279
522.080690	11338.059115
522.443580	11477.361320
522.806413	11427.718557
523.169189	11456.395161
523.531908	11517.647701
523.894569	11340.872079
524.257174	11346.233346
524.619722	11469.139198
524.982213	11408.423541
525.344647	11453.226796
525.707025	11413.394118
526.069345	11503.008190
526.431608	11416.799418
526.793815	11535.528673
527.155964	11322.209728
527.518057	11374.388191
527.880093	11324.037146
528.242072	11393.370655
528.603995	11297.939092
528.965860	11219.415560
529.327669	11269.627972
529.689421	11225.013761
530.051117	11189.219048
530.412755	11291.645212
530.774337	11182.337873
531.135862	11168.877992
531.497331	11186.484222
531.858743	11038.758250
532.220098	11203.140194
532.581396	11070.275544
532.942638	11061.466127
533.303824	11019.513645
533.664953	11036.930832
534.026025	10946.495052
534.387040	11047.174456
534.747999	11048.608664
535.108902	11106.783580
535.469748	10865.748370
535.830537	10977.409928
536.191270	10952.098295
536.551947	10965.527928
536.912567	10966.589091
537.273131	10891.077648
537.633638	10871.157528
537.994089	10863.449604
538.354483	10809.511779
538.714821	10946.863056
539.075103	10966.127826
539.435328	10924.470251
539.795497	10752.037584
540.155609	10912.119424
540.515665	10999.611170
540.875665	10737.927394
541.235609	10805.554473
541.595496	10796.455190
541.955328	10954.434869
542.315102	10836.529843
542.674821	10785.737697
543.034483	10790.468820
543.394090	10795.363780
543.753640	10718.201359
544.113134	10940.964906
544.472571	10800.339399
544.831953	10940.929618
545.191278	10744.929557
545.550548	10774.316963
545.909761	10909.634135
546.268918	10884.244364
546.628019	10965.162445
546.987064	10832.496920
547.346053	10757.010682
547.704986	10854.073058
548.063863	10841.341624
548.422684	10829.419295
548.781449	10754.837945
549.140158	10854.965342
549.498811	10725.480785
549.857408	10583.756307
550.215949	10808.987499
550.574434	10665.831332
550.932864	10760.718451
551.291237	10820.937554
551.649555	10767.975192
552.007817	10784.386668
552.366022	10740.258928
552.724173	10742.371171
553.082267	10721.475588
553.440305	10859.290652
553.798288	10657.311782
554.156215	10807.510441
554.514086	10788.964036
554.871902	10640.461726
555.229661	10682.073930
555.587365	10658.307410
555.945014	10545.642663
556.302606	10678.935812
556.660143	10559.629344
557.017625	10722.945085
557.375050	10621.121339
557.732421	10753.244940
558.089735	10667.759574
558.446994	10669.140850
558.804197	10704.423886
559.161345	10708.028311
559.518437	10559.014323
559.875474	10645.318877
560.232455	10675.964052
560.589381	10623.334405
560.946251	10617.579928
561.303065	10728.109747
561.659825	10660.180199
562.016528	10595.081259
562.373177	10470.786569
562.729770	10586.067676
563.086307	10499.379994
563.442789	10592.669067
563.799216	10472.392177
564.155587	10516.938333
564.511904	10473.332352
564.868164	10462.244334
565.224370	10483.086985
565.580520	10402.168904
565.936615	10407.653679
566.292654	10280.820769
566.648638	10411.275748
567.004567	10363.009221
567.360441	10346.380975
567.716260	10263.413665
568.072023	10358.303304
568.427732	10311.957456
568.783385	10217.398013
569.138982	10288.390062
569.494525	10299.934304
569.850013	10178.528196
570.205445	10263.554817
570.560823	10158.880299
570.916145	10077.039687
571.271412	10148.238423
571.626625	10090.078631
571.981782	10067.053161
572.336884	10038.507627
572.691931	10049.998937
573.046923	9999.194189
573.401860	9953.387744
573.756743	9885.647240
574.111570	9929.011245
574.466342	9914.596066
574.821059	9942.723183
575.175722	9832.916770
575.530330	9841.884983
575.884882	9834.159415
576.239380	9756.308876
576.593823	9740.628367
576.948211	9751.353422
577.302544	9637.778746
577.656823	9654.144852
578.011047	9656.549482
578.365216	9622.093196
578.719330	9549.886229
579.073389	9555.779338
579.427394	9504.904013
579.781344	9484.356270
580.135239	9431.277961
580.489080	9440.092419
580.842866	9345.301082
581.196597	9348.613120
581.550273	9388.569306
581.903895	9356.749543
582.257463	9418.831352
582.610975	9299.643352
582.964434	9328.544287
583.317837	9245.377851
583.671186	9233.616839
584.024481	9225.682063
584.377721	9146.866143
584.730906	9119.018810
585.084037	9150.120208
585.437113	9088.350950
585.790135	9114.743911
586.143103	9010.560905
586.496016	8984.074683
586.848874	9040.439824
587.201679	9029.147639
587.554428	8913.097757
587.907124	8961.936456
588.259765	8929.867156
588.612352	8933.055685
588.964884	8809.265112
589.317362	8824.491917
589.669786	8820.280033
590.022155	8869.587558
590.374470	8882.976863
590.726731	8823.072832
591.078937	8676.186212
591.431090	8788.669477
591.783188	8663.255652
592.135232	8657.231473
592.487222	8656.006473
592.839157	8704.827527
593.191038	8639.421077
593.542866	8588.407120
593.894639	8481.287642
594.246358	8535.364100
594.598022	8545.736274
594.949633	8445.934030
595.301190	8424.017614
595.652692	8448.583157
596.004141	8557.898057
596.355535	8335.260539
596.706876	8315.816808
597.058162	8246.405161
597.409395	8323.933066
597.760573	8386.670226
598.111698	8296.879714
598.462768	8279.974205
598.813785	8246.014472
599.164748	8214.461890
599.515657	8200.946556
599.866511	8116.323227
600.217312	8240.834686
600.568060	8095.752799
600.918753	8201.538892
601.269392	8175.382865
601.619978	8080.208401
601.970510	8147.822877
602.320988	8143.764748
602.671412	8193.962038
603.021783	8133.541288
603.372100	8103.710260
603.722363	8106.694623
604.072572	8082.741581
604.422728	8093.060823
604.772830	8023.626490
605.122878	8033.134107
605.472872	8018.434102
605.822813	8051.425933
606.172701	7992.386460
606.522534	8070.491577
606.872314	8069.460661
607.222041	8031.548664
607.571714	8088.876665
607.921333	8046.243627
608.270899	8050.899133
608.620411	8140.717371
608.969870	8046.349491
609.319276	8039.518728
609.668627	8057.979433
610.017926	8089.539577
610.367171	8130.171277
610.716362	8106.866023
611.065500	8095.551153
611.414585	8129.646997
611.763616	8114.765511
612.112594	8094.396729
612.461518	8104.486598
612.810389	8161.302922
613.159207	8102.719674
613.507971	8042.886219
613.856682	8159.898961
614.205340	8118.105275
614.553945	8190.642438
614.902496	8089.653003
615.250994	8145.894636
615.599439	8119.693239
615.947830	8129.830999
616.296169	8102.830579
616.644454	8117.588557
616.992686	8111.839121
617.340864	8160.778643
617.688990	8065.762975
618.037063	8144.838514
618.385082	8096.624919
618.733048	8181.729678
619.080961	8111.418185
619.428821	8138.625292
619.776628	8125.367057
620.124382	8081.877023
620.472083	8060.197541
620.819731	8089.716017
621.167326	7972.975497
621.514868	7990.256572
621.862357	7874.806588
622.209793	7884.576344
622.557176	7816.246024
622.904506	7786.493134
623.251783	7720.718679
623.599007	7674.813932
623.946179	7674.735794
624.293297	7627.132179
624.640363	7545.200826
624.987376	7527.234153
625.334336	7475.005279
625.681243	7415.678460
626.028097	7401.653970
626.374899	7378.353757
626.721647	7365.909669
627.068343	7300.374669
627.414987	7266.099864
627.761577	7213.775207
628.108115	7246.676298
628.454600	7138.601521
628.801032	7182.905702
629.147412	7145.991853
629.493739	7126.144830
629.840014	7056.569345
630.186236	7103.701613
630.532405	6992.551732
630.878521	7034.864657
631.224585	6987.147616
631.570597	6908.074597
631.916556	6929.824655
632.262462	6919.765033
632.608316	6885.487707
632.954117	6860.138265
633.299866	6837.271591
633.645562	6825.061917
633.991206	6745.434371
634.336797	6686.568818
634.682336	6640.633824
635.027823	6606.585871
635.373257	6594.547595
635.718639	6523.409353
636.063968	6533.680704
636.409245	6425.210196
636.754470	6420.940339
637.099642	6375.597681
637.444762	6317.871428
637.789829	6320.886038
638.134845	6263.782368
638.479808	6246.143371
638.824719	6243.012814
639.169577	6173.394479
639.514383	6182.408063
639.859137	6112.779646
640.203839	6117.548577
640.548489	6091.662252
640.893086	6071.530404
641.237632	6038.019334
641.582125	6050.375202
641.926566	6010.550087
642.270955	6023.016860
642.615292	6006.096227
642.959576	6014.535119
643.303809	6005.745867
643.647990	6002.688407
643.992118	5992.091902
644.336195	5931.398930
644.680219	5945.146157
645.024192	5935.920845
645.368112	6010.358523
645.711981	6022.210276
646.055797	6082.683957
646.399562	6032.655546
646.743274	6139.293594
647.086935	6172.797103
647.430544	6159.372510
647.774101	6170.049674
648.117606	6169.752246
648.461059	6158.659187
648.804460	6113.291323
649.147810	6032.274939
649.491108	6000.538355
649.834354	5971.287060
650.177548	5893.348301
650.520690	5810.612884
650.863781	5783.811590
651.206820	5797.503363
651.549807	5718.639553
651.892742	5659.773999
652.235626	5661.969422
652.578458	5644.078367
652.921238	5553.259460
653.263967	5582.972020
653.606644	5527.841962
653.949269	5516.620353
654.291843	5463.786541
654.634365	5495.082024
654.976836	5446.833140
655.319255	5444.400783
655.661622	5412.676802
656.003938	5399.441253
656.346203	5365.536973
656.688416	5378.427203
657.030577	5340.300957
657.372687	5303.525739
657.714746	5289.453358
658.056753	5318.699612
658.398708	5256.123770
658.740612	5253.333491
659.082465	5269.802941
659.424266	5265.480151
659.766016	5254.946660
660.107715	5223.288214
660.449362	5229.234255
660.790958	5214.355289
661.132503	5197.507753
661.473996	5215.507193
661.815438	5203.421027
662.156829	5196.302918
662.498168	5182.666596
662.839456	5158.857227
663.180693	5172.715359
663.521879	5174.814999
663.863013	5154.221886
664.204097	5154.816742
664.545129	5181.502090
664.886110	5165.070449
665.227040	5185.419066
665.567918	5152.734745
665.908746	5158.012833
666.249522	5161.390407
666.590248	5143.471625
666.930922	5151.182070
667.271545	5153.742976
667.612118	5149.548736
667.952639	5122.870950
668.293109	5122.533193
668.633528	5083.746555
668.973896	5081.588941
669.314213	5072.484617
669.654480	5038.557652
669.994695	5028.543400
670.334859	5020.197770
670.674973	4992.113502
671.015035	4994.354294
671.355047	4977.582376
671.695008	4963.860355
672.034918	4943.176501
672.374777	4940.355975
672.714585	4920.884518
673.054342	4915.238426
673.394049	4902.290222
673.733705	4913.947891
674.073310	4889.841093
674.412864	4867.904512
674.752368	4846.499773
675.091820	4838.779246
675.431223	4791.712513
675.770574	4784.428045
676.109875	4740.872476
676.449125	4736.703442
676.788324	4708.740162
677.127473	4664.448584
677.466571	4647.689268
677.805619	4634.221825
678.144616	4616.068630
678.483562	4590.262964
678.822458	4566.204057
679.161303	4554.372469
679.500098	4543.294533
679.838842	4524.720402
680.177535	4520.584135
680.516179	4527.908932
680.854771	4524.344836
681.193314	4569.937032
681.531805	4637.705263
681.870247	4718.550247
682.208638	4774.388587
682.546978	4779.129793
682.885268	4754.675155
683.223508	4688.625958
683.561697	4647.976614
683.899836	4620.343529
684.237925	4581.516562
684.575963	4557.550917
684.913951	4523.278632
685.251889	4539.811096
685.589776	4529.693500
685.927614	4504.434799
686.265401	4529.761556
686.603137	4516.921737
686.940824	4552.061100
687.278460	4561.286412
687.616046	4556.459507
687.953582	4592.919652
688.291068	4576.452723
688.628504	4597.587760
688.965889	4575.694029
689.303224	4542.679513
689.640510	4494.866689
689.977745	4441.669913
690.314930	4377.254049
690.652065	4336.181248
690.989150	4281.570429
691.326185	4223.957602
691.663170	4178.582176
692.000105	4132.221205
692.336990	4081.905448
692.673825	4049.397568
693.010610	4008.821320
693.347345	3971.889827
693.684030	3941.474026
694.020665	3914.347577
694.357251	3863.487376
694.693786	3862.090976
695.030272	3840.754292
695.366707	3811.071978
695.703093	3791.232518
696.039429	3793.727889
696.375716	3771.040176
696.711952	3758.525511
697.048139	3750.807505
697.384276	3731.331007
697.720363	3733.695308
698.056400	3730.665575
698.392388	3698.384546
698.728326	3690.210315
699.064214	3673.748427
699.400053	3663.290553
699.735842	3635.223929
700.071581	3618.883029
700.407270	3602.295112
700.742910	3585.245930
701.078501	3558.023699
701.414042	3546.484498
701.749533	3525.740150
702.084974	3494.961385
702.420366	3512.557533
702.755709	3479.840444
703.091002	3452.777010
703.426246	3462.191365
703.761440	3443.793674
704.096584	3427.414965
704.431679	3424.012186
704.766725	3413.723191
705.101721	3403.139289
705.436668	3409.072727
705.771565	3388.172103
706.106413	3393.719893
706.441212	3398.682909
706.775961	3401.178280
707.110661	3394.554204
707.445311	3406.768919
707.779913	3402.257087
708.114465	3412.649425
708.448967	3429.091149
708.783421	3445.043880
709.117825	3464.018783
709.452180	3465.831078
709.786485	3480.427739
710.120742	3523.272505
710.454949	3516.885363
710.789107	3538.254815
711.123216	3568.882345
711.457275	3571.148343
711.791286	3600.460133
712.125247	3599.398970
712.459159	3569.426789
712.793023	3600.197992
713.126837	3554.278122
713.460602	3548.304355
713.794318	3522.218904
714.127985	3510.714991
714.461602	3463.870069
714.795171	3448.446659
715.128691	3410.567429
715.462162	3377.822614
715.795584	3349.695496
716.128957	3336.187724
716.462281	3313.505053
716.795556	3292.891775
717.128782	3273.745472
717.461960	3239.526120
717.795088	3238.520410
718.128167	3218.232286
718.461198	3194.617001
718.794180	3190.450487
719.127113	3170.943742
719.459997	3159.666681
719.792833	3140.827889
720.125619	3134.145840
720.458357	3118.117491
720.791046	3111.107767
721.123686	3100.927157
721.456278	3084.704724
721.788821	3084.808067
722.121315	3076.616192
722.453761	3063.322670
722.786158	3061.457443
723.118506	3066.034810
723.450805	3051.296997
723.783056	3060.481979
724.115259	3053.109292
724.447412	3053.177348
724.779518	3053.371432
725.111574	3054.180537
725.443582	3060.509706
725.775542	3050.500495
726.107453	3071.617888
726.439315	3068.295768
726.771129	3078.864547
727.102895	3091.979109
727.434612	3102.051334
727.766281	3105.819597
728.097901	3107.959566
728.429473	3102.338680
728.760996	3101.827003
729.092471	3099.250973
729.423897	3088.641865
729.755276	3079.845051
730.086606	3080.699527
730.417887	3096.992536
730.749120	3116.413581
731.080305	3127.680560
731.411442	3135.204482
731.742530	3124.794500
732.073570	3124.025724
732.404562	3133.679533
732.735506	3129.061836
733.066401	3120.905249
733.397249	3088.261258
733.728048	3055.728171
734.058798	3017.949764
734.389501	2989.747029
734.720156	2972.360090
735.050762	2953.975002
735.381320	2943.207097
735.711831	2930.150508
736.042293	2922.326638
736.372707	2920.408479
736.703073	2911.558733
737.033391	2912.539238
737.363661	2915.626944
737.693883	2917.192223
738.024056	2921.953592
738.354182	2926.130188
738.684260	2945.747838
739.014290	2953.060032
739.344272	2951.464507
739.674207	2962.159315
740.004093	2967.316415
740.333931	2961.985395
740.663722	2961.569500
740.993464	2954.600105
741.323159	2946.151131
741.652806	2933.608740
741.982405	2921.920825
742.311956	2908.410533
742.641460	2902.903072
742.970915	2887.572923
743.300323	2876.184957
743.629683	2863.171218
743.958996	2851.584126
744.288260	2844.428208
744.617477	2832.233657
744.946647	2826.950527
745.275768	2815.572643
745.604842	2808.948567
745.933869	2803.216775
746.262847	2796.300312
746.591778	2800.514717
746.920662	2793.200002
747.249498	2791.014662
747.578286	2796.776701
747.907027	2803.032773
748.235720	2805.616364
748.564365	2808.210038
748.892963	2801.437248
749.221514	2797.222843
749.550017	2794.072122
749.878473	2790.908798
750.206881	2783.399999
750.535242	2780.123249
750.863555	2776.201232
751.191821	2770.340890
751.520039	2770.877773
751.848210	2764.573810
752.176334	2766.774274
752.504411	2768.208482
752.832440	2761.483583
753.160421	2759.270517
753.488356	2758.095928
753.816243	2759.446957
754.144082	2749.934300
754.471875	2746.584453
754.799620	2747.229721
755.127318	2743.222003
755.454969	2742.924575
755.782572	2748.149731
756.110129	2740.887949
756.437638	2738.480798
756.765100	2737.802763
757.092515	2737.938874
757.419882	2739.478947
757.747203	2734.926785
758.074477	2737.021384
758.401703	2737.026425
758.728882	2742.110429
759.056014	2744.058835
759.383099	2743.025398
759.710138	2744.855337
760.037129	2745.568660
760.364073	2749.226017
760.690970	2744.968763
761.017820	2744.162178
761.344623	2742.387692
761.671379	2749.841038
761.998088	2753.979826
762.324751	2777.527055
762.651366	2838.391426
762.977935	2948.457459
763.304456	3040.002292
763.630931	3042.469937
763.957359	2960.959520
764.283740	2884.880947
764.610074	2838.033504
764.936362	2796.638069
765.262602	2767.447268
765.588796	2743.045563
765.914943	2730.112483
766.241044	2712.150852
766.567097	2700.314222
766.893104	2696.208202
767.219064	2687.860052
767.544978	2681.213290
767.870845	2672.494615
768.196665	2664.985816
768.522438	2668.134017
768.848165	2663.173521
769.173846	2657.960968
769.499479	2653.166831
769.825066	2651.462921
770.150607	2647.750111
770.476101	2644.002013
770.801548	2646.830101
771.126949	2638.776857
771.452303	2633.604633
771.777611	2633.007257
772.102872	2633.523975
772.428087	2628.785290
772.753256	2625.959724
773.078378	2625.445526
773.403453	2621.964609
773.728482	2618.589557
774.053465	2617.137704
774.378401	2616.079062
774.703291	2613.903804
775.028135	2610.218721
775.352932	2610.937085
775.677683	2609.943978
776.002388	2606.836107
776.327046	2607.115891
776.651658	2605.006168
776.976224	2601.134562
777.300743	2603.758482
777.625216	2600.726228
777.949643	2600.625405
778.274024	2601.971393
778.598359	2596.272369
778.922647	2595.135588
779.246889	2593.356061
779.571086	2594.152563
779.895236	2595.241453
780.219339	2595.299426
780.543397	2597.459560
780.867409	2598.785384
781.191374	2598.281268
781.515294	2597.068871
781.839167	2594.911257
782.162995	2594.951586
782.486776	2594.777667
782.810511	2593.696339
783.134201	2591.999991
783.457844	2590.165011
783.781441	2590.379260
784.104993	2589.418920
784.428498	2590.633838
784.751958	2588.229208
785.075372	2590.371698
785.398739	2585.151583
785.722061	2587.702407
786.045337	2586.938672
786.368568	2587.553693
786.691752	2586.921028
787.014891	2592.388160
787.337983	2596.952924
787.661030	2603.428287
787.984031	2615.491768
788.306987	2618.367746
788.629897	2616.547889
788.952760	2612.257867
789.275579	2604.373503
789.598351	2602.241095
789.921078	2593.966041
790.243759	2591.044692
790.566395	2590.074270
790.888984	2586.979002
791.211529	2582.567992
791.534027	2581.206880
791.856480	2580.261664
792.178888	2577.627661
792.501249	2574.907959
792.823566	2576.546334
793.145836	2578.731674
793.468062	2576.808474
793.790241	2575.187743
794.112375	2574.910479
794.434464	2578.628330
794.756507	2578.976170
795.078505	2582.199988
795.400457	2581.952971
795.722364	2584.072776
796.044226	2587.410020
796.366042	2588.289702
796.687812	2587.851121
797.009538	2589.628128
797.331218	2586.908425
797.652852	2585.282653
797.974442	2581.595049
798.295986	2581.955492
798.617484	2579.427353
798.938938	2580.977508
799.260346	2580.153279
799.581709	2573.330078
799.903026	2576.846282
800.224299	2576.639595
800.545526	2575.737228
800.866708	2573.511559
801.187845	2570.620457
801.508936	2572.082392
801.829983	2569.377813
802.150984	2570.489387
802.471940	2569.599624
802.792851	2568.699778
803.113717	2569.619788
803.434538	2566.078378
803.755314	2568.107442
804.076045	2567.555436
804.396731	2567.656259
804.717372	2567.396639
805.037967	2564.815569
805.358518	2569.115673
805.679024	2570.557443
805.999485	2566.085939
806.319901	2568.198183
806.640272	2568.520817
806.960598	2570.053327
807.280879	2570.217165
807.601115	2572.105077
807.921306	2567.300857
808.241453	2568.724983
808.561554	2568.135168
808.881611	2571.311095
809.201623	2566.547205
809.521590	2564.886145
809.841513	2568.026784
810.161390	2568.354459
810.481223	2564.855898
810.801011	2565.546536
811.120755	2566.433779
811.440453	2567.318502
811.760107	2563.255332
812.079716	2563.877914
812.399281	2560.263407
812.718801	2562.983109
813.038276	2557.095042
813.357707	2561.788356
813.677093	2562.206772
813.996434	2563.199879
814.315731	2562.269786
814.634983	2560.311298
814.954191	2562.499158
815.273354	2561.737944
815.592473	2561.503531
815.911547	2564.029149
816.230577	2562.514282
816.549562	2566.595096
816.868502	2567.386557
817.187399	2568.934191
817.506250	2567.126938
817.825058	2566.597617
818.143821	2569.254305
818.462539	2567.961249
818.781213	2569.781105
819.099843	2573.826631
819.418429	2583.230904
819.736970	2588.380442
820.055466	2597.331011
820.373919	2603.672782
820.692327	2615.401027
821.010691	2634.985910
821.329011	2690.078159
821.647286	2822.078252
821.965517	3016.555885
822.283704	3120.607821
822.601847	3111.311934
822.919945	3002.685151
823.237999	2909.461613
823.556010	2830.749037
823.873976	2765.274531
824.191897	2718.706872
824.509775	2686.725792
824.827609	2658.928870
825.145398	2645.630306
825.463144	2644.521252
825.780845	2646.764566
826.098502	2662.752585
826.416116	2692.475228
826.733685	2725.789693
827.051210	2732.857391
827.368692	2716.214022
827.686129	2683.900225
828.003522	2652.511481
828.320872	2627.887965
828.638177	2609.891046
828.955439	2594.959148
829.272656	2589.313056
829.589830	2576.314441
829.906960	2578.235120
830.224046	2573.456106
830.541088	2572.573904
830.858086	2569.256825
831.175041	2567.381516
831.491952	2566.685837
831.808819	2566.327915
832.125642	2565.987637
832.442421	2571.406877
832.759157	2583.248548
833.075849	2597.094077
833.392497	2626.015176
833.709101	2641.110912
834.025662	2636.722587
834.342179	2623.265227
834.658653	2607.408277
834.975083	2595.034765
835.291469	2589.776842
835.607811	2572.742783
835.924110	2568.883780
836.240366	2566.083419
836.556578	2560.223077
836.872746	2559.814744
837.188871	2556.361554
837.504952	2556.601008
837.820990	2553.631769
838.136984	2553.097407
838.452935	2552.381563
838.768842	2549.014072
839.084706	2553.805689
839.400526	2562.234498
839.716303	2573.647670
840.032037	2583.361974
840.347727	2583.881212
840.663373	2576.160685
840.978977	2567.232802
841.294537	2561.024621
841.610054	2557.299208
841.925527	2554.738302
842.240957	2552.260575
842.556344	2551.794268
842.871687	2547.897456
843.186987	2549.830739
843.502244	2548.704041
843.817458	2549.054401
844.132629	2546.662374
844.447756	2545.013916
844.762840	2541.701878
845.077881	2540.925541
845.392879	2541.417053
845.707833	2541.714481
846.022745	2538.979655
846.337613	2546.354863
846.652438	2542.483257
846.967221	2544.991231
847.281960	2541.739687
847.596656	2544.116591
847.911309	2544.993752
848.225919	2545.298742
848.540485	2540.940664
848.855009	2545.316386
849.169490	2543.264636
849.483928	2544.507280
849.798323	2544.280428
850.112675	2540.948226
850.426984	2539.012423
850.741251	2545.018957
851.055474	2542.886549
851.369654	2542.944523
851.683792	2541.147351
851.997887	2542.389996
852.311938	2544.993752
852.625947	2543.753628
852.939914	2545.419729
853.253837	2541.333874
853.567718	2540.481919
853.881555	2542.679862
854.195350	2541.348998
854.509103	2546.543907
854.822812	2541.979142
855.136479	2541.190201
855.450103	2544.083823
855.763685	2540.786909
856.077224	2538.147865
856.390720	2542.493339
856.704173	2543.708257
857.017584	2542.780685
857.330953	2544.058618
857.644278	2539.070396
857.957561	2547.625234
858.270802	2544.855120
858.584000	2540.353370
858.897155	2542.977290
859.210268	2541.671631
859.523339	2541.628782
859.836367	2542.097609
860.149352	2542.863864
860.462295	2544.330840
860.775195	2540.839841
861.088054	2538.296579
861.400869	2540.860006
861.713642	2538.281455
862.026373	2540.239944
862.339062	2540.277752
862.651708	2543.577187
862.964312	2543.526776
863.276873	2540.749100
863.589392	2543.531817
863.901869	2543.690613
864.214303	2544.116591
864.526696	2544.966025
864.839045	2545.323947
865.151353	2544.809750
865.463619	2544.575336
865.775842	2544.411498
866.088023	2545.986859
866.400162	2543.786395
866.712258	2544.666077
867.024313	2543.325130
867.336325	2546.856458
867.648296	2545.845707
867.960224	2544.411498
868.272110	2546.193546
868.583954	2543.844369
868.895755	2542.619368
869.207515	2546.511139
869.519233	2543.763710
869.830909	2545.581046
870.142542	2543.995603
870.454134	2544.608103
870.765684	2544.908052
871.077191	2543.791437
871.388657	2547.932744
871.700081	2546.271684
872.011463	2546.763197
872.322803	2546.344781
872.634101	2547.416026
872.945357	2546.561551
873.256571	2547.685728
873.567744	2546.279246
873.878874	2545.626417
874.189963	2548.141952
874.501010	2549.447611
874.812015	2545.467620
875.122979	2547.741181
875.433900	2550.249155
875.744780	2547.766386
876.055618	2547.713454
876.366415	2548.222611
876.677169	2550.352498
876.987882	2547.980635
877.298554	2541.787578
877.609183	2547.403423
877.919771	2547.746222
878.230317	2547.932744
878.540822	2551.965668
878.851285	2557.188303
879.161707	2556.137222
879.472087	2560.795248
879.782425	2567.590724
880.092722	2580.148238
880.402977	2598.132554
880.713191	2632.982051
881.023363	2671.592248
881.333494	2701.274562
881.643583	2710.540203
881.953631	2700.689788
882.263637	2689.319466
882.573602	2672.108967
882.883526	2651.104999
883.193408	2637.783750
883.503248	2620.391769
883.813048	2606.977259
884.122806	2598.112390
884.432522	2587.846080
884.742197	2582.757035
885.051831	2572.959553
885.361424	2568.407391
885.670975	2567.308419
885.980485	2561.609395
886.289954	2559.315670
886.599382	2557.097562
886.908768	2556.530432
887.218113	2555.136553
887.527417	2552.379042
887.836680	2552.162272
888.145901	2550.909546
888.455082	2553.057077
888.764221	2549.356870
889.073319	2547.957950
889.382376	2547.700851
889.691392	2550.486089
890.000366	2551.534649
890.309300	2549.684545
890.618193	2552.394166
890.927044	2547.156407
891.235855	2549.109854
891.544625	2549.016592
891.853353	2548.245296
892.162041	2553.359547
892.470687	2553.462890
892.779293	2552.948692
893.087858	2555.590257
893.396381	2556.900957
893.704864	2562.627708
894.013306	2566.587534
894.321707	2582.688980
894.630068	2588.947572
894.938387	2595.082656
895.246665	2591.140474
895.554903	2583.876171
895.863100	2578.219997
896.171256	2573.032649
896.479371	2568.447720
896.787446	2564.659293
897.095480	2562.088304
897.403473	2558.010011
897.711425	2556.391801
898.019336	2558.763663
898.327207	2554.932387
898.635038	2550.924669
898.942827	2550.430636
899.250576	2549.361912
899.558284	2551.171686
899.865952	2548.865358
900.173579	2548.469627
900.481165	2547.279915
900.788711	2548.462066
901.096216	2547.897456
901.403681	2548.565409
901.711105	2545.538196
902.018489	2548.996428
902.325832	2552.356357
902.633135	2546.911911
902.940397	2550.632282
903.247619	2553.034392
903.554800	2561.737944
903.861941	2580.612024
904.169041	2597.346134
904.476101	2607.819132
904.783121	2606.964656
905.090100	2597.820003
905.397039	2589.416399
905.703938	2576.332085
906.010796	2569.662638
906.317614	2562.937739
906.624391	2558.771225
906.931129	2554.524053
907.237826	2550.939793
907.544483	2551.030533
907.851099	2547.484082
908.157675	2546.599359
908.464211	2545.737322
908.770707	2541.739687
909.077163	2541.578370
909.383578	2540.542413
909.689954	2540.441590
909.996289	2538.036959
910.302584	2541.507794
910.608839	2542.657177
910.915054	2543.907383
911.221229	2544.628268
911.527363	2544.726571
911.833458	2542.294214
912.139513	2544.504760
912.445527	2543.219266
912.751502	2545.013916
913.057436	2544.650953
913.363331	2545.921324
913.669186	2545.419729
913.975000	2548.656150
914.280775	2552.449618
914.586510	2555.176882
914.892205	2562.307595
915.197859	2568.936712
915.503475	2579.797878
915.809050	2590.391863
916.114585	2596.196751
916.420081	2599.654983
916.725536	2597.441916
917.030952	2590.152408
917.336328	2587.561255
917.641665	2580.624627
917.946961	2574.653380
918.252218	2565.728017
918.557435	2562.579817
918.862612	2560.041596
919.167750	2556.585885
919.472848	2555.403734
919.777906	2550.914587
920.082925	2553.793086
920.387904	2553.538507
920.692843	2547.942827
920.997743	2546.296890
921.302603	2546.969884
921.607423	2545.525593
921.912204	2545.417209
922.216946	2542.057280
922.521647	2540.610468
922.826310	2543.249513
923.130932	2542.566436
923.435516	2543.189019
923.740059	2543.831766
924.044564	2542.616848
924.349028	2541.386806
924.653454	2533.353728
924.957840	2538.901517
925.262186	2538.006713
925.566493	2538.399923
925.870761	2532.340456
926.174989	2537.487474
926.479178	2538.868750
926.783328	2536.451517
927.087438	2539.778678
927.391509	2536.665766
927.695541	2537.973945
927.999533	2538.064686
928.303486	2536.136444
928.607400	2535.914634
928.911275	2538.954449
929.215110	2539.158616
929.518906	2535.942360
929.822663	2536.224665
930.126381	2535.975127
930.430060	2537.709284
930.733699	2536.506969
931.037299	2536.585107
931.340861	2533.903213
931.644383	2537.086702
931.947866	2536.620395
932.251309	2535.831455
932.554714	2537.260622
932.858080	2537.994110
933.161407	2536.486805
933.464694	2535.486136
933.767943	2536.675848
934.071153	2535.655014
934.374323	2538.402443
934.677455	2536.915303
934.980548	2536.254912
935.283602	2535.859181
935.586617	2536.615354
935.889593	2535.652494
936.192530	2534.301464
936.495428	2538.893956
936.798287	2535.879346
937.101108	2534.089736
937.403890	2538.352032
937.706632	2539.798843
938.009336	2538.064686
938.312002	2542.959646
938.614628	2537.913451
938.917216	2539.816487
939.219765	2540.310520
939.522275	2540.673483
939.824747	2540.882691
940.127179	2536.920344
940.429573	2535.808769
940.731929	2536.930426
941.034246	2536.600231
941.336524	2536.706095
941.638763	2538.357073
941.940964	2538.732639
942.243126	2539.019984
942.545250	2539.110725
942.847335	2539.556867
943.149381	2536.890097
943.451389	2538.750283
943.753359	2538.901517
944.055290	2536.086033
944.357182	2535.566794
944.659036	2536.635519
944.960851	2538.165509
945.262628	2534.576207
945.564367	2535.299613
945.866067	2537.764737
946.167729	2536.907741
946.469352	2537.074099
946.770937	2534.901362
947.072484	2536.955632
947.373992	2535.629808
947.675462	2535.934798
947.976893	2537.288348
948.278286	2535.725590
948.579641	2534.334232
948.880958	2537.046373
949.182236	2534.528316
949.483476	2535.869263
949.784678	2535.213913
950.085841	2533.116793
950.386967	2536.829603
950.688054	2536.443955
950.989103	2535.551671
951.290114	2534.523275
951.591087	2538.198276
951.892021	2536.015457
952.192917	2539.405633
952.493776	2533.928419
952.794596	2536.564942
953.095378	2537.676517
953.396122	2538.190715
953.696828	2536.479243
953.997496	2536.660724
954.298126	2536.854809
954.598718	2535.791125
954.899272	2539.183822
955.199788	2536.227185
955.500266	2534.883718
955.800706	2533.298275
956.101108	2530.359282
956.401472	2535.687782
956.701798	2529.545136
957.002087	2529.996319
957.302337	2533.174767
957.602550	2534.041845
957.902724	2534.760209
958.202861	2532.862215
958.502960	2530.472708
958.803022	2533.867925
959.103045	2531.818696
959.403031	2534.767771
959.702979	2531.748120
960.002889	2533.071423
960.302762	2532.085877
960.602596	2530.843233
960.902393	2532.680733
961.202153	2531.614529
961.501875	2533.459592
961.801559	2532.133768
962.101205	2531.415404
962.400814	2531.639735
962.700385	2531.632173
962.999918	2530.954138
963.299414	2532.123686
963.598873	2534.087215
963.898293	2530.404652
964.197677	2531.833820
964.497022	2532.312729
964.796331	2530.961700
965.095601	2531.178470
965.394835	2532.791639
965.694030	2532.403470
965.993189	2532.373223
966.292309	2530.616381
966.591393	2529.845084
966.890439	2530.996988
967.189447	2529.653521
967.488419	2533.313398
967.787353	2530.349200
968.086249	2531.208717
968.385108	2532.688295
968.683930	2531.029756
968.982714	2533.729293
969.281462	2531.770805
969.580172	2530.707122
969.878844	2532.453882
970.177480	2532.025383
970.476078	2531.995137
970.774639	2532.491690
971.073162	2532.211906
971.371649	2529.144364
971.670098	2529.948428
971.968510	2531.511186
972.266885	2524.609846
972.565223	2529.595547
972.863524	2530.505476
973.161788	2532.542102
973.460014	2530.457585
973.758204	2533.179808
974.056356	2531.793490
974.354471	2531.155784
974.652550	2529.497245
974.950591	2532.443799
975.248595	2531.304498
975.546563	2531.506145
975.844493	2530.896165
976.142386	2532.443799
976.440243	2530.755013
976.738062	2531.538912
977.035845	2530.525640
977.333590	2531.392719
977.631299	2532.297606
977.928971	2531.559077
978.226606	2528.862059
978.524204	2530.316432
978.821765	2529.472039
979.119290	2531.168387
979.416777	2530.051772
979.714228	2533.565456
980.011642	2529.232584
980.309020	2529.880373
980.606360	2530.858356
980.903664	2531.584283
981.200931	2530.117307
981.498162	2529.933305
981.795356	2533.757020
982.092513	2533.257946
982.389633	2530.044210
982.686717	2532.700898
982.983764	2533.603265
983.280775	2533.520086
983.577749	2534.548481
983.874686	2530.651669
984.171587	2535.536547
984.468451	2532.373223
984.765279	2529.257790
985.062070	2531.828778
985.358824	2531.158305
985.655543	2530.152595
985.952224	2528.524302
986.248869	2530.573531
986.545478	2526.142357
986.842050	2526.228057
987.138586	2527.256452
987.435086	2527.339631
987.731549	2525.048427
988.027975	2529.930784
988.324366	2529.207378
988.620719	2531.158305
988.917037	2530.331556
989.213318	2526.946421
989.509563	2527.632018
989.805772	2527.642100
990.101944	2528.428520
990.398080	2530.344159
990.694180	2529.681247
990.990244	2530.823068
991.286271	2527.939528
991.582262	2528.115969
991.878217	2528.511699
992.174136	2527.803417
992.470019	2528.978006
992.765865	2529.116638
993.061676	2529.436751
993.357450	2529.996319
993.653188	2526.525485
993.948890	2529.507327
994.244556	2528.325177
994.540186	2529.028418
994.835780	2527.621936
995.131337	2531.007070
995.426859	2528.705784
995.722345	2528.342821
996.017795	2530.399611
996.313208	2529.582944
996.608586	2530.815507
996.903928	2530.618902
997.199234	2530.465146
997.494504	2530.175280
997.789738	2529.363654
998.084936	2529.945907
998.380099	2530.626463
998.675225	2525.769312
998.970316	2529.398942
999.265371	2526.414579
999.560390	2529.298119
999.855373	2527.417769
1000.150320	2528.642769
1000.445232	2529.272913
1000.740108	2530.323994
1001.034948	2531.367513
1001.329752	2526.580937
1001.624521	2531.969931
1001.919254	2523.899043
1002.213951	2525.335772
1002.508613	2522.676564
1002.803239	2525.799558
1003.097829	2521.779238
1003.392384	2528.126051
1003.686903	2526.197810
1003.981386	2530.245856
1004.275834	2525.728982
1004.570246	2529.882893
1004.864623	2525.948273
1005.158964	2529.000691
1005.453270	2527.158149
1005.747540	2527.032121
1006.041775	2526.964065
1006.335974	2526.807789
1006.630138	2528.002543
1006.924266	2527.937008
1007.218359	2525.620598
1007.512416	2528.589837
1007.806438	2525.476925
1008.100425	2526.976668
1008.394376	2527.531195
1008.688292	2527.790814
1008.982172	2527.178314
1009.276017	2527.977337
1009.569827	2528.549508
1009.863602	2529.046062
1010.157341	2527.715197
1010.451045	2529.204858
1010.744714	2529.698891
1011.038347	2527.432892
1011.331945	2528.635208
1011.625508	2526.782583
1011.919036	2527.843746
1012.212528	2528.305012
1012.505986	2528.123530
1012.799408	2527.672347
1013.092795	2526.890968
1013.386147	2527.745444
1013.679464	2527.349713
1013.972745	2528.438602
1014.265992	2527.180835
1014.559204	2529.862728
1014.852380	2529.590506
1015.145521	2528.703263
1015.438628	2526.071781
1015.731699	2525.948273
1016.024736	2526.613705
1016.317737	2527.722759
1016.610703	2529.298119
1016.903635	2524.604805
1017.196531	2523.780576
1017.489393	2525.103879
1017.782219	2522.215298
1018.075011	2525.101359
1018.367768	2525.459281
1018.660490	2528.211751
1018.953177	2528.211751
1019.245829	2528.211751
