Dividing Wavelength (nm)	Counts (n)	Blue Motor Position (mm): 0.000000	Red Motor Position (mm): 35.000000	
326.493990	2124.891717
326.888308	2124.891717
327.282561	2124.891717
327.676750	2094.347365
328.070874	2093.606316
328.464933	2096.618405
328.858929	2101.946905
329.252859	2114.680859
329.646726	2124.327107
330.040528	2138.522997
330.434265	2153.974133
330.827938	2169.465599
331.221547	2188.001922
331.615091	2207.848944
332.008571	2225.092211
332.401986	2249.619945
332.795338	2267.221134
333.188625	2285.916253
333.581847	2304.903759
333.975006	2320.654844
334.368100	2340.839624
334.761129	2360.943745
335.154095	2374.259953
335.546996	2393.693601
335.939833	2414.858886
336.332606	2427.784404
336.725315	2439.197577
337.117960	2454.066460
337.510540	2459.213478
337.903056	2467.551546
338.295508	2476.827269
338.687896	2483.985708
339.080220	2493.705053
339.472480	2499.338542
339.864676	2507.243071
340.256807	2511.467558
340.648875	2512.508556
341.040879	2517.809330
341.432818	2514.988804
341.824694	2517.942920
342.216506	2519.067097
342.608253	2518.033661
342.999937	2518.802437
343.391557	2520.216481
343.783113	2516.475944
344.174605	2519.798065
344.566033	2512.324554
344.957397	2514.706499
345.348697	2510.320696
345.739934	2511.021416
346.131106	2510.613083
346.522215	2507.139728
346.913260	2506.320540
347.304241	2503.794922
347.695159	2502.544716
348.086012	2501.786022
348.476802	2498.267297
348.867528	2497.984992
349.258191	2493.185814
349.648789	2496.132368
350.039324	2492.359064
350.429796	2493.737820
350.820203	2487.151553
351.210548	2491.005515
351.600828	2488.547952
351.991045	2490.783704
352.381198	2487.829588
352.771288	2490.614825
353.161314	2486.425626
353.551276	2487.149032
353.941175	2487.234732
354.331010	2491.623056
354.720782	2488.933600
355.110490	2489.639362
355.500135	2486.748260
355.889717	2488.235401
356.279235	2487.701038
356.668689	2488.356388
357.058080	2485.019144
357.447408	2488.084166
357.836672	2486.176089
358.225873	2487.499392
358.615010	2486.448312
359.004084	2492.550628
359.393095	2491.144146
359.782043	2492.656493
360.170927	2492.182624
360.559748	2493.029538
360.948505	2492.381750
361.337199	2496.238232
361.725830	2495.464415
362.114398	2494.998108
362.502903	2496.260918
362.891344	2498.547081
363.279722	2497.795949
363.668037	2499.953563
364.056289	2498.284941
364.444478	2498.877276
364.832603	2498.171515
365.220665	2500.871053
365.608665	2500.760147
365.996601	2502.917761
366.384474	2501.917092
366.772284	2507.994203
367.160031	2506.403719
367.547715	2508.087464
367.935336	2512.112826
368.322893	2513.965450
368.710388	2515.959226
369.097820	2527.810979
369.485189	2527.183355
369.872495	2532.653007
370.259738	2538.185673
370.646918	2546.680018
371.034035	2555.978426
371.421090	2563.867832
371.808081	2575.182702
372.195010	2584.022365
372.581875	2595.281782
372.968678	2609.182764
373.355418	2616.880606
373.742096	2638.701240
374.128710	2653.731440
374.515262	2668.844819
374.901751	2683.408713
375.288177	2692.676874
375.674540	2717.280226
376.060841	2737.154975
376.447079	2755.096441
376.833254	2775.503032
377.219367	2789.797224
377.605417	2824.654282
377.991404	2834.756754
378.377329	2855.211236
378.763191	2873.417363
379.148991	2911.208373
379.534727	2935.962959
379.920402	2964.508493
380.306013	2977.476861
380.691563	3028.962165
381.077049	3047.143086
381.462474	3069.364493
381.847835	3108.738425
382.233134	3129.518061
382.618371	3124.915487
383.003545	3197.069522
383.388657	3202.430789
383.773706	3236.014956
384.158693	3254.372318
384.543618	3278.763941
384.928480	3315.829025
385.313280	3360.425592
385.698017	3358.509954
386.082692	3409.286976
386.467305	3414.605393
386.851856	3450.160651
387.236344	3473.526399
387.620770	3503.110411
388.005133	3529.551262
388.389435	3555.992114
388.773674	3568.504258
389.157851	3610.423973
389.541965	3623.672125
389.926018	3588.603339
390.310008	3660.336437
390.693936	3678.703881
391.077802	3717.853482
391.461606	3711.231927
391.845348	3773.482615
392.229027	3774.309364
392.612645	3785.714975
392.996200	3862.164073
393.379694	3900.892737
393.763125	3965.691729
394.146494	3934.514713
394.529801	3993.561748
394.913047	4042.655024
395.296230	4010.557998
395.679351	4066.421544
396.062410	4088.458948
396.445408	4071.450095
396.828343	4099.791462
397.211217	4128.896564
397.594028	4049.238771
397.976778	4115.353504
398.359466	4140.849140
398.742092	4166.916946
399.124656	4091.559258
399.507158	4168.726720
399.889598	4196.180844
400.271977	4260.304321
400.654294	4230.541349
401.036549	4238.208944
401.418742	4205.383471
401.800874	4306.970282
402.182944	4327.954085
402.564952	4394.278026
402.946898	4382.045666
403.328783	4378.831930
403.710606	4292.605514
404.092367	4478.969410
404.474067	4448.959422
404.855705	4456.551399
405.237282	4385.040111
405.618797	4496.313500
406.000250	4526.966236
406.381642	4606.969348
406.762972	4569.891661
407.144240	4580.223506
407.525447	4578.012960
407.906593	4639.015963
408.287677	4681.764947
408.668700	4611.892034
409.049661	4656.801153
409.430560	4704.959296
409.811399	4631.436588
410.192176	4793.345847
410.572891	4730.233121
410.953545	4835.290767
411.334138	4713.602354
411.714669	4783.936533
412.095139	4679.206562
412.475547	4820.126976
412.855894	4800.100993
413.236180	4806.470491
413.616405	4761.478192
413.996568	4849.537068
414.376670	4793.134118
414.756711	4746.178291
415.136691	4779.586017
415.516609	4854.880691
415.896466	4895.212442
416.276262	4929.693935
416.655997	4909.037807
417.035670	5091.366259
417.415283	5179.513355
417.794834	5122.800374
418.174324	5079.048200
418.553753	4984.924816
418.933121	5172.478424
419.312428	5238.963682
419.691674	5177.166697
420.070859	5303.520698
420.449983	5215.653387
420.829045	5329.381817
421.208047	5237.398404
421.586988	5309.580165
421.965867	5319.420497
422.344686	5455.544254
422.723444	5304.788548
423.102141	5125.729284
423.480777	5422.839768
423.859352	5190.671949
424.237866	5449.348676
424.616319	5443.798366
424.994712	5551.162340
425.373044	5427.601138
425.751314	5574.936421
426.129524	5375.515937
426.507673	5571.153035
426.885762	5654.929450
427.263789	5585.399336
427.641756	5468.457170
428.019662	5587.829172
428.397508	5592.658597
428.775292	5542.299991
429.153016	5638.870855
429.530679	5566.111881
429.908282	5650.977186
430.285824	5521.278380
430.663305	5795.093692
431.040726	5529.881109
431.418086	5531.642992
431.795385	5640.922604
432.172624	5647.776053
432.549802	5642.258510
432.926920	5656.998844
433.303977	5666.128374
433.680974	5704.655392
434.057910	5717.109562
434.434786	5726.682714
434.811601	5699.024423
435.188355	5930.368014
435.565050	5804.535773
435.941683	5790.271828
436.318257	6001.102964
436.694770	5982.291899
437.071222	6018.169791
437.447614	5951.051868
437.823946	5858.259350
438.200218	6014.096538
438.576429	5881.451178
438.952580	5977.737216
439.328670	6022.784967
439.704700	5931.829949
440.080670	5919.320326
440.456580	6188.291089
440.832429	6076.004428
441.208218	5920.184883
441.583947	6074.093831
441.959616	6083.566159
442.335224	6006.076063
442.710773	6138.613038
443.086261	6169.217883
443.461689	5965.426719
443.837057	6110.480879
444.212365	6266.292862
444.587612	6158.644063
444.962800	6315.703732
445.337927	6292.148941
445.712995	5904.322893
446.088002	6481.976109
446.462949	6309.195602
446.837837	6238.233800
447.212664	6415.904226
447.587431	6557.459826
447.962139	7102.025429
448.336786	8025.128754
448.711374	7765.887418
449.085901	6838.186561
449.460369	6761.964314
449.834776	6696.966197
450.209124	7085.185455
450.583412	7236.399906
450.957640	7380.614714
451.331808	7148.625856
451.705917	6698.798657
452.079965	6619.531554
452.453954	6834.219173
452.827883	6710.471448
453.201752	6805.635830
453.575562	6604.239213
453.949311	6808.128681
454.323001	6697.576177
454.696632	6767.287773
455.070202	6912.485607
455.443713	7065.976138
455.817164	7168.160327
456.190556	7245.932728
456.563888	7317.736402
456.937160	7368.899073
457.310373	7024.328646
457.683526	7049.007614
458.056619	6937.308248
458.429653	6931.216014
458.802628	6863.266301
459.175542	6966.559543
459.548398	7324.113462
459.921194	7485.677402
460.293930	7487.857701
460.666607	8020.193465
461.039224	8325.815937
461.411782	8454.826626
461.784280	8473.864543
462.156719	8361.872790
462.529099	8241.311075
462.901419	7826.469484
463.273680	7719.917136
463.645882	7732.114208
464.018024	7602.024712
464.390106	7769.285155
464.762130	8156.294536
465.134094	8624.587482
465.505999	9652.146035
465.877845	10871.454957
466.249631	11510.564879
466.621358	11131.616304
466.993026	10496.342699
467.364634	10245.920861
467.736184	9880.616168
468.107674	9548.283142
468.479105	9580.554088
468.850477	9346.326957
469.221790	9113.917162
469.593043	8787.013458
469.964238	8647.759145
470.335373	8659.560486
470.706449	8714.322541
471.077467	8700.784522
471.448425	10013.042238
471.819324	11082.139899
472.190164	11114.345311
472.560945	9859.755873
472.931667	9071.765554
473.302330	8937.386037
473.672934	8581.369670
474.043479	8941.459289
474.413965	8879.788333
474.784393	8761.795086
475.154761	8918.138911
475.525070	9008.083178
475.895321	8840.306016
476.265513	9012.232048
476.635645	9180.626751
477.005719	9173.889249
477.375734	9287.927710
477.745691	9525.812199
478.115588	9664.053240
478.485427	9901.821782
478.855207	10441.371437
479.224928	11258.668504
479.594591	11882.208823
479.964194	11697.097654
480.333739	11631.648354
480.703226	11555.035418
481.072653	11639.341154
481.442022	11879.426106
481.811333	12067.609859
482.180584	11870.009231
482.549777	11585.673031
482.918912	11403.289126
483.287988	11426.359966
483.657005	11441.022162
484.025964	11122.383430
484.394864	11258.116498
484.763706	11230.717827
485.132489	10975.423713
485.501213	10944.460947
485.869879	11020.912565
486.238487	10859.242761
486.607036	10971.302570
486.975527	10744.644732
487.343959	10939.931470
487.712333	10983.408901
488.080648	10922.032853
488.448905	10958.218255
488.817104	10899.193906
489.185244	11170.778507
489.553326	11320.122690
489.921350	11855.331912
490.289315	12912.920618
490.657222	13260.412394
491.025070	13167.511490
491.392861	13041.810319
491.760593	12667.315603
492.128267	12314.457519
492.495883	11978.845222
492.863440	11650.305664
493.230939	11311.522482
493.598380	11248.815569
493.965763	11113.014446
494.333088	11006.141984
494.700354	10937.980543
495.067563	10999.220480
495.434713	10822.056690
495.801805	10956.899994
496.168839	10874.671213
496.535815	10807.550770
496.902733	10810.726697
497.269593	10737.274565
497.636395	10843.617705
498.003139	10820.531741
498.369825	10698.412310
498.736453	10854.103305
499.103023	10776.194793
499.469535	10812.143261
499.835989	10790.962853
500.202385	10754.444735
500.568723	10608.314287
500.935003	10824.443676
501.301226	10626.472524
501.667390	10888.862061
502.033497	10986.922585
502.399546	10837.923722
502.765537	10747.182953
503.131470	10823.558954
503.497345	10985.816052
503.863163	10598.017731
504.228923	10908.207489
504.594625	10972.562859
504.960269	10714.417973
505.325856	10938.003228
505.691385	10722.824097
506.056856	10870.144257
506.422270	10895.541590
506.787625	10778.491038
507.152924	10887.687472
507.518164	10865.292146
507.883347	10785.079827
508.248472	10700.537156
508.613540	10929.730695
508.978550	10803.477518
509.343503	10778.191090
509.708398	10889.252750
510.073236	10989.425518
510.438016	10987.784623
510.802738	10932.077352
511.167403	10972.988836
511.532010	10872.987467
511.896561	11093.258164
512.261053	11156.781744
512.625488	11013.852429
512.989866	10980.727007
513.354186	10961.058946
513.718449	10858.892401
514.082655	11041.135154
514.446803	10929.675242
514.810894	11031.559482
515.174927	10891.927082
515.538904	10905.334031
515.902822	11033.643999
516.266684	10920.961608
516.630488	10851.040804
516.994235	10889.535055
517.357925	10929.135839
517.721558	11003.707107
518.085133	11008.503765
518.448651	11004.654844
518.812112	10875.382015
519.175516	10874.950997
519.538863	10967.962806
519.902152	10866.353309
520.265385	10999.079328
520.628560	10895.869265
520.991678	10851.802018
521.354739	10904.131716
521.717743	10813.970679
522.080690	10778.959866
522.443580	10875.313960
522.806413	10811.029166
523.169189	10815.215844
523.531908	10848.026194
523.894569	10651.572429
524.257174	10637.280758
524.619722	10712.164577
524.982213	10652.747017
525.344647	10653.588890
525.707025	10598.194171
526.069345	10649.147634
526.431608	10533.891733
526.793815	10609.463671
527.155964	10393.273788
527.518057	10409.581921
527.880093	10327.786679
528.242072	10367.072391
528.603995	10238.855684
528.965860	10134.249221
529.327669	10146.131221
529.689421	10071.857380
530.051117	10017.501139
530.412755	10063.289939
530.774337	9935.789076
531.135862	9874.743224
531.497331	9862.528508
531.858743	9699.109424
532.220098	9796.996029
532.581396	9654.598556
532.942638	9599.173590
533.303824	9532.625318
533.664953	9495.703907
534.026025	9380.281649
534.387040	9424.280840
534.747999	9383.162668
535.108902	9390.898319
535.469748	9157.457608
535.830537	9191.785345
536.191270	9126.819995
536.551947	9104.633877
536.912567	9054.489520
537.273131	8960.255231
537.633638	8899.491683
537.994089	8835.141354
538.354483	8754.377028
538.714821	8821.608377
539.075103	8788.377091
539.435328	8705.440027
539.795497	8541.607569
540.155609	8604.818597
540.515665	8629.172411
540.875665	8391.545022
541.235609	8382.392807
541.595496	8335.273142
541.955328	8388.651399
542.315102	8267.119262
542.674821	8186.060029
543.034483	8137.289386
543.394090	8090.971265
543.753640	7989.175245
544.113134	8073.329747
544.472571	7940.500384
544.831953	7970.457441
545.191278	7797.162736
545.550548	7769.000330
545.909761	7806.874519
546.268918	7723.882003
546.628019	7732.915751
546.987064	7588.118689
547.346053	7496.959504
547.704986	7493.957497
548.063863	7440.128056
548.422684	7394.082157
548.781449	7282.831453
549.140158	7294.146323
549.498811	7170.154103
549.857408	7042.088631
550.215949	7101.370079
550.574434	6980.011862
550.932864	6974.632951
551.291237	6966.113401
551.649555	6867.732763
552.007817	6832.742114
552.366022	6771.406396
552.724173	6710.945317
553.082267	6665.143914
553.440305	6664.738101
553.798288	6538.152207
554.156215	6543.405089
554.514086	6488.232181
554.871902	6367.894798
555.229661	6334.219890
555.587365	6284.027642
555.945014	6192.621440
556.302606	6183.990985
556.660143	6105.560713
557.017625	6105.472493
557.375050	6021.325553
557.732421	6029.041039
558.089735	5939.888233
558.446994	5893.204628
558.804197	5862.680442
559.161345	5803.580474
559.518437	5716.706270
559.875474	5690.703999
560.232455	5655.148741
560.589381	5599.953147
560.946251	5526.289287
561.303065	5542.862080
561.659825	5461.689421
562.016528	5393.313730
562.373177	5313.482018
562.729770	5293.597187
563.086307	5225.818873
563.442789	5225.173606
563.799216	5124.879850
564.155587	5104.448053
564.511904	5033.733268
564.868164	4996.264892
565.224370	4964.102330
565.580520	4886.435793
565.936615	4868.350654
566.292654	4775.485038
566.648638	4781.819248
567.004567	4727.180702
567.360441	4686.561605
567.716260	4618.289259
568.072023	4614.097539
568.427732	4553.896080
568.783385	4511.159698
569.138982	4480.718691
569.494525	4449.967652
569.850013	4387.502715
570.205445	4372.477556
570.560823	4320.868743
570.916145	4266.648613
571.271412	4249.574225
571.626625	4200.430537
571.981782	4167.093387
572.336884	4125.390441
572.691931	4105.838326
573.046923	4053.032240
573.401860	4019.352291
573.756743	3974.511227
574.111570	3955.468269
574.466342	3925.307045
574.821059	3903.216709
575.175722	3856.076879
575.530330	3825.777024
575.884882	3802.567552
576.239380	3759.533742
576.593823	3729.687591
576.948211	3705.903427
577.302544	3669.818848
577.656823	3640.819610
578.011047	3618.265488
578.365216	3593.238680
578.719330	3563.538722
579.073389	3535.265410
579.427394	3510.962008
579.781344	3490.356291
580.135239	3456.779686
580.489080	3441.641101
580.842866	3406.000143
581.196597	3389.830643
581.550273	3375.788508
581.903895	3351.341433
582.257463	3345.554188
582.610975	3314.475475
582.964434	3301.330666
583.317837	3271.066099
583.671186	3256.048502
584.024481	3235.125193
584.377721	3214.940413
584.730906	3195.985674
585.084037	3184.338088
585.437113	3164.480983
585.790135	3152.351967
586.143103	3127.960344
586.496016	3115.443159
586.848874	3100.186107
587.201679	3087.036257
587.554428	3062.153122
587.907124	3057.847977
588.259765	3041.338198
588.612352	3032.478370
588.964884	3015.403982
589.317362	3006.115656
589.669786	2993.631238
590.022155	2987.216370
590.374470	2980.322592
590.726731	2963.444809
591.078937	2941.089812
591.431090	2939.209462
591.783188	2920.577357
592.135232	2908.702919
592.487222	2901.781415
592.839157	2896.427710
593.191038	2886.284908
593.542866	2873.187991
593.894639	2860.806917
594.246358	2855.428006
594.598022	2849.708817
594.949633	2831.454798
595.301190	2826.539673
595.652692	2820.124805
596.004141	2816.966522
596.355535	2800.398770
596.706876	2795.024900
597.058162	2784.859413
597.409395	2782.293466
597.760573	2778.449586
598.111698	2768.836106
598.462768	2760.828233
598.813785	2757.828747
599.164748	2749.130236
599.515657	2746.125708
599.866511	2737.611199
600.217312	2740.222517
600.568060	2726.177862
600.918753	2725.585527
601.269392	2722.969168
601.619978	2714.772252
601.970510	2716.370297
602.320988	2711.689586
602.671412	2708.559029
603.021783	2702.514686
603.372100	2697.876824
603.722363	2696.523275
604.072572	2690.829291
604.422728	2691.845084
604.772830	2684.459793
605.122878	2679.411078
605.472872	2674.639626
605.822813	2673.719615
606.172701	2671.095695
606.522534	2671.753565
606.872314	2672.048473
607.222041	2668.002947
607.571714	2667.655107
607.921333	2664.330466
608.270899	2660.020280
608.620411	2657.850063
608.969870	2659.024652
609.319276	2657.461894
609.668627	2657.101452
610.017926	2656.146153
610.367171	2660.113541
610.716362	2655.400062
611.065500	2650.830256
611.414585	2649.179278
611.763616	2649.075935
612.112594	2645.353042
612.461518	2645.874802
612.810389	2643.686941
613.159207	2641.100829
613.507971	2638.250057
613.856682	2640.392547
614.205340	2639.701909
614.553945	2637.438431
614.902496	2636.979686
615.250994	2635.399284
615.599439	2634.617905
615.947830	2633.460961
616.296169	2633.589510
616.644454	2631.691516
616.992686	2633.975158
617.340864	2631.943573
617.688990	2629.586834
618.037063	2632.646814
618.385082	2629.569190
618.733048	2628.001391
619.080961	2628.094652
619.428821	2625.954682
619.776628	2627.063736
620.124382	2628.147584
620.472083	2626.683129
620.819731	2625.490896
621.167326	2621.251286
621.514868	2622.259517
621.862357	2616.956223
622.209793	2619.953189
622.557176	2617.941768
622.904506	2615.464041
623.251783	2611.617641
623.599007	2612.996397
623.946179	2610.536313
624.293297	2614.188629
624.640363	2609.039091
624.987376	2608.789554
625.334336	2610.579163
625.681243	2606.495829
626.028097	2608.217383
626.374899	2607.730911
626.721647	2607.582197
627.068343	2605.308637
627.414987	2604.703698
627.761577	2604.045828
628.108115	2604.872577
628.454600	2602.309150
628.801032	2602.319233
629.147412	2601.918461
629.493739	2605.374172
629.840014	2600.844695
630.186236	2604.761672
630.532405	2601.300920
630.878521	2602.034407
631.224585	2603.211517
631.570597	2596.847060
631.916556	2598.981989
632.262462	2597.046186
632.608316	2598.329159
632.954117	2595.906885
633.299866	2598.092225
633.645562	2596.736155
633.991206	2597.197420
634.336797	2589.406317
634.682336	2594.949066
635.027823	2589.648292
635.373257	2594.134919
635.718639	2592.294898
636.063968	2591.379929
636.409245	2591.009404
636.754470	2589.464290
637.099642	2588.113261
637.444762	2591.377408
637.789829	2589.071080
638.134845	2587.740216
638.479808	2586.081676
638.824719	2590.439754
639.169577	2587.520926
639.514383	2589.905391
639.859137	2582.381469
640.203839	2585.925400
640.548489	2586.248034
640.893086	2586.447160
641.237632	2582.900708
641.582125	2580.889288
641.926566	2579.437435
642.270955	2586.210226
642.615292	2584.718044
642.959576	2582.820050
643.303809	2586.744588
643.647990	2586.532859
643.992118	2584.221490
644.336195	2584.748291
644.680219	2582.527663
645.024192	2582.326017
645.368112	2585.144022
645.711981	2585.617890
646.055797	2586.174937
646.399562	2585.333065
646.743274	2586.381625
647.086935	2585.857345
647.430544	2585.827098
647.774101	2586.991604
648.117606	2585.383476
648.461059	2587.778024
648.804460	2585.955647
649.147810	2583.515729
649.491108	2585.267530
649.834354	2585.605287
650.177548	2583.482961
650.520690	2581.922724
650.863781	2583.495564
651.206820	2585.592684
651.549807	2581.978177
651.892742	2578.928279
652.235626	2581.481623
652.578458	2581.867272
652.921238	2578.688824
653.263967	2581.504308
653.606644	2581.658064
653.949269	2580.992631
654.291843	2578.194791
654.634365	2579.603793
654.976836	2577.582291
655.319255	2580.985070
655.661622	2578.187229
656.003938	2577.874678
656.346203	2577.307548
656.688416	2576.516087
657.030577	2577.471385
657.372687	2576.979873
657.714746	2578.835017
658.056753	2577.736046
658.398708	2571.288410
658.740612	2577.297466
659.082465	2576.392578
659.424266	2576.080027
659.766016	2570.839747
660.107715	2575.913669
660.449362	2573.929975
660.790958	2575.593556
661.132503	2578.588001
661.473996	2579.150090
661.815438	2578.461972
662.156829	2576.949626
662.498168	2573.214131
662.839456	2577.403330
663.180693	2574.718915
663.521879	2578.192270
663.863013	2577.599935
664.204097	2576.979873
664.545129	2576.392578
664.886110	2578.867785
665.227040	2579.719740
665.567918	2579.399627
665.908746	2578.555233
666.249522	2576.180850
666.590248	2576.430387
666.930922	2576.823597
667.271545	2576.523648
667.612118	2579.603793
667.952639	2579.969277
668.293109	2580.551530
668.633528	2576.722774
668.973896	2576.112794
669.314213	2578.746797
669.654480	2576.816035
669.994695	2576.450552
670.334859	2579.709658
670.674973	2576.863926
671.015035	2578.557754
671.355047	2579.628999
671.695008	2577.418453
672.034918	2577.284863
672.374777	2576.773186
672.714585	2576.511046
673.054342	2577.231931
673.394049	2577.602455
673.733705	2579.997003
674.073310	2577.315110
674.412864	2577.373083
674.752368	2575.097002
675.091820	2572.659604
675.431223	2573.866960
675.770574	2576.352249
676.109875	2569.125755
676.449125	2572.939388
676.788324	2571.744635
677.127473	2571.691702
677.466571	2569.203893
677.805619	2573.498956
678.144616	2574.156827
678.483562	2577.017682
678.822458	2573.801425
679.161303	2576.392578
679.500098	2573.773699
679.838842	2572.825962
680.177535	2570.817062
680.516179	2573.219172
680.854771	2576.223700
681.193314	2576.813515
681.531805	2574.913000
681.870247	2574.887794
682.208638	2578.247723
682.546978	2577.473906
682.885268	2579.097157
683.223508	2577.738567
683.561697	2575.848134
683.899836	2576.448031
684.237925	2576.377455
684.575963	2575.192784
684.913951	2574.925603
685.251889	2576.216138
685.589776	2573.272104
685.927614	2576.579101
686.265401	2577.748649
686.603137	2578.890470
686.940824	2575.427197
687.278460	2577.564647
687.616046	2577.743608
687.953582	2578.535069
688.291068	2577.783937
688.628504	2578.401478
688.965889	2577.859554
689.303224	2578.847620
689.640510	2575.583473
689.977745	2576.569019
690.314930	2572.420149
690.652065	2573.554409
690.989150	2573.723287
691.326185	2572.841086
691.663170	2571.497618
692.000105	2572.868812
692.336990	2568.210786
692.673825	2570.464182
693.010610	2570.005437
693.347345	2567.741958
693.684030	2564.112328
694.020665	2564.881104
694.357251	2561.407749
694.693786	2563.464539
695.030272	2566.731207
695.366707	2566.337997
695.703093	2566.317832
696.039429	2566.756413
696.375716	2566.088460
696.711952	2566.809345
697.048139	2565.317163
697.384276	2565.937225
697.720363	2566.027966
698.056400	2563.943449
698.392388	2564.719787
698.728326	2565.778429
699.064214	2566.073337
699.400053	2565.380178
699.735842	2566.751372
700.071581	2562.821792
700.407270	2565.397822
700.742910	2562.156360
701.078501	2561.511092
701.414042	2562.103428
701.749533	2562.945301
702.084974	2563.525033
702.420366	2563.552760
702.755709	2563.063768
703.091002	2560.124775
703.426246	2562.282389
703.761440	2563.136864
704.096584	2566.302709
704.431679	2561.513613
704.766725	2561.092677
705.101721	2558.042778
705.436668	2561.080074
705.771565	2560.021431
706.106413	2561.165773
706.441212	2561.064950
706.775961	2560.946483
707.110661	2560.427244
707.445311	2560.880948
707.779913	2562.486556
708.114465	2561.816082
708.448967	2562.645352
708.783421	2563.938408
709.117825	2563.494786
709.452180	2563.051165
709.786485	2565.097873
710.120742	2565.077709
710.454949	2568.747669
710.789107	2563.961093
711.123216	2562.733572
711.457275	2564.634087
711.791286	2565.410425
712.125247	2564.482853
712.459159	2565.914540
712.793023	2570.010478
713.126837	2564.553429
713.460602	2566.953018
713.794318	2567.988975
714.127985	2564.865980
714.461602	2566.403532
714.795171	2566.761454
715.128691	2564.558470
715.462162	2564.261042
715.795584	2563.094015
716.128957	2562.438665
716.462281	2564.702143
716.795556	2561.634601
717.128782	2562.494117
717.461960	2560.543191
717.795088	2559.474466
718.128167	2561.221226
718.461198	2559.252655
718.794180	2559.756771
719.127113	2561.271638
719.459997	2559.600495
719.792833	2556.696790
720.125619	2557.334496
720.458357	2556.797613
720.791046	2559.434137
721.123686	2556.560679
721.456278	2559.474466
721.788821	2556.212840
722.121315	2558.262069
722.453761	2555.249979
722.786158	2556.086811
723.118506	2556.795093
723.450805	2561.034703
723.783056	2557.939435
724.115259	2554.758467
724.447412	2559.398849
724.779518	2557.846173
725.111574	2557.374826
725.443582	2558.660320
725.775542	2555.159238
726.107453	2559.580330
726.439315	2559.166956
726.771129	2562.352965
727.102895	2556.464897
727.434612	2559.832388
727.766281	2561.717780
728.097901	2559.035886
728.429473	2556.447253
728.760996	2560.220557
729.092471	2554.690411
729.423897	2558.872048
729.755276	2556.953889
730.086606	2559.474466
730.417887	2560.432285
730.749120	2563.162070
731.080305	2560.364230
731.411442	2561.133006
731.742530	2561.478325
732.073570	2565.012174
732.404562	2562.156360
732.735506	2563.162070
733.066401	2562.499158
733.397249	2562.199210
733.728048	2561.175856
734.058798	2561.148129
734.389501	2555.527243
734.720156	2558.103272
735.050762	2555.512119
735.381320	2556.444733
735.711831	2556.739640
736.042293	2557.447922
736.372707	2552.744526
736.703073	2554.443395
737.033391	2556.515309
737.363661	2556.263251
737.693883	2555.186965
738.024056	2557.137891
738.354182	2554.143446
738.684260	2558.849363
739.014290	2558.582182
739.344272	2557.190823
739.674207	2558.108313
740.004093	2557.558828
740.333931	2557.480690
740.663722	2559.734086
740.993464	2555.612942
741.323159	2558.859445
741.652806	2556.074208
741.982405	2556.956410
742.311956	2555.244938
742.641460	2559.630742
742.970915	2558.025134
743.300323	2555.738971
743.629683	2555.769218
743.958996	2554.345092
744.288260	2554.745864
744.617477	2553.762839
744.946647	2548.240255
745.275768	2553.331820
745.604842	2547.171530
745.933869	2552.550441
746.262847	2549.666901
746.591778	2556.033879
746.920662	2554.211502
747.249498	2556.384239
747.578286	2551.511964
747.907027	2555.302911
748.235720	2553.616645
748.564365	2556.689229
748.892963	2554.519012
749.221514	2554.435833
749.550017	2553.304094
749.878473	2553.175544
750.206881	2552.043805
750.535242	2554.660164
750.863555	2553.833415
751.191821	2551.655637
751.520039	2554.095555
751.848210	2554.579506
752.176334	2550.405430
752.504411	2551.925338
752.832440	2554.889537
753.160421	2553.404917
753.488356	2549.513146
753.816243	2553.067160
754.144082	2552.177396
754.471875	2553.215874
754.799620	2554.866852
755.127318	2550.423074
755.454969	2552.729402
755.782572	2552.341233
756.110129	2552.237890
756.437638	2553.654454
756.765100	2552.363919
757.092515	2551.290153
757.419882	2551.189330
757.747203	2553.974567
758.074477	2553.039433
758.401703	2551.847200
758.728882	2550.279402
759.056014	2554.367777
759.383099	2553.783003
759.710138	2552.172355
760.037129	2552.182437
760.364073	2553.414999
760.690970	2552.101779
761.017820	2552.066491
761.344623	2556.608570
761.671379	2552.167314
761.998088	2547.118598
762.324751	2553.939279
762.651366	2557.193344
762.977935	2569.768502
763.304456	2573.307392
763.630931	2579.555903
763.957359	2572.049624
764.283740	2569.602144
764.610074	2565.090312
764.936362	2562.002605
765.262602	2556.908519
765.588796	2555.096224
765.914943	2555.481872
766.241044	2550.649926
766.567097	2552.603373
766.893104	2549.651778
767.219064	2552.177396
767.544978	2550.294525
767.870845	2548.797302
768.196665	2548.061294
768.522438	2548.159596
768.848165	2545.606252
769.173846	2550.281922
769.499479	2548.578012
769.825066	2547.416026
770.150607	2548.751932
770.476101	2548.509957
770.801548	2551.126315
771.126949	2546.082641
771.452303	2549.462735
771.777611	2545.492826
772.102872	2543.892260
772.428087	2546.760676
772.753256	2548.658671
773.078378	2548.245296
773.403453	2545.487785
773.728482	2544.691283
774.053465	2544.605583
774.378401	2546.261602
774.703291	2545.596170
775.028135	2547.600028
775.352932	2543.844369
775.677683	2546.450645
776.002388	2544.361087
776.327046	2545.931406
776.651658	2545.853268
776.976224	2541.346477
777.300743	2546.838814
777.625216	2541.969059
777.949643	2544.300593
778.274024	2542.745397
778.598359	2542.082485
778.922647	2541.742207
779.246889	2540.018133
779.571086	2539.526620
779.895236	2539.950077
780.219339	2543.995603
780.543397	2543.511652
780.867409	2544.628268
781.191374	2544.356046
781.515294	2543.264636
781.839167	2541.918648
782.162995	2544.471992
782.486776	2543.622558
782.810511	2544.156920
783.134201	2543.047866
783.457844	2544.976108
783.781441	2542.619368
784.104993	2543.201622
784.428498	2543.993083
784.751958	2543.985521
785.075372	2545.470141
785.398739	2545.389482
785.722061	2541.701878
786.045337	2542.826056
786.368568	2543.241951
786.691752	2545.444935
787.014891	2543.632640
787.337983	2544.053577
787.661030	2548.497354
787.984031	2547.804195
788.306987	2548.709082
788.629897	2547.894936
788.952760	2550.297046
789.275579	2544.245140
789.598351	2545.051725
789.921078	2544.245140
790.243759	2545.487785
790.566395	2542.750438
790.888984	2544.729091
791.211529	2541.676672
791.534027	2545.722198
791.856480	2542.626930
792.178888	2542.475695
792.501249	2543.045346
792.823566	2544.421581
793.145836	2542.770603
793.468062	2544.824873
793.790241	2542.387475
794.112375	2543.967877
794.434464	2540.323123
794.756507	2543.073072
795.078505	2543.909904
795.400457	2541.545603
795.722364	2539.014943
796.044226	2542.291693
796.366042	2538.999820
796.687812	2542.536189
797.009538	2542.508463
797.331218	2543.315048
797.652852	2544.635830
797.974442	2541.956457
798.295986	2545.404606
798.617484	2543.395706
798.938938	2543.216745
799.260346	2544.731612
799.581709	2543.488967
799.903026	2545.707075
800.224299	2543.234389
800.545526	2542.853782
800.866708	2540.335726
801.187845	2543.501570
801.508936	2541.124666
801.829983	2540.882691
802.150984	2540.865047
802.471940	2542.584080
802.792851	2542.833617
803.113717	2540.948226
803.434538	2539.274563
803.755314	2541.752290
804.076045	2542.793288
804.396731	2541.311189
804.717372	2540.376055
805.037967	2542.079965
805.358518	2539.967721
805.679024	2543.090716
805.999485	2541.452341
806.319901	2541.434697
806.640272	2539.685417
806.960598	2544.537527
807.280879	2540.882691
807.601115	2541.941333
807.921306	2542.216076
808.241453	2542.783206
808.561554	2541.018802
808.881611	2539.655170
809.201623	2541.376724
809.521590	2542.619368
809.841513	2543.433515
810.161390	2541.081816
810.481223	2541.359080
810.801011	2538.692309
811.120755	2544.058618
811.440453	2542.027033
811.760107	2541.406971
812.079716	2540.708771
812.399281	2536.610313
812.718801	2539.745911
813.038276	2537.426980
813.357707	2541.321271
813.677093	2540.618030
813.996434	2541.175078
814.315731	2541.500232
814.634983	2541.016281
814.954191	2541.258257
815.273354	2540.055942
815.592473	2539.763555
815.911547	2543.262115
816.230577	2541.452341
816.549562	2543.788916
816.868502	2541.107022
817.187399	2543.274718
817.506250	2543.362938
817.825058	2541.742207
818.143821	2544.852599
818.462539	2544.550130
818.781213	2544.479554
819.099843	2543.798998
819.418429	2549.747560
819.736970	2551.431305
820.055466	2554.030020
820.373919	2555.963303
820.692327	2560.311298
821.010691	2567.845302
821.329011	2584.864237
821.647286	2619.640637
821.965517	2657.013231
822.283704	2678.906962
822.601847	2685.042047
822.919945	2667.554284
823.237999	2647.366983
823.556010	2625.747995
823.873976	2608.431632
824.191897	2593.474528
824.509775	2582.726788
824.827609	2575.913669
825.145398	2573.902248
825.463144	2573.219172
825.780845	2573.383010
826.098502	2578.091447
826.416116	2585.774166
826.733685	2599.597010
827.051210	2604.267639
827.368692	2599.400405
827.686129	2585.302818
828.003522	2579.364339
828.320872	2563.769529
828.638177	2558.536812
828.955439	2552.754608
829.272656	2549.845862
829.589830	2548.951057
829.906960	2550.102961
830.224046	2546.743032
830.541088	2546.483413
830.858086	2546.811088
831.175041	2545.155069
831.491952	2543.625078
831.808819	2544.484595
832.125642	2545.447456
832.442421	2548.696479
832.759157	2554.024979
833.075849	2559.908005
833.392497	2565.864129
833.709101	2570.257494
834.025662	2573.410736
834.342179	2567.101732
834.658653	2564.175342
834.975083	2557.407593
835.291469	2558.783828
835.607811	2550.090358
835.924110	2546.440563
836.240366	2545.994421
836.556578	2543.052907
836.872746	2544.502239
837.188871	2540.925541
837.504952	2541.923689
837.820990	2539.198945
838.136984	2538.906558
838.452935	2538.951929
838.768842	2540.113915
839.084706	2541.825387
839.400526	2542.505942
839.716303	2544.711447
840.032037	2551.169165
840.347727	2553.740154
840.663373	2550.748229
840.978977	2547.650440
841.294537	2544.353525
841.610054	2541.560726
841.925527	2539.503935
842.240957	2539.687937
842.556344	2536.234747
842.871687	2539.670293
843.186987	2538.266332
843.502244	2538.417567
843.817458	2539.433359
844.132629	2537.053934
844.447756	2536.542257
844.762840	2534.460261
845.077881	2533.283151
845.392879	2532.789118
845.707833	2536.035621
846.022745	2534.293903
846.337613	2538.074768
846.652438	2535.609644
846.967221	2537.825231
847.281960	2535.324819
847.596656	2535.607123
847.911309	2531.324663
848.225919	2535.735673
848.540485	2537.880684
848.855009	2536.935467
849.169490	2534.235929
849.483928	2534.271217
849.798323	2532.776515
850.112675	2533.794828
850.426984	2534.999664
850.741251	2536.244829
851.055474	2536.655683
851.369654	2536.451517
851.683792	2537.986548
851.997887	2537.938657
852.311938	2534.472864
852.625947	2534.679551
852.939914	2533.656197
853.253837	2535.561753
853.567718	2535.929757
853.881555	2536.106198
854.195350	2537.830272
854.509103	2534.946732
854.822812	2534.462781
855.136479	2533.807431
855.450103	2537.464788
855.763685	2534.208203
856.077224	2535.803728
856.390720	2536.224665
856.704173	2534.268697
857.017584	2536.948070
857.330953	2532.965559
857.644278	2537.091743
857.957561	2538.898997
858.270802	2532.937832
858.584000	2534.931609
858.897155	2533.676361
859.210268	2534.533357
859.523339	2535.039993
859.836367	2535.415559
860.149352	2535.856660
860.462295	2535.261804
860.775195	2529.172090
861.088054	2534.505631
861.400869	2533.956145
861.713642	2529.731658
862.026373	2533.704088
862.339062	2533.620909
862.651708	2536.252391
862.964312	2532.837009
863.276873	2535.967566
863.589392	2537.358924
863.901869	2536.844727
864.214303	2536.146527
864.526696	2535.221475
864.839045	2535.266845
865.151353	2536.328008
865.463619	2534.901362
865.775842	2537.600900
866.088023	2534.321629
866.400162	2532.179139
866.712258	2534.596372
867.024313	2532.975641
867.336325	2536.209541
867.648296	2537.971424
867.960224	2534.157792
868.272110	2535.458409
868.583954	2535.574356
868.895755	2537.555529
869.207515	2534.054448
869.519233	2535.748276
869.830909	2534.959335
870.142542	2536.489325
870.454134	2536.590148
870.765684	2535.276928
871.077191	2535.899510
871.388657	2539.708102
871.700081	2538.105015
872.011463	2536.869932
872.322803	2536.489325
872.634101	2537.863040
872.945357	2534.888759
873.256571	2539.229192
873.567744	2537.424459
873.878874	2536.144006
874.189963	2539.619882
874.501010	2538.475540
874.812015	2538.823379
875.122979	2537.399253
875.433900	2538.596527
875.744780	2540.434028
876.055618	2538.092412
876.366415	2539.468647
876.677169	2540.912938
876.987882	2539.471168
877.298554	2534.485467
877.609183	2535.125693
877.919771	2538.226003
878.230317	2537.174922
878.540822	2543.131045
878.851285	2545.074410
879.161707	2543.688093
879.472087	2550.173537
879.782425	2550.541542
880.092722	2557.021945
880.402977	2569.143399
880.713191	2586.283322
881.023363	2605.422063
881.333494	2619.960751
881.643583	2625.672378
881.953631	2622.607356
882.263637	2617.694752
882.573602	2610.387599
882.883526	2600.436362
883.193408	2590.457398
883.503248	2582.033630
883.813048	2575.649008
884.122806	2567.764644
884.432522	2564.923953
884.742197	2558.546894
885.051831	2557.793241
885.361424	2552.724361
885.670975	2551.441387
885.980485	2548.313352
886.289954	2547.219421
886.599382	2548.578012
886.908768	2542.621889
887.218113	2544.250182
887.527417	2544.537527
887.836680	2540.343287
888.145901	2543.335212
888.455082	2536.907741
888.764221	2539.138452
889.073319	2540.280273
889.382376	2539.214069
889.691392	2538.069727
890.000366	2539.209028
890.309300	2540.134079
890.618193	2539.385468
890.927044	2538.672145
891.235855	2539.451003
891.544625	2540.925541
891.853353	2539.582073
892.162041	2539.571991
892.470687	2541.903524
892.779293	2539.887063
893.087858	2542.803370
893.396381	2539.924872
893.704864	2545.762528
894.013306	2549.256047
894.321707	2558.710731
894.630068	2562.761298
894.938387	2571.787484
895.246665	2568.213306
895.554903	2564.198027
895.863100	2557.513457
896.171256	2557.611760
896.479371	2552.321069
896.787446	2551.970709
897.095480	2547.680687
897.403473	2546.629606
897.711425	2543.950233
898.019336	2543.204142
898.327207	2542.301776
898.635038	2540.945705
898.942827	2542.153062
899.250576	2540.655839
899.558284	2541.510314
899.865952	2536.365817
900.173579	2540.492001
900.481165	2538.162988
900.788711	2539.309851
901.096216	2538.803215
901.403681	2537.797505
901.711105	2538.495704
902.018489	2538.291538
902.325832	2539.239275
902.633135	2539.251877
902.940397	2539.551826
903.247619	2545.707075
903.554800	2548.809905
903.861941	2557.589075
904.169041	2571.129614
904.476101	2577.693196
904.783121	2578.872826
905.090100	2572.452917
905.397039	2564.364385
905.703938	2558.211657
906.010796	2552.283260
906.317614	2549.987015
906.624391	2544.391334
906.931129	2543.572146
907.237826	2539.017464
907.544483	2538.982176
907.851099	2540.096271
908.157675	2539.019984
908.464211	2537.517721
908.770707	2531.992616
909.077163	2529.761905
909.383578	2531.959848
909.689954	2533.013450
909.996289	2530.392050
910.302584	2534.339273
910.608839	2534.440096
910.915054	2534.913965
911.221229	2534.125024
911.527363	2532.670651
911.833458	2535.748276
912.139513	2535.317257
912.445527	2535.521424
912.751502	2534.777853
913.057436	2535.624767
913.363331	2536.292720
913.669186	2538.936805
913.975000	2536.632998
914.280775	2541.069213
914.586510	2547.025337
914.892205	2548.527601
915.197859	2554.965154
915.503475	2561.619477
915.809050	2568.041907
916.114585	2572.876374
916.420081	2575.986766
916.725536	2574.744121
917.030952	2569.052658
917.336328	2565.927143
917.641665	2561.768191
917.946961	2556.265772
918.252218	2553.682180
918.557435	2549.435008
918.862612	2547.594987
919.167750	2545.094575
919.472848	2541.772454
919.777906	2543.867054
920.082925	2541.124666
920.387904	2542.137938
920.692843	2539.057793
920.997743	2537.784902
921.302603	2535.662576
921.607423	2539.030067
921.912204	2537.386651
922.216946	2537.222813
922.521647	2533.789787
922.826310	2536.350693
923.130932	2537.479912
923.435516	2535.264325
923.740059	2535.753317
924.044564	2532.431196
924.349028	2533.845240
924.653454	2530.092101
924.957840	2529.892975
925.262186	2531.629653
925.566493	2531.480939
925.870761	2529.325846
926.174989	2529.978675
926.479178	2532.663089
926.783328	2528.655372
927.087438	2533.358769
927.391509	2533.421783
927.695541	2535.586959
927.999533	2534.790456
928.303486	2531.796011
928.607400	2534.818183
928.911275	2533.288192
929.215110	2534.094777
929.518906	2531.433048
929.822663	2530.563449
930.126381	2530.697039
930.430060	2531.463295
930.733699	2532.118645
931.037299	2534.251053
931.340861	2529.640918
931.644383	2530.218130
931.947866	2530.818027
932.251309	2531.856505
932.554714	2529.028418
932.858080	2533.126876
933.161407	2528.292409
933.464694	2532.529499
933.767943	2529.139323
934.071153	2531.180990
934.374323	2532.383305
934.677455	2531.501103
934.980548	2530.792821
935.283602	2530.540764
935.586617	2528.083201
935.889593	2531.591844
936.192530	2532.814324
936.495428	2529.502286
936.798287	2529.227543
937.101108	2533.628470
937.403890	2531.039838
937.706632	2532.539581
938.009336	2531.125537
938.312002	2532.458923
938.614628	2531.637215
938.917216	2532.980682
939.219765	2535.039993
939.522275	2535.070240
939.824747	2537.116949
940.127179	2532.012781
940.429573	2530.407173
940.731929	2530.926412
941.034246	2528.431041
941.336524	2532.532019
941.638763	2531.465815
941.940964	2533.182328
942.243126	2532.630322
942.545250	2534.044366
942.847335	2533.764582
943.149381	2530.984385
943.451389	2532.363141
943.753359	2533.227699
944.055290	2533.346166
944.357182	2532.141330
944.659036	2532.249715
944.960851	2529.920702
945.262628	2531.531350
945.564367	2532.322812
945.866067	2529.429189
946.167729	2531.919519
946.469352	2530.399611
946.770937	2531.659900
947.072484	2529.983716
947.373992	2534.601413
947.675462	2531.428007
947.976893	2531.851464
948.278286	2530.008922
948.579641	2532.597554
948.880958	2531.700229
949.182236	2530.500434
949.483476	2532.743748
949.784678	2533.525127
950.085841	2529.169570
950.386967	2531.997657
950.688054	2530.893644
950.989103	2532.131248
951.290114	2528.839374
951.591087	2529.981196
951.892021	2528.572193
952.192917	2532.834489
952.493776	2531.054961
952.794596	2533.527647
953.095378	2529.754344
953.396122	2532.819365
953.696828	2528.819210
953.997496	2532.219468
954.298126	2529.988757
954.598718	2531.543953
954.899272	2532.771474
955.199788	2531.198634
955.500266	2531.606968
955.800706	2526.976668
956.101108	2528.466329
956.401472	2525.955834
956.701798	2523.127747
957.002087	2525.229908
957.302337	2530.296268
957.602550	2529.945907
957.902724	2529.910619
958.202861	2528.516740
958.502960	2531.143182
958.803022	2529.492204
959.103045	2529.091432
959.403031	2527.478263
959.702979	2527.861390
960.002889	2528.773839
960.302762	2526.439785
960.602596	2528.052954
960.902393	2527.168232
961.202153	2529.381298
961.501875	2526.956503
961.801559	2528.279806
962.101205	2526.800228
962.400814	2528.680578
962.700385	2531.254087
962.999918	2530.659231
963.299414	2528.216792
963.598873	2528.647810
963.898293	2528.395753
964.197677	2528.489014
964.497022	2527.621936
964.796331	2527.357275
965.095601	2526.931298
965.394835	2526.021369
965.694030	2527.513551
965.993189	2528.783922
966.292309	2527.309384
966.591393	2525.582789
966.890439	2526.061698
967.189447	2526.585978
967.488419	2529.840043
967.787353	2527.183355
968.086249	2528.539426
968.385108	2527.989940
968.683930	2528.667975
968.982714	2527.836185
969.281462	2528.572193
969.580172	2526.618746
969.878844	2525.749147
970.177480	2529.368695
970.476078	2526.162522
970.774639	2529.887934
971.073162	2527.364837
971.371649	2523.727644
971.670098	2522.633714
971.968510	2525.610515
972.266885	2520.793693
972.565223	2528.640249
972.863524	2525.529857
973.161788	2529.847605
973.460014	2527.856349
973.758204	2527.032121
974.056356	2527.405166
974.354471	2525.625639
974.652550	2530.218130
974.950591	2527.836185
975.248595	2529.144364
975.546563	2530.429858
975.844493	2525.958355
976.142386	2528.005063
976.440243	2527.054806
976.738062	2527.120341
977.035845	2526.412059
977.333590	2526.802748
977.631299	2530.147554
977.928971	2524.503982
978.226606	2526.661596
978.524204	2526.464991
978.821765	2530.155115
979.119290	2529.532533
979.416777	2528.143695
979.714228	2528.985568
980.011642	2525.948273
980.309020	2530.326515
980.606360	2528.221833
980.903664	2526.492717
981.200931	2525.779394
981.498162	2525.323169
981.795356	2528.935156
982.092513	2528.778880
982.389633	2529.023376
982.686717	2528.839374
982.983764	2529.265352
983.280775	2530.858356
983.577749	2528.436082
983.874686	2530.487832
984.171587	2528.821730
984.468451	2528.983047
984.765279	2529.378778
985.062070	2528.947759
985.358824	2526.147398
985.655543	2528.685619
985.952224	2524.947603
986.248869	2527.332069
986.545478	2521.953158
986.842050	2526.464991
987.138586	2524.945083
987.435086	2524.282171
987.731549	2521.207067
988.027975	2527.957172
988.324366	2525.817203
988.620719	2526.464991
988.917037	2523.369722
989.213318	2526.238139
989.509563	2525.696215
989.805772	2525.870135
990.101944	2528.294930
990.398080	2529.653521
990.694180	2526.228057
990.990244	2526.659075
991.286271	2527.190917
991.582262	2526.359127
991.878217	2527.460619
992.174136	2526.366688
992.470019	2527.112779
992.765865	2527.528674
993.061676	2524.970289
993.357450	2529.146885
993.653188	2526.074301
993.948890	2529.877852
994.244556	2525.935670
994.540186	2528.433561
994.835780	2524.703108
995.131337	2529.116638
995.426859	2529.635877
995.722345	2527.203520
996.017795	2527.168232
996.313208	2528.088242
996.608586	2524.685463
996.903928	2526.263345
997.199234	2525.507172
997.494504	2526.588499
997.789738	2526.961544
998.084936	2526.611184
998.380099	2527.352234
998.675225	2526.553211
998.970316	2527.274096
999.265371	2528.252080
999.560390	2527.442975
999.855373	2528.680578
1000.150320	2524.960206
1000.445232	2526.679240
1000.740108	2527.039682
1001.034948	2527.387522
1001.329752	2524.682943
1001.624521	2525.910464
1001.919254	2522.540453
1002.213951	2524.851822
1002.508613	2522.232942
1002.803239	2525.532377
1003.097829	2518.956192
1003.392384	2527.183355
1003.686903	2523.556245
1003.981386	2528.252080
1004.275834	2526.785104
1004.570246	2527.851308
1004.864623	2524.027593
1005.158964	2527.674868
1005.453270	2526.769981
1005.747540	2525.897861
1006.041775	2525.797038
1006.335974	2526.263345
1006.630138	2523.566327
1006.924266	2525.726462
1007.218359	2529.643438
1007.512416	2526.321318
1007.806438	2525.149250
1008.100425	2527.019518
1008.394376	2526.407018
1008.688292	2525.161853
1008.982172	2526.714528
1009.276017	2521.023065
1009.569827	2527.057326
1009.863602	2526.928777
1010.157341	2524.816533
1010.451045	2524.776204
1010.744714	2525.774353
1011.038347	2527.306863
1011.331945	2524.871986
1011.625508	2527.379960
1011.919036	2525.378622
1012.212528	2526.379291
1012.505986	2524.476256
1012.799408	2525.837367
1013.092795	2523.946934
1013.386147	2525.577748
1013.679464	2525.590351
1013.972745	2524.929959
1014.265992	2524.572037
1014.559204	2526.482635
1014.852380	2525.618077
1015.145521	2525.111441
1015.438628	2524.113292
1015.731699	2527.790814
1016.024736	2526.243180
1016.317737	2524.350227
1016.610703	2526.855680
1016.903635	2525.171935
1017.196531	2520.904598
1017.489393	2522.684125
1017.782219	2520.828981
1018.075011	2526.956503
1018.367768	2525.015659
1018.660490	2525.940711
1018.953177	2525.940711
1019.245829	2525.940711
