Dividing Wavelength (nm)	Counts (n)	Blue Motor Position (mm): 0.000000	Red Motor Position (mm): 40.400000	
326.493990	2128.586882
326.888308	2128.586882
327.282561	2128.586882
327.676750	2094.465833
328.070874	2093.200503
328.464933	2099.123859
328.858929	2101.152923
329.252859	2111.996445
329.646726	2125.572272
330.040528	2137.348408
330.434265	2152.741571
330.827938	2169.836124
331.221547	2191.762622
331.615091	2208.685776
332.008571	2226.213868
332.401986	2246.854872
332.795338	2265.476894
333.188625	2282.896602
333.581847	2303.129273
333.975006	2320.775832
334.368100	2341.258040
334.761129	2359.688498
335.154095	2373.390354
335.546996	2393.255021
335.939833	2416.041036
336.332606	2432.848243
336.725315	2444.480706
337.117960	2454.142077
337.510540	2462.147429
337.903056	2475.824080
338.295508	2478.702579
338.687896	2488.610967
339.080220	2498.050527
339.472480	2505.541682
339.864676	2507.782475
340.256807	2513.647857
340.648875	2514.706499
341.040879	2514.953516
341.432818	2518.336130
341.824694	2519.825791
342.216506	2521.837212
342.608253	2520.791172
342.999937	2523.223529
343.391557	2520.266892
343.783113	2519.699762
344.174605	2520.589526
344.566033	2517.332941
344.957397	2519.253620
345.348697	2515.518125
345.739934	2513.695748
346.131106	2512.127949
346.522215	2511.485202
346.913260	2508.523524
347.304241	2505.571929
347.695159	2502.857267
348.086012	2504.687206
348.476802	2498.184118
348.867528	2500.644201
349.258191	2494.534322
349.648789	2495.847543
350.039324	2497.735455
350.429796	2494.506596
350.820203	2492.147336
351.210548	2491.746564
351.600828	2494.065495
351.991045	2492.137254
352.381198	2491.013076
352.771288	2489.863693
353.161314	2488.822695
353.551276	2490.897130
353.941175	2487.658188
354.331010	2493.205978
354.720782	2488.235401
355.110490	2491.373519
355.500135	2489.094917
355.889717	2489.319249
356.279235	2488.931080
356.668689	2490.950062
357.058080	2495.545074
357.447408	2490.294712
357.836672	2489.019300
358.225873	2490.035093
358.615010	2490.818992
359.004084	2494.204127
359.393095	2493.238746
359.782043	2495.028355
360.170927	2495.121617
360.559748	2495.431648
360.948505	2498.186638
361.337199	2498.352996
361.725830	2500.611433
362.114398	2500.699653
362.502903	2500.460199
362.891344	2501.317195
363.279722	2501.087822
363.668037	2501.899448
364.056289	2500.792915
364.444478	2502.827020
364.832603	2501.881804
365.220665	2503.079078
365.608665	2503.447082
365.996601	2506.837258
366.384474	2506.370952
366.772284	2506.612927
367.160031	2510.066117
367.547715	2510.890346
367.935336	2514.066273
368.322893	2515.359329
368.710388	2517.542148
369.097820	2530.145033
369.485189	2528.897348
369.872495	2534.334232
370.259738	2542.664739
370.646918	2549.293856
371.034035	2556.454815
371.421090	2564.913871
371.808081	2575.933833
372.195010	2586.109402
372.581875	2598.180445
372.968678	2610.440532
373.355418	2619.154166
373.742096	2640.901704
374.128710	2656.526760
374.515262	2668.585200
374.901751	2686.123374
375.288177	2697.828933
375.674540	2720.577140
376.060841	2739.995665
376.447079	2762.378388
376.833254	2780.292128
377.219367	2793.764612
377.605417	2829.249294
377.991404	2838.363700
378.377329	2862.871269
378.763191	2876.989021
379.148991	2913.968405
379.534727	2940.792384
379.920402	2969.892445
380.306013	2981.008189
380.691563	3028.798328
381.077049	3052.030485
381.462474	3069.619071
381.847835	3109.539968
382.233134	3133.356899
382.618371	3129.185345
383.003545	3201.503217
383.388657	3205.823486
383.773706	3240.428487
384.158693	3256.724016
384.543618	3281.874333
384.928480	3318.009324
385.313280	3360.607074
385.698017	3362.590768
386.082692	3416.556320
386.467305	3421.156373
386.851856	3452.320786
387.236344	3475.013540
387.620770	3505.651152
388.005133	3536.082077
388.389435	3556.105540
388.773674	3571.246646
389.157851	3613.521762
389.541965	3626.361581
389.926018	3591.164245
390.310008	3664.124864
390.693936	3682.061290
391.077802	3723.547465
391.461606	3711.985579
391.845348	3775.597379
392.229027	3774.170732
392.612645	3790.277219
392.996200	3865.390411
393.379694	3906.080084
393.763125	3973.245898
394.146494	3941.136268
394.529801	4002.653469
394.913047	4047.875139
395.296230	4015.175695
395.679351	4071.558480
396.062410	4091.707972
396.445408	4074.212647
396.828343	4106.256742
397.211217	4131.059219
397.594028	4049.067372
397.976778	4118.499184
398.359466	4141.484325
398.742092	4173.672092
399.124656	4094.878858
399.507158	4174.899613
399.889598	4197.254610
400.271977	4264.879168
400.654294	4232.436823
401.036549	4247.542640
401.418742	4210.003688
401.800874	4313.894307
402.182944	4332.443233
402.564952	4398.605856
402.946898	4387.986666
403.328783	4386.544896
403.710606	4298.072646
404.092367	4488.711440
404.474067	4453.783806
404.855705	4465.040702
405.237282	4392.775762
405.618797	4496.860465
406.000250	4532.627452
406.381642	4612.537302
406.762972	4577.675203
407.144240	4583.263322
407.525447	4584.170729
407.906593	4643.046365
408.287677	4690.299621
408.668700	4616.671048
409.049661	4669.300694
409.430560	4709.801324
409.811399	4639.482269
410.192176	4798.712155
410.572891	4735.042382
410.953545	4835.744471
411.334138	4719.127459
411.714669	4789.227224
412.095139	4681.081871
412.475547	4825.117719
412.855894	4803.463442
413.236180	4813.686902
413.616405	4766.902474
413.996568	4859.329509
414.376670	4795.271567
414.756711	4752.388992
415.136691	4785.471564
415.516609	4861.212380
415.896466	4898.716044
416.276262	4930.382052
416.655997	4912.329680
417.035670	5094.600159
417.415283	5183.279097
417.794834	5133.550634
418.174324	5087.865178
418.553753	4995.163400
418.933121	5173.973127
419.312428	5244.272017
419.691674	5182.648952
420.070859	5308.992871
420.449983	5217.982400
420.829045	5337.901367
421.208047	5242.351337
421.586988	5314.588551
421.965867	5322.656918
422.344686	5456.323112
422.723444	5311.556297
423.102141	5129.963853
423.480777	5434.701603
423.859352	5201.162590
424.237866	5457.112053
424.616319	5449.419252
424.994712	5561.678187
425.373044	5437.650678
425.751314	5579.319704
426.129524	5385.449530
426.507673	5577.557821
426.885762	5661.160317
427.263789	5591.121046
427.641756	5475.318180
428.019662	5594.264205
428.397508	5601.389876
428.775292	5549.614705
429.153016	5647.750847
429.530679	5574.097069
429.908282	5659.816849
430.285824	5533.120050
430.663305	5804.460156
431.040726	5536.878230
431.418086	5538.534249
431.795385	5644.655579
432.172624	5656.353576
432.549802	5652.527341
432.926920	5662.700389
433.303977	5668.558210
433.680974	5709.658737
434.057910	5727.723712
434.434786	5734.988015
434.811601	5704.791503
435.188355	5939.721875
435.565050	5814.393749
435.941683	5794.156037
436.318257	6009.635117
436.694770	5989.984700
437.071222	6024.662797
437.447614	5961.376152
437.823946	5868.931472
438.200218	6027.367376
438.576429	5890.452158
438.952580	5988.560574
439.328670	6033.948602
439.704700	5940.561227
440.080670	5930.962870
440.456580	6198.854827
440.832429	6081.675726
441.208218	5931.388848
441.583947	6083.785449
441.959616	6082.893165
442.335224	6011.729717
442.710773	6151.485625
443.086261	6179.932856
443.461689	5969.197502
443.837057	6119.635615
444.212365	6278.510099
444.587612	6168.010527
444.962800	6325.168498
445.337927	6305.308873
445.712995	5909.043933
446.088002	6489.684033
446.462949	6320.550801
446.837837	6251.963383
447.212664	6427.266987
447.587431	6566.387710
447.962139	7109.423323
448.336786	8033.902882
448.711374	7774.255733
449.085901	6848.954465
449.460369	6774.461335
449.834776	6705.208484
450.209124	7098.703309
450.583412	7247.671926
450.957640	7394.815645
451.331808	7161.258987
451.705917	6712.452622
452.079965	6637.052084
452.453954	6842.985739
452.827883	6720.306740
453.201752	6818.856256
453.575562	6616.922757
453.949311	6822.115362
454.323001	6707.156890
454.696632	6786.111441
455.070202	6920.264107
455.443713	7076.683549
455.817164	7176.379928
456.190556	7256.579645
456.563888	7331.526479
456.937160	7375.215639
457.310373	7030.783843
457.683526	7057.378450
458.056619	6948.892820
458.429653	6939.596932
458.802628	6873.474638
459.175542	6976.520863
459.548398	7337.651481
459.921194	7498.555029
460.293930	7497.786253
460.666607	8029.847274
461.039224	8340.367228
461.411782	8469.108215
461.784280	8485.988518
462.156719	8374.916776
462.529099	8254.750791
462.901419	7840.569591
463.273680	7735.990855
463.645882	7749.770849
464.018024	7615.703883
464.390106	7779.654809
464.762130	8166.238212
465.134094	8635.136096
465.505999	9655.344647
465.877845	10885.055990
466.249631	11531.536079
466.621358	11143.402521
466.993026	10510.788125
467.364634	10257.984342
467.736184	9897.549404
468.107674	9566.539681
468.479105	9595.549000
468.850477	9355.993370
469.221790	9134.147312
469.593043	8796.871435
469.964238	8666.764295
470.335373	8675.248557
470.706449	8733.867094
471.077467	8714.083086
471.448425	10029.199137
471.819324	11106.022366
472.190164	11125.761003
472.560945	9876.580724
472.931667	9088.381197
473.302330	8952.746432
473.672934	8594.287626
474.043479	8957.971588
474.413965	8895.539418
474.784393	8779.557592
475.154761	8934.716746
475.525070	9024.270323
475.895321	8847.197274
476.265513	9025.051702
476.635645	9193.292650
477.005719	9188.138070
477.375734	9309.697933
477.745691	9543.305002
478.115588	9678.841465
478.485427	9921.099154
478.855207	10462.566968
479.224928	11272.587130
479.594591	11903.527863
479.964194	11720.244112
480.333739	11650.061168
480.703226	11570.337841
481.072653	11666.248313
481.442022	11899.613407
481.811333	12083.948238
482.180584	11895.756924
482.549777	11599.291708
482.918912	11430.128229
483.287988	11450.461723
483.657005	11469.270268
484.025964	11138.568055
484.394864	11270.858014
484.763706	11247.572924
485.132489	10999.543114
485.501213	10965.041457
485.869879	11037.898733
486.238487	10879.850998
486.607036	10991.525159
486.975527	10772.504668
487.343959	10962.029368
487.712333	11006.129382
488.080648	10939.918867
488.448905	10980.734569
488.817104	10918.337687
489.185244	11182.549602
489.553326	11338.442243
489.921350	11878.483411
490.289315	12943.127212
490.657222	13285.603040
491.025070	13194.915203
491.392861	13069.019947
491.760593	12691.145137
492.128267	12338.455932
492.495883	12009.140036
492.863440	11676.383553
493.230939	11338.038951
493.598380	11274.807758
493.965763	11137.766511
494.333088	11041.195648
494.700354	10963.176230
495.067563	11023.705364
495.434713	10843.282468
495.801805	10978.942439
496.168839	10898.921683
496.535815	10837.631335
496.902733	10834.387352
497.269593	10767.602146
497.636395	10870.056036
498.003139	10855.613131
498.369825	10728.447504
498.736453	10880.065247
499.103023	10806.121603
499.469535	10839.181490
499.835989	10818.144755
500.202385	10793.662391
500.568723	10637.270675
500.935003	10865.619821
501.301226	10665.337299
501.667390	10921.485888
502.033497	11027.942454
502.399546	10883.215968
502.765537	10790.491505
503.131470	10866.151663
503.497345	11032.431602
503.863163	10650.004630
504.228923	10958.495519
504.594625	11020.436176
504.960269	10771.206571
505.325856	10996.246199
505.691385	10784.973962
506.056856	10941.428693
506.422270	10963.067845
506.787625	10851.166833
507.152924	10970.637138
507.518164	10950.303644
507.883347	10876.299505
508.248472	10790.269694
508.613540	11027.244254
508.978550	10907.491645
509.343503	10881.338139
509.708398	11001.678043
510.073236	11115.761875
510.438016	11112.628798
510.802738	11068.715307
511.167403	11118.163985
511.532010	11021.053717
511.896561	11242.201575
512.261053	11323.928761
512.625488	11194.353463
512.989866	11166.012096
513.354186	11156.590180
513.718449	11060.568802
514.082655	11250.567370
514.446803	11152.229582
514.810894	11272.642582
515.174927	11139.049485
515.538904	11162.989925
515.902822	11317.791156
516.266684	11204.191275
516.630488	11142.873200
516.994235	11199.016531
517.357925	11259.089440
517.721558	11347.463388
518.085133	11357.578463
518.448651	11371.595391
518.812112	11254.784295
519.175516	11274.104517
519.538863	11394.900646
519.902152	11312.601288
520.265385	11465.660802
520.628560	11375.232584
520.991678	11363.277487
521.354739	11411.228943
521.717743	11354.989831
522.080690	11332.241624
522.443580	11464.521501
522.806413	11418.810838
523.169189	11449.713111
523.531908	11512.067143
523.894569	11320.440283
524.257174	11333.829587
524.619722	11452.077412
524.982213	11399.788044
525.344647	11447.734458
525.707025	11393.572302
526.069345	11490.339770
526.431608	11413.815055
526.793815	11518.444203
527.155964	11311.197327
527.518057	11359.539472
527.880093	11310.287399
528.242072	11378.426155
528.603995	11282.417380
528.965860	11204.677746
529.327669	11256.329409
529.689421	11204.476100
530.051117	11176.134733
530.412755	11279.392687
530.774337	11171.151553
531.135862	11148.105918
531.497331	11176.522902
531.858743	11025.893225
532.220098	11193.677949
532.581396	11059.172402
532.942638	11048.021370
533.303824	11004.869093
533.664953	11017.046000
534.026025	10937.552045
534.387040	11041.606502
534.747999	11036.560307
535.108902	11097.001221
535.469748	10848.953766
535.830537	10949.544950
536.191270	10929.892012
536.551947	10954.434869
536.912567	10954.757503
537.273131	10877.211954
537.633638	10855.429128
537.994089	10844.590648
538.354483	10796.629110
538.714821	10943.142685
539.075103	10945.262490
539.435328	10914.758468
539.795497	10737.458567
540.155609	10898.394883
540.515665	10985.967287
540.875665	10721.785619
541.235609	10790.657863
541.595496	10782.592017
541.955328	10938.701428
542.315102	10825.850158
542.674821	10774.090111
543.034483	10778.266707
543.394090	10781.067068
543.753640	10707.859432
544.113134	10929.392938
544.472571	10782.876842
544.831953	10916.099415
545.191278	10731.724254
545.550548	10761.399006
545.909761	10899.022506
546.268918	10877.282530
546.628019	10955.715322
546.987064	10818.537965
547.346053	10744.145657
547.704986	10839.730975
548.063863	10824.930148
548.422684	10820.662811
548.781449	10729.309542
549.140158	10832.534728
549.498811	10713.994516
549.857408	10567.362474
550.215949	10791.789602
550.574434	10652.469754
550.932864	10744.589279
551.291237	10800.024327
551.649555	10750.794939
552.007817	10762.281208
552.366022	10728.573533
552.724173	10719.388551
553.082267	10702.147805
553.440305	10844.769609
553.798288	10643.219237
554.156215	10796.472834
554.514086	10777.029104
554.871902	10623.256267
555.229661	10661.274129
555.587365	10636.242280
555.945014	10530.693121
556.302606	10654.798767
556.660143	10544.279031
557.017625	10699.599501
557.375050	10599.915725
557.732421	10735.540408
558.089735	10655.348253
558.446994	10648.668724
558.804197	10684.342449
559.161345	10688.216576
559.518437	10532.570951
559.875474	10624.748449
560.232455	10650.412963
560.589381	10604.964441
560.946251	10593.387431
561.303065	10700.824502
561.659825	10629.250199
562.016528	10566.863400
562.373177	10440.973186
562.729770	10563.425333
563.086307	10475.467281
563.442789	10569.850284
563.799216	10441.920922
564.155587	10491.344395
564.511904	10443.428227
564.868164	10435.962279
565.224370	10455.741246
565.580520	10364.733295
565.936615	10380.179391
566.292654	10243.352393
566.648638	10374.402228
567.004567	10329.525877
567.360441	10314.563732
567.716260	10222.146779
568.072023	10321.177726
568.427732	10262.591957
568.783385	10181.976345
569.138982	10242.772660
569.494525	10263.726216
569.850013	10131.587492
570.205445	10210.912568
570.560823	10107.107649
570.916145	10026.728971
571.271412	10094.260268
571.626625	10042.374192
571.981782	10016.533238
572.336884	9991.113219
572.691931	9990.019289
573.046923	9935.446278
573.401860	9891.079083
573.756743	9823.169699
574.111570	9864.827274
574.466342	9851.463175
574.821059	9872.666268
575.175722	9768.873952
575.530330	9769.945197
575.884882	9762.078477
576.239380	9688.459986
576.593823	9663.037447
576.948211	9673.061782
577.302544	9557.649606
577.656823	9565.591944
578.011047	9569.309795
578.365216	9532.252273
578.719330	9453.380900
579.073389	9463.808527
579.427394	9410.790712
579.781344	9383.354232
580.135239	9332.587292
580.489080	9337.973765
580.842866	9231.179442
581.196597	9234.388136
581.550273	9268.436089
581.903895	9237.271676
582.257463	9296.394328
582.610975	9171.015791
582.964434	9197.045789
583.317837	9112.921534
583.671186	9099.096170
584.024481	9079.907018
584.377721	8995.182865
584.730906	8972.522879
585.084037	8998.941046
585.437113	8935.152805
585.790135	8943.420298
586.143103	8842.708126
586.496016	8804.294534
586.848874	8857.932411
587.201679	8844.235596
587.554428	8723.938542
587.907124	8762.251311
588.259765	8734.058658
588.612352	8726.532215
588.964884	8600.125282
589.317362	8611.848486
589.669786	8602.202238
590.022155	8646.335019
590.374470	8655.358685
590.726731	8595.563038
591.078937	8439.441024
591.431090	8541.713433
591.783188	8407.316271
592.135232	8394.158860
592.487222	8388.142243
592.839157	8429.711597
593.191038	8358.787604
593.542866	8299.896845
593.894639	8194.342645
594.246358	8237.628512
594.598022	8242.891477
594.949633	8136.830641
595.301190	8099.652132
595.652692	8121.873538
596.004141	8221.388435
596.355535	7999.708736
596.706876	7972.375600
597.058162	7898.265597
597.409395	7959.926470
597.760573	8010.572422
598.111698	7915.650016
598.462768	7892.259062
598.813785	7857.797735
599.164748	7810.468862
599.515657	7795.630225
599.866511	7698.368724
600.217312	7813.886764
600.568060	7670.017274
600.918753	7748.079542
601.269392	7714.336578
601.619978	7613.667257
601.970510	7666.687592
602.320988	7651.922053
602.671412	7689.657610
603.021783	7620.172866
603.372100	7587.909481
603.722363	7574.179899
604.072572	7543.670836
604.422728	7539.189250
604.772830	7459.087836
605.122878	7454.608771
605.472872	7440.722912
605.822813	7454.533153
606.172701	7390.921353
606.522534	7446.154756
606.872314	7429.539113
607.222041	7388.793987
607.571714	7425.521313
607.921333	7370.771862
608.270899	7359.446909
608.620411	7431.618588
608.969870	7335.314906
609.319276	7307.767521
609.668627	7309.877244
610.017926	7325.436765
610.367171	7345.293870
610.716362	7317.098697
611.065500	7287.577700
611.414585	7285.349510
611.763616	7267.153465
612.112594	7232.918989
612.461518	7226.552012
612.810389	7258.258349
613.159207	7191.858791
613.507971	7131.843854
613.856682	7215.380815
614.205340	7161.848802
614.553945	7205.840431
614.902496	7105.339988
615.250994	7135.455841
615.599439	7100.477795
615.947830	7087.688388
616.296169	7051.150105
616.644454	7039.505039
616.992686	7024.341249
617.340864	7046.260186
617.688990	6948.053467
618.037063	7004.960533
618.385082	6943.118178
618.733048	6989.630384
619.080961	6928.667710
619.428821	6921.073212
619.776628	6900.742239
620.124382	6844.306521
620.472083	6808.700852
620.819731	6811.123126
621.167326	6715.134516
621.514868	6704.379214
621.862357	6607.762980
622.209793	6603.541014
622.557176	6533.353029
622.904506	6494.082440
623.251783	6432.156906
623.599007	6383.217385
623.946179	6361.762234
624.293297	6313.248690
624.640363	6245.430047
624.987376	6217.406273
625.334336	6160.642881
625.681243	6102.183140
626.028097	6078.230098
626.374899	6052.502569
626.721647	6019.228433
627.068343	5958.795081
627.414987	5922.980203
627.761577	5865.379979
628.108115	5879.134768
628.454600	5789.682013
628.801032	5801.614424
629.147412	5769.242655
629.493739	5741.773408
629.840014	5679.537843
630.186236	5699.135328
630.532405	5605.634527
630.878521	5623.669255
631.224585	5576.494138
631.570597	5511.901833
631.916556	5512.136247
632.262462	5494.164534
632.608316	5448.491680
632.954117	5423.540489
633.299866	5402.193723
633.645562	5370.880596
633.991206	5312.113345
634.336797	5254.452627
634.682336	5217.377461
635.027823	5180.103170
635.373257	5161.468544
635.718639	5098.683494
636.063968	5093.158389
636.409245	5019.028222
636.754470	4995.692721
637.099642	4961.642247
637.444762	4913.698353
637.789829	4900.813164
638.134845	4853.428839
638.479808	4831.429243
638.824719	4820.084127
639.169577	4769.407927
639.514383	4764.003811
639.859137	4706.212023
640.203839	4705.586920
640.548489	4678.576417
640.893086	4651.230678
641.237632	4618.042242
641.582125	4615.672900
641.926566	4585.433538
642.270955	4582.277776
642.615292	4566.940066
642.959576	4557.021595
643.303809	4544.741345
643.647990	4530.288357
643.992118	4509.511241
644.336195	4472.859532
644.680219	4465.633038
645.024192	4456.934527
645.368112	4487.272191
645.711981	4488.754290
646.055797	4515.792519
646.399562	4477.487311
646.743274	4520.881563
647.086935	4538.762536
647.430544	4520.531203
647.774101	4509.796066
648.117606	4507.961086
648.461059	4489.507942
648.804460	4455.286070
649.147810	4400.125764
649.491108	4370.947566
649.834354	4346.077033
650.177548	4294.281698
650.520690	4240.739603
650.863781	4219.894432
651.206820	4211.574008
651.549807	4164.434178
651.892742	4125.982777
652.235626	4117.233854
652.578458	4099.015124
652.921238	4044.326167
653.263967	4053.927044
653.606644	4018.215511
653.949269	4004.672451
654.291843	3971.058037
654.634365	3979.640601
654.976836	3946.943677
655.319255	3939.112245
655.661622	3915.428904
656.003938	3901.974065
656.346203	3881.930437
656.688416	3879.314078
657.030577	3848.474819
657.372687	3828.869772
657.714746	3815.140190
658.056753	3820.388031
658.398708	3784.668935
658.740612	3777.828089
659.082465	3778.725415
659.424266	3771.377933
659.766016	3755.447887
660.107715	3735.530288
660.449362	3736.039445
660.790958	3721.984708
661.132503	3705.893345
661.473996	3710.430383
661.815438	3697.305739
662.156829	3686.404244
662.498168	3675.674148
662.839456	3660.906088
663.180693	3656.966426
663.521879	3652.535252
663.863013	3635.095380
664.204097	3632.226963
664.545129	3635.128147
664.886110	3626.210346
665.227040	3620.047536
665.567918	3610.103860
665.908746	3603.694033
666.249522	3596.739761
666.590248	3588.467227
666.930922	3584.570416
667.271545	3580.482040
667.612118	3573.908375
667.952639	3556.075293
668.293109	3546.829817
668.633528	3528.676622
668.973896	3515.867050
669.314213	3507.097963
669.654480	3492.581961
669.994695	3479.875732
670.334859	3466.607416
670.674973	3455.214408
671.015035	3451.859520
671.355047	3436.332766
671.695008	3428.823968
672.034918	3415.860640
672.374777	3409.612130
672.714585	3397.571334
673.054342	3396.119482
673.394049	3384.527349
673.733705	3381.527862
674.073310	3369.048486
674.412864	3356.140611
674.752368	3340.838189
675.091820	3335.146726
675.431223	3315.408088
675.770574	3302.684216
676.109875	3283.306021
676.449125	3273.906789
676.788324	3255.251999
677.127473	3237.383630
677.466571	3226.512381
677.805619	3217.415619
678.144616	3209.034701
678.483562	3198.312167
678.822458	3183.657532
679.161303	3177.005730
679.500098	3169.625481
679.838842	3157.977895
680.177535	3156.152997
680.516179	3153.085455
680.854771	3148.447593
681.193314	3160.800941
681.531805	3182.435053
681.870247	3211.703992
682.208638	3225.625138
682.546978	3219.764797
682.885268	3207.660987
683.223508	3186.752801
683.561697	3166.391581
683.899836	3156.183244
684.237925	3141.596665
684.575963	3132.086529
684.913951	3121.873151
685.251889	3123.440950
685.589776	3117.457100
685.927614	3112.181533
686.265401	3115.032305
686.603137	3113.409054
686.940824	3123.471197
687.278460	3125.298615
687.616046	3126.430354
687.953582	3137.115080
688.291068	3131.390849
688.628504	3134.589462
688.965889	3125.767442
689.303224	3108.183898
689.640510	3093.831733
689.977745	3069.301478
690.314930	3046.046635
690.652065	3029.425951
690.989150	3007.398629
691.326185	2984.738643
691.663170	2968.511169
692.000105	2954.312759
692.336990	2933.916250
692.673825	2922.717327
693.010610	2910.469844
693.347345	2897.879562
693.684030	2884.840618
694.020665	2875.393495
694.357251	2855.851462
694.693786	2860.524612
695.030272	2853.257789
695.366707	2842.235306
695.703093	2836.805983
696.039429	2836.226251
696.375716	2828.878769
696.711952	2825.140753
697.048139	2819.603046
697.384276	2817.001810
697.720363	2817.546255
698.056400	2812.984011
698.392388	2807.723567
698.728326	2804.285500
699.064214	2796.108748
699.400053	2792.146401
699.735842	2783.410082
700.071581	2777.695934
700.407270	2769.766199
700.742910	2762.469129
701.078501	2757.649786
701.414042	2753.579054
701.749533	2748.875657
702.084974	2738.584142
702.420366	2741.082033
702.755709	2735.078019
703.091002	2724.385732
703.426246	2728.395970
703.761440	2721.701317
704.096584	2716.415668
704.431679	2712.904504
704.766725	2711.631613
705.101721	2708.720346
705.436668	2709.181612
705.771565	2705.675489
706.106413	2703.074254
706.441212	2702.509645
706.775961	2702.683565
707.110661	2700.238605
707.445311	2703.532999
707.779913	2701.980324
708.114465	2704.478215
708.448967	2703.830427
708.783421	2708.581715
709.117825	2709.784030
709.452180	2711.223279
709.786485	2712.639843
710.120742	2721.355998
710.454949	2721.711400
710.789107	2725.225084
711.123216	2733.749675
711.457275	2733.520303
711.791286	2738.117835
712.125247	2739.602455
712.459159	2734.480642
712.793023	2740.983731
713.126837	2729.283213
713.460602	2728.509396
713.794318	2718.404403
714.127985	2714.694114
714.461602	2703.255736
714.795171	2700.178111
715.128691	2689.695032
715.462162	2683.597756
715.795584	2674.553926
716.128957	2674.929492
716.462281	2668.839778
716.795556	2663.975065
717.128782	2661.804848
717.461960	2654.351502
717.795088	2651.714979
718.128167	2648.055101
718.461198	2645.095944
718.794180	2643.644091
719.127113	2641.052938
719.459997	2640.143010
719.792833	2630.849643
720.125619	2634.096146
720.458357	2630.393418
720.791046	2630.164046
721.123686	2624.903602
721.456278	2625.075001
721.788821	2622.506533
722.121315	2624.548201
722.453761	2620.054012
722.786158	2618.836573
723.118506	2621.510905
723.450805	2617.392283
723.783056	2619.754063
724.115259	2619.602829
724.447412	2616.668877
724.779518	2618.702983
725.111574	2619.721296
725.443582	2618.171141
725.775542	2615.975718
726.107453	2619.146604
726.439315	2621.536111
726.771129	2623.580299
727.102895	2622.498972
727.434612	2627.283027
727.766281	2627.575413
728.097901	2621.984774
728.429473	2621.019393
728.760996	2621.773045
729.092471	2617.140225
729.423897	2623.590381
729.755276	2618.556789
730.086606	2620.714403
730.417887	2620.172479
730.749120	2625.402676
731.080305	2624.974178
731.411442	2628.233284
731.742530	2625.117851
732.073570	2622.763632
732.404562	2624.331431
732.735506	2626.305043
733.066401	2622.811523
733.397249	2614.670060
733.728048	2613.084617
734.058798	2608.300562
734.389501	2601.789912
734.720156	2600.554829
735.050762	2599.060127
735.381320	2596.829416
735.711831	2594.260948
736.042293	2595.957297
736.372707	2592.983016
736.703073	2590.749785
737.033391	2594.969230
737.363661	2590.860690
737.693883	2592.141143
738.024056	2595.468305
738.354182	2593.310691
738.684260	2593.764395
739.014290	2598.435024
739.344272	2597.820003
739.674207	2598.966865
740.004093	2600.511979
740.333931	2599.851588
740.663722	2598.656834
740.993464	2597.058789
741.323159	2599.075250
741.652806	2593.366143
741.982405	2593.242635
742.311956	2591.879003
742.641460	2590.588468
742.970915	2587.651996
743.300323	2584.471027
743.629683	2584.362643
743.958996	2581.380800
744.288260	2583.198136
744.617477	2579.074472
744.946647	2573.917372
745.275768	2573.584656
745.604842	2573.609862
745.933869	2574.441652
746.262847	2571.192628
746.591778	2577.468865
746.920662	2572.062227
747.249498	2575.459965
747.578286	2575.293607
747.907027	2578.144379
748.235720	2578.061200
748.564365	2578.499781
748.892963	2574.771847
749.221514	2576.130438
749.550017	2573.536765
749.878473	2575.333936
750.206881	2570.605334
750.535242	2572.387382
750.863555	2572.888977
751.191821	2575.359142
751.520039	2570.703636
751.848210	2573.584656
752.176334	2570.819583
752.504411	2571.658935
752.832440	2569.758420
753.160421	2571.215313
753.488356	2568.011660
753.816243	2570.955694
754.144082	2568.558625
754.471875	2569.851681
754.799620	2569.705488
755.127318	2569.529047
755.454969	2568.699778
755.782572	2571.537947
756.110129	2566.285065
756.437638	2570.398647
756.765100	2570.350756
757.092515	2570.133986
757.419882	2570.212124
757.747203	2570.111301
758.074477	2570.912844
758.401703	2569.642473
758.728882	2567.983934
759.056014	2570.307906
759.383099	2567.603327
759.710138	2570.749007
760.037129	2570.197000
760.364073	2571.490056
760.690970	2571.132134
761.017820	2571.414439
761.344623	2569.118193
761.671379	2572.616754
761.998088	2566.915209
762.324751	2573.844275
762.651366	2581.375759
762.977935	2599.634818
763.304456	2608.179574
763.630931	2614.100409
763.957359	2604.988524
764.283740	2595.566607
764.610074	2587.079825
764.936362	2581.285018
765.262602	2578.371231
765.588796	2571.134655
765.914943	2569.334963
766.241044	2569.975190
766.567097	2564.200548
766.893104	2563.918243
767.219064	2562.579817
767.544978	2561.067471
767.870845	2561.858932
768.196665	2562.597461
768.522438	2558.937583
768.848165	2560.586041
769.173846	2558.887172
769.499479	2558.015052
769.825066	2558.574620
770.150607	2558.423386
770.476101	2557.584033
770.801548	2557.959599
771.126949	2557.720145
771.452303	2555.945658
771.777611	2556.903478
772.102872	2554.650082
772.428087	2555.658313
772.753256	2556.086811
773.078378	2555.912891
773.403453	2554.208981
773.728482	2552.747046
774.053465	2553.699824
774.378401	2553.465411
774.703291	2553.039433
775.028135	2551.264947
775.352932	2550.589432
775.677683	2553.578837
776.002388	2553.992211
776.327046	2550.914587
776.651658	2552.865513
776.976224	2549.951727
777.300743	2550.203784
777.625216	2552.126984
777.949643	2552.830225
778.274024	2551.668239
778.598359	2545.933927
778.922647	2544.298072
779.246889	2546.856458
779.571086	2545.974256
779.895236	2548.913249
780.219339	2551.048178
780.543397	2550.206305
780.867409	2548.411654
781.191374	2547.476520
781.515294	2547.342929
781.839167	2548.207487
782.162995	2550.793599
782.486776	2551.885009
782.810511	2551.655637
783.134201	2549.498023
783.457844	2550.982642
783.781441	2550.327292
784.104993	2548.648588
784.428498	2549.840821
784.751958	2549.500543
785.075372	2546.402754
785.398739	2550.322251
785.722061	2550.660009
786.045337	2548.411654
786.368568	2550.186140
786.691752	2545.742363
787.014891	2551.789227
787.337983	2551.184289
787.661030	2554.309804
787.984031	2555.096224
788.306987	2554.455997
788.629897	2553.858621
788.952760	2551.632951
789.275579	2554.231666
789.598351	2555.678477
789.921078	2552.391645
790.243759	2550.985163
790.566395	2551.257385
790.888984	2551.053219
791.211529	2547.781510
791.534027	2550.292004
791.856480	2547.723537
792.178888	2549.692107
792.501249	2547.489123
792.823566	2547.491643
793.145836	2546.758156
793.468062	2547.279915
793.790241	2545.336550
794.112375	2546.191026
794.434464	2547.486602
794.756507	2546.309493
795.078505	2549.452652
795.400457	2549.729916
795.722364	2545.099616
796.044226	2546.982487
796.366042	2547.479041
796.687812	2549.533311
797.009538	2550.181099
797.331218	2550.349978
797.652852	2548.827549
797.974442	2549.314021
798.295986	2548.436860
798.617484	2548.814946
798.938938	2547.579864
799.260346	2547.970553
799.581709	2549.553475
799.903026	2549.619010
800.224299	2548.066335
800.545526	2548.381407
800.866708	2547.121119
801.187845	2549.525749
801.508936	2546.140614
801.829983	2545.087013
802.150984	2545.611293
802.471940	2547.325285
802.792851	2548.535162
803.113717	2547.879812
803.434538	2545.180274
803.755314	2547.191695
804.076045	2546.611962
804.396731	2544.847558
804.717372	2547.219421
805.037967	2546.755635
805.358518	2544.585418
805.679024	2547.347971
805.999485	2545.691952
806.319901	2548.583053
806.640272	2545.477703
806.960598	2546.783361
807.280879	2543.554502
807.601115	2549.465255
807.921306	2545.371838
808.241453	2548.275543
808.561554	2545.220604
808.881611	2545.044163
809.201623	2546.516180
809.521590	2545.379400
809.841513	2546.448125
810.161390	2546.271684
810.481223	2547.337888
810.801011	2543.405788
811.120755	2545.417209
811.440453	2546.886705
811.760107	2548.325954
812.079716	2544.625747
812.399281	2540.670962
812.718801	2541.651467
813.038276	2542.006868
813.357707	2546.927034
813.677093	2545.112219
813.996434	2545.467620
814.315731	2548.497354
814.634983	2543.100798
814.954191	2548.474668
815.273354	2545.845707
815.592473	2545.051725
815.911547	2547.325285
816.230577	2545.923845
816.549562	2547.579864
816.868502	2546.042312
817.187399	2548.451983
817.506250	2548.487271
817.825058	2549.051881
818.143821	2546.974925
818.462539	2549.344267
818.781213	2551.413661
819.099843	2551.423743
819.418429	2552.547921
819.736970	2557.276523
820.055466	2560.903633
820.373919	2563.734241
820.692327	2568.667010
821.010691	2579.339133
821.329011	2599.186156
821.647286	2643.384472
821.965517	2689.508509
822.283704	2721.582850
822.601847	2729.542832
822.919945	2706.217413
823.237999	2679.703465
823.556010	2649.421254
823.873976	2629.579272
824.191897	2610.619492
824.509775	2598.135075
824.827609	2589.912953
825.145398	2585.426326
825.463144	2586.101841
825.780845	2583.790472
826.098502	2587.258786
826.416116	2602.316712
826.733685	2614.569237
827.051210	2619.975874
827.368692	2614.513784
827.686129	2601.061465
828.003522	2587.568817
828.320872	2575.855696
828.638177	2569.650035
828.955439	2561.324570
829.272656	2558.670402
829.589830	2551.282591
829.906960	2556.200237
830.224046	2552.983981
830.541088	2551.496840
830.858086	2553.145297
831.175041	2551.196892
831.491952	2551.058260
831.808819	2552.237890
832.125642	2549.555996
832.442421	2554.367777
832.759157	2556.779969
833.075849	2567.285734
833.392497	2577.741087
833.709101	2585.020513
834.025662	2582.497416
834.342179	2579.192939
834.658653	2571.812690
834.975083	2563.167111
835.291469	2564.876062
835.607811	2554.327448
835.924110	2551.595143
836.240366	2548.726726
836.556578	2549.167827
836.872746	2549.046839
837.188871	2544.824873
837.504952	2544.923176
837.820990	2544.960984
838.136984	2541.792619
838.452935	2543.161292
838.768842	2545.182795
839.084706	2542.795809
839.400526	2546.848896
839.716303	2555.310473
840.032037	2558.239383
840.347727	2560.475135
840.663373	2554.433312
840.978977	2550.559186
841.294537	2550.133208
841.610054	2545.812939
841.925527	2544.474513
842.240957	2544.562733
842.556344	2542.810932
842.871687	2540.975952
843.186987	2541.495191
843.502244	2538.561239
843.817458	2539.287166
844.132629	2540.756662
844.447756	2541.593493
844.762840	2537.946219
845.077881	2537.527803
845.392879	2537.996630
845.707833	2537.863040
846.022745	2538.094933
846.337613	2542.271529
846.652438	2539.456044
846.967221	2539.236754
847.281960	2540.731456
847.596656	2539.829090
847.911309	2536.943029
848.225919	2540.008051
848.540485	2537.994110
848.855009	2540.353370
849.169490	2540.489481
849.483928	2538.767927
849.798323	2536.476722
850.112675	2539.776157
850.426984	2537.293389
850.741251	2540.222300
851.055474	2538.999820
851.369654	2537.648791
851.683792	2538.856147
851.997887	2538.500746
852.311938	2539.614841
852.625947	2539.342618
852.939914	2539.060314
853.253837	2540.388658
853.567718	2538.770447
853.881555	2537.946219
854.195350	2538.500746
854.509103	2540.580222
854.822812	2539.622402
855.136479	2541.303627
855.450103	2539.496373
855.763685	2539.413194
856.077224	2538.420087
856.390720	2537.305992
856.704173	2537.726928
857.017584	2539.529141
857.330953	2538.788091
857.644278	2538.210879
857.957561	2542.687424
858.270802	2542.392516
858.584000	2538.372196
858.897155	2540.388658
859.210268	2540.171888
859.523339	2539.272042
859.836367	2537.984027
860.149352	2535.803728
860.462295	2539.655170
860.775195	2533.487318
861.088054	2535.123172
861.400869	2534.863553
861.713642	2533.504962
862.026373	2537.459747
862.339062	2537.106867
862.651708	2540.718853
862.964312	2537.167360
863.276873	2538.541075
863.589392	2539.816487
863.901869	2538.402443
864.214303	2537.595858
864.526696	2540.393699
864.839045	2538.324305
865.151353	2537.091743
865.463619	2538.790612
865.775842	2539.234233
866.088023	2542.392516
866.400162	2535.753317
866.712258	2540.136600
867.024313	2543.516694
867.336325	2540.086188
867.648296	2539.617361
867.960224	2538.089892
868.272110	2541.132228
868.583954	2538.798174
868.895755	2541.197763
869.207515	2540.439069
869.519233	2541.215407
869.830909	2540.580222
870.142542	2541.011240
870.454134	2540.101312
870.765684	2541.638864
871.077191	2543.824204
871.388657	2545.064328
871.700081	2542.337064
872.011463	2543.635161
872.322803	2541.623740
872.634101	2542.190870
872.945357	2543.304965
873.256571	2542.594162
873.567744	2538.609130
873.878874	2543.488967
874.189963	2542.316899
874.501010	2543.055428
874.812015	2541.016281
875.122979	2546.163299
875.433900	2541.389327
875.744780	2542.493339
876.055618	2543.713299
876.366415	2545.185316
876.677169	2542.538710
876.987882	2540.441590
877.298554	2541.185160
877.609183	2541.447300
877.919771	2540.902855
878.230317	2541.848072
878.540822	2548.976263
878.851285	2547.887374
879.161707	2548.804864
879.472087	2550.939793
879.782425	2558.216698
880.092722	2563.414128
880.402977	2577.715881
880.713191	2598.278748
881.023363	2622.514095
881.333494	2640.274080
881.643583	2641.738535
881.953631	2638.151754
882.263637	2631.363841
882.573602	2624.641462
882.883526	2614.962447
883.193408	2603.695468
883.503248	2591.016966
883.813048	2582.512539
884.122806	2578.179667
884.432522	2573.657752
884.742197	2565.964952
885.051831	2562.022769
885.361424	2559.290464
885.670975	2555.938097
885.980485	2551.776624
886.289954	2552.147149
886.599382	2551.025492
886.908768	2549.835780
887.218113	2549.646737
887.527417	2547.169010
887.836680	2546.148176
888.145901	2545.548279
888.455082	2544.028371
888.764221	2544.834955
889.073319	2546.541386
889.382376	2545.074410
889.691392	2542.909235
890.000366	2546.667415
890.309300	2544.053577
890.618193	2544.063659
890.927044	2544.333361
891.235855	2548.714123
891.544625	2543.345294
891.853353	2544.885367
892.162041	2547.138763
892.470687	2546.422919
892.779293	2548.492313
893.087858	2549.815615
893.396381	2549.727395
893.704864	2550.460883
894.013306	2556.117058
894.321707	2568.871177
894.630068	2573.325036
894.938387	2574.179512
895.246665	2577.108422
895.554903	2573.778740
895.863100	2567.358831
896.171256	2562.128634
896.479371	2556.782490
896.787446	2556.812737
897.095480	2553.301573
897.403473	2549.921480
897.711425	2547.718495
898.019336	2547.141283
898.327207	2549.500543
898.635038	2544.953422
898.942827	2545.780172
899.250576	2547.317724
899.558284	2544.943340
899.865952	2545.616334
900.173579	2544.535007
900.481165	2544.892929
900.788711	2541.865716
901.096216	2543.133566
901.403681	2543.032743
901.711105	2543.549461
902.018489	2543.786395
902.325832	2546.009544
902.633135	2544.320758
902.940397	2545.689431
903.247619	2547.731098
903.554800	2554.992880
903.861941	2566.476629
904.169041	2582.920873
904.476101	2590.023858
904.783121	2589.565113
905.090100	2582.580595
905.397039	2574.272773
905.703938	2565.125600
906.010796	2560.759960
906.317614	2554.019938
906.624391	2552.374001
906.931129	2549.734957
907.237826	2546.584236
907.544483	2543.720860
907.851099	2544.356046
908.157675	2540.176929
908.464211	2540.358411
908.770707	2539.468647
909.077163	2536.675848
909.383578	2535.624767
909.689954	2535.123173
909.996289	2535.400436
910.302584	2538.699871
910.608839	2541.091899
910.915054	2541.243133
911.221229	2538.982176
911.527363	2540.297917
911.833458	2539.035108
912.139513	2540.980993
912.445527	2540.544933
912.751502	2542.881508
913.057436	2539.221631
913.363331	2540.386137
913.669186	2543.025181
913.975000	2543.357897
914.280775	2547.473999
914.586510	2551.443908
914.892205	2554.095555
915.197859	2560.250804
915.503475	2569.387895
915.809050	2578.860223
916.114585	2583.450194
916.420081	2585.214598
916.725536	2586.031265
917.030952	2581.726119
917.336328	2573.554409
917.641665	2568.477967
917.946961	2566.401012
918.252218	2558.932542
918.557435	2557.276523
918.862612	2554.864331
919.167750	2555.799465
919.472848	2546.064997
919.777906	2548.308310
920.082925	2544.414019
920.387904	2544.091385
920.692843	2541.646426
920.997743	2545.021478
921.302603	2543.105840
921.607423	2543.050387
921.912204	2545.765048
922.216946	2542.009389
922.521647	2538.137782
922.826310	2543.499050
923.130932	2539.690458
923.435516	2539.735828
923.740059	2541.548123
924.044564	2535.160981
924.349028	2539.244316
924.653454	2531.954807
924.957840	2534.246012
925.262186	2531.410363
925.566493	2536.267514
925.870761	2531.720394
926.174989	2536.083512
926.479178	2536.882535
926.783328	2534.442617
927.087438	2535.692823
927.391509	2537.714326
927.695541	2532.794159
927.999533	2535.531506
928.303486	2533.701567
928.607400	2537.366486
928.911275	2535.077802
929.215110	2532.910106
929.518906	2536.504449
929.822663	2535.438245
930.126381	2535.917154
930.430060	2533.638553
930.733699	2534.442617
931.037299	2536.040663
931.340861	2535.896990
931.644383	2536.222144
931.947866	2536.355735
932.251309	2532.663089
932.554714	2534.470343
932.858080	2537.817669
933.161407	2535.932278
933.464694	2534.591331
933.767943	2534.069571
934.071153	2533.436907
934.374323	2536.264994
934.677455	2534.979500
934.980548	2534.026722
935.283602	2534.944212
935.586617	2534.142668
935.889593	2533.300795
936.192530	2533.688964
936.495428	2535.239119
936.798287	2534.588810
937.101108	2534.190559
937.403890	2536.827083
937.706632	2536.665766
938.009336	2534.072092
938.312002	2537.479912
938.614628	2536.156609
938.917216	2538.924203
939.219765	2536.837165
939.522275	2538.125180
939.824747	2540.103832
940.127179	2534.994623
940.429573	2532.607637
940.731929	2537.232895
941.034246	2535.125693
941.336524	2535.037473
941.638763	2536.416228
941.940964	2535.428162
942.243126	2535.624767
942.545250	2537.031249
942.847335	2534.792977
943.149381	2536.302802
943.451389	2535.813811
943.753359	2536.388502
944.055290	2535.997813
944.357182	2537.505118
944.659036	2534.533358
944.960851	2533.671320
945.262628	2532.388347
945.564367	2533.852802
945.866067	2533.010929
946.167729	2536.625436
946.469352	2533.719211
946.770937	2536.635519
947.072484	2534.160312
947.373992	2534.588810
947.675462	2533.925898
947.976893	2532.524458
948.278286	2534.475384
948.579641	2532.000178
948.880958	2533.867925
949.182236	2535.831455
949.483476	2531.480939
949.784678	2534.941691
950.085841	2535.067720
950.386967	2536.307844
950.688054	2534.755168
950.989103	2532.421114
951.290114	2533.537730
951.591087	2536.716177
951.892021	2533.199972
952.192917	2535.155940
952.493776	2534.692154
952.794596	2537.079140
953.095378	2533.550332
953.396122	2534.228368
953.696828	2537.525282
953.997496	2534.482946
954.298126	2532.627801
954.598718	2535.808769
954.899272	2533.489839
955.199788	2532.937832
955.500266	2532.385826
955.800706	2532.479087
956.101108	2528.345341
956.401472	2529.545136
956.701798	2527.858870
957.002087	2530.626463
957.302337	2529.782070
957.602550	2534.954294
957.902724	2531.075126
958.202861	2530.659231
958.502960	2530.318953
958.803022	2529.837523
959.103045	2531.755682
959.403031	2530.752492
959.702979	2531.685106
960.002889	2530.981865
960.302762	2530.439941
960.602596	2532.171577
960.902393	2531.291896
961.202153	2532.602596
961.501875	2527.563962
961.801559	2531.075126
962.101205	2530.800383
962.400814	2527.763088
962.700385	2533.603265
962.999918	2531.191072
963.299414	2531.690147
963.598873	2530.500434
963.898293	2529.530012
964.197677	2532.199303
964.497022	2530.835671
964.796331	2532.927750
965.095601	2529.376257
965.394835	2532.779036
965.694030	2529.472039
965.993189	2531.869108
966.292309	2530.777698
966.591393	2529.159487
966.890439	2529.585465
967.189447	2532.320291
967.488419	2532.612678
967.787353	2531.884231
968.086249	2529.625794
968.385108	2532.000178
968.683930	2530.480270
968.982714	2535.037473
969.281462	2529.784591
969.580172	2529.386339
969.878844	2531.213758
970.177480	2529.159488
970.476078	2530.429858
970.774639	2529.847605
971.073162	2532.466484
971.371649	2527.816020
971.670098	2526.021369
971.968510	2527.828623
972.266885	2525.519774
972.565223	2531.180990
972.863524	2530.689478
973.161788	2530.361803
973.460014	2530.069416
973.758204	2531.364992
974.056356	2529.711494
974.354471	2530.881042
974.652550	2532.138809
974.950591	2529.885414
975.248595	2531.196114
975.546563	2531.896834
975.844493	2529.492204
976.142386	2528.733510
976.440243	2527.914323
976.738062	2529.635877
977.035845	2529.267872
977.333590	2530.145033
977.631299	2526.379291
977.928971	2529.900537
978.226606	2528.400794
978.524204	2528.955321
978.821765	2527.425331
979.119290	2528.342821
979.416777	2526.190248
979.714228	2530.812986
980.011642	2529.033459
980.309020	2530.311391
980.606360	2528.486493
980.903664	2529.121679
981.200931	2529.073788
981.498162	2529.063706
981.795356	2528.211751
982.092513	2530.291227
982.389633	2530.533202
982.686717	2530.571011
982.983764	2531.102852
983.280775	2531.216278
983.577749	2530.644107
983.874686	2532.048069
984.171587	2532.640404
984.468451	2533.600744
984.765279	2528.703263
985.062070	2528.632687
985.358824	2524.761081
985.655543	2528.257121
985.952224	2528.332738
986.248869	2528.168901
986.545478	2525.350896
986.842050	2527.919364
987.138586	2525.897861
987.435086	2524.854342
987.731549	2526.054137
988.027975	2527.838705
988.324366	2527.198479
988.620719	2529.502286
988.917037	2527.934487
989.213318	2528.632687
989.509563	2527.004394
989.805772	2530.722245
990.101944	2530.702081
990.398080	2528.983047
990.694180	2529.225022
990.990244	2526.674199
991.286271	2527.747964
991.582262	2526.984230
991.878217	2529.562780
992.174136	2526.890968
992.470019	2529.628315
992.765865	2526.288550
993.061676	2530.122348
993.357450	2526.303674
993.653188	2529.109076
993.948890	2527.324507
994.244556	2525.517254
994.540186	2529.908099
994.835780	2528.466329
995.131337	2525.880217
995.426859	2526.585978
995.722345	2527.768129
996.017795	2527.944569
996.313208	2530.704601
996.608586	2528.357944
996.903928	2528.166380
997.199234	2529.393901
997.494504	2528.884745
997.789738	2528.627646
998.084936	2529.870290
998.380099	2528.315094
998.675225	2526.419620
998.970316	2529.028418
999.265371	2528.705784
999.560390	2528.647810
999.855373	2527.773170
1000.150320	2527.843746
1000.445232	2528.778880
1000.740108	2529.661082
1001.034948	2528.136133
1001.329752	2526.719569
1001.624521	2531.097811
1001.919254	2524.090607
1002.213951	2525.116482
1002.508613	2524.239321
1002.803239	2524.388035
1003.097829	2522.250586
1003.392384	2527.009435
1003.686903	2525.507172
1003.981386	2528.368026
1004.275834	2525.519774
1004.570246	2529.598068
1004.864623	2528.587317
1005.158964	2528.758716
1005.453270	2527.110258
1005.747540	2527.964734
1006.041775	2525.678571
1006.335974	2526.212933
1006.630138	2525.436595
1006.924266	2526.646472
1007.218359	2525.660927
1007.512416	2527.125382
1007.806438	2525.655886
1008.100425	2526.727131
1008.394376	2524.108251
1008.688292	2529.449354
1008.982172	2525.207223
1009.276017	2523.631862
1009.569827	2526.931297
1009.863602	2526.749816
1010.157341	2529.454395
1010.451045	2527.435413
1010.744714	2525.731503
1011.038347	2528.161339
1011.331945	2524.274609
1011.625508	2527.531195
1011.919036	2526.739734
1012.212528	2526.921215
1012.505986	2526.953983
1012.799408	2528.426000
1013.092795	2527.838705
1013.386147	2527.992460
1013.679464	2523.957017
1013.972745	2525.643283
1014.265992	2527.339631
1014.559204	2525.272758
1014.852380	2526.386853
1015.145521	2526.734692
1015.438628	2524.435926
1015.731699	2527.153108
1016.024736	2525.771832
1016.317737	2526.500279
1016.610703	2528.027748
1016.903635	2523.868797
1017.196531	2521.948117
1017.489393	2522.520288
1017.782219	2523.299146
1018.075011	2527.664785
1018.367768	2525.179497
1018.660490	2528.829292
1018.953177	2528.829292
1019.245829	2528.829292
