Dividing Wavelength (nm)	Counts (n)	Blue Motor Position (mm): 0.000000	Red Motor Position (mm): 45.300000	
326.493990	2127.334156
326.888308	2127.334156
327.282561	2127.334156
327.676750	2094.647314
328.070874	2094.289392
328.464933	2096.318457
328.858929	2102.337594
329.252859	2112.049377
329.646726	2124.052364
330.040528	2137.040897
330.434265	2153.394400
330.827938	2170.446103
331.221547	2189.824299
331.615091	2210.412371
332.008571	2226.990205
332.401986	2246.640623
332.795338	2268.146185
333.188625	2286.064967
333.581847	2306.751342
333.975006	2325.088539
334.368100	2342.367093
334.761129	2359.630525
335.154095	2376.483102
335.546996	2396.095711
335.939833	2422.869279
336.332606	2435.613316
336.725315	2447.298711
337.117960	2459.147943
337.510540	2467.057513
337.903056	2478.437918
338.295508	2483.894967
338.687896	2492.840495
339.080220	2502.229644
339.472480	2507.071672
339.864676	2514.348578
340.256807	2516.929648
340.648875	2522.364012
341.040879	2525.151770
341.432818	2521.698580
341.824694	2527.127903
342.216506	2529.645959
342.608253	2525.923067
342.999937	2527.657224
343.391557	2527.818541
343.783113	2522.487520
344.174605	2524.952645
344.566033	2522.066584
344.957397	2523.352078
345.348697	2517.521984
345.739934	2519.843435
346.131106	2516.254134
346.522215	2514.532580
346.913260	2513.731036
347.304241	2511.979235
347.695159	2511.238186
348.086012	2509.015037
348.476802	2503.489932
348.867528	2506.864985
349.258191	2503.222751
349.648789	2505.473626
350.039324	2499.666217
350.429796	2499.681340
350.820203	2497.012049
351.210548	2504.349449
351.600828	2496.399549
351.991045	2496.830568
352.381198	2497.097749
352.771288	2495.706391
353.161314	2497.458192
353.551276	2493.226143
353.941175	2495.134220
354.331010	2493.521050
354.720782	2496.192862
355.110490	2496.722183
355.500135	2498.655466
355.889717	2495.920640
356.279235	2495.550115
356.668689	2496.825527
357.058080	2498.980620
357.447408	2496.074395
357.836672	2494.488952
358.225873	2495.146823
358.615010	2494.141112
359.004084	2499.885507
359.393095	2497.627070
359.782043	2499.121772
360.170927	2499.212513
360.559748	2502.494304
360.948505	2500.142606
361.337199	2504.321723
361.725830	2503.449603
362.114398	2505.322392
362.502903	2502.360714
362.891344	2503.764675
363.279722	2506.751559
363.668037	2505.352638
364.056289	2504.861126
364.444478	2508.584018
364.832603	2506.801970
365.220665	2508.760458
365.608665	2507.853051
365.996601	2510.933196
366.384474	2510.240037
366.772284	2512.115346
367.160031	2515.447549
367.547715	2515.971829
367.935336	2519.099865
368.322893	2522.981553
368.710388	2523.215967
369.097820	2531.589324
369.485189	2534.240971
369.872495	2541.394368
370.259738	2547.282436
370.646918	2554.103117
371.034035	2560.815413
371.421090	2575.049111
371.808081	2583.296439
372.195010	2590.641400
372.581875	2605.215376
372.968678	2615.706017
373.355418	2624.412089
373.742096	2646.880512
374.128710	2660.564724
374.515262	2675.690706
374.901751	2691.459436
375.288177	2703.190201
375.674540	2728.320352
376.060841	2743.814339
376.447079	2763.265631
376.833254	2784.312448
377.219367	2792.743778
377.605417	2831.971517
377.991404	2838.756910
378.377329	2865.941332
378.763191	2880.711913
379.148991	2921.147008
379.534727	2943.507046
379.920402	2972.576859
380.306013	2984.554641
380.691563	3034.484749
381.077049	3054.727502
381.462474	3076.399423
381.847835	3110.437293
382.233134	3135.885038
382.618371	3133.997126
383.003545	3201.878783
383.388657	3210.872202
383.773706	3242.039135
384.158693	3256.424068
384.543618	3286.255096
384.928480	3320.083758
385.313280	3367.228629
385.698017	3364.607229
386.082692	3418.950868
386.467305	3424.193668
386.851856	3455.232052
387.236344	3478.297851
387.620770	3512.653315
388.005133	3536.387067
388.389435	3560.718196
388.773674	3573.623550
389.157851	3618.641054
389.541965	3632.453815
389.926018	3598.461315
390.310008	3670.461595
390.693936	3687.104964
391.077802	3729.211202
391.461606	3719.529666
391.845348	3782.050056
392.229027	3779.126187
392.612645	3793.624545
392.996200	3866.915360
393.379694	3910.002102
393.763125	3974.349910
394.146494	3937.486473
394.529801	4002.030886
394.913047	4053.884195
395.296230	4019.760624
395.679351	4074.585693
396.062410	4094.110082
396.445408	4075.724994
396.828343	4110.226651
397.211217	4132.982419
397.594028	4054.612641
397.976778	4119.217548
398.359466	4146.061693
398.742092	4176.250643
399.124656	4096.406327
399.507158	4180.293648
399.889598	4203.649314
400.271977	4268.052575
400.654294	4238.902103
401.036549	4247.827465
401.418742	4216.413515
401.800874	4318.264988
402.182944	4338.905992
402.564952	4405.343358
402.946898	4389.163775
403.328783	4384.790574
403.710606	4296.467038
404.092367	4495.138911
404.474067	4456.377479
404.855705	4462.951144
405.237282	4391.112181
405.618797	4502.556969
406.000250	4538.525602
406.381642	4614.301706
406.762972	4576.825768
407.144240	4587.742387
407.525447	4591.034260
407.906593	4646.711284
408.287677	4692.996638
408.668700	4620.887973
409.049661	4673.240356
409.430560	4710.340728
409.811399	4641.276920
410.192176	4802.954286
410.572891	4736.174121
410.953545	4841.042724
411.334138	4723.672059
411.714669	4790.467348
412.095139	4684.882901
412.475547	4825.039581
412.855894	4809.399401
413.236180	4817.150175
413.616405	4775.280872
413.996568	4860.773800
414.376670	4798.792813
414.756711	4756.663891
415.136691	4787.001554
415.516609	4862.999469
415.896466	4906.174431
416.276262	4940.633238
416.655997	4915.981996
417.035670	5102.076190
417.415283	5185.630795
417.794834	5134.246314
418.174324	5089.390127
418.553753	4994.775231
418.933121	5178.381616
419.312428	5250.417183
419.691674	5183.863870
420.070859	5310.190145
420.449983	5221.082709
420.829045	5339.247355
421.208047	5244.657665
421.586988	5317.255322
421.965867	5326.904090
422.344686	5460.416529
422.723444	5315.758099
423.102141	5133.225480
423.480777	5431.843269
423.859352	5206.007139
424.237866	5462.397703
424.616319	5455.186332
424.994712	5561.199277
425.373044	5440.395587
425.751314	5578.492955
426.129524	5388.325509
426.507673	5581.588224
426.885762	5662.589484
427.263789	5596.315955
427.641756	5476.122244
428.019662	5599.461635
428.397508	5603.975988
428.775292	5552.856167
429.153016	5650.987268
429.530679	5575.221246
429.908282	5661.006561
430.285824	5532.532756
430.663305	5806.151463
431.040726	5539.068612
431.418086	5542.136154
431.795385	5646.893851
432.172624	5658.614534
432.549802	5655.100850
432.926920	5670.196585
433.303977	5669.707593
433.680974	5713.868101
434.057910	5731.701182
434.434786	5737.143108
434.811601	5705.789652
435.188355	5937.521412
435.565050	5817.332742
435.941683	5790.808711
436.318257	6011.432289
436.694770	5998.229507
437.071222	6030.926431
437.447614	5961.819773
437.823946	5876.452874
438.200218	6025.769330
438.576429	5894.618672
438.952580	5990.740873
439.328670	6028.219331
439.704700	5942.300425
440.080670	5928.757366
440.456580	6204.027051
440.832429	6077.017700
441.208218	5929.468168
441.583947	6082.250418
441.959616	6092.221820
442.335224	6015.964286
442.710773	6152.864380
443.086261	6174.221229
443.461689	5976.918029
443.837057	6124.356655
444.212365	6277.774090
444.587612	6169.391803
444.962800	6323.567932
445.337927	6302.891639
445.712995	5913.911168
446.088002	6494.460527
446.462949	6319.751778
446.837837	6252.228043
447.212664	6426.256236
447.587431	6569.666980
447.962139	7107.510205
448.336786	8035.909262
448.711374	7783.327289
449.085901	6854.167018
449.460369	6773.879082
449.834776	6709.642179
450.209124	7095.197187
450.583412	7247.586226
450.957640	7395.269349
451.331808	7164.664287
451.705917	6714.597633
452.079965	6633.104860
452.453954	6846.711152
452.827883	6726.333439
453.201752	6814.737633
453.575562	6614.888651
453.949311	6826.236505
454.323001	6710.579833
454.696632	6781.876872
455.070202	6923.737462
455.443713	7075.826553
455.817164	7178.708941
456.190556	7259.443020
456.563888	7331.559246
456.937160	7370.789506
457.310373	7032.621344
457.683526	7059.614202
458.056619	6947.511543
458.429653	6937.915707
458.802628	6873.477158
459.175542	6983.056719
459.548398	7336.507139
459.921194	7500.029567
460.293930	7500.140472
460.666607	8028.206379
461.039224	8341.395623
461.411782	8465.473543
461.784280	8479.543403
462.156719	8376.953402
462.529099	8257.422603
462.901419	7842.069335
463.273680	7735.655618
463.645882	7748.283708
464.018024	7618.526929
464.390106	7775.631968
464.762130	8169.325919
465.134094	8636.557701
465.505999	9652.761055
465.877845	10887.868953
466.249631	11530.467355
466.621358	11143.982254
466.993026	10516.918168
467.364634	10254.256409
467.736184	9901.756247
468.107674	9561.196057
468.479105	9590.666643
468.850477	9360.633752
469.221790	9131.362075
469.593043	8803.888721
469.964238	8659.908326
470.335373	8681.650822
470.706449	8741.569977
471.077467	8715.807160
471.448425	10027.679229
471.819324	11101.944072
472.190164	11129.988011
472.560945	9872.953614
472.931667	9084.068490
473.302330	8949.303324
473.672934	8595.500024
474.043479	8956.975960
474.413965	8889.182523
474.784393	8775.940564
475.154761	8931.258514
475.525070	9021.676649
475.895321	8848.853293
476.265513	9026.821147
476.635645	9197.345738
477.005719	9196.461015
477.375734	9306.383375
477.745691	9545.031598
478.115588	9677.709726
478.485427	9924.000338
478.855207	10455.403488
479.224928	11268.166038
479.594591	11902.537276
479.964194	11719.825696
480.333739	11655.089719
480.703226	11574.491751
481.072653	11663.649598
481.442022	11898.355639
481.811333	12087.683733
482.180584	11895.585525
482.549777	11600.320103
482.918912	11428.046232
483.287988	11451.195211
483.657005	11457.214348
484.025964	11144.138530
484.394864	11270.242993
484.763706	11243.310629
485.132489	11002.010759
485.501213	10962.840993
485.869879	11044.318643
486.238487	10885.499611
486.607036	10987.714047
486.975527	10772.925605
487.343959	10961.447114
487.712333	11006.245328
488.080648	10935.709503
488.448905	10985.334622
488.817104	10923.678790
489.185244	11186.640498
489.553326	11342.903664
489.921350	11877.001311
490.289315	12942.998663
490.657222	13288.796611
491.025070	13191.598123
491.392861	13072.072366
491.760593	12692.896938
492.128267	12331.786485
492.495883	12005.986794
492.863440	11668.685711
493.230939	11338.883344
493.598380	11271.059660
493.965763	11136.743157
494.333088	11040.545339
494.700354	10962.316713
495.067563	11022.525734
495.434713	10852.810249
495.801805	10980.777419
496.168839	10898.762887
496.535815	10836.330717
496.902733	10837.863228
497.269593	10770.820923
497.636395	10869.594771
498.003139	10857.899294
498.369825	10729.859027
498.736453	10885.824766
499.103023	10814.671400
499.469535	10842.160812
499.835989	10822.631382
500.202385	10789.488316
500.568723	10638.672116
500.935003	10861.881805
501.301226	10666.020376
501.667390	10929.692886
502.033497	11021.535148
502.399546	10883.944415
502.765537	10790.234406
503.131470	10867.623680
503.497345	11041.793024
503.863163	10652.084106
504.228923	10965.238062
504.594625	11025.139573
504.960269	10783.070927
505.325856	10989.536424
505.691385	10784.855495
506.056856	10942.593199
506.422270	10966.180758
506.787625	10857.377534
507.152924	10975.731224
507.518164	10957.124325
507.883347	10867.343896
508.248472	10800.276385
508.613540	11030.168124
508.978550	10915.701164
509.343503	10880.725638
509.708398	11003.724751
510.073236	11121.612134
510.438016	11122.489295
510.802738	11064.727754
511.167403	11119.973759
511.532010	11027.695438
511.896561	11248.429921
512.261053	11322.842392
512.625488	11192.508401
512.989866	11172.132057
513.354186	11165.339102
513.718449	11064.014431
514.082655	11257.874522
514.446803	11151.975003
514.810894	11283.181115
515.174927	11139.339351
515.538904	11164.469503
515.902822	11323.036477
516.266684	11200.937210
516.630488	11145.781946
516.994235	11204.254289
517.357925	11269.154104
517.721558	11354.082423
518.085133	11376.825588
518.448651	11390.330840
518.812112	11263.732343
519.175516	11283.891917
519.538863	11403.165617
519.902152	11318.491877
520.265385	11477.802421
520.628560	11386.436548
520.991678	11364.348733
521.354739	11431.116295
521.717743	11363.511901
522.080690	11339.982316
522.443580	11470.833025
522.806413	11432.487489
523.169189	11461.554782
523.531908	11518.550067
523.894569	11333.517036
524.257174	11342.671771
524.619722	11463.367077
524.982213	11415.176166
525.344647	11466.054012
525.707025	11411.377657
526.069345	11507.691422
526.431608	11427.184195
526.793815	11530.926100
527.155964	11320.480612
527.518057	11365.603980
527.880093	11318.728811
528.242072	11388.957125
528.603995	11297.596294
528.965860	11218.283821
529.327669	11265.406006
529.689421	11214.911289
530.051117	11192.115191
530.412755	11296.043619
530.774337	11182.491628
531.135862	11164.784575
531.497331	11187.764675
531.858743	11040.114320
532.220098	11212.007584
532.581396	11078.346431
532.942638	11061.014944
533.303824	11028.870027
533.664953	11031.390603
534.026025	10953.509818
534.387040	11053.886752
534.747999	11060.944368
535.108902	11112.263314
535.469748	10870.711386
535.830537	10964.802002
536.191270	10949.494539
536.551947	10971.408434
536.912567	10977.702315
537.273131	10890.402133
537.633638	10873.552077
537.994089	10857.485919
538.354483	10816.271966
538.714821	10958.520725
539.075103	10964.517177
539.435328	10928.858575
539.795497	10754.036401
540.155609	10917.589076
540.515665	11002.575368
540.875665	10740.601726
541.235609	10805.282251
541.595496	10796.853441
541.955328	10960.766559
542.315102	10844.154588
542.674821	10791.721547
543.034483	10790.683069
543.394090	10794.360591
543.753640	10720.691689
544.113134	10944.874321
544.472571	10802.209667
544.831953	10950.152409
545.191278	10749.932902
545.550548	10776.925760
545.909761	10914.385423
546.268918	10886.981710
546.628019	10971.552107
546.987064	10840.182159
547.346053	10758.278532
547.704986	10858.988183
548.063863	10845.054434
548.422684	10836.434061
548.781449	10758.628892
549.140158	10857.506084
549.498811	10727.648481
549.857408	10584.736811
550.215949	10814.091667
550.574434	10673.836685
550.932864	10765.802454
551.291237	10822.402009
551.649555	10782.287027
552.007817	10781.578745
552.366022	10749.413663
552.724173	10744.122972
553.082267	10722.322502
553.440305	10863.815088
553.798288	10663.411578
554.156215	10817.938067
554.514086	10793.833790
554.871902	10646.768209
555.229661	10680.296923
555.587365	10657.967132
555.945014	10550.562829
556.302606	10676.531181
556.660143	10574.929246
557.017625	10719.111287
557.375050	10628.609973
557.732421	10758.535631
558.089735	10675.369195
558.446994	10676.072436
558.804197	10708.033352
559.161345	10711.320184
559.518437	10557.567512
559.875474	10648.976234
560.232455	10676.339618
560.589381	10632.708431
560.946251	10622.006061
561.303065	10734.408669
561.659825	10664.739923
562.016528	10588.691596
562.373177	10480.044648
562.729770	10589.828376
563.086307	10502.762608
563.442789	10602.406055
563.799216	10472.523247
564.155587	10526.519046
564.511904	10476.178083
564.868164	10463.411361
565.224370	10485.902469
565.580520	10406.436241
565.936615	10415.966542
566.292654	10285.309917
566.648638	10413.128372
567.004567	10367.095076
567.360441	10358.283139
567.716260	10264.570610
568.072023	10358.280618
568.427732	10310.881169
568.783385	10222.582839
569.138982	10289.297469
569.494525	10304.849429
569.850013	10183.788640
570.205445	10265.092369
570.560823	10163.429940
570.916145	10082.910110
571.271412	10150.935440
571.626625	10097.070711
571.981782	10071.915354
572.336884	10045.111539
572.691931	10049.457013
573.046923	9996.759312
573.401860	9951.078896
573.756743	9891.023630
574.111570	9930.337068
574.466342	9918.195449
574.821059	9944.132186
575.175722	9839.603861
575.530330	9850.974183
575.884882	9838.252832
576.239380	9762.053271
576.593823	9745.044418
576.948211	9757.223845
577.302544	9636.520978
577.656823	9655.158124
578.011047	9655.072424
578.365216	9626.058063
578.719330	9553.379748
579.073389	9566.471625
579.427394	9506.928036
579.781344	9487.486827
580.135239	9432.341645
580.489080	9448.488460
580.842866	9344.668418
581.196597	9352.852731
581.550273	9397.129185
581.903895	9357.591415
582.257463	9423.076004
582.610975	9303.736769
582.964434	9334.258435
583.317837	9252.390096
583.671186	9235.368640
584.024481	9227.784224
584.377721	9147.314806
584.730906	9127.581209
585.084037	9155.216815
585.437113	9091.864634
585.790135	9112.840876
586.143103	9010.697016
586.496016	8989.720775
586.848874	9046.101040
587.201679	9035.958238
587.554428	8917.009693
587.907124	8966.145819
588.259765	8939.586500
588.612352	8939.163043
588.964884	8816.201739
589.317362	8833.190428
589.669786	8828.403852
590.022155	8879.690031
590.374470	8896.250221
590.726731	8836.625974
591.078937	8685.582922
591.431090	8796.173235
591.783188	8670.058689
592.135232	8661.511413
592.487222	8664.193307
592.839157	8717.858910
593.191038	8650.103282
593.542866	8592.490455
593.894639	8496.199375
594.246358	8546.565543
594.598022	8557.822440
594.949633	8455.028272
595.301190	8430.354344
595.652692	8462.824416
596.004141	8572.083864
596.355535	8349.615224
596.706876	8329.256525
597.058162	8260.653983
597.409395	8336.293975
597.760573	8399.943584
598.111698	8311.173906
598.462768	8293.968448
598.813785	8260.084332
599.164748	8228.811534
599.515657	8214.794606
599.866511	8126.551728
600.217312	8253.666943
600.568060	8113.676622
600.918753	8219.661840
601.269392	8185.702107
601.619978	8098.936288
601.970510	8165.487080
602.320988	8161.577665
602.671412	8214.368628
603.021783	8154.048702
603.372100	8126.534084
603.722363	8127.761605
604.072572	8107.289480
604.422728	8119.163917
604.772830	8042.745066
605.122878	8048.481899
605.472872	8047.602218
605.822813	8080.538597
606.172701	8020.485852
606.522534	8090.651151
606.872314	8095.528468
607.222041	8068.313799
607.571714	8120.832539
607.921333	8080.392403
608.270899	8084.889112
608.620411	8170.631578
608.969870	8083.202847
609.319276	8072.424860
609.668627	8087.949093
610.017926	8124.936039
610.367171	8170.419849
610.716362	8147.134760
611.065500	8133.269066
611.414585	8164.108325
611.763616	8151.376891
612.112594	8132.066751
612.461518	8148.503433
612.810389	8205.135755
613.159207	8151.371849
613.507971	8093.058302
613.856682	8213.252013
614.205340	8170.608892
614.553945	8247.501612
614.902496	8140.533369
615.250994	8207.154737
615.599439	8187.607663
615.947830	8194.168725
616.296169	8171.163419
616.644454	8180.892846
616.992686	8180.429060
617.340864	8242.042042
617.688990	8147.167527
618.037063	8235.198676
618.385082	8178.523504
618.733048	8267.033563
619.080961	8205.400416
619.428821	8223.052016
619.776628	8226.474959
620.124382	8175.715581
620.472083	8164.511617
620.819731	8193.919188
621.167326	8086.865245
621.514868	8093.360772
621.862357	7979.773493
622.209793	8001.649580
622.557176	7930.521420
622.904506	7904.340187
623.251783	7834.815114
623.599007	7788.978423
623.946179	7790.531098
624.293297	7748.828153
624.640363	7669.740011
624.987376	7647.445508
625.334336	7602.690144
625.681243	7548.727113
626.028097	7537.200515
626.374899	7516.277206
626.721647	7498.711305
627.068343	7434.814680
627.414987	7409.591267
627.761577	7363.479832
628.108115	7401.439721
628.454600	7291.267824
628.801032	7347.098603
629.147412	7305.660318
629.493739	7294.486601
629.840014	7228.097125
630.186236	7288.122144
630.532405	7171.164854
630.878521	7221.626804
631.224585	7180.334713
631.570597	7100.384534
631.916556	7132.219420
632.262462	7130.560881
632.608316	7092.653924
632.954117	7069.436890
633.299866	7054.207565
633.645562	7048.183386
633.991206	6971.116746
634.336797	6912.916625
634.682336	6869.076231
635.027823	6833.289080
635.373257	6823.572256
635.718639	6756.403922
636.063968	6773.301869
636.409245	6664.896897
636.754470	6658.262739
637.099642	6617.222705
637.444762	6561.051648
637.789829	6574.536735
638.134845	6518.700915
638.479808	6501.503019
638.824719	6504.210118
639.169577	6435.247134
639.514383	6455.477284
639.859137	6382.743516
640.203839	6391.868005
640.548489	6377.357043
640.893086	6350.502817
641.237632	6329.342574
641.582125	6345.726324
641.926566	6318.362941
642.270955	6330.595300
642.615292	6325.889383
642.959576	6342.305901
643.303809	6326.847203
643.647990	6338.078893
643.992118	6329.249312
644.336195	6273.715962
644.680219	6295.040042
645.024192	6288.302540
645.368112	6386.035390
645.711981	6402.988790
646.055797	6481.645914
646.399562	6439.219563
646.743274	6562.097688
647.086935	6616.892510
647.430544	6611.075018
647.774101	6633.452700
648.117606	6639.706251
648.461059	6634.554192
648.804460	6591.903510
649.147810	6497.424725
649.491108	6471.518236
649.834354	6445.026972
650.177548	6363.408171
650.520690	6275.750067
650.863781	6254.370534
651.206820	6269.950220
651.549807	6199.530342
651.892742	6131.482326
652.235626	6143.087062
652.578458	6127.136852
652.921238	6041.608636
653.263967	6074.159366
653.606644	6014.318349
653.949269	6012.473287
654.291843	5958.628723
654.634365	6005.826526
654.976836	5960.158713
655.319255	5961.076203
655.661622	5936.485454
656.003938	5933.859013
656.346203	5893.360904
656.688416	5923.038177
657.030577	5874.582606
657.372687	5844.585220
657.714746	5834.094579
658.056753	5877.516557
658.398708	5816.866435
658.740612	5808.724972
659.082465	5855.368248
659.424266	5844.370971
659.766016	5845.084294
660.107715	5816.989944
660.449362	5833.981153
660.790958	5829.681048
661.132503	5817.730993
661.473996	5853.750038
661.815438	5835.601884
662.156829	5830.212890
662.498168	5830.026368
662.839456	5804.094672
663.180693	5834.228169
663.521879	5836.915104
663.863013	5829.839845
664.204097	5844.267627
664.545129	5882.797166
664.886110	5881.577207
665.227040	5910.755405
665.567918	5882.280448
665.908746	5906.707359
666.249522	5906.712400
666.590248	5894.185133
666.930922	5921.384678
667.271545	5929.821049
667.612118	5933.654847
667.952639	5911.186424
668.293109	5929.095123
668.633528	5884.836313
668.973896	5884.647269
669.314213	5878.754161
669.654480	5856.857909
669.994695	5849.709553
670.334859	5842.475497
670.674973	5832.592315
671.015035	5835.788406
671.355047	5834.328992
671.695008	5813.380478
672.034918	5795.953209
672.374777	5801.924455
672.714585	5783.181445
673.054342	5788.230161
673.394049	5782.077433
673.733705	5808.462832
674.073310	5794.748373
674.412864	5753.360500
674.752368	5745.287092
675.091820	5744.054530
675.431223	5685.257032
675.770574	5684.949522
676.109875	5636.972860
676.449125	5642.082070
676.788324	5604.487665
677.127473	5546.337955
677.466571	5541.606832
677.805619	5529.467734
678.144616	5514.752606
678.483562	5494.940871
678.822458	5464.751922
679.161303	5456.746569
679.500098	5443.080001
679.838842	5428.823618
680.177535	5433.156490
680.516179	5445.393891
680.854771	5455.052742
681.193314	5529.969329
681.531805	5636.766173
681.870247	5779.372854
682.208638	5880.354727
682.546978	5888.808742
682.885268	5868.102203
683.223508	5778.906547
683.561697	5725.634154
683.899836	5698.074166
684.237925	5652.797042
684.575963	5617.539212
684.913951	5579.307102
685.251889	5630.457169
685.589776	5602.957675
685.927614	5572.698149
686.265401	5633.028157
686.603137	5621.942660
686.940824	5685.163771
687.278460	5710.089756
687.616046	5715.980344
687.953582	5780.776815
688.291068	5759.457775
688.628504	5813.093132
688.965889	5777.358913
689.303224	5720.577876
689.640510	5672.724723
689.977745	5598.523980
690.314930	5501.002859
690.652065	5454.835972
690.989150	5364.581674
691.326185	5284.807935
691.663170	5233.166355
692.000105	5157.556609
692.336990	5082.145989
692.673825	5056.143717
693.010610	4989.842462
693.347345	4930.193009
693.684030	4905.430861
694.020665	4869.366447
694.357251	4785.000216
694.693786	4788.498777
695.030272	4756.439559
695.366707	4721.869847
695.703093	4687.128735
696.039429	4706.275037
696.375716	4686.856513
696.711952	4664.567051
697.048139	4652.785874
697.384276	4628.106906
697.720363	4638.070746
698.056400	4639.666272
698.392388	4594.394189
698.728326	4580.830965
699.064214	4559.290115
699.400053	4550.584042
699.735842	4509.264224
700.071581	4490.001976
700.407270	4461.461483
700.742910	4443.058751
701.078501	4396.846494
701.414042	4390.671080
701.749533	4361.150083
702.084974	4301.462822
702.420366	4346.407229
702.755709	4293.681801
703.091002	4239.864963
703.426246	4279.924492
703.761440	4245.995006
704.096584	4208.554356
704.431679	4224.600349
704.766725	4210.114593
705.101721	4194.774362
705.436668	4221.036253
705.771565	4176.391795
706.106413	4198.275444
706.441212	4221.598342
706.775961	4230.533787
707.110661	4211.120304
707.445311	4240.379161
707.779913	4254.265019
708.114465	4268.566772
708.448967	4290.001758
708.783421	4340.803986
709.117825	4375.721538
709.452180	4376.588617
709.786485	4422.717695
710.120742	4498.385414
710.454949	4484.383610
710.789107	4541.227660
711.123216	4605.761991
711.457275	4598.560703
711.791286	4662.308614
712.125247	4670.777752
712.459159	4592.619703
712.793023	4661.897760
713.126837	4605.726703
713.460602	4594.731947
713.794318	4533.799520
714.127985	4534.432185
714.461602	4451.651398
714.795171	4435.819654
715.128691	4368.278275
715.462162	4311.595541
715.795584	4263.124847
716.128957	4245.969800
716.462281	4207.281465
716.795556	4178.073020
717.128782	4137.779077
717.461960	4070.729210
717.795088	4083.223710
718.128167	4046.350190
718.461198	3997.927387
718.794180	3991.973784
719.127113	3964.063436
719.459997	3943.508131
719.792833	3909.019077
720.125619	3898.699835
720.458357	3864.195658
720.791046	3864.004094
721.123686	3839.042821
721.456278	3803.820279
721.788821	3813.464006
722.121315	3789.949544
722.453761	3770.326853
722.786158	3773.527985
723.118506	3793.730409
723.450805	3757.368567
723.783056	3773.976648
724.115259	3779.622740
724.447412	3780.852782
724.779518	3780.988893
725.111574	3779.045528
725.443582	3803.391781
725.775542	3791.434164
726.107453	3830.913960
726.439315	3827.657375
726.771129	3845.548430
727.102895	3874.905589
727.434612	3909.712236
727.766281	3920.671704
728.097901	3921.793361
728.429473	3924.049277
728.760996	3927.625976
729.092471	3926.784103
729.423897	3908.832554
729.755276	3909.077050
730.086606	3910.397833
730.417887	3949.330664
730.749120	4001.932584
731.080305	4041.921537
731.411442	4071.147626
731.742530	4048.285993
732.073570	4051.918145
732.404562	4090.722426
732.735506	4080.884615
733.066401	4048.974111
733.397249	3996.934280
733.728048	3929.909619
734.058798	3849.533462
734.389501	3780.751959
734.720156	3739.094384
735.050762	3697.993857
735.381320	3681.746218
735.711831	3643.231802
736.042293	3618.890591
736.372707	3632.005153
736.703073	3608.435238
737.033391	3604.477932
737.363661	3622.358905
737.693883	3633.192344
738.024056	3642.926812
738.354182	3644.169457
738.684260	3692.027651
739.014290	3707.839230
739.344272	3708.786967
739.674207	3743.288624
740.004093	3739.606061
740.333931	3739.280907
740.663722	3736.707397
740.993464	3730.037951
741.323159	3712.499777
741.652806	3682.091537
741.982405	3657.808299
742.311956	3628.282261
742.641460	3621.330509
742.970915	3597.538784
743.300323	3565.918146
743.629683	3538.179197
743.958996	3526.758463
744.288260	3505.825072
744.617477	3474.214517
744.946647	3462.839153
745.275768	3439.397788
745.604842	3431.783125
745.933869	3401.896644
746.262847	3391.075808
746.591778	3411.026174
746.920662	3391.579923
747.249498	3369.106459
747.578286	3397.117630
747.907027	3413.549271
748.235720	3421.738626
748.564365	3430.316149
748.892963	3426.578133
749.221514	3415.890887
749.550017	3400.888413
749.878473	3393.795510
750.206881	3369.575286
750.535242	3363.941797
750.863555	3362.255531
751.191821	3356.039788
751.520039	3346.416226
751.848210	3330.501303
752.176334	3350.539889
752.504411	3351.107019
752.832440	3322.080055
753.160421	3312.678303
753.488356	3312.085968
753.816243	3318.074859
754.144082	3290.025879
754.471875	3280.561112
754.799620	3287.351547
755.127318	3285.647637
755.454969	3280.966925
755.782572	3281.193777
756.110129	3267.628032
756.437638	3260.502361
756.765100	3264.754574
757.092515	3270.846809
757.419882	3273.838734
757.747203	3254.936927
758.074477	3259.627721
758.401703	3268.290944
758.728882	3282.287707
759.056014	3287.190230
759.383099	3292.705252
759.710138	3295.278761
760.037129	3310.336688
760.364073	3323.655416
760.690970	3308.421049
761.017820	3297.053247
761.344623	3311.627223
761.671379	3343.966225
761.998088	3377.116853
762.324751	3476.372131
762.651366	3683.059438
762.977935	4068.758119
763.304456	4409.277979
763.630931	4465.169252
763.957359	4185.760779
764.283740	3916.767331
764.610074	3754.905963
764.936362	3592.530397
765.262602	3471.809886
765.588796	3381.381669
765.914943	3313.376503
766.241044	3246.913931
766.567097	3221.614900
766.893104	3185.268181
767.219064	3159.651558
767.544978	3140.177581
767.870845	3102.331118
768.196665	3087.525249
768.522438	3088.835949
768.848165	3079.494691
769.173846	3050.376987
769.499479	3043.021943
769.825066	3028.674819
770.150607	3017.317100
770.476101	3021.208870
770.801548	3015.456914
771.126949	2988.711072
771.452303	2976.493836
771.777611	2972.334884
772.102872	2973.567446
772.428087	2957.408027
772.753256	2948.283539
773.078378	2940.247940
773.403453	2919.856472
773.728482	2909.358269
774.053465	2917.686256
774.378401	2910.313568
774.703291	2896.064747
775.028135	2893.541649
775.352932	2887.388921
775.677683	2875.053218
776.002388	2876.169833
776.327046	2875.000285
776.651658	2868.834954
776.976224	2857.860362
777.300743	2860.456557
777.625216	2850.328878
777.949643	2846.961388
778.274024	2850.633868
778.598359	2840.115501
778.922647	2840.140707
779.246889	2842.822600
779.571086	2831.338852
779.895236	2826.716114
780.219339	2835.207937
780.543397	2840.710357
780.867409	2843.566171
781.191374	2839.578618
781.515294	2835.523010
781.839167	2835.059223
782.162995	2832.299192
782.486776	2834.587876
782.810511	2833.637618
783.134201	2823.751915
783.457844	2825.246617
783.781441	2819.020792
784.104993	2806.097795
784.428498	2808.814977
784.751958	2811.753969
785.075372	2809.324133
785.398739	2801.885911
785.722061	2812.863023
786.045337	2814.798826
786.368568	2808.414205
786.691752	2805.412198
787.014891	2834.313133
787.337983	2855.508664
787.661030	2886.262223
787.984031	2933.495314
788.306987	2961.592185
788.629897	2956.324179
788.952760	2942.609720
789.275579	2923.476021
789.598351	2888.744991
789.921078	2856.237111
790.243759	2840.470902
790.566395	2825.990188
790.888984	2813.399906
791.211529	2801.333904
791.534027	2795.907102
791.856480	2787.271606
792.178888	2777.176695
792.501249	2772.435490
792.823566	2768.193359
793.145836	2768.803338
793.468062	2762.164139
793.790241	2759.905702
794.112375	2764.815786
794.434464	2771.152516
794.756507	2779.475461
795.078505	2783.495781
795.400457	2795.725621
795.722364	2816.996769
796.044226	2836.591734
796.366042	2840.609534
796.687812	2830.978409
797.009538	2841.262363
797.331218	2827.883141
797.652852	2821.506081
797.974442	2807.345480
798.295986	2804.653504
798.617484	2799.440951
798.938938	2787.072480
799.260346	2779.183074
799.581709	2773.567229
799.903026	2772.027156
800.224299	2767.805190
800.545526	2759.570465
800.866708	2751.295411
801.187845	2746.425657
801.508936	2746.087899
801.829983	2745.109915
802.150984	2735.952659
802.471940	2732.282699
802.792851	2734.357134
803.113717	2730.644324
803.434538	2730.961917
803.755314	2726.162739
804.076045	2724.020248
804.396731	2720.350288
804.717372	2724.179045
805.037967	2721.804661
805.358518	2727.551577
805.679024	2733.283368
805.999485	2728.869838
806.319901	2732.983420
806.640272	2730.175497
806.960598	2730.730024
807.280879	2734.861250
807.601115	2739.909965
807.921306	2733.991651
808.241453	2732.300343
808.561554	2731.753378
808.881611	2734.281517
809.201623	2731.380333
809.521590	2730.830847
809.841513	2727.415465
810.161390	2730.500652
810.481223	2722.273488
810.801011	2717.844835
811.120755	2713.990873
811.440453	2713.154041
811.760107	2713.282591
812.079716	2710.545244
812.399281	2704.435366
812.718801	2702.547453
813.038276	2696.818182
813.357707	2702.751620
813.677093	2703.699357
813.996434	2699.880683
814.315731	2697.796166
814.634983	2695.520085
814.954191	2696.472863
815.273354	2704.125335
815.592473	2706.126673
815.911547	2708.130531
816.230577	2713.544731
816.549562	2718.926162
816.868502	2719.778117
817.187399	2723.601832
817.506250	2733.038873
817.825058	2728.043089
818.143821	2733.263204
818.462539	2744.504977
818.781213	2757.823705
819.099843	2782.406892
819.418429	2823.477172
819.736970	2860.852287
820.055466	2908.770975
820.373919	2965.912454
820.692327	3052.159034
821.010691	3161.642814
821.329011	3479.323726
821.647286	4157.371521
821.965517	5171.039175
822.283704	5716.731476
822.601847	5686.330798
822.919945	5172.629659
823.237999	4714.867684
823.556010	4280.111015
823.873976	3897.948703
824.191897	3626.348978
824.509775	3432.710697
824.827609	3264.189965
825.145398	3190.977288
825.463144	3186.324303
825.780845	3236.962693
826.098502	3314.838438
826.416116	3505.222654
826.733685	3732.417376
827.051210	3780.399078
827.368692	3682.439376
827.686129	3477.019919
828.003522	3268.409411
828.320872	3105.799432
828.638177	2989.056391
828.955439	2906.641087
829.272656	2852.579754
829.589830	2815.209680
829.906960	2784.100720
830.224046	2763.555497
830.541088	2742.281828
830.858086	2729.305898
831.175041	2720.672922
831.491952	2719.584033
831.808819	2724.723489
832.125642	2736.300499
832.442421	2764.447782
832.759157	2821.720330
833.075849	2931.733431
833.392497	3109.166923
833.709101	3223.651527
834.025662	3190.954603
834.342179	3089.279571
834.658653	2980.292345
834.975083	2887.366236
835.291469	2829.350117
835.607811	2773.904986
835.924110	2741.858371
836.240366	2714.855431
836.556578	2690.738551
836.872746	2679.141376
837.188871	2665.542864
837.504952	2657.164466
837.820990	2648.564257
838.136984	2643.024029
838.452935	2638.053452
838.768842	2641.403298
839.084706	2649.963178
839.400526	2696.707277
839.716303	2778.643671
840.032037	2831.487566
840.347727	2814.738332
840.663373	2771.071858
840.978977	2724.990670
841.294537	2685.589012
841.610054	2659.498520
841.925527	2642.996303
842.240957	2633.390384
842.556344	2619.663323
842.871687	2611.267281
843.186987	2606.916765
843.502244	2604.726384
843.817458	2601.563060
844.132629	2593.829930
844.447756	2594.006370
844.762840	2584.828949
845.077881	2583.959350
845.392879	2584.624783
845.707833	2583.155286
846.022745	2578.189750
846.337613	2583.016655
846.652438	2580.990111
846.967221	2582.383990
847.281960	2580.392734
847.596656	2579.276118
847.911309	2576.652198
848.225919	2577.002558
848.540485	2579.712178
848.855009	2577.400809
849.169490	2575.548185
849.483928	2577.431056
849.798323	2576.327043
850.112675	2576.334605
850.426984	2574.224882
850.741251	2573.413257
851.055474	2570.171795
851.369654	2575.679255
851.683792	2574.998699
851.997887	2574.587845
852.311938	2571.144737
852.625947	2570.469223
852.939914	2575.603638
853.253837	2577.773855
853.567718	2574.741601
853.881555	2571.996692
854.195350	2574.524831
854.509103	2573.771178
854.822812	2571.164902
855.136479	2574.474419
855.450103	2570.789336
855.763685	2572.810839
856.077224	2567.941084
856.390720	2571.888308
856.704173	2574.613051
857.017584	2576.962229
857.330953	2575.807805
857.644278	2575.732187
857.957561	2578.083886
858.270802	2573.733370
858.584000	2573.950139
858.897155	2575.848134
859.210268	2572.972156
859.523339	2572.886456
859.836367	2569.871846
860.149352	2568.936712
860.462295	2573.309913
860.775195	2568.046948
861.088054	2566.317832
861.400869	2570.381002
861.713642	2565.518810
862.026373	2568.286403
862.339062	2569.458471
862.651708	2572.861250
862.964312	2574.083730
863.276873	2572.440314
863.589392	2574.413926
863.901869	2577.836869
864.214303	2578.598083
864.526696	2578.923238
864.839045	2581.617734
865.151353	2583.654361
865.463619	2582.394072
865.775842	2581.607652
866.088023	2582.154617
866.400162	2581.741243
866.712258	2580.629668
867.024313	2580.382652
867.336325	2578.187229
867.648296	2582.109247
867.960224	2580.901891
868.272110	2579.427353
868.583954	2580.014648
868.895755	2576.984914
869.207515	2581.353074
869.519233	2580.705286
869.830909	2584.644947
870.142542	2579.233269
870.454134	2580.944740
870.765684	2582.152097
871.077191	2583.598908
871.388657	2585.922880
871.700081	2585.189392
872.011463	2584.912128
872.322803	2588.297263
872.634101	2588.017479
872.945357	2590.560741
873.256571	2594.457553
873.567744	2592.574682
873.878874	2594.800352
874.189963	2595.059971
874.501010	2598.082143
874.812015	2594.223140
875.122979	2596.511823
875.433900	2590.273396
875.744780	2592.746082
876.055618	2591.551328
876.366415	2597.852770
876.677169	2594.119796
876.987882	2591.332038
877.298554	2590.197778
877.609183	2593.091401
877.919771	2597.570466
878.230317	2600.764037
878.540822	2607.206631
878.851285	2612.141921
879.161707	2624.560803
879.472087	2642.018319
879.782425	2666.263749
880.092722	2723.342213
880.402977	2822.501709
880.713191	2998.755571
881.023363	3212.432439
881.333494	3361.358206
881.643583	3443.534054
881.953631	3403.686254
882.263637	3287.870785
882.573602	3148.876092
882.883526	3057.903429
883.193408	2982.883498
883.503248	2911.551171
883.813048	2848.425843
884.122806	2790.976854
884.432522	2747.872468
884.742197	2716.876933
885.051831	2693.049920
885.361424	2675.541992
885.670975	2661.343582
885.980485	2644.193577
886.289954	2635.522792
886.599382	2629.430558
886.908768	2625.231277
887.218113	2616.101747
887.527417	2611.733587
887.836680	2603.491301
888.145901	2599.725559
888.455082	2596.559714
888.764221	2593.348499
889.073319	2589.053436
889.382376	2588.498909
889.691392	2589.620566
890.000366	2590.086873
890.309300	2589.517222
890.618193	2588.418251
890.927044	2591.803386
891.235855	2595.243973
891.544625	2590.704414
891.853353	2591.558890
892.162041	2593.426637
892.470687	2603.261928
892.779293	2610.327106
893.087858	2615.675770
893.396381	2624.785135
893.704864	2648.685245
894.013306	2681.165399
894.321707	2731.334962
894.630068	2760.417379
894.938387	2765.821496
895.246665	2759.507451
895.554903	2731.392936
895.863100	2705.451158
896.171256	2680.925945
896.479371	2654.230514
896.787446	2637.415746
897.095480	2626.249590
897.403473	2624.044085
897.711425	2611.441201
898.019336	2606.044645
898.327207	2604.040787
898.635038	2601.671444
898.942827	2597.467122
899.250576	2595.024683
899.558284	2586.187540
899.865952	2587.646954
900.173579	2585.312900
900.481165	2581.988259
900.788711	2580.380131
901.096216	2576.281673
901.403681	2574.290417
901.711105	2574.557598
902.018489	2574.635736
902.325832	2578.870306
902.633135	2579.878536
902.940397	2584.040009
903.247619	2601.661362
903.554800	2636.473050
903.861941	2704.216075
904.169041	2774.464554
904.476101	2808.988896
904.783121	2799.025056
905.090100	2765.324942
905.397039	2721.774414
905.703938	2685.258816
906.010796	2655.495844
906.317614	2630.133799
906.624391	2613.833228
906.931129	2600.638008
907.237826	2591.667275
907.544483	2579.369380
907.851099	2574.993658
908.157675	2569.662638
908.464211	2566.935374
908.770707	2560.404559
909.077163	2559.668551
909.383578	2555.917932
909.689954	2560.142419
909.996289	2552.724361
910.302584	2558.635114
910.608839	2557.856256
910.915054	2557.873900
911.221229	2557.289126
911.527363	2558.461194
911.833458	2559.560166
912.139513	2556.275854
912.445527	2558.967830
912.751502	2561.352296
913.057436	2562.970506
913.363331	2568.465364
913.669186	2571.169943
913.975000	2578.855182
914.280775	2586.411872
914.586510	2599.138265
914.892205	2619.237345
915.197859	2649.653147
915.503475	2688.114630
915.809050	2723.284240
916.114585	2735.135992
916.420081	2743.900038
916.725536	2741.225706
917.030952	2723.962275
917.336328	2699.011084
917.641665	2680.197498
917.946961	2654.354023
918.252218	2637.803915
918.557435	2626.640279
918.862612	2614.675101
919.167750	2604.484408
919.472848	2598.233378
919.777906	2591.072418
920.082925	2582.865420
920.387904	2579.359297
920.692843	2577.491550
920.997743	2572.894018
921.302603	2568.936712
921.607423	2568.304047
921.912204	2566.648028
922.216946	2562.887327
922.521647	2562.284909
922.826310	2560.699467
923.130932	2557.639486
923.435516	2556.343910
923.740059	2555.731409
924.044564	2554.067829
924.349028	2550.975081
924.653454	2547.456355
924.957840	2546.783361
925.262186	2546.231355
925.566493	2548.953578
925.870761	2543.965356
926.174989	2547.829401
926.479178	2548.535162
926.783328	2545.588608
927.087438	2542.758000
927.391509	2547.930224
927.695541	2545.520552
927.999533	2541.868236
928.303486	2542.679862
928.607400	2544.638350
928.911275	2543.952753
929.215110	2543.494008
929.518906	2542.445448
929.822663	2543.115922
930.126381	2543.148689
930.430060	2542.871426
930.733699	2543.834286
931.037299	2545.187836
931.340861	2543.476364
931.644383	2544.361087
931.947866	2542.924358
932.251309	2543.010058
932.554714	2543.907383
932.858080	2545.520552
933.161407	2542.621889
933.464694	2544.023330
933.767943	2542.541230
934.071153	2543.589790
934.374323	2540.612989
934.677455	2543.304965
934.980548	2542.296734
935.283602	2542.193391
935.586617	2541.464944
935.889593	2540.023174
936.192530	2542.969728
936.495428	2542.117773
936.798287	2544.187167
937.101108	2540.103832
937.403890	2546.072559
937.706632	2548.265461
938.009336	2549.316541
938.312002	2549.707231
938.614628	2550.012220
938.917216	2551.264947
939.219765	2551.085986
939.522275	2552.694114
939.824747	2552.678991
940.127179	2548.293187
940.429573	2546.397713
940.731929	2548.852755
941.034246	2542.362269
941.336524	2547.484082
941.638763	2547.771428
941.940964	2544.177085
942.243126	2547.042981
942.545250	2546.478372
942.847335	2549.240924
943.149381	2542.553833
943.451389	2546.382590
943.753359	2542.982331
944.055290	2543.869574
944.357182	2543.045346
944.659036	2541.883360
944.960851	2543.796478
945.262628	2541.903524
945.564367	2545.286139
945.866067	2544.000644
946.167729	2543.912424
946.469352	2540.925541
946.770937	2544.789585
947.072484	2542.576518
947.373992	2542.510983
947.675462	2543.743546
947.976893	2540.285314
948.278286	2540.875129
948.579641	2542.127856
948.880958	2541.253216
949.182236	2542.815973
949.483476	2540.028215
949.784678	2540.169368
950.085841	2540.121477
950.386967	2543.345294
950.688054	2541.527958
950.989103	2540.514687
951.290114	2537.111908
951.591087	2542.856302
951.892021	2544.308155
952.192917	2544.305634
952.493776	2544.983669
952.794596	2547.645399
953.095378	2541.578370
953.396122	2544.051056
953.696828	2542.914276
953.997496	2541.696837
954.298126	2539.418236
954.598718	2542.800850
954.899272	2542.488298
955.199788	2541.122146
955.500266	2543.297403
955.800706	2537.253060
956.101108	2534.916485
956.401472	2538.115097
956.701798	2535.022349
957.002087	2534.823224
957.302337	2537.573173
957.602550	2537.676517
957.902724	2537.673996
958.202861	2536.595189
958.502960	2537.285828
958.803022	2535.856660
959.103045	2537.797505
959.403031	2536.194418
959.702979	2536.078471
960.002889	2535.599562
960.302762	2534.976979
960.602596	2533.842719
960.902393	2533.835158
961.202153	2534.543440
961.501875	2531.707791
961.801559	2534.777853
962.101205	2535.753317
962.400814	2538.304141
962.700385	2534.798018
962.999918	2535.851619
963.299414	2531.180990
963.598873	2535.828934
963.898293	2531.639735
964.197677	2532.950435
964.497022	2530.419776
964.796331	2533.925898
965.095601	2533.676361
965.394835	2533.837678
965.694030	2532.970600
965.993189	2535.869263
966.292309	2532.186700
966.591393	2534.238450
966.890439	2534.709798
967.189447	2535.027391
967.488419	2532.479087
967.787353	2533.845240
968.086249	2532.043027
968.385108	2533.381454
968.683930	2533.144520
968.982714	2533.988913
969.281462	2533.678882
969.580172	2533.126876
969.878844	2536.199459
970.177480	2532.320291
970.476078	2532.234591
970.774639	2534.374561
971.073162	2532.857174
971.371649	2531.831299
971.670098	2530.906247
971.968510	2530.054292
972.266885	2530.581093
972.565223	2535.080323
972.863524	2532.239633
973.161788	2534.755168
973.460014	2530.749972
973.758204	2532.400949
974.056356	2531.778367
974.354471	2533.454551
974.652550	2534.248532
974.950591	2532.716022
975.248595	2532.101001
975.546563	2531.813655
975.844493	2532.635363
976.142386	2532.582431
976.440243	2532.824406
976.738062	2532.678213
977.035845	2532.423635
977.333590	2532.080836
977.631299	2530.092101
977.928971	2533.099149
978.226606	2530.790301
978.524204	2531.717873
978.821765	2533.210055
979.119290	2532.595034
979.416777	2532.411032
979.714228	2530.628984
980.011642	2533.734335
980.309020	2536.501928
980.606360	2532.219468
980.903664	2530.828109
981.200931	2531.417924
981.498162	2532.312729
981.795356	2534.724921
982.092513	2532.882380
982.389633	2534.046886
982.686717	2538.939326
982.983764	2537.850437
983.280775	2541.883360
983.577749	2541.006199
983.874686	2537.447144
984.171587	2536.512010
984.468451	2537.197607
984.765279	2534.409849
985.062070	2535.904551
985.358824	2533.739376
985.655543	2529.872811
985.952224	2532.027904
986.248869	2533.194931
986.545478	2525.456760
986.842050	2526.764939
987.138586	2528.453726
987.435086	2528.574714
987.731549	2524.123375
988.027975	2531.730476
988.324366	2531.974972
988.620719	2531.967410
988.917037	2528.930115
989.213318	2530.109745
989.509563	2530.187883
989.805772	2530.263500
990.101944	2531.228881
990.398080	2532.544622
990.694180	2527.652183
990.990244	2532.053110
991.286271	2530.520599
991.582262	2529.608150
991.878217	2531.012112
992.174136	2530.210568
992.470019	2529.716535
992.765865	2528.985568
993.061676	2530.865918
993.357450	2527.937008
993.653188	2529.386339
993.948890	2529.996319
994.244556	2531.178470
994.540186	2529.716535
994.835780	2530.495393
995.131337	2530.407173
995.426859	2530.913809
995.722345	2532.126207
996.017795	2531.087729
996.313208	2531.780888
996.608586	2532.479087
996.903928	2533.278110
997.199234	2534.903882
997.494504	2531.301978
997.789738	2531.750641
998.084936	2532.297606
998.380099	2530.676875
998.675225	2529.502286
998.970316	2530.807945
999.265371	2533.472195
999.560390	2531.601927
999.855373	2532.075795
1000.150320	2531.110414
1000.445232	2530.984385
1000.740108	2528.385670
1001.034948	2530.147554
1001.329752	2531.087729
1001.624521	2528.985568
1001.919254	2524.430885
1002.213951	2525.812161
1002.508613	2527.432892
1002.803239	2526.853160
1003.097829	2523.546163
1003.392384	2530.379447
1003.686903	2528.549508
1003.981386	2530.263500
1004.275834	2528.274765
1004.570246	2528.602440
1004.864623	2530.704601
1005.158964	2529.439272
1005.453270	2530.475229
1005.747540	2530.949097
1006.041775	2530.046731
1006.335974	2530.364323
1006.630138	2527.894158
1006.924266	2529.703932
1007.218359	2525.618077
1007.512416	2528.572193
1007.806438	2525.716379
1008.100425	2528.884745
1008.394376	2532.403470
1008.688292	2531.196114
1008.982172	2526.732172
1009.276017	2527.934487
1009.569827	2529.693850
1009.863602	2527.808458
1010.157341	2527.571524
1010.451045	2527.526154
1010.744714	2529.593027
1011.038347	2527.652182
1011.331945	2528.786442
1011.625508	2531.012112
1011.919036	2525.126564
1012.212528	2527.551359
1012.505986	2526.754857
1012.799408	2526.071781
1013.092795	2528.466329
1013.386147	2528.284847
1013.679464	2530.293747
1013.972745	2528.388191
1014.265992	2527.851308
1014.559204	2529.887934
1014.852380	2526.787625
1015.145521	2530.911288
1015.438628	2525.083715
1015.731699	2528.821730
1016.024736	2526.197810
1016.317737	2531.387678
1016.610703	2530.699560
1016.903635	2524.730834
1017.196531	2524.831657
1017.489393	2524.423323
1017.782219	2521.338137
1018.075011	2527.465660
1018.367768	2527.599250
1018.660490	2526.641431
1018.953177	2526.641431
1019.245829	2526.641431
