Dividing Wavelength (nm)	Counts (n)	Blue Motor Position (mm): 0.000000	Red Motor Position (mm): 20.900000	
326.493990	2128.841461
326.888308	2128.841461
327.282561	2128.841461
327.676750	2092.623291
328.070874	2094.977510
328.464933	2095.116141
328.858929	2104.036463
329.252859	2112.566095
329.646726	2124.390122
330.040528	2137.040897
330.434265	2154.977323
330.827938	2172.684376
331.221547	2188.874041
331.615091	2209.464634
332.008571	2226.791080
332.401986	2247.888309
332.795338	2268.524272
333.188625	2286.916922
333.581847	2305.566670
333.975006	2326.409321
334.368100	2341.043791
334.761129	2359.499455
335.154095	2376.064686
335.546996	2393.139074
335.939833	2411.393093
336.332606	2423.698549
336.725315	2435.628440
337.117960	2445.972887
337.510540	2457.759105
337.903056	2465.451906
338.295508	2473.885756
338.687896	2480.827425
339.080220	2488.908395
339.472480	2494.070536
339.864676	2500.866012
340.256807	2506.812053
340.648875	2509.103257
341.040879	2510.925634
341.432818	2511.828001
341.824694	2512.687517
342.216506	2513.794051
342.608253	2513.602487
342.999937	2516.105420
343.391557	2514.656088
343.783113	2512.516118
344.174605	2511.775068
344.566033	2508.160561
344.957397	2508.029491
345.348697	2506.882629
345.739934	2504.800632
346.131106	2501.105466
346.522215	2503.915910
346.913260	2502.892555
347.304241	2500.860970
347.695159	2494.075577
348.086012	2494.317553
348.476802	2493.621873
348.867528	2490.997953
349.258191	2493.087511
349.648789	2491.149188
350.039324	2486.004690
350.429796	2486.962509
350.820203	2487.451501
351.210548	2486.407982
351.600828	2486.191213
351.991045	2484.215080
352.381198	2480.225007
352.771288	2483.095944
353.161314	2482.191057
353.551276	2481.951602
353.941175	2481.475213
354.331010	2480.653505
354.720782	2479.776344
355.110490	2480.950933
355.500135	2481.722230
355.889717	2481.591160
356.279235	2482.148207
356.668689	2486.357571
357.058080	2481.518063
357.447408	2484.555358
357.836672	2479.773824
358.225873	2481.354226
358.615010	2482.765749
359.004084	2487.179279
359.393095	2488.527788
359.782043	2488.237921
360.170927	2489.231028
360.559748	2487.350678
360.948505	2488.663899
361.337199	2491.812099
361.725830	2488.598364
362.114398	2491.607932
362.502903	2492.822851
362.891344	2493.374857
363.279722	2494.990547
363.668037	2492.895947
364.056289	2492.548108
364.444478	2493.873931
364.832603	2493.100114
365.220665	2494.577172
365.608665	2495.076246
365.996601	2497.939622
366.384474	2498.577328
366.772284	2500.858450
367.160031	2501.602020
367.547715	2503.104284
367.935336	2504.304078
368.322893	2510.764317
368.710388	2511.356653
369.097820	2518.633558
369.485189	2519.903929
369.872495	2526.278468
370.259738	2534.276259
370.646918	2541.442259
371.034035	2548.729247
371.421090	2558.872048
371.808081	2570.378482
372.195010	2577.181519
372.581875	2590.230546
372.968678	2601.963831
373.355418	2613.311469
373.742096	2631.953656
374.128710	2645.836993
374.515262	2660.211843
374.901751	2675.947805
375.288177	2688.230577
375.674540	2711.276211
376.060841	2730.087277
376.447079	2747.375914
376.833254	2771.291148
377.219367	2782.636265
377.605417	2820.114723
377.991404	2828.349448
378.377329	2848.418281
378.763191	2871.269832
379.148991	2906.041190
379.534727	2932.834923
379.920402	2959.192596
380.306013	2970.232723
380.691563	3022.010414
381.077049	3042.752241
381.462474	3059.912329
381.847835	3099.835747
382.233134	3118.727471
382.618371	3120.454066
383.003545	3189.036444
383.388657	3194.105324
383.773706	3227.863411
384.158693	3246.001482
384.543618	3269.926798
384.928480	3305.204793
385.313280	3352.821012
385.698017	3351.752287
386.082692	3407.230185
386.467305	3410.186822
386.851856	3440.017850
387.236344	3464.913588
387.620770	3495.674709
388.005133	3522.513812
388.389435	3548.150600
388.773674	3560.322466
389.157851	3600.571038
389.541965	3617.433697
389.926018	3583.184098
390.310008	3656.757218
390.693936	3668.427489
391.077802	3713.230744
391.461606	3701.041234
391.845348	3765.391563
392.229027	3764.050616
392.612645	3777.119807
392.996200	3852.860623
393.379694	3894.518198
393.763125	3963.186275
394.146494	3927.978857
394.529801	3988.225686
394.913047	4038.470867
395.296230	3999.303622
395.679351	4055.071386
396.062410	4082.477619
396.445408	4059.981470
396.828343	4096.625618
397.211217	4116.369297
397.594028	4040.036145
397.976778	4103.965537
398.359466	4130.973519
398.742092	4161.429650
399.124656	4080.680448
399.507158	4162.687418
399.889598	4186.514432
400.271977	4247.693875
400.654294	4219.743197
401.036549	4226.934403
401.418742	4197.037840
401.800874	4297.939055
402.182944	4316.324143
402.564952	4382.895100
402.946898	4373.929408
403.328783	4366.481103
403.710606	4280.990696
404.092367	4472.804079
404.474067	4435.411321
404.855705	4444.288793
405.237282	4374.930077
405.618797	4483.632478
406.000250	4515.343856
406.381642	4596.357719
406.762972	4554.380031
407.144240	4568.412083
407.525447	4564.709355
407.906593	4626.423160
408.287677	4669.777083
408.668700	4597.910394
409.049661	4646.628105
409.430560	4688.504970
409.811399	4617.608703
410.192176	4774.151653
410.572891	4713.579669
410.953545	4820.084127
411.334138	4697.054767
411.714669	4765.112864
412.095139	4658.905835
412.475547	4797.769459
412.855894	4777.892189
413.236180	4786.101708
413.616405	4735.075149
413.996568	4821.906504
414.376670	4760.563223
414.756711	4714.149320
415.136691	4737.782249
415.516609	4807.380419
415.896466	4844.281665
416.276262	4870.737640
416.655997	4844.768136
417.035670	5015.827089
417.415283	5093.596970
417.794834	5031.106827
418.174324	4979.755113
418.553753	4873.739647
418.933121	5043.462695
419.312428	5088.397019
419.691674	5017.755331
420.070859	5123.523779
420.449983	5030.988359
420.829045	5118.931288
421.208047	5014.042521
421.586988	5059.173451
421.965867	5052.655239
422.344686	5150.955218
422.723444	4999.503833
423.102141	4818.823838
423.480777	5059.501126
423.859352	4831.487217
424.237866	5032.321745
424.616319	4993.918235
424.994712	5060.746291
425.373044	4924.415847
425.751314	5006.692518
426.129524	4818.191173
426.507673	4938.710038
426.885762	4977.537005
427.263789	4883.945463
427.641756	4755.239765
428.019662	4807.420748
428.397508	4774.328094
428.775292	4687.884908
429.153016	4719.659301
429.530679	4630.352740
429.908282	4642.186848
430.285824	4515.255636
430.663305	4644.067199
431.040726	4429.477883
431.418086	4388.412643
431.795385	4405.476949
432.172624	4363.123695
432.549802	4317.314730
432.926920	4270.394191
433.303977	4225.316193
433.680974	4201.045558
434.057910	4155.549144
434.434786	4109.039459
434.811601	4046.496384
435.188355	4108.321094
435.565050	4001.448633
435.941683	3940.299437
436.318257	3976.691526
436.694770	3919.282866
437.071222	3880.866753
437.447614	3802.411276
437.823946	3722.403123
438.200218	3729.818661
438.576429	3636.229640
438.952580	3618.628451
439.328670	3584.514963
439.704700	3514.649612
440.080670	3469.864001
440.456580	3492.821416
440.832429	3417.677976
441.208218	3341.594362
441.583947	3336.142354
441.959616	3292.614511
442.335224	3245.089033
442.710773	3232.828947
443.086261	3195.151363
443.461689	3126.904223
443.837057	3116.716051
444.212365	3103.082250
444.587612	3060.484500
444.962800	3045.280380
445.337927	3014.521780
445.712995	2934.543874
446.088002	2970.764564
446.462949	2927.413162
446.837837	2894.590209
447.212664	2889.123078
447.587431	2874.322250
447.962139	2896.654562
448.336786	2944.210287
448.711374	2901.244532
449.085901	2813.029381
449.460369	2780.103085
449.834776	2760.661875
450.209124	2762.363264
450.583412	2752.512850
450.957640	2744.736870
451.331808	2715.944320
451.705917	2687.045905
452.079965	2675.224400
452.453954	2666.036897
452.827883	2657.164466
453.201752	2649.078455
453.575562	2635.220323
453.949311	2632.241001
454.323001	2622.723303
454.696632	2611.108484
455.070202	2613.397168
455.443713	2611.156375
455.817164	2601.328646
456.190556	2598.515682
456.563888	2598.732452
456.937160	2590.162490
457.310373	2587.510843
457.683526	2584.707962
458.056619	2579.170254
458.429653	2578.063721
458.802628	2576.584142
459.175542	2572.551219
459.548398	2577.446180
459.921194	2572.977197
460.293930	2570.978379
460.666607	2577.899883
461.039224	2578.719071
461.411782	2578.119174
461.784280	2577.748649
462.156719	2575.001220
462.529099	2573.267063
462.901419	2568.891342
463.273680	2568.709860
463.645882	2565.481001
464.018024	2564.102245
464.390106	2566.007802
464.762130	2568.329253
465.134094	2570.469223
465.505999	2576.160685
465.877845	2582.749473
466.249631	2590.212902
466.621358	2582.749473
466.993026	2582.323496
467.364634	2581.635378
467.736184	2575.704461
468.107674	2572.866291
468.479105	2574.734039
468.850477	2573.332598
469.221790	2571.815211
469.593043	2570.280179
469.964238	2567.847823
470.335373	2566.620302
470.706449	2567.547874
471.077467	2570.464182
471.448425	2575.570870
471.819324	2582.005903
472.190164	2582.169741
472.560945	2575.162537
472.931667	2571.119532
473.302330	2571.497618
473.672934	2568.745148
474.043479	2571.495098
474.413965	2570.002916
474.784393	2563.819941
475.154761	2566.101063
475.525070	2568.354459
475.895321	2568.626681
476.265513	2567.903275
476.635645	2570.060889
477.005719	2571.933678
477.375734	2572.175653
477.745691	2573.461147
478.115588	2576.574060
478.485427	2577.216807
478.855207	2577.647826
479.224928	2584.347519
479.594591	2587.646954
479.964194	2584.534042
480.333739	2588.299784
480.703226	2585.365832
481.072653	2589.139136
481.442022	2588.435895
481.811333	2589.670978
482.180584	2585.726275
482.549777	2590.056626
482.918912	2585.184351
483.287988	2584.831470
483.657005	2584.690318
484.025964	2582.888105
484.394864	2583.014134
484.763706	2583.180492
485.132489	2580.864082
485.501213	2584.047571
485.869879	2583.119998
486.238487	2582.147056
486.607036	2581.993300
486.975527	2580.871644
487.343959	2581.842066
487.712333	2581.353074
488.080648	2582.552868
488.448905	2581.968095
488.817104	2583.059504
489.185244	2583.119998
489.553326	2582.482292
489.921350	2589.943200
490.289315	2593.623242
490.657222	2594.623911
491.025070	2593.799683
491.392861	2591.916812
491.760593	2589.456729
492.128267	2589.713827
492.495883	2586.265678
492.863440	2584.047571
493.230939	2585.408682
493.598380	2581.600090
493.965763	2576.004410
494.333088	2578.325861
494.700354	2575.084399
495.067563	2576.483319
495.434713	2570.990982
495.801805	2579.457600
496.168839	2578.109091
496.535815	2578.766962
496.902733	2580.231417
497.269593	2576.848803
497.636395	2576.367373
498.003139	2578.073803
498.369825	2573.506518
498.736453	2577.483988
499.103023	2574.794533
499.469535	2577.695717
499.835989	2573.720767
500.202385	2574.595407
500.568723	2574.582804
500.935003	2578.610686
501.301226	2575.626323
501.667390	2577.574729
502.033497	2576.919379
502.399546	2576.185891
502.765537	2576.047259
503.131470	2578.605645
503.497345	2579.094637
503.863163	2577.725964
504.228923	2574.897876
504.594625	2577.191601
504.960269	2575.225551
505.325856	2577.572208
505.691385	2578.479616
506.056856	2578.156982
506.422270	2576.221179
506.787625	2576.637074
507.152924	2579.465162
507.518164	2576.579101
507.883347	2576.127918
508.248472	2576.264029
508.613540	2576.803432
508.978550	2575.253278
509.343503	2574.494584
509.708398	2579.681931
510.073236	2578.346026
510.438016	2580.354925
510.802738	2578.787127
511.167403	2579.384503
511.532010	2578.797209
511.896561	2578.741756
512.261053	2581.733681
512.625488	2575.931313
512.989866	2576.185891
513.354186	2577.231931
513.718449	2575.467527
514.082655	2576.495922
514.446803	2579.916345
514.810894	2580.211252
515.174927	2579.903742
515.538904	2577.909966
515.902822	2577.834348
516.266684	2578.731674
516.630488	2577.594894
516.994235	2582.217632
517.357925	2579.729822
517.721558	2581.665625
518.085133	2580.110429
518.448651	2579.616396
518.812112	2584.072776
519.175516	2581.277457
519.538863	2582.154617
519.902152	2581.211922
520.265385	2582.280646
520.628560	2580.730491
520.991678	2580.259143
521.354739	2581.201839
521.717743	2582.633527
522.080690	2581.234607
522.443580	2582.721747
522.806413	2580.228897
523.169189	2583.677046
523.531908	2583.379618
523.894569	2579.591191
524.257174	2578.875347
524.619722	2582.716706
524.982213	2583.019175
525.344647	2581.978177
525.707025	2584.551686
526.069345	2580.324678
526.431608	2584.697879
526.793815	2584.526480
527.155964	2582.590677
527.518057	2584.203846
527.880093	2582.751994
528.242072	2584.831470
528.603995	2582.928434
528.965860	2583.545976
529.327669	2582.119329
529.689421	2580.564133
530.051117	2583.150245
530.412755	2581.098496
530.774337	2581.600090
531.135862	2584.133270
531.497331	2581.330389
531.858743	2578.310737
532.220098	2579.001376
532.581396	2578.245202
532.942638	2580.465831
533.303824	2582.026068
533.664953	2583.409865
534.026025	2581.612693
534.387040	2582.268043
534.747999	2584.100503
535.108902	2581.889957
535.469748	2579.876016
535.830537	2584.670153
536.191270	2580.433063
536.551947	2580.173444
536.912567	2581.663105
537.273131	2583.293918
537.633638	2581.741243
537.994089	2580.906932
538.354483	2581.819381
538.714821	2583.190574
539.075103	2581.761407
539.435328	2580.294432
539.795497	2582.736871
540.155609	2581.610173
540.515665	2580.133115
540.875665	2583.034299
541.235609	2581.539597
541.595496	2584.844073
541.955328	2583.740060
542.315102	2581.196798
542.674821	2581.660584
543.034483	2583.409865
543.394090	2579.172775
543.753640	2582.104206
544.113134	2583.283836
544.472571	2584.140832
544.831953	2583.528332
545.191278	2582.741912
545.550548	2581.443815
545.909761	2583.470358
546.268918	2578.653536
546.628019	2579.868454
546.987064	2582.681418
547.346053	2580.917014
547.704986	2582.825091
548.063863	2584.322313
548.422684	2582.694021
548.781449	2582.346181
549.140158	2583.228383
549.498811	2581.446335
549.857408	2582.457087
550.215949	2582.225193
550.574434	2575.134811
550.932864	2580.301993
551.291237	2577.136149
551.649555	2582.946078
552.007817	2585.380956
552.366022	2581.279977
552.724173	2581.562282
553.082267	2581.320306
553.440305	2582.391552
553.798288	2583.795513
554.156215	2581.211922
554.514086	2580.554051
554.871902	2581.884916
555.229661	2583.787951
555.587365	2580.261664
555.945014	2581.229566
556.302606	2581.743763
556.660143	2582.063877
557.017625	2583.092272
557.375050	2584.713003
557.732421	2583.273753
558.089735	2584.564289
558.446994	2581.499267
558.804197	2582.373907
559.161345	2581.199319
559.518437	2581.264854
559.875474	2582.031109
560.232455	2582.053794
560.589381	2578.290573
560.946251	2584.773497
561.303065	2583.795513
561.659825	2582.376428
562.016528	2580.049936
562.373177	2581.486664
562.729770	2582.250399
563.086307	2580.218814
563.442789	2583.067066
563.799216	2582.789803
564.155587	2582.575554
564.511904	2579.203022
564.868164	2580.312076
565.224370	2582.053794
565.580520	2580.879205
565.936615	2584.413054
566.292654	2581.128742
566.648638	2582.953640
567.004567	2578.789647
567.360441	2581.330389
567.716260	2578.277970
568.072023	2583.306521
568.427732	2576.478278
568.783385	2580.667477
569.138982	2576.909297
569.494525	2578.703948
569.850013	2574.421487
570.205445	2581.862230
570.560823	2578.167065
570.916145	2578.527507
571.271412	2579.313927
571.626625	2578.867785
571.981782	2581.990780
572.336884	2580.170923
572.691931	2579.303845
573.046923	2579.681931
573.401860	2578.915676
573.756743	2575.759914
574.111570	2578.840059
574.466342	2579.717219
574.821059	2579.384503
575.175722	2575.268401
575.530330	2578.734194
575.884882	2580.642271
576.239380	2577.332754
576.593823	2578.953485
576.948211	2577.456262
577.302544	2576.758062
577.656823	2577.844431
578.011047	2579.097158
578.365216	2578.804771
578.719330	2576.778227
579.073389	2578.603124
579.427394	2576.337126
579.781344	2575.913669
580.135239	2576.458113
580.489080	2575.326374
580.842866	2574.880232
581.196597	2577.471385
581.550273	2578.051118
581.903895	2575.712023
582.257463	2578.590522
582.610975	2573.196487
582.964434	2575.008782
583.317837	2572.334450
583.671186	2576.989955
584.024481	2572.468040
584.377721	2579.122363
584.730906	2574.129100
585.084037	2573.791343
585.437113	2572.924265
585.790135	2576.858885
586.143103	2574.270253
586.496016	2573.577094
586.848874	2569.526527
587.201679	2571.157340
587.554428	2567.961249
587.907124	2573.652711
588.259765	2566.408573
588.612352	2574.320664
588.964884	2570.620457
589.317362	2570.990982
589.669786	2572.450396
590.022155	2572.440314
590.374470	2573.267063
590.726731	2572.866291
591.078937	2573.403174
591.431090	2571.031311
591.783188	2571.674058
592.135232	2570.653225
592.487222	2571.696744
592.839157	2574.686148
593.191038	2569.917216
593.542866	2574.580284
593.894639	2569.521486
594.246358	2570.718760
594.598022	2570.779254
594.949633	2568.787998
595.301190	2570.494428
595.652692	2571.490056
596.004141	2572.520972
596.355535	2570.693554
596.706876	2568.046948
597.058162	2568.538461
597.409395	2571.235478
597.760573	2571.084243
598.111698	2568.903944
598.462768	2572.644481
598.813785	2571.981569
599.164748	2566.080898
599.515657	2568.107442
599.866511	2568.379664
600.217312	2570.111301
600.568060	2569.428224
600.918753	2571.270766
601.269392	2570.197000
601.619978	2569.448389
601.970510	2571.598441
602.320988	2567.807493
602.671412	2572.558781
603.021783	2569.282031
603.372100	2571.129614
603.722363	2569.564336
604.072572	2568.021742
604.422728	2569.808832
604.772830	2563.986299
605.122878	2564.684499
605.472872	2565.390260
605.822813	2564.170301
606.172701	2566.655590
606.522534	2565.569221
606.872314	2568.407391
607.222041	2567.953687
607.571714	2565.803635
607.921333	2566.201886
608.270899	2564.797925
608.620411	2566.826989
608.969870	2569.284552
609.319276	2568.553584
609.668627	2574.567681
610.017926	2576.967270
610.367171	2576.095150
610.716362	2577.731005
611.065500	2571.658935
611.414585	2571.714388
611.763616	2572.289079
612.112594	2571.164902
612.461518	2568.964438
612.810389	2572.505849
613.159207	2568.631722
613.507971	2569.886969
613.856682	2569.208934
614.205340	2569.871846
614.553945	2572.200859
614.902496	2566.569890
615.250994	2571.041394
615.599439	2570.063410
615.947830	2568.225909
616.296169	2570.317988
616.644454	2568.046948
616.992686	2565.891855
617.340864	2568.001578
617.688990	2567.348748
618.037063	2569.082905
618.385082	2568.651887
618.733048	2571.416960
619.080961	2568.851012
619.428821	2567.194993
619.776628	2569.077864
620.124382	2569.362689
620.472083	2568.271280
620.819731	2571.227916
621.167326	2565.438151
621.514868	2568.135168
621.862357	2567.283213
622.209793	2570.272618
622.557176	2566.302709
622.904506	2564.989488
623.251783	2564.203068
623.599007	2562.794066
623.946179	2561.463201
624.293297	2562.962945
624.640363	2563.920764
624.987376	2564.755075
625.334336	2565.022256
625.681243	2568.241033
626.028097	2563.784653
626.374899	2565.322205
626.721647	2563.860270
627.068343	2563.441854
627.414987	2561.657286
627.761577	2564.064437
628.108115	2562.350444
628.454600	2562.194169
628.801032	2564.820610
629.147412	2562.967986
629.493739	2561.921946
629.840014	2561.581668
630.186236	2562.572255
630.532405	2562.756257
630.878521	2563.850188
631.224585	2563.552760
631.570597	2564.760116
631.916556	2560.568397
632.262462	2561.705177
632.608316	2562.917574
632.954117	2561.170814
633.299866	2563.199879
633.645562	2561.921946
633.991206	2561.064950
634.336797	2561.939590
634.682336	2563.572924
635.027823	2558.834240
635.373257	2559.507234
635.718639	2559.451781
636.063968	2560.530588
636.409245	2558.163766
636.754470	2558.514126
637.099642	2558.370453
637.444762	2558.756102
637.789829	2557.838612
638.134845	2560.883469
638.479808	2560.885989
638.824719	2561.987481
639.169577	2557.077397
639.514383	2557.175700
639.859137	2558.115875
640.203839	2557.102603
640.548489	2555.418858
640.893086	2554.808878
641.237632	2553.462890
641.582125	2553.818292
641.926566	2551.968188
642.270955	2559.053530
642.615292	2554.990360
642.959576	2558.665361
643.303809	2559.688715
643.647990	2560.560835
643.992118	2558.468756
644.336195	2556.641338
644.680219	2555.892726
645.024192	2555.691080
645.368112	2554.524053
645.711981	2554.713096
646.055797	2559.038406
646.399562	2559.479507
646.743274	2559.464384
647.086935	2558.047820
647.430544	2558.098231
647.774101	2556.963972
648.117606	2559.164435
648.461059	2556.721996
648.804460	2560.578479
649.147810	2555.791903
649.491108	2556.472459
649.834354	2558.057902
650.177548	2555.726368
650.520690	2558.433468
650.863781	2555.572613
651.206820	2560.149981
651.549807	2556.525391
651.892742	2558.609908
652.235626	2554.312325
652.578458	2555.587737
652.921238	2556.051523
653.263967	2555.512119
653.606644	2555.764177
653.949269	2557.054712
654.291843	2554.511450
654.634365	2552.782334
654.976836	2554.443395
655.319255	2558.884651
655.661622	2555.938097
656.003938	2553.979608
656.346203	2551.564896
656.688416	2556.727037
657.030577	2556.371636
657.372687	2557.447922
657.714746	2552.754608
658.056753	2552.870555
658.398708	2551.045657
658.740612	2551.416182
659.082465	2549.576161
659.424266	2550.680173
659.766016	2549.548434
660.107715	2555.214691
660.449362	2554.173693
660.790958	2553.712427
661.132503	2556.676626
661.473996	2553.243600
661.815438	2552.641182
662.156829	2554.879454
662.498168	2553.455328
662.839456	2554.627397
663.180693	2553.278888
663.521879	2554.690411
663.863013	2556.066646
664.204097	2555.554969
664.545129	2556.956410
664.886110	2556.248128
665.227040	2553.621687
665.567918	2553.815771
665.908746	2555.935576
666.249522	2554.718137
666.590248	2555.076059
666.930922	2556.900957
667.271545	2555.580175
667.612118	2552.777293
667.952639	2559.030845
668.293109	2553.783003
668.633528	2553.006666
668.973896	2556.043961
669.314213	2553.074721
669.654480	2553.140256
669.994695	2553.692263
670.334859	2555.431461
670.674973	2554.476162
671.015035	2554.181255
671.355047	2555.192006
671.695008	2555.156718
672.034918	2551.249824
672.374777	2551.443908
672.714585	2551.275029
673.054342	2555.048333
673.394049	2557.609239
673.733705	2553.104968
674.073310	2555.108827
674.412864	2555.655792
674.752368	2550.833928
675.091820	2554.987839
675.431223	2552.520194
675.770574	2552.303425
676.109875	2547.988197
676.449125	2551.496840
676.788324	2552.555482
677.127473	2551.869886
677.466571	2547.428629
677.805619	2553.291491
678.144616	2553.344423
678.483562	2554.035061
678.822458	2552.121943
679.161303	2555.134033
679.500098	2553.780483
679.838842	2549.445091
680.177535	2554.700493
680.516179	2552.237890
680.854771	2552.295863
681.193314	2552.719320
681.531805	2552.961295
681.870247	2554.042623
682.208638	2551.511964
682.546978	2557.427758
682.885268	2553.379711
683.223508	2552.721841
683.561697	2552.792417
683.899836	2552.850390
684.237925	2553.097407
684.575963	2552.885678
684.913951	2550.576830
685.251889	2553.233518
685.589776	2555.358364
685.927614	2553.916594
686.265401	2552.008517
686.603137	2553.863662
686.940824	2551.476676
687.278460	2555.502037
687.616046	2553.793086
687.953582	2554.145967
688.291068	2554.198899
688.628504	2554.458518
688.965889	2553.110009
689.303224	2553.427602
689.640510	2554.345092
689.977745	2552.507592
690.314930	2551.743857
690.652065	2551.504402
690.989150	2554.405586
691.326185	2553.243600
691.663170	2550.811243
692.000105	2551.527087
692.336990	2549.679504
692.673825	2550.939793
693.010610	2550.493651
693.347345	2550.891902
693.684030	2543.040305
694.020665	2547.413506
694.357251	2542.531148
694.693786	2548.101623
695.030272	2548.116747
695.366707	2550.009700
695.703093	2550.604556
696.039429	2548.777138
696.375716	2548.089020
696.711952	2547.254709
697.048139	2547.811757
697.384276	2547.000131
697.720363	2549.059442
698.056400	2547.247147
698.392388	2545.916283
698.728326	2548.729247
699.064214	2544.600542
699.400053	2550.929710
699.735842	2547.824360
700.071581	2549.949206
700.407270	2546.866540
700.742910	2546.571633
701.078501	2547.063145
701.414042	2545.197918
701.749533	2548.139432
702.084974	2547.602549
702.420366	2546.425439
702.755709	2547.600028
703.091002	2545.150027
703.426246	2547.194215
703.761440	2546.831252
704.096584	2545.850748
704.431679	2543.415871
704.766725	2544.512322
705.101721	2545.570964
705.436668	2546.417878
705.771565	2544.966025
706.106413	2549.167827
706.441212	2546.044832
706.775961	2547.438711
707.110661	2544.499719
707.445311	2545.384441
707.779913	2547.708413
708.114465	2547.998279
708.448967	2545.245809
708.783421	2547.234545
709.117825	2545.707075
709.452180	2544.300593
709.786485	2545.039122
710.120742	2548.388969
710.454949	2546.586756
710.789107	2545.986859
711.123216	2547.272353
711.457275	2544.860161
711.791286	2546.380069
712.125247	2546.528783
712.459159	2547.897456
712.793023	2552.590771
713.126837	2547.950388
713.460602	2549.263609
713.794318	2547.789072
714.127985	2548.532642
714.461602	2548.222611
714.795171	2546.095244
715.128691	2546.601880
715.462162	2546.095244
715.795584	2547.499205
716.128957	2545.737322
716.462281	2543.083154
716.795556	2546.838814
717.128782	2545.139945
717.461960	2543.680531
717.795088	2545.623896
718.128167	2547.027857
718.461198	2545.966694
718.794180	2546.248999
719.127113	2543.942671
719.459997	2546.364946
719.792833	2544.832435
720.125619	2545.485264
720.458357	2542.213555
720.791046	2544.023330
721.123686	2543.163813
721.456278	2543.960315
721.788821	2540.986034
722.121315	2545.601211
722.453761	2542.763041
722.786158	2544.023330
723.118506	2544.640871
723.450805	2541.575849
723.783056	2545.134904
724.115259	2544.456869
724.447412	2545.538196
724.779518	2544.716488
725.111574	2543.005017
725.443582	2543.385624
725.775542	2543.622558
726.107453	2541.880839
726.439315	2545.404606
726.771129	2549.765204
727.102895	2541.916127
727.434612	2546.322096
727.766281	2542.241282
728.097901	2546.324616
728.429473	2539.508976
728.760996	2539.856816
729.092471	2542.185829
729.423897	2543.199101
729.755276	2540.733977
730.086606	2547.403423
730.417887	2542.891591
730.749120	2547.141283
731.080305	2545.704554
731.411442	2545.971736
731.742530	2545.984338
732.073570	2544.925696
732.404562	2545.777651
732.735506	2548.373845
733.066401	2545.641540
733.397249	2543.998124
733.728048	2547.705893
734.058798	2543.672969
734.389501	2545.127342
734.720156	2545.202960
735.050762	2543.269677
735.381320	2545.109698
735.711831	2544.247661
736.042293	2543.514173
736.372707	2543.408309
736.703073	2543.141128
737.033391	2542.470654
737.363661	2544.174564
737.693883	2543.836807
738.024056	2546.463248
738.354182	2543.902342
738.684260	2541.265818
739.014290	2543.647764
739.344272	2543.955274
739.674207	2543.400747
740.004093	2547.133722
740.333931	2546.443083
740.663722	2545.328988
740.993464	2543.022661
741.323159	2543.879657
741.652806	2544.522404
741.982405	2545.507949
742.311956	2542.183308
742.641460	2545.114739
742.970915	2543.869574
743.300323	2542.815973
743.629683	2542.130376
743.958996	2542.548792
744.288260	2540.751621
744.617477	2543.988042
744.946647	2540.681045
745.275768	2542.490819
745.604842	2540.171888
745.933869	2538.200797
746.262847	2539.277083
746.591778	2541.837989
746.920662	2539.947557
747.249498	2545.336550
747.578286	2542.211035
747.907027	2545.064328
748.235720	2544.187167
748.564365	2541.999306
748.892963	2541.008720
749.221514	2541.396888
749.550017	2544.217414
749.878473	2541.827907
750.206881	2543.257074
750.535242	2541.590973
750.863555	2540.192053
751.191821	2540.418905
751.520039	2540.673483
751.848210	2541.515356
752.176334	2542.871426
752.504411	2542.637012
752.832440	2539.385468
753.160421	2541.956457
753.488356	2542.488298
753.816243	2542.321940
754.144082	2539.640046
754.471875	2542.541230
754.799620	2541.013761
755.127318	2540.907897
755.454969	2541.391847
755.782572	2540.428987
756.110129	2539.130890
756.437638	2542.780685
756.765100	2542.758000
757.092515	2544.247661
757.419882	2543.302445
757.747203	2542.021992
758.074477	2543.809081
758.401703	2540.272711
758.728882	2542.642053
759.056014	2540.895294
759.383099	2541.313709
759.710138	2539.982845
760.037129	2542.200952
760.364073	2542.881508
760.690970	2540.330684
761.017820	2540.330684
761.344623	2540.144162
761.671379	2542.770603
761.998088	2537.295910
762.324751	2543.274718
762.651366	2543.115922
762.977935	2547.763866
763.304456	2549.606408
763.630931	2554.844166
763.957359	2550.929710
764.283740	2548.066335
764.610074	2549.883671
764.936362	2544.754297
765.262602	2543.483926
765.588796	2545.081972
765.914943	2540.454193
766.241044	2542.808412
766.567097	2540.708771
766.893104	2538.747762
767.219064	2539.163657
767.544978	2541.648946
767.870845	2540.091230
768.196665	2538.830941
768.522438	2540.867567
768.848165	2538.210879
769.173846	2539.970242
769.499479	2538.714995
769.825066	2537.366486
770.150607	2540.507125
770.476101	2538.357073
770.801548	2539.297248
771.126949	2536.214582
771.452303	2538.596527
771.777611	2537.313554
772.102872	2540.106353
772.428087	2540.333205
772.753256	2538.752803
773.078378	2539.188863
773.403453	2537.157278
773.728482	2540.083668
774.053465	2535.395395
774.378401	2541.623740
774.703291	2538.747762
775.028135	2538.893956
775.352932	2538.694830
775.677683	2537.076620
776.002388	2535.186187
776.327046	2537.051414
776.651658	2536.512010
776.976224	2535.702905
777.300743	2538.546116
777.625216	2538.483102
777.949643	2539.294727
778.274024	2540.028215
778.598359	2534.765251
778.922647	2534.251053
779.246889	2535.523944
779.571086	2533.086546
779.895236	2536.701054
780.219339	2535.292051
780.543397	2538.835982
780.867409	2539.385468
781.191374	2537.870601
781.515294	2538.755324
781.839167	2537.434542
782.162995	2538.624254
782.486776	2538.599048
782.810511	2537.663914
783.134201	2537.996630
783.457844	2534.651825
783.781441	2538.604089
784.104993	2540.587783
784.428498	2535.097967
784.751958	2536.476722
785.075372	2537.124511
785.398739	2536.552340
785.722061	2537.946219
786.045337	2536.348173
786.368568	2538.283976
786.691752	2537.439583
787.014891	2536.900179
787.337983	2537.837834
787.661030	2539.040149
787.984031	2535.924716
788.306987	2540.204656
788.629897	2539.128369
788.952760	2540.217258
789.275579	2539.927392
789.598351	2537.777340
789.921078	2541.711961
790.243759	2535.924716
790.566395	2537.298430
790.888984	2535.390354
791.211529	2536.980838
791.534027	2537.840354
791.856480	2535.342463
792.178888	2535.902031
792.501249	2538.989738
792.823566	2539.095602
793.145836	2538.180632
793.468062	2535.592000
793.790241	2533.883049
794.112375	2539.105684
794.434464	2540.537372
794.756507	2536.075951
795.078505	2538.364634
795.400457	2537.215251
795.722364	2531.029756
796.044226	2536.559901
796.366042	2535.201310
796.687812	2535.765920
797.009538	2536.257432
797.331218	2538.220962
797.652852	2539.622402
797.974442	2538.972093
798.295986	2537.008564
798.617484	2533.746937
798.938938	2535.702905
799.260346	2537.999151
799.581709	2537.273225
799.903026	2538.873791
800.224299	2537.258101
800.545526	2536.189377
800.866708	2535.539068
801.187845	2538.268852
801.508936	2534.389685
801.829983	2534.631660
802.150984	2533.552853
802.471940	2536.144006
802.792851	2536.118800
803.113717	2537.348842
803.434538	2536.181815
803.755314	2537.835313
804.076045	2536.844727
804.396731	2536.718698
804.717372	2535.619726
805.037967	2537.290869
805.358518	2538.036959
805.679024	2538.374717
805.999485	2537.064017
806.319901	2533.908254
806.640272	2534.180477
806.960598	2537.404295
807.280879	2535.024870
807.601115	2538.004192
807.921306	2537.134593
808.241453	2534.664427
808.561554	2540.040818
808.881611	2537.484953
809.201623	2537.179963
809.521590	2536.764068
809.841513	2536.517052
810.161390	2534.984541
810.481223	2535.052596
810.801011	2536.716177
811.120755	2534.369520
811.440453	2536.741383
811.760107	2534.634181
812.079716	2535.712987
812.399281	2532.647966
812.718801	2531.518748
813.038276	2533.467153
813.357707	2536.476722
813.677093	2536.829603
813.996434	2537.653832
814.315731	2537.825231
814.634983	2536.580066
814.954191	2536.665766
815.273354	2536.993441
815.592473	2535.851619
815.911547	2536.887576
816.230577	2535.236598
816.549562	2537.540406
816.868502	2536.174253
817.187399	2535.844057
817.506250	2536.685930
817.825058	2538.465458
818.143821	2535.433203
818.462539	2535.589479
818.781213	2536.244829
819.099843	2538.515869
819.418429	2538.301620
819.736970	2541.386806
820.055466	2540.860006
820.373919	2542.105171
820.692327	2542.261446
821.010691	2549.550955
821.329011	2556.744681
821.647286	2572.785633
821.965517	2590.134764
822.283704	2601.069027
822.601847	2604.822166
822.919945	2597.772112
823.237999	2587.334403
823.556010	2577.436097
823.873976	2565.203738
824.191897	2561.155691
824.509775	2557.052192
824.827609	2552.550441
825.145398	2552.893240
825.463144	2552.484906
825.780845	2550.841490
826.098502	2550.397869
826.416116	2554.902140
826.733685	2563.043603
827.051210	2566.164077
827.368692	2562.753737
827.686129	2556.664023
828.003522	2553.858621
828.320872	2542.163144
828.638177	2541.850592
828.955439	2537.759696
829.272656	2537.290869
829.589830	2536.522093
829.906960	2537.237937
830.224046	2538.631816
830.541088	2540.265149
830.858086	2537.069058
831.175041	2538.392361
831.491952	2535.803728
831.808819	2538.452855
832.125642	2539.405633
832.442421	2538.256250
832.759157	2541.210366
833.075849	2544.144317
833.392497	2547.610111
833.709101	2546.818649
834.025662	2547.010213
834.342179	2548.063814
834.658653	2547.191695
834.975083	2542.213555
835.291469	2544.005686
835.607811	2538.692309
835.924110	2539.146013
836.240366	2536.559901
836.556578	2536.053265
836.872746	2534.069571
837.188871	2538.286497
837.504952	2536.771630
837.820990	2533.867925
838.136984	2535.259284
838.452935	2537.898328
838.768842	2535.758358
839.084706	2533.719211
839.400526	2538.636857
839.716303	2536.340611
840.032037	2540.741538
840.347727	2541.969059
840.663373	2541.676672
840.978977	2539.579552
841.294537	2536.542257
841.610054	2535.115611
841.925527	2536.353214
842.240957	2532.867256
842.556344	2534.515713
842.871687	2531.493542
843.186987	2536.275076
843.502244	2533.444468
843.817458	2533.512524
844.132629	2534.331711
844.447756	2533.817514
844.762840	2529.434230
845.077881	2529.628315
845.392879	2530.470188
845.707833	2531.682585
846.022745	2532.637884
846.337613	2536.297761
846.652438	2533.111752
846.967221	2532.282482
847.281960	2533.724252
847.596656	2534.760209
847.911309	2532.738707
848.225919	2532.269879
848.540485	2532.416073
848.855009	2533.134437
849.169490	2534.238450
849.483928	2533.714170
849.798323	2530.850795
850.112675	2535.418080
850.426984	2532.995806
850.741251	2531.649817
851.055474	2532.975641
851.369654	2534.218285
851.683792	2531.949766
851.997887	2531.990095
852.311938	2532.539581
852.625947	2535.060158
852.939914	2532.075795
853.253837	2533.593182
853.567718	2531.387678
853.881555	2528.902389
854.195350	2533.560415
854.509103	2533.396577
854.822812	2532.400949
855.136479	2534.810621
855.450103	2530.190403
855.763685	2534.165353
856.077224	2533.681403
856.390720	2532.411032
856.704173	2531.949766
857.017584	2531.853984
857.330953	2533.383974
857.644278	2533.847761
857.957561	2532.763913
858.270802	2532.768954
858.584000	2532.632843
858.897155	2534.014119
859.210268	2532.837009
859.523339	2531.480939
859.836367	2532.826927
860.149352	2533.396577
860.462295	2531.004550
860.775195	2529.865249
861.088054	2529.179652
861.400869	2527.516071
861.713642	2527.785773
862.026373	2530.034128
862.339062	2534.757689
862.651708	2531.445651
862.964312	2532.307688
863.276873	2533.081505
863.589392	2531.846423
863.901869	2531.629653
864.214303	2533.411701
864.526696	2532.244674
864.839045	2534.049407
865.151353	2535.065199
865.463619	2532.423635
865.775842	2532.595034
866.088023	2532.390867
866.400162	2536.252391
866.712258	2532.935312
867.024313	2531.652338
867.336325	2534.165353
867.648296	2533.167205
867.960224	2530.999509
868.272110	2530.623943
868.583954	2531.170908
868.895755	2533.595703
869.207515	2533.323481
869.519233	2534.157792
869.830909	2533.704088
870.142542	2534.059489
870.454134	2533.293234
870.765684	2534.014119
871.077191	2533.348686
871.388657	2531.622091
871.700081	2535.090405
872.011463	2532.494211
872.322803	2531.851464
872.634101	2532.995806
872.945357	2534.135106
873.256571	2533.817514
873.567744	2531.024714
873.878874	2532.784077
874.189963	2532.937832
874.501010	2533.789787
874.812015	2532.022863
875.122979	2536.459078
875.433900	2532.237112
875.744780	2534.157792
876.055618	2534.770292
876.366415	2529.033459
876.677169	2535.203831
876.987882	2532.736186
877.298554	2531.312060
877.609183	2530.787780
877.919771	2531.778367
878.230317	2530.959179
878.540822	2536.827083
878.851285	2537.018646
879.161707	2536.438914
879.472087	2540.814635
879.782425	2540.885211
880.092722	2543.589790
880.402977	2546.543907
880.713191	2558.108313
881.023363	2565.077709
881.333494	2573.763617
881.643583	2574.512228
881.953631	2572.528534
882.263637	2570.020560
882.573602	2568.354459
882.883526	2562.988150
883.193408	2558.524209
883.503248	2551.738816
883.813048	2548.346119
884.122806	2545.863351
884.432522	2548.520039
884.742197	2543.246992
885.051831	2543.675490
885.361424	2537.787422
885.670975	2540.794471
885.980485	2536.698533
886.289954	2536.229706
886.599382	2533.376413
886.908768	2536.817000
887.218113	2535.370189
887.527417	2535.798687
887.836680	2534.976979
888.145901	2534.296423
888.455082	2534.198121
888.764221	2533.109232
889.073319	2534.558563
889.382376	2533.363810
889.691392	2531.513706
890.000366	2533.837678
890.309300	2531.969931
890.618193	2534.704757
890.927044	2535.092926
891.235855	2533.555374
891.544625	2534.729963
891.853353	2533.038655
892.162041	2534.666948
892.470687	2533.867925
892.779293	2533.739376
893.087858	2534.621578
893.396381	2529.260311
893.704864	2536.070909
894.013306	2536.867412
894.321707	2544.484595
894.630068	2547.814277
894.938387	2549.261088
895.246665	2546.874102
895.554903	2545.840666
895.863100	2541.880839
896.171256	2542.271529
896.479371	2539.534182
896.787446	2538.881353
897.095480	2536.222144
897.403473	2536.093595
897.711425	2536.965714
898.019336	2538.031918
898.327207	2537.263142
898.635038	2536.489325
898.942827	2531.322143
899.250576	2535.523944
899.558284	2533.416742
899.865952	2534.707277
900.173579	2534.757689
900.481165	2535.647452
900.788711	2532.718542
901.096216	2530.694519
901.403681	2532.784077
901.711105	2531.967410
902.018489	2532.952956
902.325832	2536.454037
902.633135	2533.280631
902.940397	2532.710980
903.247619	2535.937319
903.554800	2538.941847
903.861941	2541.230530
904.169041	2549.314021
904.476101	2555.033210
904.783121	2551.247303
905.090100	2547.849565
905.397039	2544.560213
905.703938	2542.082485
906.010796	2541.346477
906.317614	2539.030067
906.624391	2537.154758
906.931129	2537.283307
907.237826	2534.619057
907.544483	2535.027391
907.851099	2533.532688
908.157675	2531.067564
908.464211	2532.317770
908.770707	2525.582789
909.077163	2531.299457
909.383578	2528.282327
909.689954	2527.165711
909.996289	2527.500948
910.302584	2533.457071
910.608839	2530.422297
910.915054	2530.772657
911.221229	2532.474046
911.527363	2533.814993
911.833458	2529.628315
912.139513	2532.411032
912.445527	2534.712318
912.751502	2532.232071
913.057436	2531.400280
913.363331	2533.610826
913.669186	2534.379602
913.975000	2533.467153
914.280775	2532.448840
914.586510	2532.781557
914.892205	2538.662062
915.197859	2540.381096
915.503475	2540.439069
915.809050	2547.481561
916.114585	2548.925852
916.420081	2551.428785
916.725536	2547.625234
917.030952	2548.668753
917.336328	2545.792775
917.641665	2545.298742
917.946961	2543.705737
918.252218	2539.592155
918.557435	2536.708615
918.862612	2536.711136
919.167750	2534.253573
919.472848	2536.025539
919.777906	2533.252904
920.082925	2535.788605
920.387904	2533.250384
920.692843	2530.891124
920.997743	2533.469674
921.302603	2533.431865
921.607423	2531.322143
921.912204	2532.320291
922.216946	2528.879703
922.521647	2532.063192
922.826310	2529.046062
923.130932	2532.600075
923.435516	2532.118645
923.740059	2533.905734
924.044564	2531.244005
924.349028	2534.185518
924.653454	2526.230577
924.957840	2528.536905
925.262186	2527.064888
925.566493	2527.808458
925.870761	2524.146060
926.174989	2530.263500
926.479178	2532.655528
926.783328	2530.540764
927.087438	2528.373067
927.391509	2533.026052
927.695541	2527.085053
927.999533	2530.991947
928.303486	2527.974816
928.607400	2531.359951
928.911275	2527.377440
929.215110	2526.001205
929.518906	2528.070598
929.822663	2528.057995
930.126381	2528.093283
930.430060	2530.991947
930.733699	2529.711494
931.037299	2527.256452
931.340861	2529.109076
931.644383	2529.464477
931.947866	2529.552697
932.251309	2528.405835
932.554714	2531.465815
932.858080	2531.901875
933.161407	2529.461957
933.464694	2529.945908
933.767943	2529.035979
934.071153	2528.872142
934.374323	2531.115455
934.677455	2529.098994
934.980548	2531.783408
935.283602	2528.420958
935.586617	2529.212420
935.889593	2527.122861
936.192530	2530.661751
936.495428	2529.797193
936.798287	2530.553367
937.101108	2527.763088
937.403890	2533.522606
937.706632	2529.822399
938.009336	2530.560928
938.312002	2529.202337
938.614628	2529.925743
938.917216	2532.153933
939.219765	2532.645445
939.522275	2533.643594
939.824747	2529.819879
940.127179	2526.165042
940.429573	2525.958355
940.731929	2528.602440
941.034246	2525.028262
941.336524	2528.347862
941.638763	2531.806093
941.940964	2531.861546
942.243126	2530.535722
942.545250	2528.312574
942.847335	2528.877183
943.149381	2531.007070
943.451389	2530.848274
943.753359	2529.454395
944.055290	2529.298119
944.357182	2530.392050
944.659036	2529.141843
944.960851	2530.346679
945.262628	2527.626977
945.564367	2529.479601
945.866067	2528.582275
946.167729	2529.411545
946.469352	2529.126720
946.770937	2530.949097
947.072484	2528.453726
947.373992	2531.584283
947.675462	2528.181504
947.976893	2528.577234
948.278286	2528.423479
948.579641	2529.572862
948.880958	2529.469518
949.182236	2532.085877
949.483476	2529.766947
949.784678	2530.213089
950.085841	2528.259642
950.386967	2530.016484
950.688054	2526.228057
950.989103	2530.762574
951.290114	2525.744106
951.591087	2527.810979
951.892021	2529.920702
952.192917	2530.311391
952.493776	2526.550690
952.794596	2530.240815
953.095378	2527.810979
953.396122	2530.283665
953.696828	2527.316946
953.997496	2530.954138
954.298126	2527.952131
954.598718	2531.528830
954.899272	2529.091432
955.199788	2528.763757
955.500266	2529.398942
955.800706	2527.223684
956.101108	2526.447347
956.401472	2527.783252
956.701798	2525.088756
957.002087	2526.578417
957.302337	2528.030269
957.602550	2526.966586
957.902724	2526.407017
958.202861	2525.678571
958.502960	2526.086904
958.803022	2528.219312
959.103045	2526.207892
959.403031	2526.759898
959.702979	2528.032790
960.002889	2528.247039
960.302762	2527.826102
960.602596	2528.670496
960.902393	2525.645803
961.202153	2529.144364
961.501875	2527.778211
961.801559	2526.651513
962.101205	2528.922553
962.400814	2526.482635
962.700385	2529.098994
962.999918	2526.306194
963.299414	2524.758560
963.598873	2528.158818
963.898293	2530.099663
964.197677	2527.480783
964.497022	2530.029087
964.796331	2528.423479
965.095601	2526.205371
965.394835	2527.339631
965.694030	2528.778880
965.993189	2526.800228
966.292309	2524.589682
966.591393	2526.306194
966.890439	2525.872655
967.189447	2526.598581
967.488419	2527.437933
967.787353	2530.500434
968.086249	2525.693694
968.385108	2526.684281
968.683930	2528.899868
968.982714	2525.890299
969.281462	2526.180166
969.580172	2526.066740
969.878844	2531.072605
970.177480	2525.756709
970.476078	2529.638397
970.774639	2528.975485
971.073162	2526.530526
971.371649	2524.602284
971.670098	2523.122706
971.968510	2526.376771
972.266885	2525.539939
972.565223	2527.518592
972.863524	2523.034486
973.161788	2527.369878
973.460014	2527.110258
973.758204	2525.645803
974.056356	2527.984899
974.354471	2527.342152
974.652550	2527.783253
974.950591	2530.147554
975.248595	2526.240659
975.546563	2528.274765
975.844493	2526.313756
976.142386	2527.715197
976.440243	2523.213447
976.738062	2525.471883
977.035845	2528.499096
977.333590	2526.051616
977.631299	2525.635721
977.928971	2527.296781
978.226606	2527.407687
978.524204	2527.455578
978.821765	2525.663447
979.119290	2527.745444
979.416777	2526.570855
979.714228	2526.182686
980.011642	2525.996163
980.309020	2529.625794
980.606360	2526.948942
980.903664	2524.750998
981.200931	2528.148736
981.498162	2526.248221
981.795356	2525.807120
982.092513	2528.610002
982.389633	2527.223684
982.686717	2526.780063
982.983764	2527.216123
983.280775	2531.405322
983.577749	2525.171935
983.874686	2529.348531
984.171587	2526.835516
984.468451	2527.511030
984.765279	2529.595547
985.062070	2528.017666
985.358824	2525.189579
985.655543	2525.940711
985.952224	2526.462470
986.248869	2524.816533
986.545478	2522.159845
986.842050	2527.105217
987.138586	2523.354599
987.435086	2525.829805
987.731549	2521.489372
988.027975	2525.834847
988.324366	2526.643952
988.620719	2524.622449
988.917037	2525.187058
989.213318	2525.381143
989.509563	2526.124713
989.805772	2524.511544
990.101944	2527.483304
990.398080	2524.831657
990.694180	2524.864424
990.990244	2527.508510
991.286271	2526.001205
991.582262	2525.671009
991.878217	2527.329549
992.174136	2528.738551
992.470019	2529.653521
992.765865	2529.111597
993.061676	2525.688653
993.357450	2526.422141
993.653188	2524.801410
993.948890	2526.328880
994.244556	2525.124044
994.540186	2527.221164
994.835780	2528.473891
995.131337	2525.055988
995.426859	2527.813499
995.722345	2525.207223
996.017795	2527.866432
996.313208	2528.057995
996.608586	2528.254600
996.903928	2527.208561
997.199234	2525.663447
997.494504	2528.032790
997.789738	2526.061698
998.084936	2528.637728
998.380099	2526.175124
998.675225	2527.301822
998.970316	2529.323325
999.265371	2525.892820
999.560390	2526.253262
999.855373	2527.881555
1000.150320	2525.572707
1000.445232	2527.634538
1000.740108	2526.119672
1001.034948	2528.652852
1001.329752	2525.842408
1001.624521	2524.325021
1001.919254	2520.776049
1002.213951	2519.840915
1002.508613	2525.565145
1002.803239	2525.282840
1003.097829	2520.781090
1003.392384	2525.000536
1003.686903	2524.766122
1003.981386	2529.630835
1004.275834	2529.003212
1004.570246	2526.500279
1004.864623	2526.951462
1005.158964	2528.577234
1005.453270	2526.273427
1005.747540	2526.616225
1006.041775	2526.550690
1006.335974	2525.103879
1006.630138	2526.089425
1006.924266	2525.234949
1007.218359	2525.751667
1007.512416	2526.419620
1007.806438	2523.165556
1008.100425	2525.567665
1008.394376	2525.297964
1008.688292	2527.294261
1008.982172	2525.270237
1009.276017	2527.664785
1009.569827	2526.603623
1009.863602	2527.432892
1010.157341	2527.258972
1010.451045	2527.349713
1010.744714	2524.423323
1011.038347	2527.780732
1011.331945	2526.039013
1011.625508	2526.840557
1011.919036	2523.551204
1012.212528	2526.003725
1012.505986	2526.026410
1012.799408	2523.919208
1013.092795	2528.181504
1013.386147	2526.505320
1013.679464	2525.061029
1013.972745	2526.341482
1014.265992	2526.195289
1014.559204	2525.933149
1014.852380	2523.634383
1015.145521	2527.538757
1015.438628	2524.715710
1015.731699	2528.599919
1016.024736	2522.537932
1016.317737	2524.730834
1016.610703	2525.711338
1016.903635	2524.362830
1017.196531	2522.618590
1017.489393	2523.281502
1017.782219	2521.514578
1018.075011	2525.383663
1018.367768	2525.950793
1018.660490	2523.944414
1018.953177	2523.944414
1019.245829	2523.944414
