Dividing Wavelength (nm)	Counts (n)	Blue Motor Position (mm): 0.000000	Red Motor Position (mm): 39.300000	
326.493990	2128.843981
326.888308	2128.843981
327.282561	2128.843981
327.676750	2091.952817
328.070874	2096.739393
328.464933	2096.799887
328.858929	2105.286669
329.252859	2115.144646
329.646726	2121.922477
330.040528	2137.797070
330.434265	2155.511685
330.827938	2173.322082
331.221547	2190.018383
331.615091	2208.123687
332.008571	2228.905844
332.401986	2249.367887
332.795338	2268.655342
333.188625	2288.038578
333.581847	2306.416105
333.975006	2322.356233
334.368100	2342.238544
334.761129	2359.779239
335.154095	2375.376569
335.546996	2393.912892
335.939833	2417.432395
336.332606	2433.324632
336.725315	2442.451641
337.117960	2451.087138
337.510540	2461.444188
337.903056	2474.727629
338.295508	2480.376242
338.687896	2488.847901
339.080220	2498.322749
339.472480	2503.900786
339.864676	2510.045953
340.256807	2513.002589
340.648875	2514.598115
341.040879	2523.057171
341.432818	2521.456604
341.824694	2523.505833
342.216506	2520.781090
342.608253	2524.153622
342.999937	2521.048271
343.391557	2521.854856
343.783113	2519.036851
344.174605	2521.406193
344.566033	2519.969464
344.957397	2516.750687
345.348697	2517.388393
345.739934	2514.593073
346.131106	2510.635768
346.522215	2511.192815
346.913260	2505.811383
347.304241	2506.839779
347.695159	2506.958246
348.086012	2505.652587
348.476802	2505.579490
348.867528	2501.521362
349.258191	2501.360045
349.648789	2499.928357
350.039324	2497.206134
350.429796	2497.846360
350.820203	2491.250011
351.210548	2493.500886
351.600828	2491.123982
351.991045	2492.467449
352.381198	2492.215392
352.771288	2492.517861
353.161314	2491.882675
353.551276	2492.369147
353.941175	2491.287819
354.331010	2492.631287
354.720782	2489.835967
355.110490	2490.566934
355.500135	2491.025679
355.889717	2492.835453
356.279235	2493.647079
356.668689	2491.865031
357.058080	2490.627428
357.447408	2491.804537
357.836672	2489.717500
358.225873	2493.510968
358.615010	2489.518374
359.004084	2492.916112
359.393095	2496.714621
359.782043	2495.572800
360.170927	2493.614312
360.559748	2498.181597
360.948505	2496.076915
361.337199	2501.297030
361.725830	2498.194200
362.114398	2500.782832
362.502903	2502.126300
362.891344	2501.236536
363.279722	2501.418018
363.668037	2500.971876
364.056289	2501.786022
364.444478	2502.877432
364.832603	2503.991527
365.220665	2503.908348
365.608665	2502.620333
365.996601	2504.432628
366.384474	2507.989162
366.772284	2508.720129
367.160031	2511.197856
367.547715	2512.316993
367.935336	2512.130470
368.322893	2517.169103
368.710388	2517.670698
369.097820	2530.467667
369.485189	2531.581762
369.872495	2533.996475
370.259738	2544.499719
370.646918	2552.641182
371.034035	2557.304249
371.421090	2567.502504
371.808081	2577.990624
372.195010	2585.582602
372.581875	2602.460385
372.968678	2611.325254
373.355418	2623.628190
373.742096	2640.722743
374.128710	2657.655978
374.515262	2671.350273
374.901751	2685.813343
375.288177	2700.898996
375.674540	2721.567727
376.060841	2741.941550
376.447079	2761.506268
376.833254	2782.069135
377.219367	2792.552214
377.605417	2831.361537
377.991404	2841.219513
378.377329	2862.162987
378.763191	2876.409288
379.148991	2915.357243
379.534727	2943.007971
379.920402	2969.789101
380.306013	2982.586070
380.691563	3032.886703
381.077049	3055.118192
381.462474	3072.328691
381.847835	3110.190277
382.233134	3134.569297
382.618371	3132.404121
383.003545	3202.143444
383.388657	3208.288610
383.773706	3242.107191
384.158693	3258.150663
384.543618	3280.026750
384.928480	3319.627534
385.313280	3366.888351
385.698017	3363.077239
386.082692	3416.838624
386.467305	3421.589912
386.851856	3456.081486
387.236344	3480.150475
387.620770	3510.410001
388.005133	3536.213147
388.389435	3562.248186
388.773674	3574.868715
389.157851	3616.770786
389.541965	3630.848208
389.926018	3595.083742
390.310008	3667.411697
390.693936	3686.310983
391.077802	3728.392014
391.461606	3717.177968
391.845348	3779.965539
392.229027	3781.256074
392.612645	3793.165800
392.996200	3871.643962
393.379694	3909.563522
393.763125	3977.878718
394.146494	3945.607772
394.529801	4002.870238
394.913047	4052.739853
395.296230	4022.906304
395.679351	4075.863625
396.062410	4097.606122
396.445408	4075.286413
396.828343	4113.311837
397.211217	4137.458964
397.594028	4055.830080
397.976778	4125.029999
398.359466	4149.172085
398.742092	4179.164429
399.124656	4100.111575
399.507158	4183.865305
399.889598	4208.067885
400.271977	4268.450826
400.654294	4240.802618
401.036549	4245.616919
401.418742	4214.747414
401.800874	4318.721212
402.182944	4339.137885
402.564952	4406.633894
402.946898	4391.510432
403.328783	4386.686048
403.710606	4299.295126
404.092367	4496.893233
404.474067	4457.811688
404.855705	4469.696208
405.237282	4398.409251
405.618797	4507.882948
406.000250	4539.430489
406.381642	4620.643477
406.762972	4583.817849
407.144240	4589.453859
407.525447	4590.726750
407.906593	4651.709588
408.287677	4694.496381
408.668700	4622.501143
409.049661	4674.210778
409.430560	4713.657807
409.811399	4640.886231
410.192176	4804.262465
410.572891	4744.418928
410.953545	4850.416749
411.334138	4725.809508
411.714669	4798.250889
412.095139	4690.413047
412.475547	4833.964944
412.855894	4813.666738
413.236180	4818.349970
413.616405	4775.071664
413.996568	4860.224314
414.376670	4800.534532
414.756711	4760.623717
415.136691	4789.655722
415.516609	4869.200088
415.896466	4906.290378
416.276262	4938.931849
416.655997	4919.339405
417.035670	5100.311787
417.415283	5196.529769
417.794834	5139.516840
418.174324	5095.951188
418.553753	5001.454760
418.933121	5181.151730
419.312428	5247.674796
419.691674	5192.254871
420.070859	5316.872194
420.449983	5226.166713
420.829045	5344.225495
421.208047	5249.272842
421.586988	5323.234130
421.965867	5333.291232
422.344686	5469.044464
422.723444	5317.570394
423.102141	5138.891737
423.480777	5439.715031
423.859352	5209.266245
424.237866	5467.527077
424.616319	5452.242298
424.994712	5569.759156
425.373044	5447.881700
425.751314	5589.449903
426.129524	5389.608482
426.507673	5585.225416
426.885762	5669.208519
427.263789	5600.958857
427.641756	5479.275486
428.019662	5603.502119
428.397508	5610.796669
428.775292	5556.886570
429.153016	5655.872146
429.530679	5579.128141
429.908282	5666.589639
430.285824	5535.978384
430.663305	5815.124717
431.040726	5545.554056
431.418086	5546.098501
431.795385	5652.756713
432.172624	5665.934289
432.549802	5659.252240
432.926920	5670.430998
433.303977	5682.312998
433.680974	5718.110232
434.057910	5732.883333
434.434786	5740.704683
434.811601	5707.516247
435.188355	5947.364264
435.565050	5823.253577
435.941683	5800.477644
436.318257	6016.571745
436.694770	5998.022819
437.071222	6032.579929
437.447614	5967.952337
437.823946	5880.142998
438.200218	6032.055649
438.576429	5898.805350
438.952580	5997.299414
439.328670	6045.102155
439.704700	5951.987003
440.080670	5934.973108
440.456580	6208.385128
440.832429	6088.105718
441.208218	5935.661226
441.583947	6090.999340
441.959616	6098.528304
442.335224	6025.355956
442.710773	6159.634650
443.086261	6187.671027
443.461689	5982.503627
443.837057	6128.329085
444.212365	6285.716428
444.587612	6179.685839
444.962800	6326.867367
445.337927	6314.269524
445.712995	5923.882570
446.088002	6500.832545
446.462949	6332.142935
446.837837	6263.852944
447.212664	6435.768893
447.587431	6578.045378
447.962139	7116.165866
448.336786	8045.421919
448.711374	7783.234028
449.085901	6862.666404
449.460369	6780.747654
449.834776	6715.555452
450.209124	7105.493743
450.583412	7260.907475
450.957640	7402.531131
451.331808	7165.586818
451.705917	6720.158026
452.079965	6646.836963
452.453954	6857.048038
452.827883	6735.180664
453.201752	6826.274314
453.575562	6626.077492
453.949311	6829.488050
454.323001	6719.863118
454.696632	6793.184180
455.070202	6934.394461
455.443713	7087.925322
455.817164	7186.376536
456.190556	7262.528206
456.563888	7341.576019
456.937160	7387.367340
457.310373	7041.755915
457.683526	7069.804895
458.056619	6956.376412
458.429653	6945.495082
458.802628	6882.026955
459.175542	6989.214489
459.548398	7347.196906
459.921194	7506.056266
460.293930	7508.460897
460.666607	8042.424953
461.039224	8348.559103
461.411782	8473.244481
461.784280	8497.767174
462.156719	8384.177375
462.529099	8268.150178
462.901419	7851.140891
463.273680	7744.144921
463.645882	7752.747650
464.018024	7623.346272
464.390106	7791.239380
464.762130	8174.946805
465.134094	8643.128845
465.505999	9661.603239
465.877845	10893.336085
466.249631	11541.346165
466.621358	11161.427167
466.993026	10533.788390
467.364634	10280.924113
467.736184	9913.224872
468.107674	9580.848996
468.479105	9611.340415
468.850477	9374.935505
469.221790	9148.348243
469.593043	8820.065784
469.964238	8677.988424
470.335373	8688.920166
470.706449	8753.489785
471.077467	8728.513389
471.448425	10036.647441
471.819324	11114.720877
472.190164	11146.218006
472.560945	9894.025637
472.931667	9102.224206
473.302330	8965.331673
473.672934	8608.218855
474.043479	8964.575500
474.413965	8905.614164
474.784393	8788.026730
475.154761	8944.748642
475.525070	9034.844143
475.895321	8863.394501
476.265513	9033.440182
476.635645	9206.238333
477.005719	9208.857212
477.375734	9315.235641
477.745691	9558.259585
478.115588	9686.917393
478.485427	9936.000805
478.855207	10479.129679
479.224928	11281.888059
479.594591	11917.045717
479.964194	11734.500495
480.333739	11673.605877
480.703226	11593.048239
481.072653	11675.738285
481.442022	11922.901017
481.811333	12109.794234
482.180584	11916.213927
482.549777	11618.972372
482.918912	11449.241763
483.287988	11464.667694
483.657005	11481.605971
484.025964	11153.142031
484.394864	11296.129318
484.763706	11259.154975
485.132489	11021.799808
485.501213	10981.503345
485.869879	11058.428832
486.238487	10895.917156
486.607036	11005.894968
486.975527	10791.318254
487.343959	10978.029990
487.712333	11028.817094
488.080648	10963.685387
488.448905	10997.115798
488.817104	10934.708834
489.185244	11214.170239
489.553326	11367.776717
489.921350	11892.346584
490.289315	12956.902165
490.657222	13303.541986
491.025070	13216.186351
491.392861	13087.813368
491.760593	12710.568703
492.128267	12356.465454
492.495883	12026.738704
492.863440	11690.400481
493.230939	11349.744510
493.598380	11292.686210
493.965763	11158.899028
494.333088	11061.864378
494.700354	10979.449075
495.067563	11041.150277
495.434713	10871.926304
495.801805	10996.515901
496.168839	10926.529562
496.535815	10857.979952
496.902733	10857.238903
497.269593	10785.236102
497.636395	10889.900538
498.003139	10872.402693
498.369825	10737.708104
498.736453	10901.013762
499.103023	10827.347381
499.469535	10857.024654
499.835989	10845.661893
500.202385	10802.882661
500.568723	10652.142079
500.935003	10880.201358
501.301226	10687.571308
501.667390	10946.532861
502.033497	11037.301356
502.399546	10898.294060
502.765537	10806.202261
503.131470	10882.381657
503.497345	11058.227186
503.863163	10671.358958
504.228923	10983.625671
504.594625	11055.182329
504.960269	10794.143821
505.325856	11016.035249
505.691385	10804.815944
506.056856	10954.230703
506.422270	10986.247071
506.787625	10871.901099
507.152924	10985.377472
507.518164	10970.037241
507.883347	10888.695703
508.248472	10804.145470
508.613540	11042.662623
508.978550	10924.954202
509.343503	10898.026878
509.708398	11016.859478
510.073236	11127.870726
510.438016	11139.929166
510.802738	11077.597820
511.167403	11139.291460
511.532010	11032.350943
511.896561	11269.537232
512.261053	11335.823364
512.625488	11209.398787
512.989866	11187.542864
513.354186	11177.503407
513.718449	11082.359189
514.082655	11265.542117
514.446803	11166.599391
514.810894	11284.070878
515.174927	11157.729481
515.538904	11180.308809
515.902822	11332.465955
516.266684	11216.589993
516.630488	11164.822384
516.994235	11218.646784
517.357925	11279.788418
517.721558	11368.469876
518.085133	11381.544108
518.448651	11392.344781
518.812112	11274.795155
519.175516	11290.468103
519.538863	11417.638770
519.902152	11324.576549
520.265385	11486.886580
520.628560	11401.222252
520.991678	11368.447191
521.354739	11437.140474
521.717743	11370.808971
522.080690	11345.371309
522.443580	11481.404325
522.806413	11440.223139
523.169189	11469.756739
523.531908	11529.993486
523.894569	11341.880310
524.257174	11342.742347
524.619722	11470.873355
524.982213	11410.646690
525.344647	11461.650564
525.707025	11418.868812
526.069345	11517.627536
526.431608	11425.616396
526.793815	11537.114116
527.155964	11325.705768
527.518057	11376.596216
527.880093	11324.321971
528.242072	11398.820143
528.603995	11304.361522
528.965860	11220.718698
529.327669	11262.643454
529.689421	11223.609800
530.051117	11189.665190
530.412755	11292.298041
530.774337	11185.385251
531.135862	11168.807416
531.497331	11190.743997
531.858743	11038.770853
532.220098	11208.211595
532.581396	11071.853425
532.942638	11057.443287
533.303824	11020.191680
533.664953	11039.693384
534.026025	10952.383120
534.387040	11054.257277
534.747999	11050.299972
535.108902	11112.976637
535.469748	10866.015552
535.830537	10965.890892
536.191270	10941.282499
536.551947	10971.058074
536.912567	10968.454318
537.273131	10888.257122
537.633638	10868.725172
537.994089	10868.707528
538.354483	10808.871552
538.714821	10957.429315
539.075103	10956.345467
539.435328	10919.179560
539.795497	10753.822152
540.155609	10910.138251
540.515665	10999.505305
540.875665	10729.425488
541.235609	10796.634151
541.595496	10791.524942
541.955328	10947.669641
542.315102	10831.425674
542.674821	10787.212235
543.034483	10786.377924
543.394090	10786.163675
543.753640	10716.106760
544.113134	10939.855853
544.472571	10790.977977
544.831953	10929.148442
545.191278	10734.408669
545.550548	10767.760943
545.909761	10900.479400
546.268918	10879.825793
546.628019	10954.195415
546.987064	10824.196660
547.346053	10747.122459
547.704986	10837.966572
548.063863	10830.989615
548.422684	10819.042080
548.781449	10731.237783
549.140158	10839.400780
549.498811	10713.336646
549.857408	10567.178472
550.215949	10788.974118
550.574434	10643.970369
550.932864	10742.834957
551.291237	10798.491816
551.649555	10747.054403
552.007817	10755.090002
552.366022	10713.339166
552.724173	10712.893024
553.082267	10689.549961
553.440305	10818.797584
553.798288	10622.865578
554.156215	10778.753178
554.514086	10753.186967
554.871902	10609.274627
555.229661	10638.140274
555.587365	10616.871646
555.945014	10510.092446
556.302606	10627.631989
556.660143	10526.803871
557.017625	10675.810296
557.375050	10569.578061
557.732421	10701.295850
558.089735	10610.928126
558.446994	10605.932342
558.804197	10640.285285
559.161345	10644.592951
559.518437	10482.003137
559.875474	10573.820192
560.232455	10596.613769
560.589381	10543.485049
560.946251	10537.533967
561.303065	10646.768209
561.659825	10573.399256
562.016528	10500.894861
562.373177	10380.950687
562.729770	10484.732922
563.086307	10405.314584
563.442789	10486.348611
563.799216	10364.085507
564.155587	10401.369881
564.511904	10357.315238
564.868164	10343.631025
565.224370	10359.026709
565.580520	10269.175704
565.936615	10274.640314
566.292654	10139.441609
566.648638	10261.876113
567.004567	10216.513290
567.360441	10193.749960
567.716260	10095.603736
568.072023	10186.117653
568.427732	10122.531059
568.783385	10031.815495
569.138982	10096.811092
569.494525	10108.284758
569.850013	9979.735335
570.205445	10049.083968
570.560823	9945.074882
570.916145	9854.613897
571.271412	9921.512529
571.626625	9853.199853
571.981782	9832.410134
572.336884	9784.819122
572.691931	9787.372466
573.046923	9718.394358
573.401860	9676.565384
573.756743	9606.238767
574.111570	9637.907296
574.466342	9620.346436
574.821059	9628.676943
575.175722	9517.577474
575.530330	9514.472123
575.884882	9494.935131
576.239380	9419.554758
576.593823	9384.962360
576.948211	9389.091065
577.302544	9265.388712
577.656823	9264.652703
578.011047	9259.377136
578.365216	9218.221156
578.719330	9138.966655
579.073389	9131.364595
579.427394	9071.102642
579.781344	9041.241367
580.135239	8984.523346
580.489080	8975.905493
580.842866	8874.003609
581.196597	8852.881175
581.550273	8878.253302
581.903895	8835.615223
582.257463	8890.488182
582.610975	8753.504909
582.964434	8766.926981
583.317837	8674.242847
583.671186	8653.130495
584.024481	8634.979820
584.377721	8536.944501
584.730906	8503.498966
585.084037	8514.733178
585.437113	8447.650543
585.790135	8443.206766
586.143103	8339.744645
586.496016	8293.776884
586.848874	8333.503697
587.201679	8304.088564
587.554428	8183.756222
587.907124	8211.785037
588.259765	8163.543715
588.612352	8142.131414
588.964884	8019.182713
589.317362	8014.486878
589.669786	7988.640883
590.022155	8028.783591
590.374470	8015.046447
590.726731	7948.167979
591.078937	7796.472098
591.431090	7869.200825
591.783188	7749.085252
592.135232	7717.313380
592.487222	7708.821556
592.839157	7729.278558
593.191038	7654.291395
593.542866	7588.096004
593.894639	7479.252451
594.246358	7507.611462
594.598022	7500.881522
594.949633	7395.110552
595.301190	7358.186621
595.652692	7362.458999
596.004141	7430.844771
596.355535	7233.728094
596.706876	7201.152158
597.058162	7124.355220
597.409395	7163.769482
597.760573	7194.268462
598.111698	7101.428053
598.462768	7074.047026
598.813785	7032.061776
599.164748	6977.113199
599.515657	6953.381967
599.866511	6855.054261
600.217312	6942.692200
600.568060	6806.893598
600.918753	6867.989862
601.269392	6824.462019
601.619978	6734.205201
601.970510	6758.531289
602.320988	6742.576037
602.671412	6755.388129
603.021783	6688.124013
603.372100	6652.142778
603.722363	6627.597400
604.072572	6589.395536
604.422728	6574.526653
604.772830	6508.182547
605.122878	6485.814948
605.472872	6473.055787
605.822813	6461.347708
606.172701	6406.676394
606.522534	6434.848882
606.872314	6411.525984
607.222041	6367.476382
607.571714	6387.063785
607.921333	6338.726682
608.270899	6314.128371
608.620411	6358.190577
608.969870	6270.545076
609.319276	6243.020376
609.668627	6226.394650
610.017926	6232.668366
610.367171	6233.366566
610.716362	6201.090579
611.065500	6165.971380
611.414585	6157.293034
611.763616	6133.130784
612.112594	6091.102684
612.461518	6081.733700
612.810389	6097.900680
613.159207	6030.518097
613.507971	5978.266538
613.856682	6020.471078
614.205340	5979.579758
614.553945	5998.842007
614.902496	5913.409573
615.250994	5925.019350
615.599439	5890.890738
615.947830	5869.181009
616.296169	5831.165668
616.644454	5817.607485
616.992686	5789.127486
617.340864	5799.277850
617.688990	5713.631166
618.037063	5749.199027
618.385082	5693.083423
618.733048	5712.683429
619.080961	5665.931769
619.428821	5653.810314
619.776628	5622.290500
620.124382	5578.659313
620.472083	5545.543974
620.819731	5540.580958
621.167326	5457.958967
621.514868	5442.719559
621.862357	5363.497826
622.209793	5353.188666
622.557176	5296.672291
622.904506	5253.446917
623.251783	5207.280030
623.599007	5158.569881
623.946179	5137.810409
624.293297	5093.491105
624.640363	5043.442530
624.987376	5006.432899
625.334336	4970.066015
625.681243	4916.816307
626.028097	4894.025251
626.374899	4867.576837
626.721647	4832.992001
627.068343	4790.071617
627.414987	4755.960650
627.761577	4716.614444
628.108115	4716.853899
628.454600	4650.996265
628.801032	4649.683044
629.147412	4622.188591
629.493739	4593.280094
629.840014	4547.997930
630.186236	4556.325916
630.532405	4488.035926
630.878521	4490.853931
631.224585	4458.900577
631.570597	4414.727466
631.916556	4405.786980
632.262462	4389.007499
632.608316	4356.232438
632.954117	4330.066329
633.299866	4306.998009
633.645562	4286.835914
633.991206	4242.476281
634.336797	4199.996998
634.682336	4167.884848
635.027823	4136.796052
635.373257	4120.117394
635.718639	4073.302719
636.063968	4061.231676
636.409245	4011.241074
636.754470	3992.500585
637.099642	3967.070484
637.444762	3931.071605
637.789829	3917.435283
638.134845	3889.683732
638.479808	3866.496944
638.824719	3856.114688
639.169577	3820.377948
639.514383	3812.470899
639.859137	3776.008233
640.203839	3770.805762
640.548489	3749.456476
640.893086	3728.805389
641.237632	3707.244374
641.582125	3700.322870
641.926566	3676.047193
642.270955	3673.171215
642.615292	3657.984739
642.959576	3647.811691
643.303809	3639.022439
643.647990	3624.541724
643.992118	3610.305506
644.336195	3587.474120
644.680219	3574.765371
645.024192	3568.179104
645.368112	3583.148810
645.711981	3577.202769
646.055797	3590.846652
646.399562	3571.934763
646.743274	3588.837752
647.086935	3602.660596
647.430544	3587.615273
647.774101	3577.986669
648.117606	3576.305444
648.461059	3557.070921
648.804460	3534.400852
649.147810	3501.668641
649.491108	3477.834065
649.834354	3459.355716
650.177548	3427.447733
650.520690	3395.393556
650.863781	3378.908983
651.206820	3373.514948
651.549807	3344.256091
651.892742	3320.792041
652.235626	3309.492294
652.578458	3299.805717
652.921238	3271.199690
653.263967	3270.476284
653.606644	3250.362080
653.949269	3246.929054
654.291843	3228.712845
654.634365	3226.149418
654.976836	3208.132334
655.319255	3204.543033
655.661622	3189.901002
656.003938	3179.859023
656.346203	3165.758916
656.688416	3162.383863
657.030577	3145.473313
657.372687	3133.679533
657.714746	3124.502113
658.056753	3125.739716
658.398708	3104.544185
658.740612	3099.913885
659.082465	3097.093359
659.424266	3091.626228
659.766016	3083.502408
660.107715	3071.718711
660.449362	3072.086716
660.790958	3062.115313
661.132503	3054.480486
661.473996	3054.044426
661.815438	3044.637633
662.156829	3039.684699
662.498168	3028.936959
662.839456	3021.211391
663.180693	3020.934128
663.521879	3016.150072
663.863013	3009.223527
664.204097	3001.354286
664.545129	3004.119359
664.886110	2996.948318
665.227040	2994.452946
665.567918	2988.262409
665.908746	2982.828046
666.249522	2981.971049
666.590248	2974.948722
666.930922	2972.055100
667.271545	2969.005202
667.612118	2964.720221
667.952639	2953.077676
668.293109	2949.264043
668.633528	2942.251798
668.973896	2935.090839
669.314213	2927.438368
669.654480	2920.612645
669.994695	2912.987900
670.334859	2905.892476
670.674973	2899.039027
671.015035	2898.514748
671.355047	2892.246073
671.695008	2885.879095
672.034918	2878.657643
672.374777	2876.023640
672.714585	2873.926520
673.054342	2871.055582
673.394049	2863.778677
673.733705	2862.810775
674.073310	2858.500589
674.412864	2850.601101
674.752368	2839.873525
675.091820	2838.325891
675.431223	2829.435816
675.770574	2823.988850
676.109875	2812.479895
676.449125	2807.947898
676.788324	2803.761220
677.127473	2794.520785
677.466571	2789.091462
677.805619	2790.379477
678.144616	2779.987138
678.483562	2778.008485
678.822458	2771.696961
679.161303	2771.255860
679.500098	2762.249838
679.838842	2760.893768
680.177535	2757.717841
680.516179	2757.879158
680.854771	2757.249014
681.193314	2759.320928
681.531805	2766.965838
681.870247	2776.924637
682.208638	2783.457973
682.546978	2777.947992
682.885268	2772.924482
683.223508	2765.103132
683.561697	2758.065681
683.899836	2754.569641
684.237925	2747.663260
684.575963	2745.364494
684.913951	2742.475912
685.251889	2742.561612
685.589776	2739.781416
685.927614	2735.055334
686.265401	2737.820407
686.603137	2736.232443
686.940824	2738.803432
687.278460	2742.609503
687.616046	2741.709657
687.953582	2744.726788
688.291068	2744.555388
688.628504	2745.059504
688.965889	2742.697723
689.303224	2732.996023
689.640510	2725.983778
689.977745	2721.051009
690.314930	2709.784030
690.652065	2704.342104
690.989150	2699.033769
691.326185	2690.100845
691.663170	2684.477437
692.000105	2678.554082
692.336990	2675.350428
692.673825	2670.586538
693.010610	2663.843995
693.347345	2658.679333
693.684030	2653.534835
694.020665	2653.038282
694.357251	2648.418064
694.693786	2646.615852
695.030272	2646.033598
695.366707	2642.134266
695.703093	2640.082516
696.039429	2639.863226
696.375716	2638.522279
696.711952	2637.274593
697.048139	2633.846609
697.384276	2632.576238
697.720363	2635.265694
698.056400	2633.982720
698.392388	2630.012811
698.728326	2630.153964
699.064214	2626.826802
699.400053	2625.193468
699.735842	2620.568210
700.071581	2622.486369
700.407270	2618.949999
700.742910	2615.567385
701.078501	2614.773403
701.414042	2611.264760
701.749533	2608.290479
702.084974	2609.218052
702.420366	2608.356014
702.755709	2606.379882
703.091002	2602.969542
703.426246	2603.634974
703.761440	2603.012391
704.096584	2599.365117
704.431679	2600.537185
704.766725	2600.789242
705.101721	2597.683892
705.436668	2595.997626
705.771565	2597.497369
706.106413	2597.308326
706.441212	2599.125662
706.775961	2594.424786
707.110661	2596.806731
707.445311	2598.336721
707.779913	2594.054261
708.114465	2596.804210
708.448967	2596.370671
708.783421	2600.995930
709.117825	2600.436362
709.452180	2599.188676
709.786485	2598.301433
710.120742	2602.157916
710.454949	2599.433172
710.789107	2602.407453
711.123216	2601.668924
711.457275	2605.696806
711.791286	2604.822166
712.125247	2606.402567
712.459159	2608.315685
712.793023	2611.179061
713.126837	2604.612958
713.460602	2605.719491
713.794318	2601.177411
714.127985	2602.104984
714.461602	2598.177925
714.795171	2594.881010
715.128691	2593.766915
715.462162	2593.540063
715.795584	2589.242480
716.128957	2588.365319
716.462281	2586.769794
716.795556	2587.291553
717.128782	2584.586974
717.461960	2583.205698
717.795088	2583.165369
718.128167	2580.165882
718.461198	2579.825604
718.794180	2581.889957
719.127113	2577.088258
719.459997	2575.898545
719.792833	2578.099009
720.125619	2577.975501
720.458357	2575.187743
720.791046	2576.795871
721.123686	2572.954512
721.456278	2575.124728
721.788821	2572.107598
722.121315	2575.994327
722.453761	2572.163050
722.786158	2571.255643
723.118506	2574.373596
723.450805	2573.118349
723.783056	2574.406364
724.115259	2573.236816
724.447412	2573.390571
724.779518	2575.147413
725.111574	2570.209603
725.443582	2572.193297
725.775542	2571.061558
726.107453	2577.189081
726.439315	2573.415777
726.771129	2578.066242
727.102895	2575.787640
727.434612	2576.488360
727.766281	2577.052970
728.097901	2577.176478
728.429473	2571.028791
728.760996	2573.708164
729.092471	2571.457289
729.423897	2576.180850
729.755276	2575.517938
730.086606	2576.190932
730.417887	2573.395613
730.749120	2575.764955
731.080305	2575.893504
731.411442	2580.100347
731.742530	2576.725295
732.073570	2578.746797
732.404562	2580.191088
732.735506	2578.915676
733.066401	2576.657239
733.397249	2577.877198
733.728048	2575.966601
734.058798	2573.713205
734.389501	2571.749676
734.720156	2571.535427
735.050762	2568.251115
735.381320	2566.942936
735.711831	2566.164077
736.042293	2567.305899
736.372707	2568.490570
736.703073	2569.319840
737.033391	2567.202555
737.363661	2567.807493
737.693883	2565.183573
738.024056	2570.509552
738.354182	2567.368913
738.684260	2570.398647
739.014290	2571.550550
739.344272	2566.537123
739.674207	2569.047617
740.004093	2570.678431
740.333931	2569.650035
740.663722	2566.547205
740.993464	2569.607185
741.323159	2570.534758
741.652806	2565.818758
741.982405	2570.111301
742.311956	2566.716084
742.641460	2566.585014
742.970915	2566.862277
743.300323	2567.305899
743.629683	2564.359344
743.958996	2562.605023
744.288260	2563.177194
744.617477	2562.002605
744.946647	2557.909188
745.275768	2561.652245
745.604842	2557.972202
745.933869	2558.004970
746.262847	2556.290978
746.591778	2560.507903
746.920662	2561.319528
747.249498	2562.216854
747.578286	2561.327090
747.907027	2561.566545
748.235720	2564.200548
748.564365	2561.811041
748.892963	2560.989333
749.221514	2561.022100
749.550017	2563.378840
749.878473	2562.393294
750.206881	2561.866494
750.535242	2563.134344
750.863555	2561.634601
751.191821	2561.175856
751.520039	2562.610064
751.848210	2560.278530
752.176334	2560.031514
752.504411	2562.088304
752.832440	2557.939435
753.160421	2559.282902
753.488356	2557.425237
753.816243	2557.841132
754.144082	2561.634601
754.471875	2560.308777
754.799620	2559.789538
755.127318	2559.166956
755.454969	2557.788200
755.782572	2558.274672
756.110129	2557.959599
756.437638	2557.944476
756.765100	2557.342058
757.092515	2556.301060
757.419882	2555.731409
757.747203	2559.164435
758.074477	2558.297357
758.401703	2559.681153
758.728882	2559.852553
759.056014	2559.822306
759.383099	2559.368602
759.710138	2559.134188
760.037129	2559.177038
760.364073	2559.350958
760.690970	2560.023952
761.017820	2561.715259
761.344623	2559.340876
761.671379	2561.909343
761.998088	2557.450443
762.324751	2561.740465
762.651366	2566.774057
762.977935	2580.564133
763.304456	2586.225349
763.630931	2591.959662
763.957359	2587.891450
764.283740	2578.414081
764.610074	2573.947619
764.936362	2569.292113
765.262602	2564.772719
765.588796	2564.376988
765.914943	2561.367419
766.241044	2559.124106
766.567097	2561.773232
766.893104	2556.754764
767.219064	2556.938766
767.544978	2558.932542
767.870845	2556.180072
768.196665	2556.225442
768.522438	2553.651933
768.848165	2553.238559
769.173846	2552.905843
769.499479	2554.282078
769.825066	2551.832077
770.150607	2554.977757
770.476101	2552.815102
770.801548	2558.294836
771.126949	2553.019269
771.452303	2552.560524
771.777611	2553.031872
772.102872	2551.723692
772.428087	2551.186809
772.753256	2549.601366
773.078378	2549.734957
773.403453	2548.759494
773.728482	2552.701676
774.053465	2549.624052
774.378401	2549.626572
774.703291	2552.152190
775.028135	2550.223949
775.352932	2547.630275
775.677683	2549.586243
776.002388	2550.327292
776.327046	2548.043650
776.651658	2550.032385
776.976224	2546.438042
777.300743	2549.976932
777.625216	2546.715306
777.949643	2548.056253
778.274024	2553.094886
778.598359	2547.015254
778.922647	2545.389482
779.246889	2545.974256
779.571086	2544.706406
779.895236	2546.798485
780.219339	2550.634803
780.543397	2548.986346
780.867409	2546.211190
781.191374	2548.227652
781.515294	2546.569112
781.839167	2547.436191
782.162995	2548.141952
782.486776	2548.217570
782.810511	2549.271171
783.134201	2547.887374
783.457844	2546.130532
783.781441	2547.312682
784.104993	2547.287477
784.428498	2546.586756
784.751958	2547.456355
785.075372	2547.209339
785.398739	2550.251675
785.722061	2548.451983
786.045337	2548.363763
786.368568	2547.358053
786.691752	2549.261088
787.014891	2547.156407
787.337983	2547.801674
787.661030	2552.058929
787.984031	2550.226469
788.306987	2552.615976
788.629897	2554.249310
788.952760	2552.361398
789.275579	2551.504402
789.598351	2550.662529
789.921078	2550.536500
790.243759	2552.384083
790.566395	2550.042467
790.888984	2550.539021
791.211529	2544.245140
791.534027	2548.628424
791.856480	2544.600542
792.178888	2546.042312
792.501249	2546.301931
792.823566	2546.899308
793.145836	2546.256561
793.468062	2544.497198
793.790241	2546.611962
794.112375	2548.547765
794.434464	2545.676828
794.756507	2547.531973
795.078505	2548.071376
795.400457	2545.429812
795.722364	2544.877805
796.044226	2550.060111
796.366042	2545.114739
796.687812	2548.073897
797.009538	2550.551624
797.331218	2550.579350
797.652852	2548.812426
797.974442	2549.636654
798.295986	2549.283774
798.617484	2548.043650
798.938938	2546.165820
799.260346	2546.198587
799.581709	2547.605069
799.903026	2547.652960
800.224299	2547.726057
800.545526	2546.075079
800.866708	2544.527445
801.187845	2549.026675
801.508936	2548.394010
801.829983	2546.909390
802.150984	2546.027188
802.471940	2545.293700
802.792851	2546.677497
803.113717	2546.248999
803.434538	2545.487785
803.755314	2544.638350
804.076045	2547.847045
804.396731	2543.045346
804.717372	2546.213711
805.037967	2546.536345
805.358518	2545.530635
805.679024	2545.487785
805.999485	2547.025337
806.319901	2545.081972
806.640272	2547.214380
806.960598	2546.246478
807.280879	2545.938968
807.601115	2546.899308
807.921306	2545.298742
808.241453	2546.927034
808.561554	2546.286808
808.881611	2544.978628
809.201623	2547.214380
809.521590	2548.686397
809.841513	2549.487940
810.161390	2545.480223
810.481223	2546.828732
810.801011	2546.773279
811.120755	2546.523742
811.440453	2544.923176
811.760107	2544.373690
812.079716	2541.704399
812.399281	2541.790098
812.718801	2543.110881
813.038276	2542.889070
813.357707	2544.048535
813.677093	2545.018958
813.996434	2544.968546
814.315731	2543.181457
814.634983	2545.593649
814.954191	2546.241437
815.273354	2546.559030
815.592473	2547.484082
815.911547	2545.664225
816.230577	2545.434853
816.549562	2550.067673
816.868502	2546.632127
817.187399	2548.162117
817.506250	2548.446942
817.825058	2549.979453
818.143821	2545.041643
818.462539	2546.170861
818.781213	2551.322920
819.099843	2551.635472
819.418429	2553.009186
819.736970	2558.120916
820.055466	2558.294836
820.373919	2561.652245
820.692327	2567.346228
821.010691	2575.674214
821.329011	2594.949066
821.647286	2631.089098
821.965517	2674.919410
822.283704	2701.408153
822.601847	2709.342929
822.919945	2691.277954
823.237999	2666.951866
823.556010	2642.913124
823.873976	2622.120885
824.191897	2610.601848
824.509775	2594.578541
824.827609	2586.177458
825.145398	2581.317786
825.463144	2579.868454
825.780845	2580.039853
826.098502	2582.754515
826.416116	2597.028542
826.733685	2608.562702
827.051210	2611.947837
827.368692	2613.286263
827.686129	2596.784046
828.003522	2583.598908
828.320872	2573.025088
828.638177	2564.986968
828.955439	2558.546894
829.272656	2558.688046
829.589830	2552.416851
829.906960	2549.770245
830.224046	2550.728064
830.541088	2545.760007
830.858086	2548.840152
831.175041	2546.352343
831.491952	2550.844011
831.808819	2549.099772
832.125642	2548.827549
832.442421	2551.771583
832.759157	2556.885834
833.075849	2564.666855
833.392497	2574.043401
833.709101	2579.886098
834.025662	2579.598752
834.342179	2576.720253
834.658653	2570.733883
834.975083	2560.883469
835.291469	2562.673078
835.607811	2554.587068
835.924110	2552.086655
836.240366	2552.189999
836.556578	2547.736139
836.872746	2547.537014
837.188871	2546.740512
837.504952	2543.798998
837.820990	2543.073072
838.136984	2541.709440
838.452935	2544.620706
838.768842	2545.507949
839.084706	2544.930737
839.400526	2549.992056
839.716303	2550.846531
840.032037	2558.456153
840.347727	2557.417675
840.663373	2556.664023
840.978977	2550.314690
841.294537	2549.538352
841.610054	2545.512991
841.925527	2544.696324
842.240957	2543.340253
842.556344	2543.206663
842.871687	2543.967877
843.186987	2540.486960
843.502244	2541.754810
843.817458	2541.732125
844.132629	2540.161806
844.447756	2541.543082
844.762840	2536.443955
845.077881	2537.948739
845.392879	2536.960673
845.707833	2538.548637
846.022745	2533.946063
846.337613	2537.245498
846.652438	2541.664070
846.967221	2540.454193
847.281960	2539.496373
847.596656	2544.376210
847.911309	2537.978986
848.225919	2541.044008
848.540485	2539.990407
848.855009	2541.717002
849.169490	2537.316074
849.483928	2540.885211
849.798323	2537.865560
850.112675	2539.395550
850.426984	2539.193904
850.741251	2539.146013
851.055474	2538.888914
851.369654	2537.832793
851.683792	2540.973432
851.997887	2541.008720
852.311938	2539.335057
852.625947	2541.006199
852.939914	2538.412525
853.253837	2541.651467
853.567718	2537.762217
853.881555	2538.951929
854.195350	2541.051569
854.509103	2541.220448
854.822812	2539.924872
855.136479	2538.911600
855.450103	2539.239275
855.763685	2540.411343
856.077224	2538.465458
856.390720	2536.796836
856.704173	2539.037628
857.017584	2537.845396
857.330953	2538.641898
857.644278	2539.269522
857.957561	2541.948895
858.270802	2541.008720
858.584000	2539.761034
858.897155	2539.403112
859.210268	2539.980324
859.523339	2540.592824
859.836367	2538.473019
860.149352	2542.735315
860.462295	2540.819676
860.775195	2534.334232
861.088054	2536.713657
861.400869	2537.777340
861.713642	2535.604603
862.026373	2540.391178
862.339062	2538.861188
862.651708	2540.315561
862.964312	2538.203317
863.276873	2538.536034
863.589392	2540.930582
863.901869	2538.841023
864.214303	2541.885880
864.526696	2538.220962
864.839045	2540.217258
865.151353	2538.783050
865.463619	2539.408153
865.775842	2540.116435
866.088023	2540.131559
866.400162	2541.200283
866.712258	2541.903524
867.024313	2540.144162
867.336325	2539.440921
867.648296	2540.136600
867.960224	2539.811446
868.272110	2538.793133
868.583954	2543.428473
868.895755	2541.278421
869.207515	2538.916641
869.519233	2540.592824
869.830909	2541.190201
870.142542	2541.459903
870.454134	2542.813453
870.765684	2541.601055
871.077191	2540.280273
871.388657	2542.357228
871.700081	2539.556867
872.011463	2538.989738
872.322803	2539.292207
872.634101	2543.594832
872.945357	2541.117104
873.256571	2541.701878
873.567744	2542.745397
873.878874	2542.306817
874.189963	2542.662218
874.501010	2544.393854
874.812015	2541.558205
875.122979	2543.940151
875.433900	2542.934440
875.744780	2543.685572
876.055618	2541.545602
876.366415	2544.293031
876.677169	2543.688093
876.987882	2544.419060
877.298554	2541.560726
877.609183	2542.821014
877.919771	2540.691127
878.230317	2545.528114
878.540822	2547.554658
878.851285	2546.528783
879.161707	2550.526418
879.472087	2552.341233
879.782425	2558.108313
880.092722	2564.082081
880.402977	2576.163206
880.713191	2597.414190
881.023363	2620.096862
881.333494	2633.302164
881.643583	2639.313740
881.953631	2632.966927
882.263637	2630.527009
882.573602	2623.270268
882.883526	2611.605038
883.193408	2598.737493
883.503248	2589.854980
883.813048	2581.216963
884.122806	2575.212948
884.432522	2571.638770
884.742197	2566.302709
885.051831	2559.605536
885.361424	2557.710062
885.670975	2556.233004
885.980485	2553.588919
886.289954	2552.873075
886.599382	2550.435677
886.908768	2553.062118
887.218113	2548.325954
887.527417	2549.190512
887.836680	2542.977290
888.145901	2546.682538
888.455082	2544.338402
888.764221	2546.634647
889.073319	2543.496529
889.382376	2544.081303
889.691392	2544.156920
890.000366	2545.777651
890.309300	2546.017106
890.618193	2544.441745
890.927044	2543.879657
891.235855	2543.698175
891.544625	2544.388813
891.853353	2544.204811
892.162041	2545.742363
892.470687	2548.063814
892.779293	2548.174720
893.087858	2546.788402
893.396381	2547.123639
893.704864	2552.590771
894.013306	2554.443395
894.321707	2567.988975
894.630068	2571.984089
894.938387	2578.212435
895.246665	2573.017526
895.554903	2570.073492
895.863100	2561.904302
896.171256	2564.944118
896.479371	2556.003632
896.787446	2554.400545
897.095480	2550.642365
897.403473	2550.680173
897.711425	2549.041798
898.019336	2547.340409
898.327207	2548.492313
898.635038	2547.292518
898.942827	2546.798485
899.250576	2547.012734
899.558284	2545.840666
899.865952	2545.921324
900.173579	2543.914945
900.481165	2544.648433
900.788711	2543.395706
901.096216	2542.213555
901.403681	2544.890408
901.711105	2542.803370
902.018489	2542.261446
902.325832	2546.322096
902.633135	2543.554502
902.940397	2544.822352
903.247619	2550.400389
903.554800	2554.682849
903.861941	2565.997719
904.169041	2580.788465
904.476101	2588.400607
904.783121	2588.405648
905.090100	2580.632189
905.397039	2572.460478
905.703938	2564.997050
906.010796	2559.744168
906.317614	2550.662529
906.624391	2553.450287
906.931129	2547.221942
907.237826	2546.445604
907.544483	2542.929399
907.851099	2543.350336
908.157675	2542.319420
908.464211	2541.797660
908.770707	2537.729449
909.077163	2535.206352
909.383578	2536.028060
909.689954	2536.345652
909.996289	2535.846578
910.302584	2540.809594
910.608839	2536.746424
910.915054	2541.825387
911.221229	2538.198276
911.527363	2540.055942
911.833458	2537.263142
912.139513	2539.637526
912.445527	2539.957639
912.751502	2539.967721
913.057436	2541.114584
913.363331	2541.495191
913.669186	2542.279090
913.975000	2545.487785
914.280775	2545.061807
914.586510	2553.596481
914.892205	2553.800648
915.197859	2559.572769
915.503475	2569.511403
915.809050	2572.778071
916.114585	2581.627817
916.420081	2583.336768
916.725536	2582.159658
917.030952	2577.312589
917.336328	2572.115159
917.641665	2567.121897
917.946961	2563.961093
918.252218	2561.543860
918.557435	2557.684857
918.862612	2556.054043
919.167750	2551.794268
919.472848	2551.975750
919.777906	2546.730429
920.082925	2549.301418
920.387904	2547.867209
920.692843	2545.029040
920.997743	2541.812784
921.302603	2540.832279
921.607423	2542.279090
921.912204	2543.138607
922.216946	2542.667259
922.521647	2540.497042
922.826310	2539.582073
923.130932	2540.688606
923.435516	2540.136600
923.740059	2541.719522
924.044564	2535.528985
924.349028	2538.427649
924.653454	2534.135106
924.957840	2535.962525
925.262186	2533.285672
925.566493	2537.069058
925.870761	2531.375075
926.174989	2536.474202
926.479178	2537.013605
926.783328	2536.010416
927.087438	2537.621064
927.391509	2536.514531
927.695541	2534.785415
927.999533	2534.261135
928.303486	2535.002185
928.607400	2535.105528
928.911275	2534.026722
929.215110	2536.176774
929.518906	2537.321116
929.822663	2536.993441
930.126381	2535.057637
930.430060	2534.253573
930.733699	2534.916485
931.037299	2536.007895
931.340861	2534.447658
931.644383	2536.189377
931.947866	2537.409336
932.251309	2534.868594
932.554714	2532.786598
932.858080	2538.042001
933.161407	2532.282482
933.464694	2534.729963
933.767943	2535.259284
934.071153	2534.298944
934.374323	2534.253573
934.677455	2537.366486
934.980548	2538.130221
935.283602	2534.296423
935.586617	2535.198790
935.889593	2535.639891
936.192530	2533.883049
936.495428	2536.726259
936.798287	2534.586290
937.101108	2535.929757
937.403890	2536.360776
937.706632	2536.348173
938.009336	2536.927906
938.312002	2538.667104
938.614628	2537.762217
938.917216	2537.028729
939.219765	2539.435880
939.522275	2538.389840
939.824747	2540.736497
940.127179	2535.264325
940.429573	2533.084026
940.731929	2536.723739
941.034246	2534.724921
941.336524	2536.738862
941.638763	2535.947401
941.940964	2535.597041
942.243126	2535.770961
942.545250	2540.383617
942.847335	2538.236085
943.149381	2534.818183
943.451389	2532.983203
943.753359	2537.535365
944.055290	2535.501259
944.357182	2537.265663
944.659036	2536.149047
944.960851	2536.378420
945.262628	2536.438914
945.564367	2535.181146
945.866067	2537.769778
946.167729	2533.499921
946.469352	2535.213913
946.770937	2536.408667
947.072484	2537.265663
947.373992	2536.385982
947.675462	2535.246681
947.976893	2536.532175
948.278286	2534.964376
948.579641	2534.712318
948.880958	2533.028573
949.182236	2535.690302
949.483476	2534.155271
949.784678	2534.893800
950.085841	2534.435055
950.386967	2533.023532
950.688054	2533.636032
950.989103	2536.282638
951.290114	2533.820034
951.591087	2534.656866
951.892021	2533.976310
952.192917	2534.117462
952.493776	2535.039993
952.794596	2534.329191
953.095378	2535.728111
953.396122	2533.799870
953.696828	2533.673841
953.997496	2536.146527
954.298126	2534.896321
954.598718	2536.948070
954.899272	2535.362627
955.199788	2532.998326
955.500266	2534.465302
955.800706	2530.064375
956.101108	2526.734692
956.401472	2528.390712
956.701798	2528.950280
957.002087	2528.882224
957.302337	2533.963707
957.602550	2531.110414
957.902724	2532.988244
958.202861	2533.116793
958.502960	2532.037986
958.803022	2530.719725
959.103045	2532.907585
959.403031	2533.431865
959.702979	2531.150743
960.002889	2531.853984
960.302762	2534.137627
960.602596	2533.194931
960.902393	2530.152595
961.202153	2531.054961
961.501875	2531.508665
961.801559	2531.584282
962.101205	2531.352389
962.400814	2531.445651
962.700385	2529.230064
962.999918	2532.136289
963.299414	2530.019004
963.598873	2530.770136
963.898293	2531.251566
964.197677	2530.828109
964.497022	2527.112779
964.796331	2531.959848
965.095601	2533.189890
965.394835	2531.047400
965.694030	2530.087060
965.993189	2530.313912
966.292309	2530.520599
966.591393	2530.119827
966.890439	2529.262831
967.189447	2530.127389
967.488419	2529.683768
967.787353	2530.061854
968.086249	2530.949097
968.385108	2531.410363
968.683930	2530.850795
968.982714	2531.412883
969.281462	2530.145033
969.580172	2530.767616
969.878844	2530.381967
970.177480	2530.646628
970.476078	2531.811134
970.774639	2530.354241
971.073162	2530.520599
971.371649	2530.142513
971.670098	2525.368540
971.968510	2528.811648
972.266885	2525.983561
972.565223	2531.453213
972.863524	2528.630166
973.161788	2527.879034
973.460014	2528.877183
973.758204	2532.302647
974.056356	2528.635208
974.354471	2528.877183
974.652550	2529.731658
974.950591	2529.093952
975.248595	2531.533871
975.546563	2533.734335
975.844493	2532.600075
976.142386	2528.725948
976.440243	2530.621422
976.738062	2530.939015
977.035845	2529.182173
977.333590	2531.972451
977.631299	2529.222502
977.928971	2530.669313
978.226606	2527.775691
978.524204	2531.843902
978.821765	2531.249046
979.119290	2529.111597
979.416777	2530.356762
979.714228	2529.393901
980.011642	2530.886083
980.309020	2531.730476
980.606360	2530.790301
980.903664	2530.790301
981.200931	2528.249559
981.498162	2531.435568
981.795356	2529.514889
982.092513	2531.889272
982.389633	2531.044879
982.686717	2535.896990
982.983764	2531.493542
983.280775	2530.747451
983.577749	2530.041689
983.874686	2534.636701
984.171587	2533.303316
984.468451	2532.756351
984.765279	2529.482121
985.062070	2531.692667
985.358824	2532.892462
985.655543	2531.455733
985.952224	2530.160157
986.248869	2529.645959
986.545478	2527.261493
986.842050	2529.739220
987.138586	2527.195958
987.435086	2527.281658
987.731549	2526.643952
988.027975	2528.022707
988.324366	2527.105217
988.620719	2528.914992
988.917037	2529.829961
989.213318	2528.476411
989.509563	2529.971113
989.805772	2532.897503
990.101944	2530.082019
990.398080	2528.186545
990.694180	2529.782070
990.990244	2529.028417
991.286271	2530.843233
991.582262	2531.412883
991.878217	2527.372398
992.174136	2529.688809
992.470019	2529.353572
992.765865	2527.160670
993.061676	2528.884745
993.357450	2527.934487
993.653188	2530.482790
993.948890	2531.218799
994.244556	2525.527336
994.540186	2531.566638
994.835780	2526.999353
995.131337	2529.361134
995.426859	2527.873993
995.722345	2526.681760
996.017795	2531.291896
996.313208	2531.150743
996.608586	2528.912471
996.903928	2528.602440
997.199234	2530.477749
997.494504	2528.345341
997.789738	2533.426824
998.084936	2530.102183
998.380099	2527.571524
998.675225	2527.054806
998.970316	2528.126051
999.265371	2532.015301
999.560390	2527.541277
999.855373	2529.194776
1000.150320	2529.212420
1000.445232	2525.875176
1000.740108	2528.660413
1001.034948	2525.875176
1001.329752	2528.642769
1001.624521	2528.625125
1001.919254	2526.205371
1002.213951	2524.927439
1002.508613	2526.883407
1002.803239	2527.720238
1003.097829	2521.577592
1003.392384	2530.404653
1003.686903	2525.469363
1003.981386	2528.942718
1004.275834	2527.483304
1004.570246	2529.179652
1004.864623	2526.885927
1005.158964	2529.560259
1005.453270	2527.246370
1005.747540	2529.204858
1006.041775	2526.618746
1006.335974	2528.259642
1006.630138	2529.111597
1006.924266	2527.102697
1007.218359	2526.873324
1007.512416	2527.644621
1007.806438	2526.792666
1008.100425	2530.366844
1008.394376	2527.213602
1008.688292	2528.017666
1008.982172	2525.358458
1009.276017	2527.143026
1009.569827	2528.020187
1009.863602	2527.813499
1010.157341	2527.606812
1010.451045	2529.575383
1010.744714	2526.054137
1011.038347	2529.600588
1011.331945	2528.063037
1011.625508	2527.105217
1011.919036	2526.553211
1012.212528	2527.296781
1012.505986	2527.611853
1012.799408	2528.617563
1013.092795	2526.039013
1013.386147	2528.874662
1013.679464	2527.357275
1013.972745	2529.605630
1014.265992	2527.485824
1014.559204	2528.390712
1014.852380	2528.110928
1015.145521	2528.723428
1015.438628	2526.225536
1015.731699	2528.365506
1016.024736	2527.329549
1016.317737	2530.573531
1016.610703	2526.414579
1016.903635	2525.182017
1017.196531	2524.060360
1017.489393	2523.725124
1017.782219	2522.144722
1018.075011	2524.864424
1018.367768	2526.316277
1018.660490	2529.686288
1018.953177	2529.686288
1019.245829	2529.686288
