Dividing Wavelength (nm)	Counts (n)	Blue Motor Position (mm): 0.000000	Red Motor Position (mm): 45.400000	
326.493990	2129.411111
326.888308	2129.411111
327.282561	2129.411111
327.676750	2096.338621
328.070874	2094.901892
328.464933	2097.266193
328.858929	2105.631988
329.252859	2112.283791
329.646726	2126.247787
330.040528	2137.129118
330.434265	2152.890285
330.827938	2173.236382
331.221547	2190.827488
331.615091	2210.493029
332.008571	2227.658158
332.401986	2247.144738
332.795338	2265.076123
333.188625	2287.685698
333.581847	2306.030457
333.975006	2325.922850
334.368100	2343.672752
334.761129	2360.555577
335.154095	2375.805067
335.546996	2396.350289
335.939833	2422.120668
336.332606	2436.200611
336.725315	2450.852724
337.117960	2459.878910
337.510540	2470.223358
337.903056	2480.000676
338.295508	2483.836994
338.687896	2496.379385
339.080220	2503.840292
339.472480	2507.933709
339.864676	2515.419823
340.256807	2518.467200
340.648875	2520.312263
341.040879	2522.550535
341.432818	2527.072450
341.824694	2527.778211
342.216506	2530.906247
342.608253	2527.337110
342.999937	2524.060360
343.391557	2527.735362
343.783113	2526.404497
344.174605	2524.647655
344.566033	2523.341996
344.957397	2525.852491
345.348697	2518.517612
345.739934	2519.251100
346.131106	2518.464680
346.522215	2517.965605
346.913260	2515.074504
347.304241	2514.197343
347.695159	2509.375479
348.086012	2506.890190
348.476802	2505.639984
348.867528	2506.469254
349.258191	2503.686537
349.648789	2503.540344
350.039324	2504.485560
350.429796	2503.840292
350.820203	2501.695281
351.210548	2499.482215
351.600828	2496.644045
351.991045	2499.444406
352.381198	2494.146153
352.771288	2495.792090
353.161314	2495.177069
353.551276	2496.412152
353.941175	2495.824858
354.331010	2496.770074
354.720782	2494.894765
355.110490	2496.966679
355.500135	2497.672441
355.889717	2496.185300
356.279235	2498.410970
356.668689	2499.663696
357.058080	2496.371823
357.447408	2494.536843
357.836672	2494.506596
358.225873	2496.603716
358.615010	2493.785711
359.004084	2496.492811
359.393095	2500.427431
359.782043	2500.092194
360.170927	2501.690240
360.559748	2502.259891
360.948505	2500.974396
361.337199	2505.100581
361.725830	2502.416166
362.114398	2505.163595
362.502903	2504.130159
362.891344	2505.801301
363.279722	2506.542351
363.668037	2506.933040
364.056289	2505.211486
364.444478	2507.772392
364.832603	2508.042094
365.220665	2510.050994
365.608665	2509.088133
365.996601	2510.683659
366.384474	2513.252127
366.772284	2509.355315
367.160031	2516.423012
367.547715	2518.414268
367.935336	2516.475944
368.322893	2521.983405
368.710388	2521.812006
369.097820	2531.790970
369.485189	2535.034952
369.872495	2540.406302
370.259738	2550.334854
370.646918	2554.947510
371.034035	2561.246432
371.421090	2572.831003
371.808081	2583.210739
372.195010	2591.052254
372.581875	2605.278390
372.968678	2617.598970
373.355418	2626.743623
373.742096	2648.496202
374.128710	2660.594971
374.515262	2674.503515
374.901751	2690.418437
375.288177	2704.372351
375.674540	2726.016545
376.060841	2743.889956
376.447079	2763.986516
376.833254	2781.083589
377.219367	2793.822585
377.605417	2833.083091
377.991404	2844.849144
378.377329	2865.217926
378.763191	2882.831718
379.148991	2920.642892
379.534727	2945.969649
379.920402	2971.001499
380.306013	2987.521360
380.691563	3035.215716
381.077049	3055.329920
381.462474	3074.521593
381.847835	3112.640278
382.233134	3138.793784
382.618371	3133.550984
383.003545	3204.792570
383.388657	3212.127449
383.773706	3243.795977
384.158693	3260.464552
384.543618	3285.214097
384.928480	3319.728357
385.313280	3368.269628
385.698017	3366.749720
386.082692	3419.775096
386.467305	3424.173503
386.851856	3454.831280
387.236344	3480.273984
387.620770	3510.614168
388.005133	3536.790359
388.389435	3563.425296
388.773674	3574.407449
389.157851	3618.840179
389.541965	3636.592603
389.926018	3598.209257
390.310008	3667.078981
390.693936	3686.144624
391.077802	3732.966861
391.461606	3717.563616
391.845348	3783.436373
392.229027	3782.337402
392.612645	3792.906181
392.996200	3873.486504
393.379694	3910.864139
393.763125	3974.939725
394.146494	3942.983851
394.529801	4005.463912
394.913047	4052.661715
395.296230	4020.040408
395.679351	4075.616609
396.062410	4094.127726
396.445408	4078.323708
396.828343	4110.761013
397.211217	4135.326556
397.594028	4056.399730
397.976778	4122.217035
398.359466	4147.027074
398.742092	4178.199048
399.124656	4098.243828
399.507158	4178.423380
399.889598	4204.546639
400.271977	4268.473511
400.654294	4239.789346
401.036549	4242.798914
401.418742	4216.622723
401.800874	4315.709122
402.182944	4337.738965
402.564952	4403.568872
402.946898	4387.580853
403.328783	4386.562540
403.710606	4300.273109
404.092367	4492.767048
404.474067	4459.961740
404.855705	4466.061536
405.237282	4393.806678
405.618797	4503.159387
406.000250	4538.883524
406.381642	4618.500987
406.762972	4581.854319
407.144240	4588.276749
407.525447	4593.804374
407.906593	4649.894773
408.287677	4692.242986
408.668700	4618.286738
409.049661	4670.356816
409.430560	4713.816603
409.811399	4644.165501
410.192176	4801.043688
410.572891	4741.185028
410.953545	4842.895348
411.334138	4723.908993
411.714669	4792.115805
412.095139	4689.636709
412.475547	4831.056198
412.855894	4808.408814
413.236180	4820.628571
413.616405	4772.709883
413.996568	4860.710785
414.376670	4800.960509
414.756711	4757.316720
415.136691	4790.006082
415.516609	4864.355540
415.896466	4904.800717
416.276262	4936.867497
416.655997	4918.434517
417.035670	5101.735913
417.415283	5190.780333
417.794834	5136.635821
418.174324	5088.144962
418.553753	4995.743132
418.933121	5179.175597
419.312428	5249.356021
419.691674	5187.906876
420.070859	5316.471422
420.449983	5225.319799
420.829045	5343.983519
421.208047	5248.723356
421.586988	5320.335467
421.965867	5330.037167
422.344686	5465.528259
422.723444	5316.262214
423.102141	5135.884689
423.480777	5435.757725
423.859352	5201.616294
424.237866	5464.580522
424.616319	5454.803204
424.994712	5564.060132
425.373044	5444.317604
425.751314	5583.365230
426.129524	5386.457761
426.507673	5580.375826
426.885762	5666.322458
427.263789	5595.713537
427.641756	5477.143078
428.019662	5598.518939
428.397508	5608.676864
428.775292	5556.132917
429.153016	5654.488349
429.530679	5579.433130
429.908282	5664.482437
430.285824	5533.581316
430.663305	5810.781763
431.040726	5545.889293
431.418086	5548.976999
431.795385	5646.533409
432.172624	5660.802395
432.549802	5653.233102
432.926920	5669.810937
433.303977	5675.940980
433.680974	5715.642587
434.057910	5733.800823
434.434786	5739.945989
434.811601	5705.610691
435.188355	5940.561227
435.565050	5815.033976
435.941683	5791.837107
436.318257	6013.229460
436.694770	5994.766234
437.071222	6028.882243
437.447614	5963.712726
437.823946	5871.215115
438.200218	6024.723291
438.576429	5895.437859
438.952580	5990.508980
439.328670	6037.099323
439.704700	5945.350323
440.080670	5933.364980
440.456580	6200.553696
440.832429	6083.220840
441.208218	5931.358601
441.583947	6090.848106
441.959616	6088.282158
442.335224	6017.612743
442.710773	6153.885214
443.086261	6178.634759
443.461689	5977.832998
443.837057	6122.224247
444.212365	6279.919101
444.587612	6172.136712
444.962800	6325.846533
445.337927	6309.457742
445.712995	5914.914357
446.088002	6495.867009
446.462949	6323.895607
446.837837	6255.277941
447.212664	6429.472492
447.587431	6569.571198
447.962139	7112.841225
448.336786	8039.448152
448.711374	7782.185468
449.085901	6858.192380
449.460369	6779.086593
449.834776	6705.606735
450.209124	7101.836386
450.583412	7254.361537
450.957640	7398.278918
451.331808	7165.203690
451.705917	6709.155707
452.079965	6641.591643
452.453954	6849.640062
452.827883	6725.874694
453.201752	6824.406567
453.575562	6621.618591
453.949311	6825.508059
454.323001	6711.920780
454.696632	6784.969620
455.070202	6925.819458
455.443713	7082.748057
455.817164	7181.244642
456.190556	7261.013339
456.563888	7334.271387
456.937160	7384.075467
457.310373	7037.566716
457.683526	7057.638070
458.056619	6952.522450
458.429653	6944.093641
458.802628	6875.680142
459.175542	6981.758622
459.548398	7343.600042
459.921194	7503.313878
460.293930	7502.673652
460.666607	8032.183849
461.039224	8340.510901
461.411782	8471.071744
461.784280	8489.111513
462.156719	8379.259730
462.529099	8257.326821
462.901419	7842.545724
463.273680	7738.002275
463.645882	7755.013649
464.018024	7619.139429
464.390106	7782.908874
464.762130	8172.234665
465.134094	8638.702712
465.505999	9667.640021
465.877845	10888.272246
466.249631	11538.883561
466.621358	11147.553912
466.993026	10518.077634
467.364634	10264.074056
467.736184	9906.225230
468.107674	9566.930370
468.479105	9605.406977
468.850477	9363.723979
469.221790	9135.712591
469.593043	8806.878125
469.964238	8666.804624
470.335373	8682.613683
470.706449	8738.830110
471.077467	8723.280671
471.448425	10027.628817
471.819324	11103.763929
472.190164	11134.484720
472.560945	9884.971725
472.931667	9088.792051
473.302330	8954.611659
473.672934	8600.833565
474.043479	8964.320922
474.413965	8901.568638
474.784393	8777.957026
475.154761	8942.626316
475.525070	9024.298049
475.895321	8854.156587
476.265513	9028.235191
476.635645	9198.663999
477.005719	9195.304070
477.375734	9317.849479
477.745691	9548.938492
478.115588	9680.996558
478.485427	9932.776987
478.855207	10461.460435
479.224928	11280.897472
479.594591	11901.680280
479.964194	11714.701363
480.333739	11661.837303
480.703226	11576.135168
481.072653	11664.168837
481.442022	11904.213460
481.811333	12098.814601
482.180584	11901.327399
482.549777	11605.068870
482.918912	11433.349526
483.287988	11457.713422
483.657005	11467.856224
484.025964	11148.831844
484.394864	11287.203955
484.763706	11249.075188
485.132489	11009.065854
485.501213	10972.988836
485.869879	11044.144723
486.238487	10886.550692
486.607036	10993.382824
486.975527	10779.869794
487.343959	10964.539862
487.712333	11013.711277
488.080648	10951.760537
488.448905	10993.491209
488.817104	10928.351939
489.185244	11189.355159
489.553326	11348.884993
489.921350	11887.814586
490.289315	12942.615535
490.657222	13293.948670
491.025070	13204.321996
491.392861	13075.641503
491.760593	12690.320908
492.128267	12342.887106
492.495883	12023.093950
492.863440	11679.834223
493.230939	11348.670744
493.598380	11275.639548
493.965763	11145.650876
494.333088	11043.176821
494.700354	10968.711417
495.067563	11028.686024
495.434713	10856.828049
495.801805	10984.989303
496.168839	10915.048334
496.535815	10843.355565
496.902733	10839.859525
497.269593	10776.343507
497.636395	10876.962417
498.003139	10868.334482
498.369825	10731.353729
498.736453	10892.960519
499.103023	10811.203086
499.469535	10843.345483
499.835989	10832.507002
500.202385	10793.259099
500.568723	10647.204269
500.935003	10866.209636
501.301226	10676.629484
501.667390	10932.863772
502.033497	11029.664008
502.399546	10888.998172
502.765537	10800.019286
503.131470	10873.405883
503.497345	11051.154447
503.863163	10655.754066
504.228923	10966.768052
504.594625	11035.088290
504.960269	10777.019022
505.325856	10999.865748
505.691385	10796.198091
506.056856	10957.071393
506.422270	10976.968827
506.787625	10854.055414
507.152924	10977.934208
507.518164	10961.275715
507.883347	10880.261852
508.248472	10799.802516
508.613540	11032.287929
508.978550	10915.053376
509.343503	10892.872299
509.708398	11007.220791
510.073236	11118.995775
510.438016	11130.731581
510.802738	11072.223950
511.167403	11123.767227
511.532010	11022.450117
511.896561	11256.853689
512.261053	11323.898514
512.625488	11201.927797
512.989866	11176.500217
513.354186	11170.478559
513.718449	11064.783207
514.082655	11267.742581
514.446803	11158.281487
514.810894	11279.632142
515.174927	11149.794704
515.538904	11173.737665
515.902822	11325.534369
516.266684	11204.521471
516.630488	11158.641929
516.994235	11208.937521
517.357925	11271.183168
517.721558	11354.692402
518.085133	11378.894982
518.448651	11393.201777
518.812112	11272.143508
519.175516	11283.647421
519.538863	11404.398179
519.902152	11321.592186
520.265385	11483.428348
520.628560	11394.426777
520.991678	11374.196627
521.354739	11431.015472
521.717743	11365.694721
522.080690	11349.363903
522.443580	11483.680406
522.806413	11436.200298
523.169189	11460.357508
523.531908	11521.158864
523.894569	11336.433343
524.257174	11348.171670
524.619722	11466.142232
524.982213	11406.628890
525.344647	11461.453959
525.707025	11410.530743
526.069345	11512.553615
526.431608	11427.738722
526.793815	11532.269567
527.155964	11328.990080
527.518057	11375.837522
527.880093	11328.082672
528.242072	11398.956254
528.603995	11302.750874
528.965860	11225.379245
529.327669	11283.110538
529.689421	11225.432177
530.051117	11196.659791
530.412755	11296.217538
530.774337	11187.651249
531.135862	11171.259938
531.497331	11194.353463
531.858743	11046.617409
532.220098	11211.369878
532.581396	11085.303223
532.942638	11071.157746
533.303824	11026.402382
533.664953	11038.259176
534.026025	10953.721546
534.387040	11049.044724
534.747999	11056.903883
535.108902	11115.315733
535.469748	10875.465194
535.830537	10976.205092
536.191270	10957.129366
536.551947	10974.395318
536.912567	10986.110960
537.273131	10903.995605
537.633638	10878.631039
537.994089	10866.837260
538.354483	10815.936729
538.714821	10962.868720
539.075103	10972.769546
539.435328	10929.571899
539.795497	10761.504871
540.155609	10920.447410
540.515665	11011.024342
540.875665	10748.723025
541.235609	10806.003136
541.595496	10805.365430
541.955328	10965.701848
542.315102	10847.491832
542.674821	10798.693463
543.034483	10799.230345
543.394090	10800.760336
543.753640	10731.179810
544.113134	10953.978645
544.472571	10809.022787
544.831953	10946.179980
545.191278	10757.413974
545.550548	10785.445310
545.909761	10923.988821
546.268918	10890.939016
546.628019	10977.067130
546.987064	10843.242139
547.346053	10765.129460
547.704986	10865.143432
548.063863	10848.800011
548.422684	10842.102838
548.781449	10756.468758
549.140158	10862.360715
549.498811	10733.660057
549.857408	10591.451628
550.215949	10822.172637
550.574434	10673.592189
550.932864	10768.406210
551.291237	10834.362147
551.649555	10776.285534
552.007817	10783.375917
552.366022	10758.044118
552.724173	10745.562222
553.082267	10730.741229
553.440305	10865.481189
553.798288	10667.696559
554.156215	10816.823972
554.514086	10800.241097
554.871902	10649.374486
555.229661	10685.650629
555.587365	10665.201188
555.945014	10560.418285
556.302606	10689.852430
556.660143	10580.144320
557.017625	10727.066228
557.375050	10629.739191
557.732421	10770.803279
558.089735	10671.457260
558.446994	10675.412045
558.804197	10710.480832
559.161345	10719.786802
559.518437	10569.998998
559.875474	10658.146093
560.232455	10683.409836
560.589381	10629.340940
560.946251	10623.949426
561.303065	10737.778680
561.659825	10667.595736
562.016528	10601.425551
562.373177	10486.520011
562.729770	10593.044633
563.086307	10511.866932
563.442789	10611.520461
563.799216	10484.808539
564.155587	10531.446774
564.511904	10481.252005
564.868164	10472.193051
565.224370	10486.338529
565.580520	10413.181304
565.936615	10419.036605
566.292654	10288.581625
566.648638	10418.834958
567.004567	10384.545030
567.360441	10368.894768
567.716260	10266.876937
568.072023	10370.142453
568.427732	10314.016767
568.783385	10227.097192
569.138982	10294.686463
569.494525	10311.511314
569.850013	10193.218118
570.205445	10277.594431
570.560823	10169.638121
570.916145	10084.069576
571.271412	10161.988170
571.626625	10103.054561
571.981782	10079.711498
572.336884	10053.931037
572.691931	10057.361543
573.046923	10011.242547
573.401860	9960.649527
573.756743	9894.839784
574.111570	9942.352659
574.466342	9924.103682
574.821059	9950.869688
575.175722	9846.999234
575.530330	9855.463331
575.884882	9844.133338
576.239380	9774.343604
576.593823	9751.350901
576.948211	9763.081666
577.302544	9647.130087
577.656823	9663.909567
578.011047	9661.056274
578.365216	9634.885124
578.719330	9558.262106
579.073389	9572.221061
579.427394	9512.869036
579.781344	9490.725768
580.135239	9444.868912
580.489080	9453.766548
580.842866	9357.546045
581.196597	9357.793062
581.550273	9395.596674
581.903895	9367.343528
582.257463	9431.507334
582.610975	9309.249271
582.964434	9341.318571
583.317837	9262.737065
583.671186	9245.072862
584.024481	9236.112211
584.377721	9160.494903
584.730906	9137.182087
585.084037	9163.194441
585.437113	9106.473898
585.790135	9124.541394
586.143103	9018.215897
586.496016	8996.730500
586.848874	9048.513232
587.201679	9034.367754
587.554428	8922.660826
587.907124	8973.851223
588.259765	8946.439949
588.612352	8947.612017
588.964884	8826.294129
589.317362	8837.339297
589.669786	8836.167229
590.022155	8890.536073
590.374470	8901.944204
590.726731	8839.358279
591.078937	8691.531484
591.431090	8811.289135
591.783188	8677.199484
592.135232	8670.504831
592.487222	8670.582969
592.839157	8726.265034
593.191038	8651.103951
593.542866	8604.102753
593.894639	8506.816045
594.246358	8552.350267
594.598022	8567.246877
594.949633	8466.017987
595.301190	8446.140718
595.652692	8467.744583
596.004141	8581.258764
596.355535	8359.894137
596.706876	8337.158533
597.058162	8273.224100
597.409395	8341.945109
597.760573	8407.764934
598.111698	8321.561203
598.462768	8306.162999
598.813785	8270.199407
599.164748	8236.867298
599.515657	8230.182728
599.866511	8140.898852
600.217312	8267.399046
600.568060	8123.597612
600.918753	8226.772388
601.269392	8193.122686
601.619978	8104.907534
601.970510	8173.084099
602.320988	8171.291969
602.671412	8226.230463
603.021783	8165.240064
603.372100	8136.502966
603.722363	8139.356259
604.072572	8116.018237
604.422728	8125.578786
604.772830	8053.172693
605.122878	8060.958755
605.472872	8056.812406
605.822813	8084.712672
606.172701	8028.894496
606.522534	8101.998789
606.872314	8103.440559
607.222041	8075.384017
607.571714	8128.870659
607.921333	8090.318435
608.270899	8094.459743
608.620411	8181.770007
608.969870	8094.006039
609.319276	8079.595901
609.668627	8096.985361
610.017926	8132.971638
610.367171	8178.120212
610.716362	8156.919639
611.065500	8144.266343
611.414585	8174.941764
611.763616	8162.601020
612.112594	8145.506467
612.461518	8160.881986
612.810389	8218.583033
613.159207	8156.642376
613.507971	8105.396526
613.856682	8222.694094
614.205340	8181.593567
614.553945	8261.805886
614.902496	8152.191037
615.250994	8208.609110
615.599439	8193.135288
615.947830	8205.118111
616.296169	8177.631220
616.644454	8189.462808
616.992686	8189.689660
617.340864	8252.754494
617.688990	8152.516191
618.037063	8241.278308
618.385082	8193.982202
618.733048	8278.146786
619.080961	8212.198412
619.428821	8236.695899
619.776628	8233.766988
620.124382	8189.732510
620.472083	8174.412443
620.819731	8205.294552
621.167326	8097.436544
621.514868	8103.864016
621.862357	7992.625915
622.209793	8013.284563
622.557176	7939.663552
622.904506	7910.366887
623.251783	7845.416661
623.599007	7804.043911
623.946179	7808.313768
624.293297	7759.517920
624.640363	7681.818616
624.987376	7664.015781
625.334336	7611.063501
625.681243	7561.990389
626.028097	7548.898512
626.374899	7526.931684
626.721647	7514.149839
627.068343	7446.852955
627.414987	7419.502175
627.761577	7372.725309
628.108115	7408.620845
628.454600	7305.221738
628.801032	7355.812237
629.147412	7313.935373
629.493739	7304.639485
629.840014	7241.254537
630.186236	7295.457023
630.532405	7177.476379
630.878521	7229.324646
631.224585	7187.558687
631.570597	7108.309228
631.916556	7141.618652
632.262462	7138.825852
632.608316	7098.599965
632.954117	7079.229332
633.299866	7066.588638
633.645562	7054.951135
633.991206	6979.054043
634.336797	6922.154540
634.682336	6874.538321
635.027823	6844.719896
635.373257	6836.379307
635.718639	6765.954388
636.063968	6779.779752
636.409245	6672.451066
636.754470	6672.635068
637.099642	6632.502443
637.444762	6575.250058
637.789829	6584.687098
638.134845	6528.631988
638.479808	6508.207753
638.824719	6514.191603
639.169577	6442.798782
639.514383	6466.615713
639.859137	6394.547378
640.203839	6399.467544
640.548489	6385.412807
640.893086	6364.368511
641.237632	6333.088151
641.582125	6357.643611
641.926566	6321.722870
642.270955	6339.618966
642.615292	6328.883829
642.959576	6346.409400
643.303809	6343.215829
643.647990	6345.622980
643.992118	6338.212484
644.336195	6283.891531
644.680219	6304.436753
645.024192	6294.982069
645.368112	6391.230299
645.711981	6414.497744
646.055797	6491.206462
646.399562	6448.659123
646.743274	6576.525470
647.086935	6627.264684
647.430544	6619.334949
647.774101	6645.417879
648.117606	6655.976575
648.461059	6641.526108
648.804460	6601.771569
649.147810	6514.231932
649.491108	6481.696325
649.834354	6456.092305
650.177548	6370.249017
650.520690	6287.710205
650.863781	6263.248006
651.206820	6286.512931
651.549807	6203.452359
651.892742	6145.065715
652.235626	6149.950593
652.578458	6138.953316
652.921238	6041.976640
653.263967	6082.285706
653.606644	6021.857395
653.949269	6029.149424
654.291843	5966.427388
654.634365	6013.171487
654.976836	5967.357481
655.319255	5965.121729
655.661622	5948.463236
656.003938	5944.256393
656.346203	5905.762142
656.688416	5932.240803
657.030577	5885.421087
657.372687	5857.246078
657.714746	5840.703531
658.056753	5886.220109
658.398708	5822.845244
658.740612	5819.036652
659.082465	5864.878385
659.424266	5857.515779
659.766016	5859.930492
660.107715	5830.606100
660.449362	5842.755281
660.790958	5841.489951
661.132503	5824.498742
661.473996	5863.928127
661.815438	5851.108473
662.156829	5846.689902
662.498168	5840.491803
662.839456	5815.273431
663.180693	5845.747206
663.521879	5851.925140
663.863013	5835.916956
664.204097	5856.520152
664.545129	5898.220576
664.886110	5891.677158
665.227040	5927.933137
665.567918	5892.929885
665.908746	5913.530560
666.249522	5921.062044
666.590248	5904.827008
666.930922	5932.472696
667.271545	5946.595488
667.612118	5947.500376
667.952639	5921.999699
668.293109	5939.542914
668.633528	5893.686058
668.973896	5898.109671
669.314213	5888.798660
669.654480	5869.385176
669.994695	5864.843097
670.334859	5858.171129
670.674973	5841.689077
671.015035	5847.486404
671.355047	5850.586713
671.695008	5831.158107
672.034918	5807.326052
672.374777	5810.534746
672.714585	5798.083096
673.054342	5804.160207
673.394049	5797.664680
673.733705	5825.980842
674.073310	5807.469725
674.412864	5772.169045
674.752368	5758.656232
675.091820	5762.094299
675.431223	5697.998548
675.770574	5698.117015
676.109875	5647.539119
676.449125	5658.770810
676.788324	5623.079440
677.127473	5565.058280
677.466571	5556.838679
677.805619	5542.862080
678.144616	5526.828690
678.483562	5510.409652
678.822458	5474.257017
679.161303	5464.399041
679.500098	5456.270180
679.838842	5440.161173
680.177535	5443.846257
680.516179	5462.866530
680.854771	5468.351305
681.193314	5547.583120
681.531805	5649.396784
681.870247	5798.161234
682.208638	5896.320061
682.546978	5911.957720
682.885268	5884.347321
683.223508	5800.386903
683.561697	5743.719293
683.899836	5716.993616
684.237925	5670.204147
684.575963	5634.162417
684.913951	5593.422332
685.251889	5647.844109
685.589776	5619.376713
685.927614	5588.209779
686.265401	5650.861239
686.603137	5638.545700
686.940824	5707.803592
687.278460	5733.231172
687.616046	5737.286781
687.953582	5800.974198
688.291068	5778.810765
688.628504	5835.221277
688.965889	5795.781809
689.303224	5740.122430
689.640510	5695.117529
689.977745	5622.240088
690.314930	5522.425242
690.652065	5473.528570
690.989150	5380.115990
691.326185	5302.550276
691.663170	5254.102267
692.000105	5175.941697
692.336990	5103.379329
692.673825	5076.459567
693.010610	5010.317108
693.347345	4946.591882
693.684030	4920.345115
694.020665	4881.644177
694.357251	4794.089417
694.693786	4808.597857
695.030272	4773.095532
695.366707	4735.201178
695.703093	4706.811920
696.039429	4726.540476
696.375716	4698.688101
696.711952	4676.796890
697.048139	4672.106097
697.384276	4642.559894
697.720363	4659.417512
698.056400	4657.859796
698.392388	4610.777939
698.728326	4593.438891
699.064214	4575.174790
699.400053	4562.710537
699.735842	4526.673849
700.071581	4507.429244
700.407270	4480.096108
700.742910	4464.145897
701.078501	4409.996343
701.414042	4404.635076
701.749533	4370.365313
702.084974	4315.308351
702.420366	4367.154097
702.755709	4307.875169
703.091002	4255.091768
703.426246	4298.879230
703.761440	4264.397738
704.096584	4227.551945
704.431679	4241.934357
704.766725	4223.861820
705.101721	4212.274728
705.436668	4236.409252
705.771565	4194.565154
706.106413	4219.153382
706.441212	4239.716249
706.775961	4246.783947
707.110661	4233.364395
707.445311	4259.157459
707.779913	4271.425107
708.114465	4283.012199
708.448967	4304.306033
708.783421	4360.225032
709.117825	4398.250455
709.452180	4399.868665
709.786485	4437.682360
710.120742	4517.987941
710.454949	4505.329604
710.789107	4559.600146
711.123216	4629.420126
711.457275	4620.126759
711.791286	4681.412067
712.125247	4694.095610
712.459159	4607.980099
712.793023	4681.840565
713.126837	4624.550372
713.460602	4619.539465
713.794318	4554.405237
714.127985	4560.063932
714.461602	4472.390705
714.795171	4451.855564
715.128691	4389.312489
715.462162	4333.610260
715.795584	4284.895070
716.128957	4267.891258
716.462281	4223.602201
716.795556	4197.060526
717.128782	4154.450173
717.461960	4092.176799
717.795088	4099.950258
718.128167	4061.292170
718.461198	4013.249974
718.794180	4008.236547
719.127113	3981.747804
719.459997	3960.005307
719.792833	3923.053649
720.125619	3920.933844
720.458357	3882.311044
720.791046	3879.329202
721.123686	3854.899770
721.456278	3821.814677
721.788821	3830.845904
722.121315	3806.860094
722.453761	3785.677166
722.786158	3787.451652
723.118506	3809.088284
723.450805	3771.161163
723.783056	3792.228145
724.115259	3796.384577
724.447412	3798.791728
724.779518	3800.084784
725.111574	3799.288281
725.443582	3823.909277
725.775542	3810.535096
726.107453	3847.297710
726.439315	3845.654294
726.771129	3865.198847
727.102895	3893.774628
727.434612	3931.220319
727.766281	3942.197431
728.097901	3947.523410
728.429473	3946.195066
728.760996	3948.703040
729.092471	3945.249850
729.423897	3930.978343
729.755276	3929.279474
730.086606	3930.103703
730.417887	3967.811534
730.749120	4021.240203
731.080305	4068.425403
731.411442	4097.374229
731.742530	4070.666196
732.073570	4074.121907
732.404562	4113.465592
732.735506	4106.304633
733.066401	4077.033173
733.397249	4020.599976
733.728048	3953.154379
734.058798	3871.356617
734.389501	3805.433448
734.720156	3754.472424
735.050762	3718.637382
735.381320	3703.831513
735.711831	3666.922705
736.042293	3637.578148
736.372707	3648.257833
736.703073	3627.763022
737.033391	3622.265643
737.363661	3638.626708
737.693883	3654.728154
738.024056	3662.110923
738.354182	3663.620749
738.684260	3711.408367
739.014290	3730.189186
739.344272	3730.690780
739.674207	3759.001900
740.004093	3766.777880
740.333931	3758.994339
740.663722	3754.280860
740.993464	3749.252309
741.323159	3729.816140
741.652806	3704.718756
741.982405	3679.150023
742.311956	3645.613747
742.641460	3639.534116
742.970915	3615.913790
743.300323	3582.982452
743.629683	3555.349367
743.958996	3541.622305
744.288260	3520.451980
744.617477	3491.903926
744.946647	3482.726505
745.275768	3453.744912
745.604842	3447.519087
745.933869	3416.745363
746.262847	3404.213054
746.591778	3429.635593
746.920662	3408.682037
747.249498	3387.549520
747.578286	3417.446083
747.907027	3432.816561
748.235720	3439.954835
748.564365	3451.592339
748.892963	3443.050104
749.221514	3435.843774
749.550017	3416.274015
749.878473	3412.319230
750.206881	3388.739233
750.535242	3379.453427
750.863555	3381.769838
751.191821	3372.844475
751.520039	3366.225440
751.848210	3348.175588
752.176334	3368.337683
752.504411	3369.303064
752.832440	3337.054803
753.160421	3330.284533
753.488356	3332.018690
753.816243	3331.806962
754.144082	3304.604896
754.471875	3295.520736
754.799620	3305.575318
755.127318	3302.684216
755.454969	3298.484935
755.782572	3299.573824
756.110129	3284.634365
756.437638	3276.112294
756.765100	3282.028088
757.092515	3286.585291
757.419882	3288.082514
757.747203	3274.884773
758.074477	3276.205555
758.401703	3284.125208
758.728882	3301.658341
759.056014	3304.521717
759.383099	3310.339208
759.710138	3312.413643
760.037129	3326.450736
760.364073	3340.437417
760.690970	3326.753205
761.017820	3317.497647
761.344623	3330.186231
761.671379	3362.323587
761.998088	3400.094432
762.324751	3495.299143
762.651366	3705.248077
762.977935	4101.439919
763.304456	4448.266263
763.630931	4505.647197
763.957359	4219.801171
764.283740	3944.425621
764.610074	3778.765744
764.936362	3616.307000
765.262602	3491.971981
765.588796	3402.098290
765.914943	3330.982733
766.241044	3267.862446
766.567097	3238.260790
766.893104	3201.336859
767.219064	3178.770134
767.544978	3152.851041
767.870845	3114.462655
768.196665	3102.583176
768.522438	3101.426231
768.848165	3093.191506
769.173846	3067.574883
769.499479	3056.869993
769.825066	3039.810728
770.150607	3028.085004
770.476101	3033.930222
770.801548	3028.236239
771.126949	2997.167608
771.452303	2987.581854
771.777611	2985.131853
772.102872	2987.571771
772.428087	2969.708443
772.753256	2959.316104
773.078378	2953.259158
773.403453	2929.893410
773.728482	2921.414189
774.053465	2934.246446
774.378401	2921.893098
774.703291	2905.637898
775.028135	2900.417783
775.352932	2897.393091
775.677683	2888.818088
776.002388	2882.010010
776.327046	2884.575957
776.651658	2876.797457
776.976224	2868.850078
777.300743	2865.742206
777.625216	2861.744571
777.949643	2854.210567
778.274024	2858.979498
778.598359	2850.671677
778.922647	2847.931810
779.246889	2848.461131
779.571086	2838.530058
779.895236	2835.013853
780.219339	2840.339832
780.543397	2848.665298
780.867409	2851.798375
781.191374	2848.153621
781.515294	2845.242354
781.839167	2848.466172
782.162995	2841.090964
782.486776	2845.333095
782.810511	2840.707836
783.134201	2832.702484
783.457844	2833.544357
783.781441	2829.057730
784.104993	2813.571305
784.428498	2818.836790
784.751958	2826.005311
785.075372	2820.152532
785.398739	2808.746921
785.722061	2816.323775
786.045337	2824.520691
786.368568	2816.575833
786.691752	2811.529638
787.014891	2838.005778
787.337983	2865.790097
787.661030	2896.210940
787.984031	2944.626182
788.306987	2973.433855
788.629897	2972.082826
788.952760	2952.906277
789.275579	2937.923968
789.598351	2896.556259
789.921078	2862.024355
790.243759	2852.511698
790.566395	2840.178515
790.888984	2822.421051
791.211529	2810.206335
791.534027	2803.287351
791.856480	2797.989099
792.178888	2787.574075
792.501249	2780.324896
792.823566	2778.348763
793.145836	2773.610079
793.468062	2770.391302
793.790241	2771.097063
794.112375	2775.008999
794.434464	2780.738270
794.756507	2785.797068
795.078505	2790.021555
795.400457	2803.405818
795.722364	2826.058243
796.044226	2844.312261
796.366042	2848.791327
796.687812	2840.448217
797.009538	2848.272088
797.331218	2839.460151
797.652852	2829.511434
797.974442	2819.078766
798.295986	2814.093065
798.617484	2807.514359
798.938938	2798.125210
799.260346	2790.205557
799.581709	2780.403033
799.903026	2781.290277
800.224299	2772.765685
800.545526	2766.915426
800.866708	2757.397728
801.187845	2753.158117
801.508936	2750.617376
801.829983	2754.597367
802.150984	2744.026067
802.471940	2736.885273
802.792851	2737.268401
803.113717	2739.547002
803.434538	2737.139851
803.755314	2733.290930
804.076045	2734.193297
804.396731	2730.762792
804.717372	2731.496279
805.037967	2728.060733
805.358518	2732.517113
805.679024	2738.100191
805.999485	2737.248236
806.319901	2739.194121
806.640272	2734.326887
806.960598	2737.686816
807.280879	2740.409039
807.601115	2749.301635
807.921306	2740.938361
808.241453	2737.253277
808.561554	2742.357445
808.881611	2743.700913
809.201623	2736.935684
809.521590	2734.659603
809.841513	2734.571383
810.161390	2736.602968
810.481223	2730.225909
810.801011	2724.627707
811.120755	2722.344065
811.440453	2724.239538
811.760107	2719.717623
812.079716	2717.991028
812.399281	2707.104657
812.718801	2707.477702
813.038276	2705.010057
813.357707	2707.278576
813.677093	2709.118597
813.996434	2708.233875
814.315731	2702.572659
814.634983	2703.301106
814.954191	2701.670293
815.273354	2708.793443
815.592473	2713.474154
815.911547	2714.111860
816.230577	2721.592933
816.549562	2725.535115
816.868502	2725.444374
817.187399	2731.665158
817.506250	2736.981055
817.825058	2738.115314
818.143821	2743.267374
818.462539	2751.484454
818.781213	2769.635129
819.099843	2794.863583
819.418429	2834.217351
819.736970	2876.089175
820.055466	2925.719334
820.373919	2984.410968
820.692327	3068.779719
821.010691	3188.497040
821.329011	3514.866381
821.647286	4207.568811
821.965517	5240.536522
822.283704	5805.145753
822.601847	5778.679695
822.919945	5249.550105
823.237999	4789.156648
823.556010	4344.887321
823.873976	3950.011220
824.191897	3668.780370
824.509775	3469.591779
824.827609	3293.181641
825.145398	3215.537789
825.463144	3207.595452
825.780845	3261.472783
826.098502	3344.019157
826.416116	3542.749003
826.733685	3773.575876
827.051210	3816.614727
827.368692	3721.004203
827.686129	3511.967718
828.003522	3296.453350
828.320872	3125.822895
828.638177	3010.357787
828.955439	2922.707245
829.272656	2868.010726
829.589830	2829.725683
829.906960	2799.362813
830.224046	2769.872063
830.541088	2749.962026
830.858086	2737.724625
831.175041	2727.269272
831.491952	2728.796742
831.808819	2732.615416
832.125642	2744.830131
832.442421	2775.092178
832.759157	2831.767350
833.075849	2949.833694
833.392497	3128.275416
833.709101	3253.003645
834.025662	3218.103737
834.342179	3110.800257
834.658653	2996.575272
834.975083	2901.410890
835.291469	2842.754545
835.607811	2784.042747
835.924110	2751.466810
836.240366	2719.326934
836.556578	2698.159129
836.872746	2684.129598
837.188871	2673.699451
837.504952	2663.733089
837.820990	2655.367295
838.136984	2648.970070
838.452935	2643.049235
838.768842	2643.568474
839.084706	2654.220432
839.400526	2703.951415
839.716303	2787.543828
840.032037	2843.785461
840.347727	2825.733089
840.663373	2781.585184
840.978977	2732.708677
841.294537	2689.619414
841.610054	2664.834582
841.925527	2650.671460
842.240957	2635.427011
842.556344	2625.173304
842.871687	2617.946810
843.186987	2609.593618
843.502244	2607.584718
843.817458	2601.031218
844.132629	2601.779829
844.447756	2595.669951
844.762840	2588.251893
845.077881	2589.663416
845.392879	2588.813982
845.707833	2586.744588
846.022745	2579.707137
846.337613	2586.863055
846.652438	2585.754001
846.967221	2581.400965
847.281960	2582.777200
847.596656	2583.677046
847.911309	2579.024061
848.225919	2578.880388
848.540485	2579.949113
848.855009	2579.893660
849.169490	2578.222517
849.483928	2576.788309
849.798323	2576.712692
850.112675	2576.939544
850.426984	2578.459452
850.741251	2576.344687
851.055474	2572.989800
851.369654	2578.547672
851.683792	2576.276632
851.997887	2575.775037
852.311938	2577.259657
852.625947	2577.783937
852.939914	2577.315110
853.253837	2576.241344
853.567718	2576.848803
853.881555	2573.025088
854.195350	2575.588514
854.509103	2577.002558
854.822812	2573.572053
855.136479	2574.406364
855.450103	2575.744790
855.763685	2576.198494
856.077224	2574.056004
856.390720	2572.838565
856.704173	2576.427867
857.017584	2576.430387
857.330953	2577.282342
857.644278	2577.133628
857.957561	2582.686459
858.270802	2579.268557
858.584000	2575.094481
858.897155	2576.944585
859.210268	2577.000037
859.523339	2574.224882
859.836367	2574.287897
860.149352	2573.307392
860.462295	2573.713205
860.775195	2571.295972
861.088054	2569.564336
861.400869	2571.091805
861.713642	2568.419994
862.026373	2567.129458
862.339062	2572.866291
862.651708	2573.539285
862.964312	2577.287383
863.276873	2575.361662
863.589392	2577.584811
863.901869	2580.879205
864.214303	2581.789134
864.526696	2582.361305
864.839045	2581.363156
865.151353	2585.149063
865.463619	2583.513208
865.775842	2581.489185
866.088023	2583.520770
866.400162	2586.144691
866.712258	2584.402972
867.024313	2582.918352
867.336325	2583.150245
867.648296	2582.394072
867.960224	2582.268043
868.272110	2584.317272
868.583954	2580.236458
868.895755	2581.378280
869.207515	2582.063877
869.519233	2585.181830
869.830909	2586.258117
870.142542	2584.075297
870.454134	2584.919690
870.765684	2585.660740
871.077191	2585.527149
871.388657	2591.271544
871.700081	2588.123343
872.011463	2590.429671
872.322803	2587.949424
872.634101	2592.423448
872.945357	2595.059971
873.256571	2599.002153
873.567744	2597.333532
873.878874	2597.315887
874.189963	2596.708428
874.501010	2600.567432
874.812015	2601.855447
875.122979	2599.387802
875.433900	2595.886720
875.744780	2596.353027
876.055618	2596.693305
876.366415	2597.782194
876.677169	2601.210179
876.987882	2596.627770
877.298554	2593.245156
877.609183	2599.407966
877.919771	2597.010898
878.230317	2601.820158
878.540822	2610.417846
878.851285	2615.650564
879.161707	2625.543828
879.472087	2646.802374
879.782425	2672.953360
880.092722	2731.072822
880.402977	2835.825479
880.713191	3014.405833
881.023363	3235.467991
881.333494	3389.881054
881.643583	3473.745689
881.953631	3441.144548
882.263637	3314.324240
882.573602	3172.612364
882.883526	3078.988055
883.193408	3001.079543
883.503248	2928.751588
883.813048	2862.624253
884.122806	2802.649645
884.432522	2760.714807
884.742197	2725.212481
885.051831	2704.624409
885.361424	2683.396110
885.670975	2663.622184
885.980485	2650.709268
886.289954	2639.031436
886.599382	2634.214613
886.908768	2627.618263
887.218113	2620.215329
887.527417	2611.272322
887.836680	2609.288628
888.145901	2606.319388
888.455082	2602.213368
888.764221	2594.543253
889.073319	2590.820361
889.382376	2592.433530
889.691392	2591.495875
890.000366	2590.636359
890.309300	2591.183324
890.618193	2594.260948
890.927044	2592.741040
891.235855	2594.460074
891.544625	2594.006370
891.853353	2594.202975
892.162041	2599.423090
892.470687	2607.700664
892.779293	2613.671911
893.087858	2616.981429
893.396381	2632.724952
893.704864	2653.151707
894.013306	2689.342151
894.321707	2739.191601
894.630068	2769.131013
894.938387	2776.755759
895.246665	2766.847371
895.554903	2740.895511
895.863100	2712.844010
896.171256	2684.046419
896.479371	2660.274858
896.787446	2640.261477
897.095480	2631.956176
897.403473	2624.286061
897.711425	2616.235338
898.019336	2610.995058
898.327207	2604.988524
898.635038	2602.551126
898.942827	2597.204982
899.250576	2598.450147
899.558284	2594.354210
899.865952	2591.576534
900.173579	2586.399269
900.481165	2584.748291
900.788711	2581.050605
901.096216	2577.327712
901.403681	2578.391396
901.711105	2578.237641
902.018489	2578.353587
902.325832	2578.842579
902.633135	2577.814184
902.940397	2589.670978
903.247619	2604.681013
903.554800	2641.942702
903.861941	2712.690255
904.169041	2784.909825
904.476101	2816.759835
904.783121	2809.576191
905.090100	2772.947167
905.397039	2726.908829
905.703938	2691.968592
906.010796	2659.420382
906.317614	2634.154119
906.624391	2616.225256
906.931129	2604.116404
907.237826	2594.225660
907.544483	2583.435070
907.851099	2577.761252
908.157675	2571.442165
908.464211	2566.244736
908.770707	2562.421021
909.077163	2563.358675
909.383578	2559.918088
909.689954	2558.239383
909.996289	2559.562686
910.302584	2557.962120
910.608839	2555.018086
910.915054	2556.643858
911.221229	2560.654096
911.527363	2558.718293
911.833458	2562.272307
912.139513	2560.167625
912.445527	2561.816082
912.751502	2561.148129
913.057436	2566.756413
913.363331	2568.568708
913.669186	2571.248081
913.975000	2577.917527
914.280775	2587.596543
914.586510	2603.801332
914.892205	2622.153652
915.197859	2653.023158
915.503475	2695.343645
915.809050	2729.933522
916.114585	2743.950450
916.420081	2750.572006
916.725536	2749.289032
917.030952	2730.692215
917.336328	2706.051055
917.641665	2683.118847
917.946961	2661.633449
918.252218	2642.270377
918.557435	2627.421658
918.862612	2618.216511
919.167750	2606.914244
919.472848	2601.492483
919.777906	2590.659044
920.082925	2585.161666
920.387904	2580.594380
920.692843	2579.346695
920.997743	2577.766293
921.302603	2572.684810
921.607423	2570.030642
921.912204	2568.737586
922.216946	2564.203068
922.521647	2563.658624
922.826310	2562.932698
923.130932	2562.597461
923.435516	2554.037582
923.740059	2559.666030
924.044564	2555.363405
924.349028	2555.391132
924.653454	2547.169010
924.957840	2551.489278
925.262186	2547.806716
925.566493	2548.255378
925.870761	2546.057435
926.174989	2549.808054
926.479178	2547.968032
926.783328	2547.118598
927.087438	2545.563402
927.391509	2546.044832
927.695541	2544.345963
927.999533	2544.925696
928.303486	2546.821170
928.607400	2543.594832
928.911275	2543.350336
929.215110	2545.485264
929.518906	2543.138607
929.822663	2545.649102
930.126381	2543.647764
930.430060	2546.584236
930.733699	2544.164482
931.037299	2546.027188
931.340861	2545.208001
931.644383	2543.491488
931.947866	2543.103319
932.251309	2543.390665
932.554714	2545.210521
932.858080	2546.927034
933.161407	2543.988042
933.464694	2544.590459
933.767943	2541.769934
934.071153	2543.572146
934.374323	2543.262115
934.677455	2542.710109
934.980548	2538.543595
935.283602	2542.657177
935.586617	2541.938812
935.889593	2544.471992
936.192530	2542.241282
936.495428	2544.144317
936.798287	2543.405788
937.101108	2543.804039
937.403890	2546.561551
937.706632	2547.254709
938.009336	2548.530121
938.312002	2550.559186
938.614628	2553.112530
938.917216	2552.893240
939.219765	2551.721172
939.522275	2551.300235
939.824747	2555.509599
940.127179	2551.660678
940.429573	2548.278063
940.731929	2547.640358
941.034246	2544.237579
941.336524	2546.939637
941.638763	2549.495502
941.940964	2547.153886
942.243126	2546.765717
942.545250	2546.170861
942.847335	2547.524411
943.149381	2546.566592
943.451389	2545.417209
943.753359	2547.214380
944.055290	2545.754966
944.357182	2545.386962
944.659036	2542.679862
944.960851	2544.371169
945.262628	2544.240099
945.564367	2543.304965
945.866067	2541.802701
946.167729	2545.533155
946.469352	2543.423432
946.770937	2544.860161
947.072484	2543.874616
947.373992	2546.659853
947.675462	2542.483257
947.976893	2543.204142
948.278286	2540.817156
948.579641	2543.652805
948.880958	2541.273380
949.182236	2543.491488
949.483476	2541.832948
949.784678	2542.694986
950.085841	2541.036446
950.386967	2541.913607
950.688054	2540.539892
950.989103	2543.781354
951.290114	2545.971736
951.591087	2542.503422
951.892021	2545.951571
952.192917	2546.191026
952.493776	2547.544576
952.794596	2546.077600
953.095378	2544.892929
953.396122	2545.931406
953.696828	2542.884029
953.997496	2545.994421
954.298126	2540.618030
954.598718	2543.962836
954.899272	2542.253885
955.199788	2541.810263
955.500266	2540.534851
955.800706	2539.221631
956.101108	2532.983203
956.401472	2536.779192
956.701798	2533.512524
957.002087	2537.217772
957.302337	2538.420087
957.602550	2536.050745
957.902724	2536.829603
958.202861	2536.837165
958.502960	2539.619882
958.803022	2539.246836
959.103045	2533.431865
959.403031	2534.707277
959.702979	2534.190559
960.002889	2535.544109
960.302762	2533.610826
960.602596	2536.075951
960.902393	2535.050076
961.202153	2533.351207
961.501875	2532.327853
961.801559	2535.329860
962.101205	2534.450178
962.400814	2534.195600
962.700385	2534.606454
962.999918	2534.677030
963.299414	2535.758358
963.598873	2533.830117
963.898293	2533.580579
964.197677	2535.299613
964.497022	2534.475384
964.796331	2536.229706
965.095601	2535.312216
965.394835	2534.125024
965.694030	2535.546629
965.993189	2533.353727
966.292309	2533.068902
966.591393	2532.806762
966.890439	2532.874818
967.189447	2534.919006
967.488419	2530.996988
967.787353	2533.192411
968.086249	2533.762061
968.385108	2533.590662
968.683930	2532.131248
968.982714	2534.014119
969.281462	2532.950435
969.580172	2533.134437
969.878844	2534.641742
970.177480	2536.068389
970.476078	2532.390867
970.774639	2533.421783
971.073162	2536.113759
971.371649	2530.323994
971.670098	2531.548994
971.968510	2531.901875
972.266885	2531.110414
972.565223	2533.883049
972.863524	2532.436237
973.161788	2534.639222
973.460014	2533.184849
973.758204	2533.356248
974.056356	2533.285672
974.354471	2533.603265
974.652550	2531.216278
974.950591	2532.189221
975.248595	2533.479756
975.546563	2533.976310
975.844493	2533.976310
976.142386	2535.488656
976.440243	2534.256094
976.738062	2533.797349
977.035845	2532.411032
977.333590	2533.356248
977.631299	2532.685775
977.928971	2533.653676
978.226606	2531.760723
978.524204	2531.649818
978.821765	2533.280631
979.119290	2533.804911
979.416777	2529.252749
979.714228	2533.673841
980.011642	2533.389016
980.309020	2535.118131
980.606360	2531.649818
980.903664	2533.189890
981.200931	2533.479756
981.498162	2533.555374
981.795356	2535.551671
982.092513	2538.364634
982.389633	2537.225334
982.686717	2541.142310
982.983764	2538.520910
983.280775	2540.325643
983.577749	2538.984696
983.874686	2538.813297
984.171587	2537.185004
984.468451	2537.295910
984.765279	2538.576363
985.062070	2535.924716
985.358824	2533.759540
985.655543	2536.161650
985.952224	2532.022863
986.248869	2531.783408
986.545478	2527.909281
986.842050	2530.470187
987.138586	2526.291071
987.435086	2528.292409
987.731549	2527.674868
988.027975	2530.462626
988.324366	2533.015970
988.620719	2530.644107
988.917037	2531.314581
989.213318	2530.240815
989.509563	2528.763757
989.805772	2530.407173
990.101944	2529.424148
990.398080	2531.072605
990.694180	2529.787111
990.990244	2531.506145
991.286271	2531.138140
991.582262	2532.655528
991.878217	2529.441792
992.174136	2532.126207
992.470019	2528.874662
992.765865	2529.857687
993.061676	2532.196783
993.357450	2534.273738
993.653188	2529.814838
993.948890	2531.506145
994.244556	2531.382636
994.540186	2535.425642
994.835780	2531.249046
995.131337	2533.416742
995.426859	2531.405322
995.722345	2530.626463
996.017795	2533.139478
996.313208	2535.307175
996.608586	2531.007070
996.903928	2531.848943
997.199234	2528.219312
997.494504	2532.020342
997.789738	2531.188552
998.084936	2531.188552
998.380099	2532.572349
998.675225	2530.704601
998.970316	2530.513037
999.265371	2532.789118
999.560390	2532.630322
999.855373	2532.947915
1000.150320	2530.318953
1000.445232	2530.432379
1000.740108	2531.019673
1001.034948	2531.798532
1001.329752	2528.909950
1001.624521	2530.591175
1001.919254	2522.903416
1002.213951	2528.050434
1002.508613	2526.470032
1002.803239	2527.342152
1003.097829	2526.386853
1003.392384	2528.289888
1003.686903	2528.299971
1003.981386	2530.296268
1004.275834	2530.281144
1004.570246	2531.017153
1004.864623	2528.912471
1005.158964	2529.771988
1005.453270	2529.706453
1005.747540	2529.882893
1006.041775	2530.245856
1006.335974	2529.066226
1006.630138	2529.267872
1006.924266	2529.051103
1007.218359	2527.894158
1007.512416	2529.361134
1007.806438	2529.313243
1008.100425	2529.610671
1008.394376	2529.088911
1008.688292	2528.700743
1008.982172	2529.996319
1009.276017	2530.933974
1009.569827	2529.156967
1009.863602	2530.709642
1010.157341	2528.486493
1010.451045	2531.377595
1010.744714	2530.165198
1011.038347	2529.459436
1011.331945	2528.357944
1011.625508	2527.105217
1011.919036	2528.788963
1012.212528	2527.606812
1012.505986	2529.524971
1012.799408	2530.260980
1013.092795	2530.366844
1013.386147	2529.535053
1013.679464	2529.235105
1013.972745	2527.410207
1014.265992	2529.419107
1014.559204	2527.753006
1014.852380	2530.886083
1015.145521	2528.594878
1015.438628	2527.349713
1015.731699	2530.402132
1016.024736	2528.191586
1016.317737	2528.292409
1016.610703	2528.776360
1016.903635	2526.013807
1017.196531	2526.278468
1017.489393	2526.913653
1017.782219	2523.742768
1018.075011	2530.986906
1018.367768	2526.974147
1018.660490	2529.953469
1018.953177	2529.953469
1019.245829	2529.953469
