Dividing Wavelength (nm)	Counts (n)	Blue Motor Position (mm): 0.000000	Red Motor Position (mm): 46.400000	
326.493990	2128.939763
326.888308	2128.939763
327.282561	2128.939763
327.676750	2097.296440
328.070874	2092.799731
328.464933	2098.319795
328.858929	2103.181988
329.252859	2113.660026
329.646726	2123.016407
330.040528	2138.984262
330.434265	2153.732158
330.827938	2171.731598
331.221547	2192.130627
331.615091	2209.341126
332.008571	2228.774774
332.401986	2250.779410
332.795338	2270.134921
333.188625	2288.285595
333.581847	2306.877370
333.975006	2325.900164
334.368100	2345.338854
334.761129	2359.814527
335.154095	2377.912269
335.546996	2401.104097
335.939833	2424.926070
336.332606	2440.397371
336.725315	2452.624690
337.117960	2462.207923
337.510540	2467.380147
337.903056	2480.524956
338.295508	2487.557365
338.687896	2497.165805
339.080220	2502.418687
339.472480	2512.609379
339.864676	2515.941582
340.256807	2518.323527
340.648875	2524.209074
341.040879	2528.052954
341.432818	2526.391894
341.824694	2531.198634
342.216506	2531.879190
342.608253	2530.255938
342.999937	2529.204858
343.391557	2528.642769
343.783113	2525.333252
344.174605	2528.743592
344.566033	2526.480114
344.957397	2524.922398
345.348697	2520.324865
345.739934	2517.277488
346.131106	2519.646830
346.522215	2515.760101
346.913260	2515.684483
347.304241	2515.790347
347.695159	2511.467558
348.086012	2510.305572
348.476802	2507.991683
348.867528	2507.046466
349.258191	2504.349449
349.648789	2503.963801
350.039324	2501.145796
350.429796	2505.340036
350.820203	2500.402225
351.210548	2501.312154
351.600828	2498.504231
351.991045	2497.352327
352.381198	2501.130672
352.771288	2495.958448
353.161314	2499.146978
353.551276	2498.302585
353.941175	2498.300064
354.331010	2497.884169
354.720782	2497.334683
355.110490	2498.645383
355.500135	2497.937101
355.889717	2498.093377
356.279235	2497.284272
356.668689	2499.116731
357.058080	2501.985148
357.447408	2497.286792
357.836672	2496.134889
358.225873	2497.599344
358.615010	2498.589931
359.004084	2501.176042
359.393095	2504.346928
359.782043	2501.657473
360.170927	2503.290807
360.559748	2502.978255
360.948505	2507.167454
361.337199	2503.633605
361.725830	2511.795233
362.114398	2507.066631
362.502903	2506.222238
362.891344	2506.801970
363.279722	2507.595952
363.668037	2508.016888
364.056289	2508.944461
364.444478	2510.033350
364.832603	2510.484533
365.220665	2512.485871
365.608665	2510.464368
365.996601	2511.777589
366.384474	2513.673063
366.772284	2518.338651
367.160031	2514.303207
367.547715	2515.218177
367.935336	2519.616583
368.322893	2522.570699
368.710388	2523.331914
369.097820	2532.688295
369.485189	2535.760878
369.872495	2541.850592
370.259738	2549.074566
370.646918	2556.626214
371.034035	2563.978737
371.421090	2570.965776
371.808081	2583.702252
372.195010	2591.631987
372.581875	2604.617999
372.968678	2617.500667
373.355418	2627.608181
373.742096	2649.219607
374.128710	2664.882472
374.515262	2677.061900
374.901751	2696.561083
375.288177	2706.635829
375.674540	2729.215157
376.060841	2744.406674
376.447079	2765.261928
376.833254	2786.986780
377.219367	2799.778708
377.605417	2836.969821
377.991404	2847.170596
378.377329	2870.375027
378.763191	2887.081411
379.148991	2921.560382
379.534727	2947.076183
379.920402	2976.612303
380.306013	2991.188799
380.691563	3036.657486
381.077049	3058.117678
381.462474	3077.752972
381.847835	3120.890126
382.233134	3139.290337
382.618371	3139.146665
383.003545	3206.662838
383.388657	3212.152655
383.773706	3246.409816
384.158693	3261.497989
384.543618	3290.214922
384.928480	3323.751198
385.313280	3370.409597
385.698017	3368.201572
386.082692	3423.455139
386.467305	3427.004111
386.851856	3459.204481
387.236344	3483.006289
387.620770	3516.867719
388.005133	3537.947304
388.389435	3567.135585
388.773674	3577.555650
389.157851	3620.037453
389.541965	3636.582520
389.926018	3600.056840
390.310008	3671.084177
390.693936	3687.725026
391.077802	3731.167169
391.461606	3720.041343
391.845348	3782.400416
392.229027	3783.469141
392.612645	3794.594967
392.996200	3875.427348
393.379694	3912.152154
393.763125	3978.506342
394.146494	3943.840847
394.529801	4009.960621
394.913047	4061.735792
395.296230	4020.814225
395.679351	4077.426383
396.062410	4099.698201
396.445408	4082.326385
396.828343	4113.780664
397.211217	4138.981392
397.594028	4055.633475
397.976778	4122.459010
398.359466	4150.691993
398.742092	4185.927137
399.124656	4104.416721
399.507158	4183.794729
399.889598	4210.318760
400.271977	4269.093573
400.654294	4243.381168
401.036549	4247.852671
401.418742	4218.682034
401.800874	4322.106347
402.182944	4341.729038
402.564952	4405.918050
402.946898	4397.282553
403.328783	4388.682345
403.710606	4302.730672
404.092367	4495.116226
404.474067	4461.857214
404.855705	4470.641424
405.237282	4400.143408
405.618797	4506.073174
406.000250	4541.419224
406.381642	4621.606338
406.762972	4586.063683
407.144240	4595.470476
407.525447	4594.598356
407.906593	4653.410978
408.287677	4695.313048
408.668700	4624.535248
409.049661	4679.224206
409.430560	4717.030339
409.811399	4645.342611
410.192176	4805.870593
410.572891	4742.853650
410.953545	4845.594886
411.334138	4731.286722
411.714669	4799.027227
412.095139	4691.847255
412.475547	4832.056867
412.855894	4812.978620
413.236180	4823.028160
413.616405	4775.048979
413.996568	4863.216239
414.376670	4803.221467
414.756711	4761.173203
415.136691	4793.000527
415.516609	4867.894430
415.896466	4905.065378
416.276262	4941.361685
416.655997	4919.871246
417.035670	5107.341676
417.415283	5194.467938
417.794834	5139.436182
418.174324	5090.650415
418.553753	5001.941231
418.933121	5184.289848
419.312428	5250.989354
419.691674	5192.816960
420.070859	5317.484694
420.449983	5228.208380
420.829045	5342.324980
421.208047	5252.274849
421.586988	5320.579963
421.965867	5334.238969
422.344686	5466.740657
422.723444	5319.470909
423.102141	5140.431809
423.480777	5435.485503
423.859352	5207.401018
424.237866	5468.641172
424.616319	5456.817145
424.994712	5570.921142
425.373044	5446.790290
425.751314	5587.498977
426.129524	5390.462958
426.507673	5584.237350
426.885762	5666.352705
427.263789	5598.380307
427.641756	5474.758612
428.019662	5603.623107
428.397508	5607.015804
428.775292	5551.656373
429.153016	5657.215614
429.530679	5578.956741
429.908282	5666.203991
430.285824	5536.270771
430.663305	5812.863759
431.040726	5544.024066
431.418086	5548.228388
431.795385	5651.622453
432.172624	5663.806922
432.549802	5658.296941
432.926920	5669.021996
433.303977	5679.724366
433.680974	5716.736517
434.057910	5734.488940
434.434786	5737.629579
434.811601	5712.570003
435.188355	5943.868224
435.565050	5817.032793
435.941683	5802.126102
436.318257	6017.179204
436.694770	5996.502912
437.071222	6031.039857
437.447614	5964.582325
437.823946	5875.923553
438.200218	6030.780237
438.576429	5895.889043
438.952580	5995.522407
439.328670	6043.045364
439.704700	5953.375840
440.080670	5935.525115
440.456580	6206.633327
440.832429	6091.589155
441.208218	5935.754487
441.583947	6093.466985
441.959616	6095.821204
442.335224	6024.423342
442.710773	6158.452499
443.086261	6187.413928
443.461689	5980.587989
443.837057	6128.445031
444.212365	6285.240039
444.587612	6176.192320
444.962800	6334.219890
445.337927	6310.975130
445.712995	5922.435759
446.088002	6497.946485
446.462949	6329.413150
446.837837	6258.448827
447.212664	6430.730260
447.587431	6575.812147
447.962139	7119.296422
448.336786	8044.680869
448.711374	7781.759491
449.085901	6856.554005
449.460369	6781.040041
449.834776	6714.491769
450.209124	7104.097344
450.583412	7255.475632
450.957640	7402.521048
451.331808	7166.443814
451.705917	6718.948149
452.079965	6641.843701
452.453954	6856.591813
452.827883	6732.609676
453.201752	6822.264076
453.575562	6622.674713
453.949311	6828.585683
454.323001	6712.321552
454.696632	6794.757020
455.070202	6927.992196
455.443713	7085.495486
455.817164	7183.298912
456.190556	7266.021726
456.563888	7343.423602
456.937160	7382.762246
457.310373	7039.142076
457.683526	7070.031747
458.056619	6952.789632
458.429653	6942.316634
458.802628	6879.241718
459.175542	6989.753892
459.548398	7347.736309
459.921194	7506.613314
460.293930	7503.442428
460.666607	8037.502266
461.039224	8349.708486
461.411782	8473.264646
461.784280	8492.436154
462.156719	8379.786530
462.529099	8262.773788
462.901419	7850.092331
463.273680	7741.815908
463.645882	7754.794359
464.018024	7621.861652
464.390106	7790.165615
464.762130	8178.246241
465.134094	8647.665884
465.505999	9663.884361
465.877845	10885.953315
466.249631	11538.689477
466.621358	11155.523976
466.993026	10526.445949
467.364634	10273.374985
467.736184	9907.344366
468.107674	9577.990662
468.479105	9608.010733
468.850477	9373.844095
469.221790	9142.941605
469.593043	8810.696799
469.964238	8676.425667
470.335373	8690.528294
470.706449	8744.085513
471.077467	8725.929797
471.448425	10039.329335
471.819324	11112.122162
472.190164	11133.925152
472.560945	9889.589422
472.931667	9096.232794
473.302330	8966.019790
473.672934	8606.643494
474.043479	8962.261610
474.413965	8900.986385
474.784393	8785.634703
475.154761	8941.290410
475.525070	9033.122589
475.895321	8858.088687
476.265513	9037.289103
476.635645	9202.603661
477.005719	9198.356489
477.375734	9317.168923
477.745691	9554.957630
478.115588	9688.487713
478.485427	9928.915463
478.855207	10466.975457
479.224928	11286.336877
479.594591	11915.452712
479.964194	11723.621685
480.333739	11670.233345
480.703226	11577.924777
481.072653	11668.479024
481.442022	11911.951631
481.811333	12102.592946
482.180584	11904.299159
482.549777	11612.552463
482.918912	11435.630648
483.287988	11454.867691
483.657005	11469.383694
484.025964	11154.361990
484.394864	11284.935436
484.763706	11259.071796
485.132489	11010.918478
485.501213	10981.614250
485.869879	11048.396936
486.238487	10893.565457
486.607036	11003.923877
486.975527	10776.542633
487.343959	10980.086781
487.712333	11021.328460
488.080648	10946.963879
488.448905	10988.013995
488.817104	10931.875706
489.185244	11200.302025
489.553326	11351.503873
489.921350	11894.214331
490.289315	12957.000467
490.657222	13295.513948
491.025070	13209.403479
491.392861	13085.501999
491.760593	12703.727857
492.128267	12346.675533
492.495883	12020.757375
492.863440	11683.332783
493.230939	11346.666886
493.598380	11278.074426
493.965763	11158.422639
494.333088	11050.662935
494.700354	10977.755247
495.067563	11035.161387
495.434713	10858.080775
495.801805	10989.546506
496.168839	10913.271328
496.535815	10850.818993
496.902733	10854.897287
497.269593	10785.034456
497.636395	10887.362318
498.003139	10865.917249
498.369825	10736.929246
498.736453	10896.595191
499.103023	10818.117028
499.469535	10850.496359
499.835989	10838.445481
500.202385	10802.058433
500.568723	10648.880452
500.935003	10870.880265
501.301226	10680.007057
501.667390	10940.120513
502.033497	11031.733402
502.399546	10903.534339
502.765537	10802.393669
503.131470	10876.112983
503.497345	11056.782895
503.863163	10665.115488
504.228923	10972.454474
504.594625	11041.984588
504.960269	10784.999168
505.325856	11013.040803
505.691385	10805.889710
506.056856	10958.535848
506.422270	10978.405556
506.787625	10866.330624
507.152924	10986.801598
507.518164	10966.445418
507.883347	10891.150745
508.248472	10807.328959
508.613540	11042.380319
508.978550	10922.058059
509.343503	10900.607949
509.708398	11019.007009
510.073236	11128.190840
510.438016	11128.253854
510.802738	11081.860115
511.167403	11138.747016
511.532010	11029.331292
511.896561	11263.049267
512.261053	11336.032572
512.625488	11202.187416
512.989866	11188.185612
513.354186	11178.234374
513.718449	11071.969371
514.082655	11266.449525
514.446803	11169.767756
514.810894	11288.436517
515.174927	11156.300313
515.538904	11179.875269
515.902822	11336.347644
516.266684	11220.138965
516.630488	11158.987248
516.994235	11217.847761
517.357925	11280.290013
517.721558	11370.234280
518.085133	11380.792977
518.448651	11395.263609
518.812112	11272.836667
519.175516	11285.883173
519.538863	11416.575087
519.902152	11328.228865
520.265385	11485.890952
520.628560	11399.924155
520.991678	11371.297963
521.354739	11442.032913
521.717743	11378.499252
522.080690	11351.584531
522.443580	11484.174439
522.806413	11444.412338
523.169189	11469.955865
523.531908	11527.077179
523.894569	11353.510252
524.257174	11360.676252
524.619722	11474.626494
524.982213	11424.522466
525.344647	11472.990639
525.707025	11425.318968
526.069345	11518.280365
526.431608	11431.995976
526.793815	11547.415714
527.155964	11331.682056
527.518057	11383.265662
527.880093	11338.900988
528.242072	11401.018086
528.603995	11312.324025
528.965860	11226.884029
529.327669	11281.588110
529.689421	11230.707744
530.051117	11194.182064
530.412755	11304.956379
530.774337	11201.458970
531.135862	11177.150526
531.497331	11195.795233
531.858743	11051.197297
532.220098	11217.875487
532.581396	11089.835221
532.942638	11069.655482
533.303824	11037.074504
533.664953	11050.738552
534.026025	10964.335696
534.387040	11069.048023
534.747999	11064.758001
535.108902	11118.300096
535.469748	10877.118693
535.830537	10983.366051
536.191270	10961.610952
536.551947	10983.920578
536.912567	10980.588376
537.273131	10904.580378
537.633638	10888.630168
537.994089	10876.319670
538.354483	10822.240692
538.714821	10977.500669
539.075103	10977.851029
539.435328	10952.355393
539.795497	10774.306881
540.155609	10930.418813
540.515665	11013.091215
540.875665	10753.852399
541.235609	10827.334778
541.595496	10811.104783
541.955328	10979.895217
542.315102	10855.920641
542.674821	10809.010184
543.034483	10806.144288
543.394090	10813.156533
543.753640	10742.282951
544.113134	10971.446243
544.472571	10811.571090
544.831953	10963.899636
545.191278	10768.267578
545.550548	10794.227000
545.909761	10926.960581
546.268918	10907.027859
546.628019	10984.240692
546.987064	10851.670948
547.346053	10774.783270
547.704986	10873.310101
548.063863	10854.103305
548.422684	10853.165650
548.781449	10762.442525
549.140158	10870.645851
549.498811	10752.793757
549.857408	10603.726837
550.215949	10825.577936
550.574434	10684.617192
550.932864	10772.671026
551.291237	10844.893117
551.649555	10786.327512
552.007817	10798.748915
552.366022	10766.803123
552.724173	10756.519169
553.082267	10739.154915
553.440305	10877.330421
553.798288	10677.211737
554.156215	10840.550163
554.514086	10807.344083
554.871902	10653.757769
555.229661	10698.603873
555.587365	10668.538432
555.945014	10566.119830
556.302606	10689.260095
556.660143	10585.981976
557.017625	10739.681716
557.375050	10636.862342
557.732421	10771.841757
558.089735	10686.132059
558.446994	10685.446462
558.804197	10725.760569
559.161345	10724.361649
559.518437	10573.144678
559.875474	10659.902935
560.232455	10693.983656
560.589381	10645.490277
560.946251	10634.845880
561.303065	10750.593293
561.659825	10679.427324
562.016528	10611.293609
562.373177	10488.307100
562.729770	10607.371592
563.086307	10522.271874
563.442789	10615.825607
563.799216	10493.128963
564.155587	10537.652434
564.511904	10494.061577
564.868164	10484.662345
565.224370	10502.891158
565.580520	10422.714126
565.936615	10425.592625
566.292654	10296.897009
566.648638	10429.244941
567.004567	10385.152489
567.360441	10366.220436
567.716260	10280.228433
568.072023	10383.320030
568.427732	10328.048819
568.783385	10222.348426
569.138982	10299.891454
569.494525	10313.570625
569.850013	10200.023676
570.205445	10277.889338
570.560823	10169.859932
570.916145	10091.250699
571.271412	10161.415999
571.626625	10108.158729
571.981782	10079.293082
572.336884	10056.723837
572.691931	10064.519981
573.046923	10005.251135
573.401860	9965.645310
573.756743	9904.317153
574.111570	9949.420356
574.466342	9928.882696
574.821059	9964.632038
575.175722	9850.291107
575.530330	9858.989618
575.884882	9851.143062
576.239380	9777.544737
576.593823	9765.781204
576.948211	9767.747254
577.302544	9655.105192
577.656823	9668.925515
578.011047	9668.456688
578.365216	9641.673037
578.719330	9560.432323
579.073389	9579.591228
579.427394	9519.616621
579.781344	9500.896296
580.135239	9452.226476
580.489080	9461.361047
580.842866	9360.522846
581.196597	9369.382674
581.550273	9405.568077
581.903895	9375.734528
582.257463	9434.884907
582.610975	9319.487854
582.964434	9343.264456
583.317837	9270.260987
583.671186	9247.530424
584.024481	9245.861802
584.377721	9161.614039
584.730906	9139.853898
585.084037	9174.920165
585.437113	9104.419628
585.790135	9121.670457
586.143103	9024.938276
586.496016	8999.505655
586.848874	9056.327020
587.201679	9049.682780
587.554428	8928.795910
587.907124	8981.007141
588.259765	8951.768448
588.612352	8950.873644
588.964884	8827.733379
589.317362	8840.472374
589.669786	8838.198814
590.022155	8894.377432
590.374470	8902.060151
590.726731	8850.637861
591.078937	8697.180097
591.431090	8811.558837
591.783188	8679.634361
592.135232	8672.458278
592.487222	8672.657404
592.839157	8732.838699
593.191038	8660.830857
593.542866	8605.123587
593.894639	8500.612906
594.246358	8558.147594
594.598022	8568.202176
594.949633	8465.188717
595.301190	8441.707023
595.652692	8466.633008
596.004141	8585.195905
596.355535	8359.420269
596.706876	8338.650715
597.058162	8272.092361
597.409395	8346.905604
597.760573	8412.299452
598.111698	8319.733785
598.462768	8313.076941
598.813785	8273.735777
599.164748	8238.452741
599.515657	8228.335145
599.866511	8137.208728
600.217312	8267.262935
600.568060	8126.324877
600.918753	8228.279692
601.269392	8205.115591
601.619978	8113.601004
601.970510	8178.546189
602.320988	8169.083943
602.671412	8228.866987
603.021783	8160.987850
603.372100	8134.108418
603.722363	8134.615054
604.072572	8116.066128
604.422728	8122.223898
604.772830	8051.042806
605.122878	8067.431597
605.472872	8057.490441
605.822813	8090.167201
606.172701	8031.271400
606.522534	8106.651774
606.872314	8112.237372
607.222041	8075.903256
607.571714	8129.578941
607.921333	8089.957993
608.270899	8097.401256
608.620411	8185.651696
608.969870	8085.914987
609.319276	8081.680418
609.668627	8102.845702
610.017926	8134.277297
610.367171	8186.722941
610.716362	8158.633632
611.065500	8144.467989
611.414585	8178.720109
611.763616	8165.494642
612.112594	8145.735839
612.461518	8155.765215
612.810389	8221.958086
613.159207	8160.579517
613.507971	8105.525076
613.856682	8230.107111
614.205340	8184.212446
614.553945	8264.351669
614.902496	8155.692118
615.250994	8214.776962
615.599439	8195.108900
615.947830	8208.961991
616.296169	8182.805964
616.644454	8198.050413
616.992686	8188.656223
617.340864	8251.854648
617.688990	8153.474011
618.037063	8251.925225
618.385082	8190.592026
618.733048	8276.498329
619.080961	8213.947692
619.428821	8237.179850
619.776628	8237.893173
620.124382	8194.675361
620.472083	8173.855396
620.819731	8204.061989
621.167326	8087.679391
621.514868	8108.103626
621.862357	7990.687591
622.209793	8007.464551
622.557176	7940.550796
622.904506	7912.453925
623.251783	7848.806837
623.599007	7803.242368
623.946179	7802.143396
624.293297	7765.199300
624.640363	7680.540683
624.987376	7660.804566
625.334336	7616.308821
625.681243	7560.447796
626.028097	7543.045733
626.374899	7528.252467
626.721647	7513.706217
627.068343	7444.128212
627.414987	7425.468381
627.761577	7370.323199
628.108115	7410.841473
628.454600	7305.317520
628.801032	7355.292999
629.147412	7318.575755
629.493739	7303.550596
629.840014	7237.367807
630.186236	7296.566077
630.532405	7178.749270
630.878521	7229.667445
631.224585	7191.873914
631.570597	7111.671677
631.916556	7147.035372
632.262462	7140.955740
632.608316	7098.811694
632.954117	7079.604898
633.299866	7066.807929
633.645562	7058.984058
633.991206	6982.222408
634.336797	6921.826865
634.682336	6878.039402
635.027823	6840.981880
635.373257	6833.301683
635.718639	6771.570233
636.063968	6784.157994
636.409245	6676.274781
636.754470	6669.958216
637.099642	6636.948740
637.444762	6577.957158
637.789829	6588.813283
638.134845	6525.756010
638.479808	6511.872672
638.824719	6515.033476
639.169577	6450.937725
639.514383	6470.394058
639.859137	6395.648870
640.203839	6403.596249
640.548489	6391.633591
640.893086	6369.520570
641.237632	6339.324058
641.582125	6356.932809
641.926566	6325.234033
642.270955	6340.801116
642.615292	6337.388255
642.959576	6353.530030
643.303809	6339.629048
643.647990	6348.929977
643.992118	6335.833059
644.336195	6287.324556
644.680219	6312.389173
645.024192	6302.848790
645.368112	6395.401854
645.711981	6418.714670
646.055797	6498.107802
646.399562	6450.960410
646.743274	6579.877838
647.086935	6634.748277
647.430544	6628.134283
647.774101	6648.349310
648.117606	6656.463047
648.461059	6644.296222
648.804460	6608.456139
649.147810	6513.405183
649.491108	6483.680019
649.834354	6459.361493
650.177548	6376.888216
650.520690	6293.845289
650.863781	6270.401403
651.206820	6289.129289
651.549807	6209.937804
651.892742	6152.710625
652.235626	6157.514845
652.578458	6143.936497
652.921238	6050.564245
653.263967	6091.092602
653.606644	6033.389034
653.949269	6032.537079
654.291843	5975.992977
654.634365	6024.748497
654.976836	5974.410055
655.319255	5975.529191
655.661622	5947.586075
656.003938	5950.426765
656.346203	5909.691722
656.688416	5941.372853
657.030577	5892.806377
657.372687	5865.364856
657.714746	5851.547053
658.056753	5897.610597
658.398708	5835.934600
658.740612	5830.283466
659.082465	5876.717534
659.424266	5868.175299
659.766016	5862.745977
660.107715	5841.247976
660.449362	5854.591910
660.790958	5850.354820
661.132503	5836.658005
661.473996	5872.687132
661.815438	5858.294638
662.156829	5856.187435
662.498168	5854.702816
662.839456	5824.791129
663.180693	5859.844793
663.521879	5863.373600
663.863013	5846.815930
664.204097	5869.150763
664.545129	5909.205250
664.886110	5904.703500
665.227040	5941.788748
665.567918	5905.686525
665.908746	5935.348674
666.249522	5939.991577
666.590248	5925.692344
666.930922	5952.344924
667.271545	5964.357994
667.612118	5966.649198
667.952639	5940.704900
668.293109	5966.129960
668.633528	5921.856026
668.973896	5924.336274
669.314213	5909.885806
669.654480	5894.091871
669.994695	5889.058279
670.334859	5878.373553
670.674973	5868.792841
671.015035	5875.777359
671.355047	5872.999683
671.695008	5864.999372
672.034918	5835.102809
672.374777	5844.234860
672.714585	5826.802550
673.054342	5827.714998
673.394049	5823.238454
673.733705	5856.860429
674.073310	5844.560014
674.412864	5802.587367
674.752368	5789.878618
675.091820	5794.592097
675.431223	5731.660853
675.770574	5733.321913
676.109875	5687.200397
676.449125	5689.239543
676.788324	5654.747969
677.127473	5600.094299
677.466571	5592.600624
677.805619	5578.399694
678.144616	5570.638837
678.483562	5539.867634
678.822458	5513.267986
679.161303	5509.227501
679.500098	5500.924721
679.838842	5485.294623
680.177535	5483.837730
680.516179	5503.530997
680.854771	5512.925188
681.193314	5594.503660
681.531805	5697.650709
681.870247	5848.971024
682.208638	5954.343742
682.546978	5969.426874
682.885268	5945.292350
683.223508	5856.958732
683.561697	5805.886802
683.899836	5778.735148
684.237925	5730.997941
684.575963	5696.735739
684.913951	5648.708667
685.251889	5715.156115
685.589776	5677.433161
685.927614	5654.306868
686.265401	5719.516713
686.603137	5705.028437
686.940824	5781.154902
687.278460	5805.009642
687.616046	5814.010622
687.953582	5881.549480
688.291068	5863.461820
688.628504	5922.652528
688.965889	5885.930243
689.303224	5835.425443
689.640510	5783.531806
689.977745	5704.985587
690.314930	5608.202995
690.652065	5553.415735
690.989150	5460.663546
691.326185	5384.075816
691.663170	5331.889791
692.000105	5254.329119
692.336990	5178.817675
692.673825	5148.215351
693.010610	5089.075055
693.347345	5011.080843
693.684030	4997.976363
694.020665	4957.455569
694.357251	4867.251682
694.693786	4880.265421
695.030272	4844.808466
695.366707	4811.166325
695.703093	4773.750882
696.039429	4795.085045
696.375716	4780.198517
696.711952	4751.305144
697.048139	4741.850460
697.384276	4717.267273
697.720363	4733.131784
698.056400	4737.784769
698.392388	4689.616544
698.728326	4669.295653
699.064214	4648.334536
699.400053	4641.733145
699.735842	4605.797279
700.071581	4582.207200
700.407270	4558.095361
700.742910	4539.410324
701.078501	4487.264629
701.414042	4486.153055
701.749533	4454.066110
702.084974	4390.809712
702.420366	4442.514306
702.755709	4387.540524
703.091002	4330.184796
703.426246	4376.848236
703.761440	4334.736958
704.096584	4297.273623
704.431679	4316.125018
704.766725	4301.669509
705.101721	4292.436636
705.436668	4319.842869
705.771565	4269.655662
706.106413	4296.741781
706.441212	4326.842511
706.775961	4335.631762
707.110661	4313.281807
707.445311	4340.461188
707.779913	4358.304352
708.114465	4375.872773
708.448967	4397.809354
708.783421	4456.677428
709.117825	4498.808871
709.452180	4501.788193
709.786485	4547.304771
710.120742	4627.091113
710.454949	4614.899083
710.789107	4676.078526
711.123216	4749.722222
711.457275	4744.797014
711.791286	4813.805369
712.125247	4827.043439
712.459159	4731.322010
712.793023	4804.716169
713.126837	4762.017596
713.460602	4755.617851
713.794318	4679.352755
714.127985	4687.741235
714.461602	4601.398873
714.795171	4573.155808
715.128691	4510.620295
715.462162	4454.822283
715.795584	4402.232967
716.128957	4384.452817
716.462281	4338.323739
716.795556	4308.296106
717.128782	4270.172380
717.461960	4202.028583
717.795088	4213.676169
718.128167	4174.385416
718.461198	4111.081126
718.794180	4108.245477
719.127113	4090.021706
719.459997	4071.074529
719.792833	4026.097355
720.125619	4019.654760
720.458357	3981.074810
720.791046	3982.226713
721.123686	3955.354843
721.456278	3918.584667
721.788821	3932.326852
722.121315	3908.053696
722.453761	3881.612844
722.786158	3893.973753
723.118506	3915.244902
723.450805	3866.012994
723.783056	3891.279257
724.115259	3904.267790
724.447412	3910.294489
724.779518	3901.023807
725.111574	3903.302409
725.443582	3933.627470
725.775542	3917.727670
726.107453	3964.746512
726.439315	3965.875731
726.771129	3979.875015
727.102895	4015.578987
727.434612	4059.593301
727.766281	4074.512596
728.097901	4072.957400
728.429473	4077.572577
728.760996	4081.706323
729.092471	4078.563163
729.423897	4066.734096
729.755276	4063.825350
730.086606	4067.616298
730.417887	4103.703398
730.749120	4167.655475
731.080305	4225.225452
731.411442	4252.210749
731.742530	4223.201429
732.073570	4226.715113
732.404562	4275.173204
732.735506	4268.770939
733.066401	4231.940269
733.397249	4174.506403
733.728048	4096.285340
734.058798	4013.171836
734.389501	3943.767751
734.720156	3890.633989
735.050762	3842.347297
735.381320	3831.191223
735.711831	3789.100109
736.042293	3757.459307
736.372707	3775.511679
736.703073	3749.423708
737.033391	3742.154364
737.363661	3759.054832
737.693883	3777.853295
738.024056	3790.007517
738.354182	3787.436529
738.684260	3844.469623
739.014290	3864.228425
739.344272	3864.223384
739.674207	3898.893920
740.004093	3905.460022
740.333931	3896.965678
740.663722	3897.361409
740.993464	3894.525760
741.323159	3870.605485
741.652806	3840.739169
741.982405	3814.668842
742.311956	3784.489974
742.641460	3775.438583
742.970915	3751.213318
743.300323	3712.623285
743.629683	3679.598686
743.958996	3668.359434
744.288260	3643.428407
744.617477	3612.821042
744.946647	3604.094804
745.275768	3574.523396
745.604842	3567.836305
745.933869	3529.006818
746.262847	3518.362422
746.591778	3547.994324
746.920662	3527.134029
747.249498	3494.759739
747.578286	3533.712735
747.907027	3551.593708
748.235720	3551.714695
748.564365	3575.140937
748.892963	3572.060792
749.221514	3556.786096
749.550017	3535.484701
749.878473	3534.552087
750.206881	3503.554032
750.535242	3499.569000
750.863555	3501.391377
751.191821	3495.987260
751.520039	3480.231134
751.848210	3460.200109
752.176334	3489.350581
752.504411	3494.580778
752.832440	3456.757001
753.160421	3442.609003
753.488356	3444.643108
753.816243	3460.444605
754.144082	3417.516659
754.471875	3409.014753
754.799620	3422.721651
755.127318	3413.627409
755.454969	3413.713109
755.782572	3417.312493
756.110129	3394.218967
756.437638	3385.664129
756.765100	3397.034451
757.092515	3405.649783
757.419882	3409.662542
757.747203	3383.952657
758.074477	3389.157648
758.401703	3403.802200
758.728882	3424.208791
759.056014	3428.700459
759.383099	3431.430244
759.710138	3435.095163
760.037129	3448.517235
760.364073	3472.205617
760.690970	3459.411168
761.017820	3442.228396
761.344623	3458.148359
761.671379	3498.225533
761.998088	3544.954508
762.324751	3665.410359
762.651366	3897.381573
762.977935	4348.504349
763.304456	4760.613635
763.630931	4838.343186
763.957359	4506.506713
764.283740	4186.448897
764.610074	3995.978981
764.936362	3809.620126
765.262602	3662.431037
765.588796	3557.741395
765.914943	3477.919765
766.241044	3396.482445
766.567097	3368.587220
766.893104	3323.725992
767.219064	3294.388997
767.544978	3269.473094
767.870845	3221.249417
768.196665	3199.920295
768.522438	3207.744166
768.848165	3203.262580
769.173846	3166.724297
769.499479	3155.928666
769.825066	3139.416366
770.150607	3120.630507
770.476101	3134.939822
770.801548	3132.260448
771.126949	3088.258737
771.452303	3069.409863
771.777611	3076.966553
772.102872	3077.687437
772.428087	3055.554252
772.753256	3048.748694
773.078378	3039.762837
773.403453	3010.322499
773.728482	2999.380674
774.053465	3018.138808
774.378401	3005.112466
774.703291	2980.098261
775.028135	2977.910400
775.352932	2970.673824
775.677683	2962.539922
776.002388	2959.595888
776.327046	2961.067905
776.651658	2949.218673
776.976224	2937.132507
777.300743	2941.414967
777.625216	2932.497166
777.949643	2926.518357
778.274024	2928.917946
778.598359	2915.425298
778.922647	2919.364960
779.246889	2919.785896
779.571086	2908.309709
779.895236	2902.764440
780.219339	2911.987231
780.543397	2922.858479
780.867409	2925.739499
781.191374	2920.216915
781.515294	2911.772982
781.839167	2914.386820
782.162995	2909.275090
782.486776	2917.066194
782.810511	2909.501942
783.134201	2900.080026
783.457844	2906.469688
783.781441	2897.451064
784.104993	2881.155534
784.428498	2883.335833
784.751958	2890.380846
785.075372	2888.750033
785.398739	2873.402240
785.722061	2886.804147
786.045337	2894.645662
786.368568	2884.772562
786.691752	2876.096736
787.014891	2920.002666
787.337983	2947.376131
787.661030	2975.238588
787.984031	3033.778988
788.306987	3076.543096
788.629897	3071.287693
788.952760	3055.130795
789.275579	3035.200593
789.598351	2985.961123
789.921078	2945.142900
790.243759	2934.748041
790.566395	2918.248344
790.888984	2896.911661
791.211529	2882.803992
791.534027	2875.111191
791.856480	2863.221629
792.178888	2853.361132
792.501249	2845.456603
792.823566	2841.358145
793.145836	2836.816066
793.468062	2835.359172
793.790241	2833.400684
794.112375	2836.803463
794.434464	2847.785616
794.756507	2852.393231
795.078505	2857.192409
795.400457	2871.549616
795.722364	2906.174781
796.044226	2923.256731
796.366042	2926.873758
796.687812	2918.092068
797.009538	2935.841971
797.331218	2924.300249
797.652852	2908.755852
797.974442	2892.656927
798.295986	2891.328583
798.617484	2888.082080
798.938938	2873.291334
799.260346	2858.866072
799.581709	2852.993128
799.903026	2847.762931
800.224299	2841.910152
800.545526	2829.861794
800.866708	2821.133036
801.187845	2808.958649
801.508936	2808.835141
801.829983	2817.997438
802.150984	2806.387661
802.471940	2793.933490
802.792851	2794.203192
803.113717	2794.004067
803.434538	2797.086732
803.755314	2792.103552
804.076045	2785.834877
804.396731	2786.107099
804.717372	2788.529373
805.037967	2783.072324
805.358518	2789.313273
805.679024	2799.685447
805.999485	2797.197637
806.319901	2797.726959
806.640272	2789.162038
806.960598	2797.306022
807.280879	2805.414718
807.601115	2812.361428
807.921306	2797.212761
808.241453	2796.577576
808.561554	2802.816003
808.881611	2797.643780
809.201623	2797.583286
809.521590	2795.541618
809.841513	2792.476597
810.161390	2795.760909
810.481223	2792.519447
810.801011	2781.328085
811.120755	2780.148455
811.440453	2778.749535
811.760107	2779.621655
812.079716	2776.299534
812.399281	2768.465581
812.718801	2764.321753
813.038276	2757.415372
813.357707	2761.775970
813.677093	2769.002464
813.996434	2765.473656
814.315731	2760.056937
814.634983	2756.618870
814.954191	2756.379415
815.273354	2768.949532
815.592473	2775.566046
815.911547	2779.604011
816.230577	2783.747839
816.549562	2791.049950
816.868502	2790.984415
817.187399	2800.116466
817.506250	2811.388486
817.825058	2809.845892
818.143821	2819.557675
818.462539	2833.937567
818.781213	2853.643437
819.099843	2889.077708
819.418429	2937.162753
819.736970	2993.245590
820.055466	3058.624314
820.373919	3146.496667
820.692327	3265.702311
821.010691	3421.257196
821.329011	3824.768793
821.647286	4652.664887
821.965517	5923.935502
822.283704	6631.426156
822.601847	6606.006138
822.919945	5974.321835
823.237999	5463.070697
823.556010	4945.959218
823.873976	4445.090336
824.191897	4073.882452
824.509775	3810.978717
824.827609	3582.226279
825.145398	3469.889207
825.463144	3456.865386
825.780845	3539.172305
826.098502	3641.162409
826.416116	3887.069893
826.733685	4181.427908
827.051210	4238.987802
827.368692	4129.985453
827.686129	3878.439438
828.003522	3594.078032
828.320872	3364.385418
828.638177	3192.698842
828.955439	3078.544434
829.272656	3009.120183
829.589830	2950.577264
829.906960	2905.963052
830.224046	2866.019470
830.541088	2838.920747
830.858086	2822.907522
831.175041	2807.874801
831.491952	2810.569298
831.808819	2817.510967
832.125642	2840.712877
832.442421	2880.669063
832.759157	2950.040381
833.075849	3105.350769
833.392497	3358.262937
833.709101	3533.049823
834.025662	3482.237513
834.342179	3341.077644
834.658653	3183.186185
834.975083	3055.947462
835.291469	2971.447641
835.607811	2898.166908
835.924110	2850.404496
836.240366	2804.434214
836.556578	2767.840478
836.872746	2748.681573
837.188871	2731.944942
837.504952	2719.218549
837.820990	2711.165306
838.136984	2700.092412
838.452935	2691.003211
838.768842	2694.489169
839.084706	2707.971735
839.400526	2774.905655
839.716303	2893.276989
840.032037	2966.479584
840.347727	2948.822942
840.663373	2891.096690
840.978977	2821.664878
841.294537	2763.343769
841.610054	2722.467573
841.925527	2702.940663
842.240957	2685.394927
842.556344	2669.565704
842.871687	2655.110196
843.186987	2645.925213
843.502244	2642.666107
843.817458	2638.910448
844.132629	2629.327214
844.447756	2621.808333
844.762840	2612.265429
845.077881	2617.898919
845.392879	2615.804319
845.707833	2612.759462
846.022745	2602.409973
846.337613	2608.552619
846.652438	2608.550099
846.967221	2605.845520
847.281960	2607.972887
847.596656	2605.008688
847.911309	2605.457351
848.225919	2603.110694
848.540485	2598.974427
848.855009	2599.702874
849.169490	2597.290682
849.483928	2599.647421
849.798323	2600.524582
850.112675	2597.885538
850.426984	2598.311515
850.741251	2596.358068
851.055474	2597.421752
851.369654	2597.658686
851.683792	2600.219592
851.997887	2596.093408
852.311938	2598.482915
852.625947	2596.758840
852.939914	2598.863522
853.253837	2599.271855
853.567718	2598.498038
853.881555	2596.040476
854.195350	2598.583738
854.509103	2600.663214
854.822812	2594.152563
855.136479	2594.623911
855.450103	2599.763368
855.763685	2597.910744
856.077224	2595.012080
856.390720	2595.586772
856.704173	2596.340424
857.017584	2600.272524
857.330953	2601.769747
857.644278	2603.486260
857.957561	2602.989706
858.270802	2598.626588
858.584000	2596.945363
858.897155	2600.088522
859.210268	2601.696650
859.523339	2599.231526
859.836367	2595.521237
860.149352	2596.347986
860.462295	2595.135588
860.775195	2593.451843
861.088054	2592.032758
861.400869	2591.740371
861.713642	2588.261975
862.026373	2592.940166
862.339062	2593.227512
862.651708	2598.747575
862.964312	2598.034252
863.276873	2599.977617
863.589392	2599.019798
863.901869	2606.586569
864.214303	2606.213524
864.526696	2610.135542
864.839045	2611.378186
865.151353	2613.059411
865.463619	2610.392641
865.775842	2611.083279
866.088023	2611.085799
866.400162	2612.323402
866.712258	2613.485388
867.024313	2610.869030
867.336325	2606.515993
867.648296	2610.155706
867.960224	2611.897425
868.272110	2612.701489
868.583954	2607.221755
868.895755	2610.899277
869.207515	2612.663680
869.519233	2616.000924
869.830909	2612.262909
870.142542	2610.369955
870.454134	2612.804833
870.765684	2615.958074
871.077191	2615.849690
871.388657	2621.021913
871.700081	2620.485031
872.011463	2617.538476
872.322803	2619.181892
872.634101	2621.296656
872.945357	2630.471556
873.256571	2633.231588
873.567744	2631.031124
873.878874	2629.143212
874.189963	2631.633542
874.501010	2632.407359
874.812015	2638.066055
875.122979	2639.492701
875.433900	2629.420476
875.744780	2629.435599
876.055618	2634.696043
876.366415	2638.325674
876.677169	2637.534213
876.987882	2633.917185
877.298554	2630.065743
877.609183	2636.049593
877.919771	2644.211221
878.230317	2647.059473
878.540822	2658.482728
878.851285	2669.396826
879.161707	2682.861748
879.472087	2715.422560
879.782425	2752.538056
880.092722	2843.856037
880.402977	3005.183042
880.713191	3240.415884
881.023363	3510.140300
881.333494	3692.423382
881.643583	3846.314685
881.953631	3828.469000
882.263637	3658.342661
882.573602	3460.812609
882.883526	3339.353569
883.193408	3236.670306
883.503248	3147.431801
883.813048	3046.638971
884.122806	2955.010959
884.432522	2883.255175
884.742197	2830.950683
885.051831	2797.255611
885.361424	2769.045314
885.670975	2743.955491
885.980485	2717.338199
886.289954	2702.986034
886.599382	2692.286185
886.908768	2685.457942
887.218113	2670.621826
887.527417	2660.509272
887.836680	2654.248158
888.145901	2649.423774
888.455082	2639.585962
888.764221	2633.065230
889.073319	2626.867131
889.382376	2626.320166
889.691392	2625.248921
890.000366	2627.933335
890.309300	2628.046761
890.618193	2627.736730
890.927044	2627.645990
891.235855	2630.796711
891.544625	2628.752523
891.853353	2632.845940
892.162041	2638.628143
892.470687	2651.818322
892.779293	2660.060609
893.087858	2670.334480
893.396381	2690.073118
893.704864	2723.301884
894.013306	2781.330606
894.321707	2853.845083
894.630068	2900.992475
894.938387	2912.733322
895.246665	2899.059192
895.554903	2862.508306
895.863100	2822.610094
896.171256	2778.988990
896.479371	2734.031980
896.787446	2701.647607
897.095480	2689.488344
897.403473	2682.839062
897.711425	2668.807011
898.019336	2655.556338
898.327207	2646.482261
898.635038	2645.579894
898.942827	2641.723412
899.250576	2635.235447
899.558284	2627.260341
899.865952	2628.520630
900.173579	2623.847480
900.481165	2621.863786
900.788711	2610.193515
901.096216	2610.228803
901.403681	2608.797115
901.711105	2608.655963
902.018489	2603.640015
902.325832	2609.825511
902.633135	2609.439862
902.940397	2622.756070
903.247619	2650.600884
903.554800	2707.916282
903.861941	2810.508804
904.169041	2923.082811
904.476101	2972.856643
904.783121	2965.988071
905.090100	2913.877664
905.397039	2844.327385
905.703938	2786.023920
906.010796	2731.705487
906.317614	2694.521937
906.624391	2667.471105
906.931129	2646.373876
907.237826	2628.404683
907.544483	2613.296345
907.851099	2604.998606
908.157675	2597.948552
908.464211	2591.309353
908.770707	2583.440112
909.077163	2580.254102
909.383578	2573.481312
909.689954	2575.223031
909.996289	2571.495098
910.302584	2574.378637
910.608839	2570.227247
910.915054	2571.832855
911.221229	2573.677917
911.527363	2575.349060
911.833458	2573.851837
912.139513	2573.680438
912.445527	2574.945767
912.751502	2578.313258
913.057436	2583.775348
913.363331	2591.863880
913.669186	2598.775302
913.975000	2608.386261
914.280775	2620.681636
914.586510	2641.083185
914.892205	2671.032680
915.197859	2723.299363
915.503475	2790.387039
915.809050	2843.971983
916.114585	2862.853625
916.420081	2869.989378
916.725536	2874.488608
917.030952	2849.839887
917.336328	2813.059628
917.641665	2775.835748
917.946961	2731.312277
918.252218	2704.654656
918.557435	2685.778055
918.862612	2668.517144
919.167750	2654.268323
919.472848	2640.879018
919.777906	2627.235136
920.082925	2617.472941
920.387904	2608.222424
920.692843	2605.021291
920.997743	2602.775457
921.302603	2598.893769
921.607423	2592.453695
921.912204	2588.556883
922.216946	2583.263671
922.521647	2584.153435
922.826310	2579.628999
923.130932	2577.761252
923.435516	2572.049624
923.740059	2573.546847
924.044564	2570.207083
924.349028	2569.035014
924.653454	2562.105948
924.957840	2561.511092
925.262186	2557.672254
925.566493	2557.374826
925.870761	2555.557490
926.174989	2558.519167
926.479178	2556.439692
926.783328	2555.542366
927.087438	2554.574465
927.391509	2554.234187
927.695541	2553.830894
927.999533	2548.779658
928.303486	2548.010882
928.607400	2552.021120
928.911275	2550.523898
929.215110	2550.362581
929.518906	2552.265616
929.822663	2549.828218
930.126381	2548.923331
930.430060	2551.133877
930.733699	2551.154042
931.037299	2549.825698
931.340861	2550.246634
931.644383	2550.617159
931.947866	2550.889381
932.251309	2550.201264
932.554714	2548.620862
932.858080	2551.695966
933.161407	2549.455173
933.464694	2548.439380
933.767943	2548.961140
934.071153	2550.357539
934.374323	2546.385110
934.677455	2551.038095
934.980548	2545.986859
935.283602	2551.191850
935.586617	2546.911911
935.889593	2548.255378
936.192530	2546.627086
936.495428	2547.027857
936.798287	2547.025337
937.101108	2549.888712
937.403890	2552.421892
937.706632	2554.856769
938.009336	2555.643189
938.312002	2561.564024
938.614628	2561.022100
938.917216	2565.286917
939.219765	2565.589386
939.522275	2565.065106
939.824747	2564.369427
940.127179	2559.902964
940.429573	2557.667212
940.731929	2559.419013
941.034246	2554.304763
941.336524	2556.525391
941.638763	2555.764177
941.940964	2557.465566
942.243126	2555.655792
942.545250	2557.221070
942.847335	2552.681511
943.149381	2554.957592
943.451389	2552.079093
943.753359	2553.435164
944.055290	2551.559855
944.357182	2549.954247
944.659036	2548.593136
944.960851	2550.196222
945.262628	2551.514484
945.564367	2551.055739
945.866067	2548.230172
946.167729	2548.328475
946.469352	2551.373332
946.770937	2550.773435
947.072484	2550.065152
947.373992	2549.845862
947.675462	2548.920811
947.976893	2548.552806
948.278286	2546.211190
948.579641	2549.644216
948.880958	2547.393341
949.182236	2548.020965
949.483476	2548.041129
949.784678	2545.250851
950.085841	2546.735470
950.386967	2545.402085
950.688054	2546.921993
950.989103	2550.236552
951.290114	2549.949206
951.591087	2550.216387
951.892021	2549.314021
952.192917	2552.973898
952.493776	2552.371480
952.794596	2555.476831
953.095378	2553.672098
953.396122	2555.116389
953.696828	2552.621017
953.997496	2550.208825
954.298126	2549.868548
954.598718	2547.431150
954.899272	2548.499874
955.199788	2545.916283
955.500266	2545.626417
955.800706	2544.184647
956.101108	2542.193391
956.401472	2543.579708
956.701798	2537.883204
957.002087	2541.631302
957.302337	2540.991076
957.602550	2539.292207
957.902724	2539.027546
958.202861	2539.917310
958.502960	2535.236598
958.803022	2541.008720
959.103045	2540.764224
959.403031	2538.742721
959.702979	2538.873791
960.002889	2540.391178
960.302762	2536.489325
960.602596	2536.648122
960.902393	2535.589479
961.202153	2538.541075
961.501875	2535.675179
961.801559	2538.059645
962.101205	2533.779705
962.400814	2535.357586
962.700385	2536.383461
962.999918	2535.428162
963.299414	2535.765920
963.598873	2535.279448
963.898293	2535.350024
964.197677	2536.373379
964.497022	2532.819365
964.796331	2537.162319
965.095601	2536.186856
965.394835	2538.513348
965.694030	2535.776002
965.993189	2534.336752
966.292309	2533.651156
966.591393	2534.213244
966.890439	2534.238450
967.189447	2534.583769
967.488419	2533.938501
967.787353	2534.787936
968.086249	2536.678368
968.385108	2534.959335
968.683930	2538.077289
968.982714	2535.649973
969.281462	2534.588810
969.580172	2534.374561
969.878844	2534.606454
970.177480	2536.673327
970.476078	2535.536547
970.774639	2537.865560
971.073162	2535.453368
971.371649	2535.365148
971.670098	2532.297606
971.968510	2534.054448
972.266885	2531.763243
972.565223	2533.023532
972.863524	2535.516383
973.161788	2537.132072
973.460014	2536.827083
973.758204	2536.270035
974.056356	2534.694674
974.354471	2537.479912
974.652550	2537.300951
974.950591	2538.243647
975.248595	2535.677699
975.546563	2536.663245
975.844493	2534.906403
976.142386	2533.000847
976.440243	2534.697195
976.738062	2534.982020
977.035845	2534.487987
977.333590	2535.062679
977.631299	2534.031763
977.928971	2534.621578
978.226606	2534.210724
978.524204	2535.546629
978.821765	2534.563604
979.119290	2532.519417
979.416777	2534.253573
979.714228	2533.331042
980.011642	2534.321629
980.309020	2535.229037
980.606360	2532.350538
980.903664	2534.533358
981.200931	2534.261135
981.498162	2534.510672
981.795356	2536.428831
982.092513	2542.942002
982.389633	2538.684748
982.686717	2543.438556
982.983764	2545.591128
983.280775	2546.483413
983.577749	2546.735470
983.874686	2546.158258
984.171587	2545.331509
984.468451	2540.113915
984.765279	2539.098122
985.062070	2536.892617
985.358824	2536.156609
985.655543	2536.746424
985.952224	2532.481608
986.248869	2533.671320
986.545478	2532.148892
986.842050	2534.467823
987.138586	2529.663603
987.435086	2534.651825
987.731549	2529.061185
988.027975	2531.997657
988.324366	2535.574356
988.620719	2533.497400
988.917037	2533.371372
989.213318	2532.405991
989.509563	2532.678213
989.805772	2530.855836
990.101944	2532.756351
990.398080	2531.337266
990.694180	2531.060002
990.990244	2534.200641
991.286271	2531.518747
991.582262	2531.617050
991.878217	2532.630322
992.174136	2530.006401
992.470019	2531.264169
992.765865	2533.169725
993.061676	2533.502442
993.357450	2532.227030
993.653188	2533.643594
993.948890	2528.736031
994.244556	2533.015970
994.540186	2534.737524
994.835780	2533.265507
995.131337	2535.307175
995.426859	2535.017308
995.722345	2533.565456
996.017795	2535.672658
996.313208	2534.228368
996.608586	2535.087884
996.903928	2534.646783
997.199234	2535.929757
997.494504	2537.517721
997.789738	2535.387833
998.084936	2537.820190
998.380099	2531.044879
998.675225	2532.136289
998.970316	2533.673841
999.265371	2534.656866
999.560390	2532.239632
999.855373	2532.756351
1000.150320	2530.361803
1000.445232	2530.611340
1000.740108	2531.579241
1001.034948	2532.589993
1001.329752	2532.506814
1001.624521	2533.106711
1001.919254	2527.687471
1002.213951	2529.552697
1002.508613	2529.618232
1002.803239	2530.223171
1003.097829	2526.782583
1003.392384	2532.350538
1003.686903	2529.577903
1003.981386	2534.480425
1004.275834	2530.145033
1004.570246	2534.036804
1004.864623	2528.920033
1005.158964	2530.906247
1005.453270	2529.643438
1005.747540	2530.308871
1006.041775	2530.500434
1006.335974	2528.899868
1006.630138	2531.364992
1006.924266	2529.504807
1007.218359	2531.029756
1007.512416	2529.681247
1007.806438	2529.872811
1008.100425	2531.334745
1008.394376	2530.233253
1008.688292	2530.240815
1008.982172	2528.426000
1009.276017	2527.100176
1009.569827	2530.036648
1009.863602	2532.716022
1010.157341	2529.459436
1010.451045	2530.513037
1010.744714	2530.097142
1011.038347	2528.620084
1011.331945	2528.864580
1011.625508	2530.220650
1011.919036	2528.746113
1012.212528	2529.648479
1012.505986	2531.286854
1012.799408	2528.423479
1013.092795	2529.154446
1013.386147	2529.749302
1013.679464	2529.749302
1013.972745	2528.723428
1014.265992	2532.484128
1014.559204	2530.712163
1014.852380	2530.621422
1015.145521	2529.167049
1015.438628	2529.923222
1015.731699	2529.754344
1016.024736	2528.141174
1016.317737	2531.349869
1016.610703	2528.274765
1016.903635	2526.341483
1017.196531	2523.987264
1017.489393	2525.827285
1017.782219	2524.841739
1018.075011	2526.911133
1018.367768	2529.121679
1018.660490	2530.818027
1018.953177	2530.818027
1019.245829	2530.818027
