Dividing Wavelength (nm)	Counts (n)	Blue Motor Position (mm): 0.000000	Red Motor Position (mm): 44.800000	
326.493990	2129.620319
326.888308	2129.620319
327.282561	2129.620319
327.676750	2095.917685
328.070874	2094.586820
328.464933	2096.504979
328.858929	2101.699888
329.252859	2111.613317
329.646726	2124.080091
330.040528	2139.233799
330.434265	2151.977836
330.827938	2171.643377
331.221547	2189.564679
331.615091	2209.525128
332.008571	2226.796121
332.401986	2247.273288
332.795338	2264.680392
333.188625	2287.713424
333.581847	2304.346711
333.975006	2323.349341
334.368100	2341.303410
334.761129	2361.793180
335.154095	2376.296579
335.546996	2398.046638
335.939833	2421.452715
336.332606	2435.056269
336.725315	2446.892898
337.117960	2456.997891
337.510540	2465.346042
337.903056	2477.301138
338.295508	2483.257261
338.687896	2491.865031
339.080220	2504.586383
339.472480	2508.871364
339.864676	2514.255316
340.256807	2518.820081
340.648875	2521.098683
341.040879	2522.369053
341.432818	2522.769825
341.824694	2526.167563
342.216506	2526.926256
342.608253	2524.952645
342.999937	2525.978519
343.391557	2525.797038
343.783113	2524.090607
344.174605	2524.720752
344.566033	2525.101359
344.957397	2519.054495
345.348697	2521.486851
345.739934	2517.446367
346.131106	2518.240348
346.522215	2513.151303
346.913260	2513.806653
347.304241	2511.258350
347.695159	2509.509070
348.086012	2506.018071
348.476802	2504.936743
348.867528	2505.692916
349.258191	2499.386433
349.648789	2504.987155
350.039324	2498.695795
350.429796	2500.485404
350.820203	2494.458705
351.210548	2498.703357
351.600828	2495.182111
351.991045	2496.964158
352.381198	2495.648417
352.771288	2494.425937
353.161314	2494.660351
353.551276	2496.127327
353.941175	2494.173880
354.331010	2492.727069
354.720782	2492.303612
355.110490	2499.981289
355.500135	2496.449961
355.889717	2492.991729
356.279235	2496.432317
356.668689	2497.997595
357.058080	2496.797800
357.447408	2494.609940
357.836672	2495.978613
358.225873	2493.198417
358.615010	2492.159939
359.004084	2497.639673
359.393095	2498.453819
359.782043	2503.419356
360.170927	2500.906341
360.559748	2502.015395
360.948505	2500.336690
361.337199	2502.368275
361.725830	2503.880622
362.114398	2504.359531
362.502903	2505.221568
362.891344	2505.380365
363.279722	2504.422546
363.668037	2506.098729
364.056289	2506.227279
364.444478	2509.080572
364.832603	2506.557474
365.220665	2507.999244
365.608665	2509.476302
365.996601	2514.429236
366.384474	2511.767507
366.772284	2513.166427
367.160031	2514.532580
367.547715	2514.993845
367.935336	2517.408558
368.322893	2521.653209
368.710388	2522.890813
369.097820	2533.434386
369.485189	2532.713501
369.872495	2540.131559
370.259738	2544.033412
370.646918	2557.432799
371.034035	2561.853891
371.421090	2570.980900
371.808081	2582.162179
372.195010	2589.308015
372.581875	2607.743514
372.968678	2618.062756
373.355418	2627.414097
373.742096	2647.278763
374.128710	2658.359219
374.515262	2674.748011
374.901751	2691.429189
375.288177	2704.599203
375.674540	2725.124261
376.060841	2742.266705
376.447079	2762.529622
376.833254	2783.097530
377.219367	2796.406176
377.605417	2834.660972
377.991404	2843.498115
378.377329	2864.761702
378.763191	2883.305586
379.148991	2918.628951
379.534727	2946.413271
379.920402	2973.910244
380.306013	2987.702841
380.691563	3034.457023
381.077049	3058.954510
381.462474	3076.714495
381.847835	3115.206225
382.233134	3134.556694
382.618371	3136.003505
383.003545	3205.173177
383.388657	3211.124259
383.773706	3244.731111
384.158693	3258.601846
384.543618	3285.004889
384.928480	3321.457473
385.313280	3367.984802
385.698017	3361.937938
386.082692	3419.729726
386.467305	3425.022938
386.851856	3457.906384
387.236344	3481.504025
387.620770	3509.668952
388.005133	3536.001419
388.389435	3566.777663
388.773674	3574.122624
389.157851	3617.305148
389.541965	3632.524392
389.926018	3597.543825
390.310008	3669.561749
390.693936	3689.796940
391.077802	3727.570306
391.461606	3716.240313
391.845348	3781.664408
392.229027	3779.957977
392.612645	3790.995583
392.996200	3868.377295
393.379694	3908.018408
393.763125	3976.860405
394.146494	3942.474695
394.529801	4005.857122
394.913047	4051.749266
395.296230	4016.912372
395.679351	4076.745827
396.062410	4097.006225
396.445408	4077.565015
396.828343	4112.802680
397.211217	4134.852687
397.594028	4056.939134
397.976778	4121.017240
398.359466	4149.998834
398.742092	4174.085467
399.124656	4101.013942
399.507158	4180.734749
399.889598	4206.905899
400.271977	4268.720528
400.654294	4239.474273
401.036549	4244.535592
401.418742	4215.790933
401.800874	4319.946212
402.182944	4336.771063
402.564952	4404.171290
402.946898	4387.779978
403.328783	4387.248137
403.710606	4299.842091
404.092367	4494.279395
404.474067	4453.730874
404.855705	4463.399807
405.237282	4394.885485
405.618797	4505.024614
406.000250	4539.969893
406.381642	4621.591214
406.762972	4579.351386
407.144240	4587.132407
407.525447	4588.705247
407.906593	4648.392509
408.287677	4688.588149
408.668700	4618.813539
409.049661	4673.230274
409.430560	4711.626222
409.811399	4640.697187
410.192176	4803.493689
410.572891	4742.180656
410.953545	4845.761244
411.334138	4725.370928
411.714669	4790.754693
412.095139	4688.230227
412.475547	4827.948327
412.855894	4804.174245
413.236180	4814.627077
413.616405	4771.973875
413.996568	4862.893605
414.376670	4801.623421
414.756711	4754.801184
415.136691	4787.659425
415.516609	4869.621025
415.896466	4901.748298
416.276262	4936.970840
416.655997	4918.555505
417.035670	5100.495789
417.415283	5187.780847
417.794834	5137.192868
418.174324	5084.991720
418.553753	4995.158358
418.933121	5180.521585
419.312428	5248.088170
419.691674	5186.767575
420.070859	5312.662831
420.449983	5224.535900
420.829045	5343.113920
421.208047	5245.260083
421.586988	5318.528213
421.965867	5329.228062
422.344686	5462.800995
422.723444	5313.706349
423.102141	5136.076253
423.480777	5430.754380
423.859352	5205.477818
424.237866	5465.434998
424.616319	5450.099808
424.994712	5561.249688
425.373044	5441.683602
425.751314	5581.663841
426.129524	5383.480960
426.507673	5579.929684
426.885762	5662.954967
427.263789	5591.612558
427.641756	5477.495958
428.019662	5599.759063
428.397508	5605.568992
428.775292	5547.426845
429.153016	5652.822248
429.530679	5573.451801
429.908282	5664.447149
430.285824	5537.795720
430.663305	5804.203057
431.040726	5544.611360
431.418086	5541.261513
431.795385	5647.513913
432.172624	5660.928423
432.549802	5654.445500
432.926920	5666.980329
433.303977	5672.676832
433.680974	5714.064706
434.057910	5728.006017
434.434786	5738.413479
434.811601	5703.044743
435.188355	5939.994098
435.565050	5808.193130
435.941683	5795.000431
436.318257	6010.159397
436.694770	5992.764896
437.071222	6027.450555
437.447614	5957.701150
437.823946	5873.997832
438.200218	6023.694895
438.576429	5889.945522
438.952580	5988.726932
439.328670	6033.840218
439.704700	5944.969716
440.080670	5928.664104
440.456580	6194.698396
440.832429	6082.600778
441.208218	5930.637716
441.583947	6082.633546
441.959616	6089.484474
442.335224	6014.577969
442.710773	6150.293392
443.086261	6178.720458
443.461689	5969.363860
443.837057	6123.464371
444.212365	6275.061950
444.587612	6170.490775
444.962800	6322.479043
445.337927	6304.030940
445.712995	5918.566673
446.088002	6487.821327
446.462949	6323.441903
446.837837	6253.226192
447.212664	6426.102481
447.587431	6566.720426
447.962139	7108.697397
448.336786	8031.785598
448.711374	7777.829911
449.085901	6856.858994
449.460369	6772.303721
449.834776	6706.004986
450.209124	7100.573577
450.583412	7249.844663
450.957640	7396.469143
451.331808	7161.526168
451.705917	6712.618980
452.079965	6634.365149
452.453954	6850.423962
452.827883	6722.958387
453.201752	6816.436502
453.575562	6615.710359
453.949311	6820.688716
454.323001	6710.000101
454.696632	6785.687984
455.070202	6921.264776
455.443713	7075.929897
455.817164	7180.556524
456.190556	7258.714573
456.563888	7339.577202
456.937160	7376.420474
457.310373	7034.524379
457.683526	7060.604789
458.056619	6946.941893
458.429653	6937.620800
458.802628	6873.540173
459.175542	6985.166442
459.548398	7337.812798
459.921194	7494.885069
460.293930	7502.262798
460.666607	8033.892800
461.039224	8331.993871
461.411782	8468.528482
461.784280	8484.183785
462.156719	8369.779840
462.529099	8254.922191
462.901419	7843.904315
463.273680	7735.625371
463.645882	7744.772545
464.018024	7613.493337
464.390106	7783.113040
464.762130	8167.042276
465.134094	8635.476374
465.505999	9659.107868
465.877845	10885.267718
466.249631	11532.090606
466.621358	11153.101701
466.993026	10519.332881
467.364634	10262.113047
467.736184	9894.539835
468.107674	9566.766532
468.479105	9594.545811
468.850477	9358.783648
469.221790	9135.210996
469.593043	8805.138927
469.964238	8664.473091
470.335373	8678.540431
470.706449	8736.009584
471.077467	8718.960402
471.448425	10028.032109
471.819324	11098.130439
472.190164	11127.081786
472.560945	9874.581907
472.931667	9090.190971
473.302330	8951.546638
473.672934	8603.313812
474.043479	8957.550652
474.413965	8891.796362
474.784393	8777.891491
475.154761	8931.021580
475.525070	9018.336885
475.895321	8847.020833
476.265513	9023.095734
476.635645	9190.449439
477.005719	9190.399028
477.375734	9305.564187
477.745691	9545.986896
478.115588	9675.242081
478.485427	9921.441953
478.855207	10460.999169
479.224928	11273.872624
479.594591	11907.800241
479.964194	11714.177083
480.333739	11648.516054
480.703226	11569.460680
481.072653	11664.325113
481.442022	11901.352605
481.811333	12083.822210
482.180584	11895.401523
482.549777	11602.581061
482.918912	11427.632857
483.287988	11448.830909
483.657005	11458.933382
484.025964	11141.050823
484.394864	11270.172417
484.763706	11241.352141
485.132489	11006.724238
485.501213	10965.898453
485.869879	11037.974350
486.238487	10884.466175
486.607036	10989.765796
486.975527	10765.194995
487.343959	10956.322782
487.712333	11009.670792
488.080648	10937.930132
488.448905	10977.803138
488.817104	10911.963148
489.185244	11182.968017
489.553326	11343.445588
489.921350	11878.453164
490.289315	12938.292745
490.657222	13283.906691
491.025070	13188.341538
491.392861	13066.721181
491.760593	12688.992564
492.128267	12328.774396
492.495883	12005.210457
492.863440	11675.700477
493.230939	11336.324958
493.598380	11264.483475
493.965763	11143.432768
494.333088	11035.715913
494.700354	10958.235899
495.067563	11022.016578
495.434713	10854.884684
495.801805	10984.691875
496.168839	10906.501058
496.535815	10835.098155
496.902733	10835.541777
497.269593	10769.207754
497.636395	10872.506037
498.003139	10852.858140
498.369825	10724.580939
498.736453	10891.533872
499.103023	10806.822323
499.469535	10841.591161
499.835989	10834.843577
500.202385	10785.231061
500.568723	10640.161777
500.935003	10867.890861
501.301226	10668.132619
501.667390	10920.888511
502.033497	11027.521518
502.399546	10882.232943
502.765537	10788.409509
503.131470	10868.072342
503.497345	11038.574248
503.863163	10654.645012
504.228923	10962.349481
504.594625	11026.409943
504.960269	10771.098186
505.325856	10993.735705
505.691385	10785.208376
506.056856	10945.751482
506.422270	10972.366254
506.787625	10862.075890
507.152924	10969.439864
507.518164	10952.849427
507.883347	10879.094825
508.248472	10794.950406
508.613540	11024.252330
508.978550	10916.207800
509.343503	10888.602441
509.708398	11003.160142
510.073236	11113.589137
510.438016	11115.711463
510.802738	11068.289329
511.167403	11121.624737
511.532010	11023.244099
511.896561	11249.478481
512.261053	11317.740745
512.625488	11195.086951
512.989866	11175.060967
513.354186	11158.750314
513.718449	11064.886550
514.082655	11257.498956
514.446803	11158.946919
514.810894	11272.927408
515.174927	11141.706173
515.538904	11161.964050
515.902822	11313.695219
516.266684	11200.622138
516.630488	11146.938891
516.994235	11206.046420
517.357925	11262.005748
517.721558	11358.606858
518.085133	11372.671678
518.448651	11381.413038
518.812112	11265.610173
519.175516	11275.039651
519.538863	11398.379042
519.902152	11311.507358
520.265385	11479.957514
520.628560	11387.522917
520.991678	11365.563651
521.354739	11421.573391
521.717743	11361.946623
522.080690	11342.243273
522.443580	11475.864097
522.806413	11428.419278
523.169189	11455.762496
523.531908	11520.445541
523.894569	11328.213742
524.257174	11340.741009
524.619722	11463.016716
524.982213	11404.829198
525.344647	11459.462703
525.707025	11408.569734
526.069345	11503.323262
526.431608	11421.084399
526.793815	11530.991635
527.155964	11320.188225
527.518057	11372.170083
527.880093	11319.172432
528.242072	11394.580532
528.603995	11298.811212
528.965860	11213.870290
529.327669	11267.354412
529.689421	11223.531662
530.051117	11187.439521
530.412755	11285.961311
530.774337	11184.777792
531.135862	11165.008907
531.497331	11191.232989
531.858743	11044.157326
532.220098	11209.764271
532.581396	11071.387118
532.942638	11058.990921
533.303824	11019.012050
533.664953	11033.570902
534.026025	10953.167019
534.387040	11047.855012
534.747999	11047.166894
535.108902	11107.078487
535.469748	10866.751560
535.830537	10966.889040
536.191270	10941.244690
536.551947	10970.216202
536.912567	10966.891561
537.273131	10892.615200
537.633638	10873.300019
537.994089	10866.786848
538.354483	10811.676954
538.714821	10955.286824
539.075103	10962.384769
539.435328	10931.389235
539.795497	10755.702503
540.155609	10910.881821
540.515665	11000.566468
540.875665	10744.067519
541.235609	10800.586416
541.595496	10800.946858
541.955328	10952.562081
542.315102	10840.645945
542.674821	10789.884046
543.034483	10791.441763
543.394090	10800.727568
543.753640	10722.274611
544.113134	10943.215782
544.472571	10794.990735
544.831953	10939.462643
545.191278	10754.185115
545.550548	10776.555235
545.909761	10916.606051
546.268918	10888.632688
546.628019	10967.531787
546.987064	10834.460449
547.346053	10755.458007
547.704986	10858.645385
548.063863	10845.530823
548.422684	10831.723102
548.781449	10749.932902
549.140158	10853.019457
549.498811	10732.016641
549.857408	10581.016439
550.215949	10814.961266
550.574434	10668.682105
550.932864	10768.988463
551.291237	10827.644809
551.649555	10766.470407
552.007817	10784.873139
552.366022	10749.665721
552.724173	10734.144008
553.082267	10725.309386
553.440305	10864.069666
553.798288	10664.142546
554.156215	10814.121914
554.514086	10791.222473
554.871902	10645.807869
555.229661	10671.676550
555.587365	10659.108954
555.945014	10553.322861
556.302606	10675.522951
556.660143	10568.118647
557.017625	10728.107226
557.375050	10621.234765
557.732421	10755.268963
558.089735	10665.748153
558.446994	10665.037351
558.804197	10704.191993
559.161345	10708.913033
559.518437	10556.816380
559.875474	10644.839968
560.232455	10678.391367
560.589381	10626.664088
560.946251	10622.192584
561.303065	10727.298121
561.659825	10664.243369
562.016528	10593.175702
562.373177	10476.886366
562.729770	10583.181615
563.086307	10504.809317
563.442789	10602.257341
563.799216	10473.299585
564.155587	10527.078614
564.511904	10475.555501
564.868164	10466.748605
565.224370	10483.916255
565.580520	10402.882227
565.936615	10413.294730
566.292654	10283.777406
566.648638	10416.863867
567.004567	10369.953410
567.360441	10347.797539
567.716260	10258.801009
568.072023	10355.475216
568.427732	10305.310694
568.783385	10218.955729
569.138982	10292.370052
569.494525	10307.710284
569.850013	10180.302682
570.205445	10263.393500
570.560823	10162.169652
570.916145	10068.056350
571.271412	10150.552313
571.626625	10093.685577
571.981782	10062.523684
572.336884	10040.932422
572.691931	10042.621209
573.046923	9996.991205
573.401860	9960.815885
573.756743	9888.331654
574.111570	9934.309498
574.466342	9924.895143
574.821059	9945.745355
575.175722	9839.422379
575.530330	9843.420014
575.884882	9834.318211
576.239380	9759.225183
576.593823	9746.985262
576.948211	9760.026727
577.302544	9638.807142
577.656823	9655.773145
578.011047	9659.107868
578.365216	9628.621490
578.719330	9551.464110
579.073389	9562.791583
579.427394	9510.066155
579.781344	9490.231735
580.135239	9432.840719
580.489080	9443.338922
580.842866	9345.354014
581.196597	9352.018420
581.550273	9392.022496
581.903895	9359.875058
582.257463	9424.358977
582.610975	9299.981109
582.964434	9329.645779
583.317837	9250.245085
583.671186	9239.933405
584.024481	9229.644410
584.377721	9148.945619
584.730906	9128.143298
585.084037	9159.423658
585.437113	9096.089121
585.790135	9110.519424
586.143103	9007.470678
586.496016	8983.242892
586.848874	9046.547182
587.201679	9025.633955
587.554428	8922.688552
587.907124	8963.700860
588.259765	8934.827651
588.612352	8942.427190
588.964884	8817.157038
589.317362	8827.239346
589.669786	8834.075150
590.022155	8880.063076
590.374470	8900.091580
590.726731	8836.106735
591.078937	8684.736009
591.431090	8797.022669
591.783188	8677.186881
592.135232	8665.241867
592.487222	8660.795569
592.839157	8718.224394
593.191038	8648.517839
593.542866	8593.120599
593.894639	8492.869693
594.246358	8544.302065
594.598022	8563.463491
594.949633	8450.970143
595.301190	8428.668078
595.652692	8456.848128
596.004141	8569.654028
596.355535	8349.227056
596.706876	8327.756781
597.058162	8258.156091
597.409395	8334.824479
597.760573	8400.687154
598.111698	8307.955129
598.462768	8292.052809
598.813785	8257.110051
599.164748	8226.762305
599.515657	8218.666212
599.866511	8129.500803
600.217312	8254.899505
600.568060	8105.814942
600.918753	8219.618990
601.269392	8179.446035
601.619978	8099.939477
601.970510	8163.715115
602.320988	8158.043817
602.671412	8211.432156
603.021783	8154.192375
603.372100	8124.721790
603.722363	8129.198334
604.072572	8104.206814
604.422728	8115.584698
604.772830	8045.449645
605.122878	8055.562200
605.472872	8047.324955
605.822813	8074.882422
606.172701	8018.315635
606.522534	8096.330011
606.872314	8100.171370
607.222041	8066.498983
607.571714	8119.834391
607.921333	8080.508350
608.270899	8085.567148
608.620411	8175.156013
608.969870	8079.490037
609.319276	8073.879232
609.668627	8087.485307
610.017926	8125.843446
610.367171	8171.213831
610.716362	8146.141652
611.065500	8136.432390
611.414585	8163.697471
611.763616	8153.670616
612.112594	8136.858367
612.461518	8148.677353
612.810389	8212.939461
613.159207	8151.150039
613.507971	8095.536029
613.856682	8211.558185
614.205340	8168.932709
614.553945	8248.066221
614.902496	8150.275398
615.250994	8201.354890
615.599439	8183.131119
615.947830	8197.155609
616.296169	8170.288779
616.644454	8181.994338
616.992686	8182.122888
617.340864	8238.132628
617.688990	8146.136611
618.037063	8235.354952
618.385082	8179.904780
618.733048	8263.386288
619.080961	8203.202473
619.428821	8221.958086
619.776628	8221.988333
620.124382	8177.308586
620.472083	8167.541350
620.819731	8190.685288
621.167326	8081.340140
621.514868	8091.233405
621.862357	7980.426322
622.209793	7995.320412
622.557176	7926.329701
622.904506	7897.484218
623.251783	7830.202458
623.599007	7785.464739
623.946179	7788.620501
624.293297	7751.633555
624.640363	7666.339753
624.987376	7651.599419
625.334336	7599.100843
625.681243	7545.047071
626.028097	7533.875874
626.374899	7508.690269
626.721647	7507.518201
627.068343	7431.048938
627.414987	7406.927017
627.761577	7361.317177
628.108115	7395.425624
628.454600	7292.228164
628.801032	7342.738005
629.147412	7301.829042
629.493739	7288.185159
629.840014	7228.437403
630.186236	7287.192051
630.532405	7171.807602
630.878521	7216.951134
631.224585	7174.741553
631.570597	7099.739266
631.916556	7129.277907
632.262462	7131.380068
632.608316	7090.425734
632.954117	7065.855151
633.299866	7046.179527
633.645562	7040.684669
633.991206	6963.887732
634.336797	6908.959319
634.682336	6860.493666
635.027823	6832.928637
635.373257	6819.756102
635.718639	6748.963179
636.063968	6766.692917
636.409245	6664.024778
636.754470	6658.131669
637.099642	6615.576768
637.444762	6564.446866
637.789829	6572.235448
638.134845	6516.308887
638.479808	6498.216186
638.824719	6500.373800
639.169577	6427.818993
639.514383	6453.067612
639.859137	6376.704214
640.203839	6386.549587
640.548489	6377.790583
640.893086	6348.118351
641.237632	6320.225647
641.582125	6341.529563
641.926566	6314.332538
642.270955	6327.046328
642.615292	6318.380585
642.959576	6337.189130
643.303809	6326.022974
643.647990	6329.304765
643.992118	6321.914433
644.336195	6262.937975
644.680219	6287.122910
645.024192	6281.060923
645.368112	6377.483072
645.711981	6393.143417
646.055797	6473.073432
646.399562	6427.632471
646.743274	6557.379168
647.086935	6607.294153
647.430544	6603.593946
647.774101	6622.999867
648.117606	6627.844416
648.461059	6619.219002
648.804460	6578.567138
649.147810	6490.420042
649.491108	6458.559950
649.834354	6433.943995
650.177548	6348.970306
650.520690	6263.517707
650.863781	6239.269757
651.206820	6257.755668
651.549807	6181.926632
651.892742	6123.822293
652.235626	6128.235823
652.578458	6112.378874
652.921238	6022.792529
653.263967	6057.616820
653.606644	5998.715978
653.949269	6001.639847
654.291843	5943.701866
654.634365	5990.014947
654.976836	5944.422751
655.319255	5943.328821
655.661622	5924.633702
656.003938	5916.013329
656.346203	5873.070260
656.688416	5905.316000
657.030577	5858.513928
657.372687	5831.619372
657.714746	5817.864584
658.056753	5852.951015
658.398708	5794.695441
658.740612	5784.270335
659.082465	5830.835473
659.424266	5826.696685
659.766016	5823.467826
660.107715	5798.234331
660.449362	5815.096990
660.790958	5804.981915
661.132503	5789.780316
661.473996	5827.220965
661.815438	5813.030117
662.156829	5815.464995
662.498168	5805.851514
662.839456	5778.780518
663.180693	5805.536442
663.521879	5809.050126
663.863013	5795.441532
664.204097	5816.523637
664.545129	5849.245767
664.886110	5847.549418
665.227040	5878.981013
665.567918	5845.245611
665.908746	5872.553541
666.249522	5863.708837
666.590248	5851.932702
666.930922	5883.051744
667.271545	5890.207662
667.612118	5891.742693
667.952639	5866.007603
668.293109	5882.421600
668.633528	5838.009035
668.973896	5843.574468
669.314213	5833.051060
669.654480	5815.369213
669.994695	5803.900588
670.334859	5791.539678
670.674973	5785.124810
671.015035	5790.276869
671.355047	5783.262104
671.695008	5767.924393
672.034918	5739.542697
672.374777	5750.910499
672.714585	5733.533642
673.054342	5732.520370
673.394049	5725.374534
673.733705	5753.420994
674.073310	5734.385597
674.412864	5700.766142
674.752368	5685.612433
675.091820	5688.317012
675.431223	5632.148476
675.770574	5624.070027
676.109875	5577.845167
676.449125	5580.017904
676.788324	5548.593872
677.127473	5491.409543
677.466571	5479.018387
677.805619	5465.883661
678.144616	5451.002174
678.483562	5432.828815
678.822458	5401.067025
679.161303	5395.572167
679.500098	5382.293768
679.838842	5364.763156
680.177535	5365.078228
680.516179	5376.975351
680.854771	5386.344335
681.193314	5462.987518
681.531805	5562.278084
681.870247	5698.951326
682.208638	5794.972704
682.546978	5804.719775
682.885268	5781.147340
683.223508	5692.400347
683.561697	5639.362367
683.899836	5613.400425
684.237925	5563.215738
684.575963	5529.293814
684.913951	5489.256970
685.251889	5540.212953
685.589776	5510.467625
685.927614	5482.892514
686.265401	5539.333272
686.603137	5526.286766
686.940824	5584.774233
687.278460	5608.013952
687.616046	5614.151557
687.953582	5669.992418
688.291068	5651.541795
688.628504	5704.166400
688.965889	5670.436040
689.303224	5616.682216
689.640510	5565.963167
689.977745	5489.088092
690.314930	5399.499226
690.652065	5349.097770
690.989150	5261.989152
691.326185	5191.009706
691.663170	5135.630110
692.000105	5062.523297
692.336990	4993.731712
692.673825	4964.397238
693.010610	4904.168052
693.347345	4841.239329
693.684030	4813.754958
694.020665	4779.664155
694.357251	4696.777503
694.693786	4705.861663
695.030272	4671.806148
695.366707	4633.720231
695.703093	4602.888534
696.039429	4621.442500
696.375716	4594.416875
696.711952	4577.019853
697.048139	4568.495262
697.384276	4543.690264
697.720363	4549.207807
698.056400	4551.894742
698.392388	4507.214995
698.728326	4488.444259
699.064214	4471.241322
699.400053	4457.557109
699.735842	4417.666459
700.071581	4399.359509
700.407270	4370.093090
700.742910	4359.426009
701.078501	4310.799039
701.414042	4298.654899
701.749533	4270.545425
702.084974	4216.433680
702.420366	4261.264661
702.755709	4209.975962
703.091002	4160.481913
703.426246	4191.540462
703.761440	4162.372346
704.096584	4130.779435
704.431679	4138.489880
704.766725	4123.489926
705.101721	4111.176908
705.436668	4131.023931
705.771565	4094.241152
706.106413	4116.502887
706.441212	4129.496461
706.775961	4136.637256
707.110661	4123.704175
707.445311	4149.842558
707.779913	4155.967560
708.114465	4168.101617
708.448967	4190.421326
708.783421	4238.818923
709.117825	4264.357409
709.452180	4271.949387
709.786485	4312.283658
710.120742	4382.143968
710.454949	4368.356413
710.789107	4418.974638
711.123216	4477.280624
711.457275	4472.133606
711.791286	4527.976988
712.125247	4531.896485
712.459159	4465.113799
712.793023	4535.773132
713.126837	4468.745950
713.460602	4459.941575
713.794318	4409.209923
714.127985	4408.196652
714.461602	4323.961491
714.795171	4311.406498
715.128691	4250.244699
715.462162	4197.426009
715.795584	4146.245695
716.128957	4128.377325
716.462281	4096.774332
716.795556	4069.045465
717.128782	4028.214639
717.461960	3969.540650
717.795088	3976.678923
718.128167	3939.490332
718.461198	3889.678690
718.794180	3887.969739
719.127113	3858.108464
719.459997	3841.303778
719.792833	3808.311947
720.125619	3800.977068
720.458357	3763.836367
720.791046	3764.088425
721.123686	3743.323912
721.456278	3709.069272
721.788821	3718.239130
722.121315	3696.259700
722.453761	3674.958304
722.786158	3677.131041
723.118506	3695.012014
723.450805	3662.945234
723.783056	3678.847554
724.115259	3682.547761
724.447412	3684.473482
724.779518	3687.019265
725.111574	3683.195549
725.443582	3704.809497
725.775542	3690.855583
726.107453	3727.535018
726.439315	3724.114595
726.771129	3743.399529
727.102895	3772.121503
727.434612	3800.576296
727.766281	3811.228254
728.097901	3817.375941
728.429473	3814.744459
728.760996	3817.413750
729.092471	3812.619613
729.423897	3797.808703
729.755276	3795.426757
730.086606	3801.309784
730.417887	3835.221626
730.749120	3878.613358
731.080305	3912.895724
731.411442	3942.830096
731.742530	3924.757559
732.073570	3924.573557
732.404562	3957.051191
732.735506	3948.876960
733.066401	3918.685490
733.397249	3871.749827
733.728048	3806.855053
734.058798	3730.206830
734.389501	3672.634332
734.720156	3634.492962
735.050762	3596.540635
735.381320	3580.161927
735.711831	3546.625651
736.042293	3519.718492
736.372707	3532.147457
736.703073	3509.558046
737.033391	3509.064013
737.363661	3513.162471
737.693883	3532.026469
738.024056	3536.558466
738.354182	3540.094836
738.684260	3582.198553
739.014290	3596.235646
739.344272	3596.825461
739.674207	3623.586426
740.004093	3629.981129
740.333931	3624.282105
740.663722	3617.184160
740.993464	3613.088223
741.323159	3598.894854
741.652806	3570.135072
741.982405	3546.673542
742.311956	3520.313348
742.641460	3516.378727
742.970915	3491.029285
743.300323	3456.759522
743.629683	3437.933333
743.958996	3422.434305
744.288260	3399.917991
744.617477	3375.118035
744.946647	3363.049513
745.275768	3338.705781
745.604842	3332.437106
745.933869	3301.978454
746.262847	3300.070378
746.591778	3316.401196
746.920662	3296.012249
747.249498	3278.988272
747.578286	3303.238743
747.907027	3314.699806
748.235720	3324.746826
748.564365	3333.921726
748.892963	3323.874706
749.221514	3313.361380
749.550017	3303.115235
749.878473	3301.681026
750.206881	3275.777057
750.535242	3267.806993
750.863555	3270.130965
751.191821	3263.552259
751.520039	3254.294180
751.848210	3241.721542
752.176334	3253.086824
752.504411	3255.493975
752.832440	3232.143350
753.160421	3225.242011
753.488356	3222.870148
753.816243	3221.866958
754.144082	3202.208979
754.471875	3191.766228
754.799620	3200.623536
755.127318	3195.214378
755.454969	3192.739171
755.782572	3192.025848
756.110129	3180.433715
756.437638	3177.078827
756.765100	3180.090916
757.092515	3181.812470
757.419882	3183.753314
757.747203	3171.757889
758.074477	3174.447344
758.401703	3181.391534
758.728882	3189.807740
759.056014	3196.678833
759.383099	3201.384750
759.710138	3199.887527
760.037129	3214.073334
760.364073	3223.901064
760.690970	3213.264229
761.017820	3203.368444
761.344623	3213.584342
761.671379	3240.141141
761.998088	3269.410080
762.324751	3357.365612
762.651366	3534.978065
762.977935	3880.995303
763.304456	4178.224254
763.630931	4213.887897
763.957359	3973.994509
764.283740	3738.189497
764.610074	3590.708020
764.936362	3448.900363
765.262602	3346.257429
765.588796	3269.029473
765.914943	3209.296841
766.241044	3156.286588
766.567097	3127.163842
766.893104	3095.205447
767.219064	3075.565112
767.544978	3056.736402
767.870845	3022.582585
768.196665	3012.475071
768.522438	3008.926099
768.848165	3001.868484
769.173846	2980.811584
769.499479	2974.621047
769.825066	2960.931794
770.150607	2948.023919
770.476101	2951.320834
770.801548	2946.047787
771.126949	2921.772111
771.452303	2912.624937
771.777611	2910.139648
772.102872	2911.152920
772.428087	2899.124727
772.753256	2889.299518
773.078378	2883.189640
773.403453	2862.946887
773.728482	2856.350537
774.053465	2861.832792
774.378401	2856.385825
774.703291	2840.012157
775.028135	2838.068792
775.352932	2831.958914
775.677683	2827.205106
776.002388	2824.503047
776.327046	2822.663026
776.651658	2817.339568
776.976224	2809.316571
777.300743	2807.408495
777.625216	2803.022691
777.949643	2799.854326
778.274024	2804.199800
778.598359	2792.975671
778.922647	2793.459622
779.246889	2791.617080
779.571086	2782.979063
779.895236	2779.495626
780.219339	2789.472069
780.543397	2793.678912
780.867409	2794.009108
781.191374	2791.107924
781.515294	2788.935186
781.839167	2791.352420
782.162995	2785.696245
782.486776	2784.987963
782.810511	2784.075514
783.134201	2774.822476
783.457844	2776.123094
783.781441	2771.636467
784.104993	2764.157915
784.428498	2763.273193
784.751958	2767.356527
785.075372	2762.446443
785.398739	2755.960999
785.722061	2760.349323
786.045337	2768.432814
786.368568	2763.454674
786.691752	2760.258583
787.014891	2782.122067
787.337983	2800.519758
787.661030	2827.787359
787.984031	2867.796477
788.306987	2894.789335
788.629897	2889.659961
788.952760	2873.674462
789.275579	2855.730475
789.598351	2823.348623
789.921078	2802.122845
790.243759	2789.703962
790.566395	2773.433638
790.888984	2763.089191
791.211529	2753.954620
791.534027	2748.038826
791.856480	2742.473392
792.178888	2734.778071
792.501249	2732.262535
792.823566	2728.050651
793.145836	2726.984447
793.468062	2723.133005
793.790241	2720.892212
794.112375	2725.451936
794.434464	2729.610888
794.756507	2732.852350
795.078505	2737.684296
795.400457	2749.435225
795.722364	2767.958945
796.044226	2782.631223
796.366042	2785.867644
796.687812	2780.231634
797.009538	2784.695576
797.331218	2775.903804
797.652852	2771.896086
797.974442	2761.029879
798.295986	2752.477562
798.617484	2752.578385
798.938938	2742.148237
799.260346	2736.207238
799.581709	2730.835888
799.903026	2727.178531
800.224299	2721.275340
800.545526	2713.985832
800.866708	2707.931406
801.187845	2705.158771
801.508936	2702.688606
801.829983	2706.320757
802.150984	2701.264480
802.471940	2692.840712
802.792851	2694.461443
803.113717	2691.401462
803.434538	2692.172759
803.755314	2688.933817
804.076045	2688.848118
804.396731	2686.836697
804.717372	2687.728982
805.037967	2687.703776
805.358518	2691.678726
805.679024	2694.824406
805.999485	2691.323324
806.319901	2694.247194
806.640272	2691.109075
806.960598	2693.193592
807.280879	2697.118131
807.601115	2699.585776
807.921306	2691.159487
808.241453	2693.584282
808.561554	2693.377595
808.881611	2694.458922
809.201623	2691.227542
809.521590	2690.617563
809.841513	2689.412727
810.161390	2687.708817
810.481223	2683.927952
810.801011	2680.111798
811.120755	2676.290604
811.440453	2676.003258
811.760107	2674.594255
812.079716	2673.747342
812.399281	2668.325581
812.718801	2665.099242
813.038276	2662.142605
813.357707	2666.218378
813.677093	2666.316681
813.996434	2664.537153
814.315731	2663.128151
814.634983	2658.843170
814.954191	2660.214364
815.273354	2665.898265
815.592473	2666.843481
815.911547	2669.626198
816.230577	2676.144410
816.549562	2679.753876
816.868502	2680.028619
817.187399	2680.386541
817.506250	2687.938190
817.825058	2683.456604
818.143821	2688.568334
818.462539	2696.392205
818.781213	2708.019626
819.099843	2725.885475
819.418429	2758.867224
819.736970	2788.794034
820.055466	2829.140909
820.373919	2869.570963
820.692327	2930.289140
821.010691	3021.022348
821.329011	3277.808642
821.647286	3847.622864
821.965517	4698.529304
822.283704	5151.416484
822.601847	5110.051296
822.919945	4675.503834
823.237999	4276.861991
823.556010	3909.918923
823.873976	3604.724949
824.191897	3388.993811
824.509775	3229.950448
824.827609	3100.622167
825.145398	3042.981614
825.463144	3037.678320
825.780845	3075.217272
826.098502	3137.122641
826.416116	3298.028710
826.733685	3477.624857
827.051210	3511.438397
827.368692	3427.057043
827.686129	3257.759973
828.003522	3095.777618
828.320872	2968.332208
828.638177	2883.308107
828.955439	2819.217397
829.272656	2778.121911
829.589830	2747.174268
829.906960	2723.440516
830.224046	2704.251363
830.541088	2690.277285
830.858086	2682.183712
831.175041	2675.032836
831.491952	2670.004285
831.808819	2677.752538
832.125642	2683.887622
832.442421	2705.257074
832.759157	2748.777355
833.075849	2835.757423
833.392497	2968.564101
833.709101	3055.340003
834.025662	3033.816796
834.342179	2952.573561
834.658653	2867.342773
834.975083	2795.730662
835.291469	2752.011255
835.607811	2712.513815
835.924110	2687.512212
836.240366	2670.155519
836.556578	2650.066521
836.872746	2641.534368
837.188871	2632.644294
837.504952	2626.660444
837.820990	2619.922942
838.136984	2615.895060
838.452935	2613.462703
838.768842	2613.848352
839.084706	2621.150463
839.400526	2656.587254
839.716303	2718.558158
840.032037	2758.035434
840.347727	2747.113774
840.663373	2714.187478
840.978977	2674.339677
841.294537	2647.316572
841.610054	2628.621453
841.925527	2614.385234
842.240957	2607.365428
842.556344	2598.891248
842.871687	2591.460587
843.186987	2588.070411
843.502244	2586.200143
843.817458	2580.790985
844.132629	2577.310068
844.447756	2576.634554
844.762840	2570.428893
845.077881	2571.762279
845.392879	2571.900910
845.707833	2568.830848
846.022745	2564.019066
846.337613	2569.392936
846.652438	2567.636094
846.967221	2569.302196
847.281960	2566.423697
847.596656	2569.768502
847.911309	2567.668862
848.225919	2563.232646
848.540485	2566.504355
848.855009	2563.769529
849.169490	2565.080229
849.483928	2562.607543
849.798323	2563.454457
850.112675	2562.552091
850.426984	2565.289437
850.741251	2565.047462
851.055474	2562.662996
851.369654	2566.070816
851.683792	2566.000240
851.997887	2566.040569
852.311938	2564.515620
852.625947	2565.039900
852.939914	2564.893707
853.253837	2564.321536
853.567718	2562.927657
853.881555	2564.646690
854.195350	2562.337842
854.509103	2563.688871
854.822812	2562.196689
855.136479	2562.393294
855.450103	2561.427913
855.763685	2561.891699
856.077224	2559.487069
856.390720	2560.921277
856.704173	2563.484704
857.017584	2564.835733
857.330953	2563.809858
857.644278	2565.266752
857.957561	2565.594427
858.270802	2566.501835
858.584000	2563.396484
858.897155	2564.041752
859.210268	2561.538819
859.523339	2563.504869
859.836367	2562.723490
860.149352	2564.820610
860.462295	2562.181566
860.775195	2559.993705
861.088054	2557.924311
861.400869	2558.758622
861.713642	2554.256872
862.026373	2560.502862
862.339062	2563.197358
862.651708	2561.760629
862.964312	2563.464539
863.276873	2561.417831
863.589392	2565.922102
863.901869	2567.757082
864.214303	2568.901424
864.526696	2566.458985
864.839045	2569.408060
865.151353	2566.940415
865.463619	2568.356979
865.775842	2569.929819
866.088023	2567.799932
866.400162	2569.156002
866.712258	2569.201373
867.024313	2569.309757
867.336325	2568.122566
867.648296	2568.601475
867.960224	2567.943605
868.272110	2564.349262
868.583954	2566.143913
868.895755	2566.695919
869.207515	2567.794891
869.519233	2569.095508
869.830909	2570.965776
870.142542	2565.942267
870.454134	2569.009809
870.765684	2570.411249
871.077191	2571.590879
871.388657	2570.154151
871.700081	2573.723287
872.011463	2570.620457
872.322803	2573.395612
872.634101	2574.449214
872.945357	2575.633885
873.256571	2576.223700
873.567744	2575.240675
873.878874	2577.282342
874.189963	2578.051118
874.501010	2578.046077
874.812015	2578.005748
875.122979	2581.305183
875.433900	2578.638412
875.744780	2577.342836
876.055618	2576.959708
876.366415	2580.150759
876.677169	2578.605645
876.987882	2573.874522
877.298554	2571.200190
877.609183	2578.519945
877.919771	2577.247054
878.230317	2579.991962
878.540822	2585.209557
878.851285	2592.587285
879.161707	2596.819334
879.472087	2610.037239
879.782425	2630.491721
880.092722	2668.408760
880.402977	2741.853330
880.713191	2871.547095
881.023363	3046.381872
881.333494	3160.009480
881.643583	3211.278014
881.953631	3179.024712
882.263637	3086.635486
882.573602	2988.655619
882.883526	2918.087027
883.193408	2858.515712
883.503248	2806.548978
883.813048	2766.348297
884.122806	2723.077552
884.432522	2695.232739
884.742197	2664.658141
885.051831	2652.100627
885.361424	2635.263173
885.670975	2625.014507
885.980485	2615.224587
886.289954	2608.363576
886.599382	2605.091867
886.908768	2600.217072
887.218113	2591.314394
887.527417	2590.278437
887.836680	2584.713003
888.145901	2583.886254
888.455082	2583.109916
888.764221	2577.431056
889.073319	2575.449883
889.382376	2573.826631
889.691392	2572.110118
890.000366	2572.548699
890.309300	2574.340829
890.618193	2575.953998
890.927044	2575.316292
891.235855	2574.439131
891.544625	2574.542475
891.853353	2576.158165
892.162041	2576.684965
892.470687	2584.397931
892.779293	2587.639393
893.087858	2591.647110
893.396381	2603.377875
893.704864	2619.106275
894.013306	2639.971611
894.321707	2675.050480
894.630068	2697.478573
894.938387	2702.630632
895.246665	2696.205682
895.554903	2677.097188
895.863100	2659.221257
896.171256	2638.043369
896.479371	2621.200874
896.787446	2609.006323
897.095480	2603.685385
897.403473	2595.732965
897.711425	2590.477562
898.019336	2584.516398
898.327207	2584.549165
898.635038	2582.804926
898.942827	2581.703434
899.250576	2578.227558
899.558284	2574.383679
899.865952	2572.278997
900.173579	2570.847309
900.481165	2570.580128
900.788711	2567.762123
901.096216	2567.068964
901.403681	2565.949828
901.711105	2566.272462
902.018489	2564.800445
902.325832	2568.609037
902.633135	2567.283213
902.940397	2572.951991
903.247619	2585.380956
903.554800	2609.553288
903.861941	2658.833088
904.169041	2710.003320
904.476101	2734.697412
904.783121	2727.206257
905.090100	2702.187011
905.397039	2672.769358
905.703938	2647.286325
906.010796	2624.223046
906.317614	2607.272166
906.624391	2590.943869
906.931129	2585.617890
907.237826	2576.143041
907.544483	2569.072823
907.851099	2564.704663
908.157675	2562.168963
908.464211	2557.914229
908.770707	2553.097407
909.077163	2555.055895
909.383578	2551.214536
909.689954	2551.156562
909.996289	2550.728064
910.302584	2552.013558
910.608839	2551.539690
910.915054	2551.070863
911.221229	2553.110009
911.527363	2553.777962
911.833458	2553.125133
912.139513	2553.558672
912.445527	2552.026161
912.751502	2557.178221
913.057436	2558.050340
913.363331	2559.572769
913.669186	2561.122923
913.975000	2566.194324
914.280775	2571.429562
914.586510	2584.103023
914.892205	2596.552153
915.197859	2617.697272
915.503475	2648.680204
915.809050	2672.260201
916.114585	2684.142201
916.420081	2688.311235
916.725536	2686.796368
917.030952	2673.260870
917.336328	2654.822850
917.641665	2640.460603
917.946961	2623.242542
918.252218	2611.625203
918.557435	2601.197576
918.862612	2591.601740
919.167750	2587.641913
919.472848	2579.351736
919.777906	2571.825293
920.082925	2571.779923
920.387904	2566.479149
920.692843	2567.769685
920.997743	2564.868501
921.302603	2561.488407
921.607423	2560.270968
921.912204	2557.599157
922.216946	2557.906667
922.521647	2553.843497
922.826310	2552.656306
923.130932	2552.893240
923.435516	2552.177396
923.740059	2550.549103
924.044564	2545.656663
924.349028	2547.383259
924.653454	2545.586087
924.957840	2544.386293
925.262186	2542.518545
925.566493	2541.722043
925.870761	2539.151054
926.174989	2544.182126
926.479178	2544.083823
926.783328	2541.893442
927.087438	2544.262784
927.391509	2541.853113
927.695541	2541.875798
927.999533	2543.468803
928.303486	2540.895294
928.607400	2542.092568
928.911275	2541.873278
929.215110	2540.116435
929.518906	2540.890252
929.822663	2544.701365
930.126381	2541.903524
930.430060	2539.955118
930.733699	2544.081303
931.037299	2539.168698
931.340861	2538.823379
931.644383	2541.230530
931.947866	2543.811601
932.251309	2540.401261
932.554714	2539.357742
932.858080	2544.386293
933.161407	2538.904038
933.464694	2542.828576
933.767943	2540.549975
934.071153	2541.797660
934.374323	2537.845396
934.677455	2537.895807
934.980548	2539.375386
935.283602	2541.482588
935.586617	2540.759182
935.889593	2539.322454
936.192530	2539.781199
936.495428	2540.832279
936.798287	2540.643236
937.101108	2538.651980
937.403890	2540.091230
937.706632	2541.898483
938.009336	2543.849410
938.312002	2544.913093
938.614628	2546.221273
938.917216	2548.807385
939.219765	2547.857127
939.522275	2544.749256
939.824747	2547.804195
940.127179	2545.870913
940.429573	2543.110881
940.731929	2544.230017
941.034246	2542.024512
941.336524	2544.167002
941.638763	2544.262784
941.940964	2542.528628
942.243126	2543.070552
942.545250	2546.309493
942.847335	2545.220604
943.149381	2540.285314
943.451389	2541.729605
943.753359	2543.806560
944.055290	2542.672300
944.357182	2542.137938
944.659036	2540.827238
944.960851	2540.814635
945.262628	2542.377393
945.564367	2544.454348
945.866067	2540.262629
946.167729	2544.179605
946.469352	2541.810263
946.770937	2540.923020
947.072484	2540.751621
947.373992	2539.062834
947.675462	2538.422608
947.976893	2540.849923
948.278286	2540.446631
948.579641	2542.969728
948.880958	2539.347659
949.182236	2540.912938
949.483476	2540.141641
949.784678	2540.118956
950.085841	2538.909079
950.386967	2540.935623
950.688054	2540.043339
950.989103	2540.343287
951.290114	2541.104502
951.591087	2540.169367
951.892021	2538.601569
952.192917	2540.421425
952.493776	2542.765562
952.794596	2541.636343
953.095378	2542.321940
953.396122	2545.888557
953.696828	2539.718184
953.997496	2539.677855
954.298126	2542.369831
954.598718	2542.301776
954.899272	2539.755993
955.199788	2542.813453
955.500266	2539.990407
955.800706	2535.944881
956.101108	2531.980013
956.401472	2536.149047
956.701798	2529.623274
957.002087	2530.903727
957.302337	2536.895138
957.602550	2536.348173
957.902724	2537.069058
958.202861	2536.849768
958.502960	2534.694674
958.803022	2537.376568
959.103045	2534.556043
959.403031	2535.150899
959.702979	2535.362627
960.002889	2533.807431
960.302762	2535.586959
960.602596	2536.116280
960.902393	2534.152750
961.202153	2533.066382
961.501875	2534.130065
961.801559	2533.401618
962.101205	2533.520086
962.400814	2533.809952
962.700385	2534.152750
962.999918	2535.569315
963.299414	2534.530837
963.598873	2534.538399
963.898293	2531.284334
964.197677	2534.903882
964.497022	2531.692667
964.796331	2531.556556
965.095601	2531.743079
965.394835	2534.747607
965.694030	2532.252235
965.993189	2533.328522
966.292309	2531.201155
966.591393	2533.207534
966.890439	2531.433048
967.189447	2533.867925
967.488419	2532.264838
967.787353	2534.344314
968.086249	2531.213758
968.385108	2531.702750
968.683930	2531.163346
968.982714	2534.301464
969.281462	2533.814993
969.580172	2531.221319
969.878844	2532.781557
970.177480	2531.927081
970.476078	2532.055630
970.774639	2533.542771
971.073162	2533.222658
971.371649	2533.361289
971.670098	2530.613860
971.968510	2530.331556
972.266885	2529.041020
972.565223	2531.554036
972.863524	2531.034797
973.161788	2530.913809
973.460014	2533.315919
973.758204	2534.243491
974.056356	2534.671989
974.354471	2532.224509
974.652550	2531.337266
974.950591	2534.976979
975.248595	2530.996988
975.546563	2531.120496
975.844493	2533.411701
976.142386	2533.237781
976.440243	2531.322143
976.738062	2532.365661
977.035845	2531.770805
977.333590	2531.995137
977.631299	2531.193593
977.928971	2533.638553
978.226606	2531.107893
978.524204	2533.484798
978.821765	2534.102339
979.119290	2530.409694
979.416777	2533.746938
979.714228	2531.992616
980.011642	2531.911958
980.309020	2532.526978
980.606360	2534.084695
980.903664	2531.493542
981.200931	2529.492204
981.498162	2531.301978
981.795356	2532.204344
982.092513	2532.353058
982.389633	2534.629139
982.686717	2535.602082
982.983764	2538.246167
983.280775	2538.047042
983.577749	2539.430838
983.874686	2536.620395
984.171587	2536.242309
984.468451	2536.867412
984.765279	2533.961187
985.062070	2531.533871
985.358824	2533.441948
985.655543	2533.686444
985.952224	2531.924560
986.248869	2532.617719
986.545478	2528.108407
986.842050	2529.661082
987.138586	2526.545649
987.435086	2526.056657
987.731549	2527.306863
988.027975	2532.302647
988.324366	2530.129910
988.620719	2532.032945
988.917037	2533.431865
989.213318	2530.371885
989.509563	2530.497914
989.805772	2530.336597
990.101944	2528.710825
990.398080	2531.211237
990.694180	2529.398942
990.990244	2531.992616
991.286271	2529.285516
991.582262	2531.859025
991.878217	2531.065044
992.174136	2528.902389
992.470019	2531.790970
992.765865	2526.386853
993.061676	2529.633356
993.357450	2530.437420
993.653188	2530.293747
993.948890	2533.567977
994.244556	2529.172090
994.540186	2531.722914
994.835780	2531.279293
995.131337	2528.746113
995.426859	2528.662934
995.722345	2528.814168
996.017795	2530.525640
996.313208	2531.496062
996.608586	2531.271731
996.903928	2528.413397
997.199234	2530.134951
997.494504	2532.771474
997.789738	2529.832482
998.084936	2530.830630
998.380099	2527.553880
998.675225	2529.025897
998.970316	2528.841895
999.265371	2530.553367
999.560390	2530.024045
999.855373	2530.944056
1000.150320	2530.316432
1000.445232	2531.498583
1000.740108	2528.330218
1001.034948	2530.349200
1001.329752	2525.875176
1001.624521	2528.962883
1001.919254	2526.273427
1002.213951	2529.227543
1002.508613	2523.021883
1002.803239	2527.528674
1003.097829	2523.074815
1003.392384	2528.466329
1003.686903	2528.093283
1003.981386	2527.964734
1004.275834	2530.848274
1004.570246	2529.731658
1004.864623	2527.574045
1005.158964	2531.002029
1005.453270	2528.670496
1005.747540	2529.948428
1006.041775	2529.439272
1006.335974	2531.707791
1006.630138	2525.925587
1006.924266	2527.400125
1007.218359	2528.892306
1007.512416	2529.088911
1007.806438	2527.132944
1008.100425	2530.984385
1008.394376	2529.048582
1008.688292	2527.437933
1008.982172	2527.475742
1009.276017	2527.427851
1009.569827	2529.497245
1009.863602	2529.998840
1010.157341	2527.856349
1010.451045	2529.832482
1010.744714	2528.680578
1011.038347	2527.246370
1011.331945	2526.457429
1011.625508	2528.131092
1011.919036	2530.485311
1012.212528	2529.217461
1012.505986	2528.234436
1012.799408	2530.505476
1013.092795	2524.735875
1013.386147	2526.800228
1013.679464	2527.097656
1013.972745	2525.902902
1014.265992	2530.457585
1014.559204	2528.143695
1014.852380	2526.792666
1015.145521	2528.055475
1015.438628	2528.617563
1015.731699	2530.031607
1016.024736	2527.929446
1016.317737	2528.978006
1016.610703	2528.970444
1016.903635	2524.325021
1017.196531	2526.674199
1017.489393	2524.337624
1017.782219	2523.140350
1018.075011	2523.510875
1018.367768	2527.289219
1018.660490	2528.403314
1018.953177	2528.403314
1019.245829	2528.403314
