Dividing Wavelength (nm)	Counts (n)	Blue Motor Position (mm): 0.000000	Red Motor Position (mm): 24.300000	
326.493990	2126.706532
326.888308	2126.706532
327.282561	2126.706532
327.676750	2094.034814
328.070874	2094.145719
328.464933	2095.481625
328.858929	2101.654518
329.252859	2111.734305
329.646726	2123.651593
330.040528	2136.625002
330.434265	2154.082518
330.827938	2172.457524
331.221547	2188.798424
331.615091	2210.230889
332.008571	2225.931563
332.401986	2247.238000
332.795338	2265.287851
333.188625	2286.596808
333.581847	2304.901238
333.975006	2322.830102
334.368100	2342.034377
334.761129	2359.610360
335.154095	2375.053935
335.546996	2391.402397
335.939833	2408.471744
336.332606	2423.701070
336.725315	2436.760179
337.117960	2445.846858
337.510540	2452.327262
337.903056	2466.137503
338.295508	2473.668987
338.687896	2479.027733
339.080220	2492.172542
339.472480	2495.726555
339.864676	2502.496825
340.256807	2508.291631
340.648875	2509.004954
341.040879	2510.744153
341.432818	2514.333454
341.824694	2513.524349
342.216506	2512.710202
342.608253	2513.289935
342.999937	2513.312620
343.391557	2513.728516
343.783113	2511.021416
344.174605	2513.544513
344.566033	2509.030160
344.957397	2510.615603
345.348697	2507.048987
345.739934	2505.408091
346.131106	2504.256187
346.522215	2502.340549
346.913260	2499.187307
347.304241	2498.600013
347.695159	2499.734273
348.086012	2496.669251
348.476802	2496.341576
348.867528	2491.950731
349.258191	2491.761688
349.648789	2490.768580
350.039324	2490.332521
350.429796	2489.420072
350.820203	2488.263127
351.210548	2486.665081
351.600828	2484.295739
351.991045	2485.803044
352.381198	2482.526294
352.771288	2485.293887
353.161314	2482.082672
353.551276	2481.666777
353.941175	2481.823053
354.331010	2481.248361
354.720782	2484.570482
355.110490	2482.430512
355.500135	2481.810450
355.889717	2484.946048
356.279235	2482.370018
356.668689	2485.835811
357.058080	2480.968577
357.447408	2481.553351
357.836672	2481.313896
358.225873	2483.355564
358.615010	2482.496047
359.004084	2488.517705
359.393095	2486.871768
359.782043	2487.091059
360.170927	2485.946717
360.559748	2490.209012
360.948505	2490.224136
361.337199	2490.708087
361.725830	2490.128354
362.114398	2493.256390
362.502903	2491.623056
362.891344	2495.071205
363.279722	2492.396873
363.668037	2493.105155
364.056289	2492.439723
364.444478	2495.403921
364.832603	2495.618170
365.220665	2495.358551
365.608665	2497.629591
365.996601	2498.536998
366.384474	2497.775784
366.772284	2500.324087
367.160031	2500.538337
367.547715	2504.772906
367.935336	2506.171826
368.322893	2509.080572
368.710388	2509.405726
369.097820	2519.639268
369.485189	2521.285205
369.872495	2525.983561
370.259738	2533.522606
370.646918	2542.639533
371.034035	2547.539534
371.421090	2558.977912
371.808081	2568.117524
372.195010	2575.727146
372.581875	2593.189703
372.968678	2605.417022
373.355418	2615.257354
373.742096	2635.298461
374.128710	2648.997797
374.515262	2662.112358
374.901751	2679.708506
375.288177	2690.395752
375.674540	2713.552292
376.060841	2731.503841
376.447079	2750.115781
376.833254	2771.427259
377.219367	2782.449742
377.605417	2821.672439
377.991404	2828.238542
378.377329	2853.305680
378.763191	2871.602548
379.148991	2909.204514
379.534727	2933.432300
379.920402	2963.096969
380.306013	2975.929227
380.691563	3024.740199
381.077049	3045.827345
381.462474	3062.732855
381.847835	3103.150306
382.233134	3125.157463
382.618371	3126.705097
383.003545	3193.220601
383.388657	3199.264945
383.773706	3230.583113
384.158693	3247.128180
384.543618	3274.650359
384.928480	3307.730411
385.313280	3359.397197
385.698017	3355.074407
386.082692	3408.407294
386.467305	3413.791247
386.851856	3443.695371
387.236344	3468.180256
387.620770	3498.928773
388.005133	3524.847866
388.389435	3552.851476
388.773674	3562.255748
389.157851	3603.520113
389.541965	3621.993421
389.926018	3589.326744
390.310008	3655.290242
390.693936	3676.763037
391.077802	3714.715364
391.461606	3705.847974
391.845348	3767.397942
392.229027	3767.828961
392.612645	3780.716671
392.996200	3859.214998
393.379694	3898.714959
393.763125	3964.204588
394.146494	3928.361984
394.529801	3992.997138
394.913047	4045.546126
395.296230	4006.948532
395.679351	4061.980288
396.062410	4083.085078
396.445408	4064.400042
396.828343	4101.760033
397.211217	4125.105616
397.594028	4040.762071
397.976778	4109.425107
398.359466	4134.714055
398.742092	4164.383766
399.124656	4084.723453
399.507158	4166.246473
399.889598	4194.194630
400.271977	4253.629833
400.654294	4222.278898
401.036549	4233.054364
401.418742	4202.721741
401.800874	4302.450888
402.182944	4326.540042
402.564952	4391.260895
402.946898	4377.412846
403.328783	4373.258935
403.710606	4287.198877
404.092367	4475.243998
404.474067	4443.799801
404.855705	4451.855564
405.237282	4381.660018
405.618797	4490.027181
406.000250	4524.990104
406.381642	4603.811065
406.762972	4568.288574
407.144240	4572.681940
407.525447	4574.413576
407.906593	4634.635200
408.287677	4679.337632
408.668700	4606.845839
409.049661	4657.017923
409.430560	4697.440415
409.811399	4625.629179
410.192176	4788.221514
410.572891	4727.657091
410.953545	4833.609542
411.334138	4709.264442
411.714669	4778.421511
412.095139	4670.142567
412.475547	4812.504752
412.855894	4793.562616
413.236180	4805.527795
413.616405	4755.708592
413.996568	4844.795863
414.376670	4783.951656
414.756711	4734.200509
415.136691	4773.965131
415.516609	4848.221327
415.896466	4889.508377
416.276262	4918.079116
416.655997	4894.289911
417.035670	5081.566256
417.415283	5174.825082
417.794834	5118.943891
418.174324	5069.182662
418.553753	4976.105318
418.933121	5161.602135
419.312428	5228.273915
419.691674	5171.082025
420.070859	5294.597856
420.449983	5203.269792
420.829045	5320.350590
421.208047	5230.406323
421.586988	5304.770904
421.965867	5310.384229
422.344686	5446.008912
422.723444	5297.355367
423.102141	5119.541268
423.480777	5412.613788
423.859352	5183.470660
424.237866	5438.477428
424.616319	5426.900418
424.994712	5536.565679
425.373044	5416.871042
425.751314	5560.155758
426.129524	5365.320203
426.507673	5556.861364
426.885762	5637.817254
427.263789	5572.546914
427.641756	5452.096105
428.019662	5572.536832
428.397508	5574.830557
428.775292	5520.638153
429.153016	5618.789418
429.530679	5545.695208
429.908282	5625.592456
430.285824	5490.567670
430.663305	5760.957519
431.040726	5493.703268
431.418086	5484.901413
431.795385	5588.605510
432.172624	5594.354946
432.549802	5580.065795
432.926920	5587.075520
433.303977	5586.957052
433.680974	5615.537874
434.057910	5625.088340
434.434786	5627.130007
434.811601	5583.085446
435.188355	5798.982942
435.565050	5665.808260
435.941683	5636.761132
436.318257	5830.313713
436.694770	5795.885153
437.071222	5812.830992
437.447614	5733.586574
437.823946	5637.605525
438.200218	5764.657726
438.576429	5625.857116
438.952580	5692.375141
439.328670	5714.442792
439.704700	5607.199806
440.080670	5574.588582
440.456580	5792.966325
440.832429	5663.849772
441.208218	5500.360112
441.583947	5612.147698
441.959616	5594.604483
442.335224	5497.779041
442.710773	5588.159368
443.086261	5574.213016
443.461689	5373.325555
443.837057	5462.460717
444.212365	5554.371034
444.587612	5438.114465
444.962800	5521.495149
445.337927	5464.467096
445.712995	5122.223162
446.088002	5526.836252
446.462949	5358.131518
446.837837	5263.710706
447.212664	5351.126834
447.587431	5399.746243
447.962139	5719.925047
448.336786	6303.746115
448.711374	6080.576755
449.085901	5403.791769
449.460369	5295.059121
449.834776	5196.726374
450.209124	5386.261156
450.583412	5409.495834
450.957640	5455.650118
451.331808	5250.956587
451.705917	4924.357873
452.079965	4832.003935
452.453954	4886.405547
452.827883	4767.913225
453.201752	4764.281074
453.575562	4604.050520
453.949311	4639.270541
454.323001	4541.991395
454.696632	4524.276781
455.070202	4523.167727
455.443713	4544.872415
455.817164	4527.535887
456.190556	4498.892050
456.563888	4466.515240
456.937160	4426.256585
457.310373	4237.263728
457.683526	4183.872867
458.056619	4088.416098
458.429653	4031.262017
458.802628	3961.678970
459.175542	3947.097433
459.548398	4002.943335
459.921194	4000.480731
460.293930	3960.864824
460.666607	4048.596024
461.039224	4084.052980
461.411782	4060.351995
461.784280	3996.319259
462.156719	3905.707039
462.529099	3812.271773
462.901419	3658.771159
463.273680	3588.575612
463.645882	3543.807646
464.018024	3465.190851
464.390106	3453.253399
464.762130	3477.889518
465.134094	3525.846014
465.505999	3676.062317
465.877845	3828.514371
466.249631	3860.986963
466.621358	3716.177298
466.993026	3551.175292
467.364634	3459.416210
467.736184	3362.694111
468.107674	3284.336937
468.479105	3239.218610
468.850477	3180.952953
469.221790	3124.769294
469.593043	3058.034499
469.964238	3012.124711
470.335373	2985.688900
470.706449	2964.944552
471.077467	2938.349945
471.448425	3002.604492
471.819324	3039.460368
472.190164	3013.148065
472.560945	2914.742222
472.931667	2851.493385
473.302330	2824.079590
473.672934	2789.986267
474.043479	2789.414096
474.413965	2771.046652
474.784393	2749.402458
475.154761	2744.580594
475.525070	2730.089797
475.895321	2715.662015
476.265513	2709.418546
476.635645	2706.897969
477.005719	2693.874148
477.375734	2692.792821
477.745691	2686.849300
478.115588	2679.726150
478.485427	2675.909997
478.855207	2680.764628
479.224928	2687.915504
479.594591	2694.312729
479.964194	2682.597087
480.333739	2675.579801
480.703226	2669.805159
481.072653	2663.077739
481.442022	2661.598161
481.811333	2659.680002
482.180584	2653.121461
482.549777	2646.888074
482.918912	2644.717857
483.287988	2639.172588
483.657005	2638.708802
484.025964	2632.223357
484.394864	2628.558438
484.763706	2626.201699
485.132489	2621.319342
485.501213	2619.716255
485.869879	2621.687346
486.238487	2615.353136
486.607036	2615.572426
486.975527	2612.043618
487.343959	2614.561675
487.712333	2612.076386
488.080648	2612.767024
488.448905	2610.566560
488.817104	2611.471447
489.185244	2604.910386
489.553326	2609.283587
489.921350	2612.146962
490.289315	2619.600308
490.657222	2622.942593
491.025070	2620.608539
491.392861	2621.158025
491.760593	2613.941613
492.128267	2614.213835
492.495883	2608.839965
492.863440	2605.742176
493.230939	2600.711105
493.598380	2604.991044
493.965763	2595.309508
494.333088	2597.013418
494.700354	2595.251535
495.067563	2596.572317
495.434713	2592.983016
495.801805	2595.158274
496.168839	2596.479056
496.535815	2595.738006
496.902733	2595.876638
497.269593	2596.005187
497.636395	2595.208685
498.003139	2591.637028
498.369825	2592.730958
498.736453	2591.221132
499.103023	2592.955289
499.469535	2592.085690
499.835989	2593.575351
500.202385	2593.570310
500.568723	2590.570824
500.935003	2593.580392
501.301226	2590.041502
501.667390	2593.393870
502.033497	2597.552822
502.399546	2591.417737
502.765537	2588.405648
503.131470	2590.101996
503.497345	2590.459918
503.863163	2588.635021
504.228923	2590.505289
504.594625	2592.753643
504.960269	2587.314238
505.325856	2591.198447
505.691385	2589.887747
506.056856	2590.522933
506.422270	2588.629979
506.787625	2588.511512
507.152924	2590.429671
507.518164	2588.309866
507.883347	2587.099989
508.248472	2586.116964
508.613540	2588.277099
508.978550	2586.968919
509.343503	2588.209043
509.708398	2590.759867
510.073236	2590.245669
510.438016	2589.398755
510.802738	2590.096955
511.167403	2590.563262
511.532010	2585.154104
511.896561	2592.587285
512.261053	2591.384970
512.625488	2587.467993
512.989866	2583.898857
513.354186	2586.547983
513.718449	2582.399113
514.082655	2587.455391
514.446803	2590.328848
514.810894	2589.197109
515.174927	2588.776173
515.538904	2590.918663
515.902822	2591.359764
516.266684	2589.900350
516.630488	2588.120823
516.994235	2591.879003
517.357925	2587.594022
517.721558	2593.645927
518.085133	2589.660895
518.448651	2590.704414
518.812112	2589.118971
519.175516	2592.005032
519.538863	2590.885896
519.902152	2590.195258
520.265385	2590.064188
520.628560	2590.457398
520.991678	2589.849939
521.354739	2590.565782
521.717743	2592.037799
522.080690	2590.772470
522.443580	2594.293716
522.806413	2594.114755
523.169189	2590.427151
523.531908	2593.567790
523.894569	2589.524784
524.257174	2590.956472
524.619722	2590.638879
524.982213	2592.730958
525.344647	2590.696853
525.707025	2590.376739
526.069345	2591.248859
526.431608	2591.798345
526.793815	2593.840012
527.155964	2593.250197
527.518057	2593.386308
527.880093	2593.701380
528.242072	2590.578385
528.603995	2591.899168
528.965860	2592.572162
529.327669	2591.029569
529.689421	2594.008891
530.051117	2592.534353
530.412755	2591.836153
530.774337	2591.702563
531.135862	2590.379260
531.497331	2591.223653
531.858743	2584.854155
532.220098	2589.756677
532.581396	2588.506471
532.942638	2589.171903
533.303824	2590.485124
533.664953	2590.175093
534.026025	2590.936307
534.387040	2592.224322
534.747999	2587.740216
535.108902	2593.744230
535.469748	2592.226843
535.830537	2589.229877
536.191270	2587.256265
536.551947	2591.178283
536.912567	2589.257603
537.273131	2592.365474
537.633638	2589.507140
537.994089	2590.752305
538.354483	2590.250710
538.714821	2590.308684
539.075103	2592.088211
539.435328	2591.458067
539.795497	2590.369178
540.155609	2591.871441
540.515665	2592.267172
540.875665	2591.639548
541.235609	2589.824733
541.595496	2592.463777
541.955328	2592.115937
542.315102	2590.502768
542.674821	2590.079311
543.034483	2591.072418
543.394090	2591.190886
543.753640	2590.681729
544.113134	2591.057295
544.472571	2593.366143
544.831953	2591.856318
545.191278	2592.219281
545.550548	2591.568972
545.909761	2591.992429
546.268918	2592.567121
546.628019	2594.192893
546.987064	2589.635690
547.346053	2590.147367
547.704986	2594.424786
548.063863	2592.201637
548.422684	2594.064343
548.781449	2590.689291
549.140158	2590.780032
549.498811	2591.959662
549.857408	2592.158787
550.215949	2588.438416
550.574434	2588.420772
550.932864	2588.340113
551.291237	2588.503951
551.649555	2590.384301
552.007817	2591.274065
552.366022	2591.629466
552.724173	2591.163159
553.082267	2589.471852
553.440305	2591.503437
553.798288	2591.783221
554.156215	2593.194744
554.514086	2592.985536
554.871902	2591.115268
555.229661	2590.654003
555.587365	2590.769949
555.945014	2591.137953
556.302606	2592.332707
556.660143	2593.376226
557.017625	2591.879003
557.375050	2589.108889
557.732421	2592.925042
558.089735	2591.942017
558.446994	2591.253900
558.804197	2595.001998
559.161345	2589.711307
559.518437	2591.054774
559.875474	2591.072418
560.232455	2591.631987
560.589381	2594.341607
560.946251	2593.686257
561.303065	2592.640217
561.659825	2593.880341
562.016528	2591.982347
562.373177	2589.766760
562.729770	2590.389342
563.086307	2593.250197
563.442789	2592.783890
563.799216	2593.061154
564.155587	2592.438571
564.511904	2589.318097
564.868164	2589.509661
565.224370	2593.857656
565.580520	2590.071749
565.936615	2591.231215
566.292654	2592.889754
566.648638	2592.161308
567.004567	2590.979157
567.360441	2588.629979
567.716260	2588.705597
568.072023	2590.159970
568.427732	2584.750812
568.783385	2586.880699
569.138982	2586.641244
569.494525	2589.754157
569.850013	2586.147211
570.205445	2590.038982
570.560823	2588.130905
570.916145	2591.049733
571.271412	2591.079980
571.626625	2589.600402
571.981782	2591.173242
572.336884	2588.967737
572.691931	2588.413210
573.046923	2588.735844
573.401860	2589.315576
573.756743	2586.492530
574.111570	2589.983529
574.466342	2588.624938
574.821059	2591.047213
575.175722	2589.676019
575.530330	2588.947572
575.884882	2588.453539
576.239380	2586.941193
576.593823	2589.363467
576.948211	2588.960175
577.302544	2589.688622
577.656823	2587.047057
578.011047	2589.237438
578.365216	2586.797520
578.719330	2587.697366
579.073389	2586.058991
579.427394	2587.122674
579.781344	2583.563620
580.135239	2586.903384
580.489080	2585.801892
580.842866	2586.638724
581.196597	2590.442274
581.550273	2587.382294
581.903895	2584.465986
582.257463	2584.655030
582.610975	2586.699217
582.964434	2584.765935
583.317837	2585.542273
583.671186	2583.291397
584.024481	2585.746439
584.377721	2584.274422
584.730906	2586.517736
585.084037	2585.713672
585.437113	2584.360122
585.790135	2587.417582
586.143103	2584.183682
586.496016	2583.273753
586.848874	2579.888619
587.201679	2586.870617
587.554428	2580.823753
587.907124	2582.323496
588.259765	2579.230748
588.612352	2581.569843
588.964884	2584.700400
589.317362	2583.059504
589.669786	2582.310893
590.022155	2584.155955
590.374470	2584.682756
590.726731	2584.113106
591.078937	2582.230235
591.431090	2583.364494
591.783188	2580.634709
592.135232	2582.540266
592.487222	2582.946078
592.839157	2582.807447
593.191038	2582.114288
593.542866	2582.817529
593.894639	2582.328537
594.246358	2583.225862
594.598022	2578.739236
594.949633	2581.131263
595.301190	2577.975501
595.652692	2578.610686
596.004141	2580.685121
596.355535	2578.595563
596.706876	2581.451376
597.058162	2580.135635
597.409395	2578.807291
597.760573	2578.933320
598.111698	2579.679411
598.462768	2581.965574
598.813785	2578.111612
599.164748	2578.966088
599.515657	2580.062538
599.866511	2578.144379
600.217312	2579.326530
600.568060	2579.654205
600.918753	2578.885429
601.269392	2576.601786
601.619978	2580.173444
601.970510	2579.455079
602.320988	2580.738053
602.671412	2577.589852
603.021783	2579.510532
603.372100	2581.103537
603.722363	2579.732343
604.072572	2577.995665
604.422728	2578.577919
604.772830	2572.510890
605.122878	2572.838565
605.472872	2574.640777
605.822813	2572.780592
606.172701	2576.526169
606.522534	2576.725295
606.872314	2579.767631
607.222041	2575.391909
607.571714	2576.788309
607.921333	2576.894173
608.270899	2578.373752
608.620411	2577.451221
608.969870	2579.676890
609.319276	2581.151428
609.668627	2581.746284
610.017926	2585.257447
610.367171	2588.166193
610.716362	2587.331882
611.065500	2583.916501
611.414585	2579.417271
611.763616	2582.247879
612.112594	2579.296283
612.461518	2578.724112
612.810389	2580.440625
613.159207	2578.847620
613.507971	2580.538927
613.856682	2580.669997
614.205340	2579.545820
614.553945	2580.354925
614.902496	2579.734863
615.250994	2580.145717
615.599439	2579.200501
615.947830	2576.737897
616.296169	2574.832341
616.644454	2577.506673
616.992686	2576.180850
617.340864	2579.180337
617.688990	2578.353587
618.037063	2580.564133
618.385082	2578.540110
618.733048	2578.872826
619.080961	2577.327712
619.428821	2580.468351
619.776628	2579.308886
620.124382	2579.097157
620.472083	2578.003227
620.819731	2577.420974
621.167326	2577.345357
621.514868	2576.299317
621.862357	2576.017013
622.209793	2578.532548
622.557176	2580.720409
622.904506	2573.861919
623.251783	2572.349573
623.599007	2573.274625
623.946179	2570.312947
624.293297	2571.371589
624.640363	2574.655901
624.987376	2575.291086
625.334336	2573.640108
625.681243	2574.938206
626.028097	2573.766137
626.374899	2577.536920
626.721647	2574.844944
627.068343	2572.019378
627.414987	2575.270922
627.761577	2573.564491
628.108115	2569.990313
628.454600	2572.679769
628.801032	2569.367731
629.147412	2575.011302
629.493739	2573.768658
629.840014	2571.132134
630.186236	2573.383010
630.532405	2567.920919
630.878521	2571.711867
631.224585	2571.180025
631.570597	2570.454099
631.916556	2572.173133
632.262462	2570.181877
632.608316	2571.585838
632.954117	2566.088460
633.299866	2570.675910
633.645562	2568.798080
633.991206	2569.708008
634.336797	2568.702298
634.682336	2570.547361
635.027823	2566.322874
635.373257	2566.466547
635.718639	2566.423697
636.063968	2569.849161
636.409245	2567.618450
636.754470	2566.118707
637.099642	2568.573749
637.444762	2567.489901
637.789829	2566.496793
638.134845	2566.506876
638.479808	2566.274983
638.824719	2566.048131
639.169577	2563.504869
639.514383	2562.824313
639.859137	2563.764488
640.203839	2567.053841
640.548489	2563.951011
640.893086	2562.877245
641.237632	2558.773746
641.582125	2564.777760
641.926566	2560.197872
642.270955	2564.868501
642.615292	2564.482853
642.959576	2563.787173
643.303809	2564.959242
643.647990	2562.657955
643.992118	2563.610733
644.336195	2563.318346
644.680219	2564.339180
645.024192	2564.624005
645.368112	2565.614592
645.711981	2564.737431
646.055797	2564.823130
646.399562	2566.925292
646.743274	2563.983778
647.086935	2564.235836
647.430544	2564.495455
647.774101	2566.607699
648.117606	2567.961249
648.461059	2567.026115
648.804460	2566.559808
649.147810	2567.494942
649.491108	2567.588203
649.834354	2565.654921
650.177548	2564.815569
650.520690	2564.429920
650.863781	2561.929508
651.206820	2564.717266
651.549807	2561.203582
651.892742	2561.145609
652.235626	2562.325239
652.578458	2564.258521
652.921238	2562.728531
653.263967	2564.036710
653.606644	2564.361865
653.949269	2561.803479
654.291843	2561.730383
654.634365	2565.178532
654.976836	2561.289282
655.319255	2562.607543
655.661622	2561.546380
656.003938	2561.173335
656.346203	2560.414641
656.688416	2562.199210
657.030577	2561.281720
657.372687	2561.170814
657.714746	2562.456309
658.056753	2561.352296
658.398708	2555.668395
658.740612	2557.042109
659.082465	2556.036399
659.424266	2561.069991
659.766016	2555.958261
660.107715	2561.707697
660.449362	2558.239383
660.790958	2561.095197
661.132503	2561.412790
661.473996	2561.866494
661.815438	2559.184600
662.156829	2561.380022
662.498168	2559.842470
662.839456	2562.287430
663.180693	2559.315670
663.521879	2561.979920
663.863013	2560.976730
664.204097	2562.572255
664.545129	2562.360527
664.886110	2562.448747
665.227040	2558.496482
665.567918	2562.852039
665.908746	2559.300546
666.249522	2559.343396
666.590248	2562.209292
666.930922	2563.031000
667.271545	2561.697615
667.612118	2561.606874
667.952639	2561.327090
668.293109	2560.366750
668.633528	2558.650238
668.973896	2558.856925
669.314213	2561.576627
669.654480	2560.843139
669.994695	2559.355999
670.334859	2561.624518
670.674973	2560.147460
671.015035	2560.976730
671.355047	2559.056050
671.695008	2559.918088
672.034918	2557.435319
672.374777	2561.032183
672.714585	2559.038406
673.054342	2559.673592
673.394049	2561.337172
673.733705	2561.879097
674.073310	2560.636452
674.412864	2560.689384
674.752368	2559.630742
675.091820	2559.597974
675.431223	2562.307595
675.770574	2561.228788
676.109875	2557.127809
676.449125	2558.098231
676.788324	2556.137222
677.127473	2556.817778
677.466571	2552.416851
677.805619	2560.949004
678.144616	2557.095042
678.483562	2558.186451
678.822458	2559.537481
679.161303	2559.502193
679.500098	2559.476987
679.838842	2558.773746
680.177535	2555.499516
680.516179	2561.576627
680.854771	2558.514126
681.193314	2558.423386
681.531805	2558.405742
681.870247	2558.599826
682.208638	2561.480845
682.546978	2560.558314
682.885268	2564.394632
683.223508	2557.286605
683.561697	2561.632080
683.899836	2560.180228
684.237925	2558.153684
684.575963	2559.361040
684.913951	2557.095042
685.251889	2560.318859
685.589776	2557.861297
685.927614	2559.401369
686.265401	2559.368602
686.603137	2560.707028
686.940824	2559.842470
687.278460	2561.246432
687.616046	2559.645865
687.953582	2560.636452
688.291068	2560.238201
688.628504	2559.852553
688.965889	2560.523026
689.303224	2561.405228
689.640510	2558.362892
689.977745	2558.738458
690.314930	2555.817109
690.652065	2558.587223
690.989150	2559.272820
691.326185	2559.590413
691.663170	2554.589588
692.000105	2557.601677
692.336990	2555.315514
692.673825	2556.059084
693.010610	2556.406924
693.347345	2551.637993
693.684030	2547.922662
694.020665	2550.665050
694.357251	2548.940975
694.693786	2550.513815
695.030272	2551.461552
695.366707	2552.762170
695.703093	2554.075390
696.039429	2553.707386
696.375716	2550.428116
696.711952	2553.024310
697.048139	2550.367622
697.384276	2555.194527
697.720363	2550.675132
698.056400	2551.138918
698.392388	2553.616645
698.728326	2551.879968
699.064214	2551.010369
699.400053	2550.816284
699.735842	2549.659340
700.071581	2551.774104
700.407270	2551.388455
700.742910	2553.311656
701.078501	2548.877961
701.414042	2549.523228
701.749533	2550.838970
702.084974	2549.266130
702.420366	2548.706562
702.755709	2549.135060
703.091002	2546.702703
703.426246	2550.387786
703.761440	2549.896274
704.096584	2550.191181
704.431679	2550.730585
704.766725	2550.438198
705.101721	2548.646068
705.436668	2548.540203
705.771565	2547.093392
706.106413	2550.118085
706.441212	2549.218239
706.775961	2552.535318
707.110661	2548.789741
707.445311	2550.745708
707.779913	2548.210008
708.114465	2551.330482
708.448967	2551.517005
708.783421	2548.620862
709.117825	2548.819988
709.452180	2549.261088
709.786485	2549.321582
710.120742	2553.551110
710.454949	2552.464742
710.789107	2551.532128
711.123216	2549.412323
711.457275	2552.744526
711.791286	2552.905843
712.125247	2549.480379
712.459159	2552.000956
712.793023	2554.123281
713.126837	2551.592622
713.460602	2550.148332
713.794318	2553.427602
714.127985	2554.788714
714.461602	2549.757642
714.795171	2551.887530
715.128691	2550.465924
715.462162	2553.213353
715.795584	2549.946685
716.128957	2547.761345
716.462281	2553.288970
716.795556	2548.008362
717.128782	2547.925183
717.461960	2547.675646
717.795088	2550.488609
718.128167	2547.111036
718.461198	2549.240924
718.794180	2548.522559
719.127113	2548.346119
719.459997	2547.075748
719.792833	2546.037271
720.125619	2549.671942
720.458357	2545.928886
720.791046	2545.901159
721.123686	2550.370142
721.456278	2547.098433
721.788821	2548.865358
722.121315	2545.825542
722.453761	2546.334699
722.786158	2544.414019
723.118506	2545.147507
723.450805	2548.431819
723.783056	2545.691952
724.115259	2546.959802
724.447412	2543.834286
724.779518	2550.075235
725.111574	2545.187836
725.443582	2547.100954
725.775542	2546.385110
726.107453	2548.842673
726.439315	2547.320244
726.771129	2549.611449
727.102895	2548.308310
727.434612	2551.171686
727.766281	2547.156407
728.097901	2544.401416
728.429473	2544.439225
728.760996	2547.496685
729.092471	2541.895963
729.423897	2548.512477
729.755276	2550.266799
730.086606	2547.295038
730.417887	2549.359391
730.749120	2547.350491
731.080305	2549.682025
731.411442	2549.162786
731.742530	2550.748229
732.073570	2551.501881
732.404562	2552.076573
732.735506	2550.748229
733.066401	2550.798640
733.397249	2550.324772
733.728048	2548.240255
734.058798	2547.189174
734.389501	2548.333516
734.720156	2549.044319
735.050762	2545.263453
735.381320	2545.011396
735.711831	2546.606921
736.042293	2547.594987
736.372707	2545.263453
736.703073	2544.436704
737.033391	2544.313196
737.363661	2545.429812
737.693883	2545.576005
738.024056	2547.423588
738.354182	2547.544576
738.684260	2547.511808
739.014290	2545.908721
739.344272	2545.757487
739.674207	2546.322096
740.004093	2546.493495
740.333931	2546.001983
740.663722	2547.826880
740.993464	2544.187167
741.323159	2546.286808
741.652806	2544.673638
741.982405	2547.070707
742.311956	2545.656663
742.641460	2547.395862
742.970915	2548.880481
743.300323	2545.870912
743.629683	2546.942158
743.958996	2545.104657
744.288260	2545.102137
744.617477	2546.049873
744.946647	2540.585263
745.275768	2543.241951
745.604842	2539.670293
745.933869	2542.788247
746.262847	2538.848585
746.591778	2543.632640
746.920662	2542.364790
747.249498	2544.567774
747.578286	2544.595501
747.907027	2542.553833
748.235720	2543.526776
748.564365	2544.096426
748.892963	2542.447969
749.221514	2544.134235
749.550017	2545.026519
749.878473	2546.140614
750.206881	2544.411498
750.535242	2542.715150
750.863555	2544.643392
751.191821	2543.383103
751.520039	2542.281611
751.848210	2545.817980
752.176334	2544.625747
752.504411	2542.248843
752.832440	2546.057435
753.160421	2542.878988
753.488356	2543.985521
753.816243	2544.477033
754.144082	2544.900490
754.471875	2545.427291
754.799620	2543.161292
755.127318	2543.617517
755.454969	2545.346633
755.782572	2542.430325
756.110129	2541.916127
756.437638	2542.271529
756.765100	2542.800850
757.092515	2542.034594
757.419882	2543.685572
757.747203	2542.226158
758.074477	2544.603062
758.401703	2544.976108
758.728882	2542.062321
759.056014	2542.122815
759.383099	2541.964018
759.710138	2543.864533
760.037129	2546.284287
760.364073	2545.351674
760.690970	2543.637681
761.017820	2544.393854
761.344623	2545.409647
761.671379	2543.136087
761.998088	2538.851106
762.324751	2542.402599
762.651366	2545.984338
762.977935	2552.537838
763.304456	2554.052705
763.630931	2558.017573
763.957359	2557.349620
764.283740	2551.295194
764.610074	2547.564740
764.936362	2549.815615
765.262602	2547.514329
765.588796	2545.949050
765.914943	2544.408978
766.241044	2544.784544
766.567097	2541.288504
766.893104	2542.180788
767.219064	2543.567105
767.544978	2540.766744
767.870845	2541.074255
768.196665	2540.933102
768.522438	2540.522248
768.848165	2538.344470
769.173846	2544.061138
769.499479	2540.023174
769.825066	2541.124666
770.150607	2541.139790
770.476101	2540.887732
770.801548	2542.243802
771.126949	2536.822041
771.452303	2541.754810
771.777611	2538.747762
772.102872	2539.700540
772.428087	2537.484953
772.753256	2544.217414
773.078378	2539.085519
773.403453	2538.964532
773.728482	2541.046528
774.053465	2537.424459
774.378401	2539.307330
774.703291	2540.779347
775.028135	2538.248688
775.352932	2539.453524
775.677683	2537.174922
776.002388	2539.836651
776.327046	2539.922351
776.651658	2539.279604
776.976224	2538.001671
777.300743	2537.265663
777.625216	2537.895807
777.949643	2538.462937
778.274024	2537.699202
778.598359	2535.362627
778.922647	2534.614016
779.246889	2532.796680
779.571086	2535.110570
779.895236	2536.663245
780.219339	2539.027546
780.543397	2537.316074
780.867409	2538.563760
781.191374	2538.576363
781.515294	2541.104502
781.839167	2537.923533
782.162995	2538.324305
782.486776	2539.088040
782.810511	2537.600900
783.134201	2539.738349
783.457844	2538.896476
783.781441	2536.060827
784.104993	2535.715508
784.428498	2537.696682
784.751958	2538.551157
785.075372	2537.305992
785.398739	2539.168698
785.722061	2537.915972
786.045337	2537.179963
786.368568	2536.464119
786.691752	2538.674665
787.014891	2536.564943
787.337983	2537.076620
787.661030	2538.152906
787.984031	2537.948739
788.306987	2541.071734
788.629897	2537.406815
788.952760	2540.242464
789.275579	2538.447813
789.598351	2541.563247
789.921078	2540.696168
790.243759	2538.949408
790.566395	2537.984027
790.888984	2539.367824
791.211529	2536.910262
791.534027	2537.580735
791.856480	2536.028060
792.178888	2537.784902
792.501249	2538.231044
792.823566	2539.773637
793.145836	2535.357586
793.468062	2538.394881
793.790241	2537.053934
794.112375	2539.229192
794.434464	2536.655683
794.756507	2538.556198
795.078505	2537.421939
795.400457	2534.583769
795.722364	2535.014788
796.044226	2538.362114
796.366042	2535.556712
796.687812	2536.237268
797.009538	2538.972093
797.331218	2538.712474
797.652852	2536.169212
797.974442	2536.716177
798.295986	2537.583256
798.617484	2538.730118
798.938938	2536.670807
799.260346	2535.854140
799.581709	2538.084850
799.903026	2536.103677
800.224299	2538.843544
800.545526	2536.796836
800.866708	2534.886238
801.187845	2535.836496
801.508936	2535.755837
801.829983	2539.955118
802.150984	2536.393543
802.471940	2537.616023
802.792851	2536.524613
803.113717	2539.367824
803.434538	2534.798018
803.755314	2534.629139
804.076045	2534.671989
804.396731	2537.096784
804.717372	2535.380271
805.037967	2537.421939
805.358518	2533.623429
805.679024	2538.336908
805.999485	2536.325488
806.319901	2539.758513
806.640272	2535.256763
806.960598	2536.751465
807.280879	2536.310364
807.601115	2536.902700
807.921306	2536.811959
808.241453	2535.047555
808.561554	2536.136444
808.881611	2538.344470
809.201623	2535.440765
809.521590	2538.377237
809.841513	2533.968748
810.161390	2536.023018
810.481223	2535.750796
810.801011	2538.034439
811.120755	2537.376568
811.440453	2533.618388
811.760107	2535.377751
812.079716	2534.608975
812.399281	2531.914478
812.718801	2533.827596
813.038276	2532.416073
813.357707	2537.545447
813.677093	2536.617875
813.996434	2537.205169
814.315731	2534.661907
814.634983	2536.827082
814.954191	2537.857998
815.273354	2537.104346
815.592473	2536.925385
815.911547	2534.919006
816.230577	2535.145858
816.549562	2537.941178
816.868502	2535.675179
817.187399	2536.494366
817.506250	2534.198121
817.825058	2535.904551
818.143821	2537.129552
818.462539	2538.926723
818.781213	2539.229192
819.099843	2540.428987
819.418429	2541.890922
819.736970	2542.014430
820.055466	2543.050387
820.373919	2545.172713
820.692327	2548.215049
821.010691	2553.218394
821.329011	2562.685681
821.647286	2584.702921
821.965517	2605.265787
822.283704	2617.687190
822.601847	2623.676081
822.919945	2610.737960
823.237999	2598.586258
823.556010	2585.680904
823.873976	2573.448545
824.191897	2565.843964
824.509775	2559.214847
824.827609	2556.679146
825.145398	2555.471790
825.463144	2553.354505
825.780845	2553.588919
826.098502	2555.796944
826.416116	2561.682492
826.733685	2566.927812
827.051210	2571.784964
827.368692	2568.084757
827.686129	2565.120558
828.003522	2554.604712
828.320872	2548.338557
828.638177	2545.460058
828.955439	2539.992927
829.272656	2542.130376
829.589830	2538.241126
829.906960	2537.956301
830.224046	2539.521579
830.541088	2541.820345
830.858086	2537.545447
831.175041	2540.428987
831.491952	2537.822710
831.808819	2538.838503
832.125642	2537.210210
832.442421	2536.494366
832.759157	2542.944523
833.075849	2547.267312
833.392497	2554.030020
833.709101	2552.290822
834.025662	2551.406099
834.342179	2553.147818
834.658653	2546.279246
834.975083	2544.058618
835.291469	2546.246478
835.607811	2542.758000
835.924110	2539.393030
836.240366	2538.092412
836.556578	2534.056968
836.872746	2537.192566
837.188871	2535.360107
837.504952	2532.544622
837.820990	2536.322967
838.136984	2533.583100
838.452935	2535.589479
838.768842	2534.714839
839.084706	2535.929757
839.400526	2535.531506
839.716303	2536.287679
840.032037	2545.001313
840.347727	2539.846734
840.663373	2539.773637
840.978977	2538.099974
841.294537	2534.051927
841.610054	2537.623585
841.925527	2537.265663
842.240957	2533.895652
842.556344	2537.381609
842.871687	2533.641073
843.186987	2536.020498
843.502244	2532.005219
843.817458	2534.019160
844.132629	2533.648635
844.447756	2533.119314
844.762840	2528.922553
845.077881	2528.831813
845.392879	2529.630835
845.707833	2532.509334
846.022745	2526.270906
846.337613	2533.056299
846.652438	2531.919519
846.967221	2535.365148
847.281960	2534.324150
847.596656	2534.084695
847.911309	2531.783408
848.225919	2532.723583
848.540485	2531.765764
848.855009	2534.568646
849.169490	2530.190403
849.483928	2533.104190
849.798323	2533.764582
850.112675	2532.048069
850.426984	2531.801052
850.741251	2530.770136
851.055474	2534.281300
851.369654	2532.584952
851.683792	2531.299457
851.997887	2534.009078
852.311938	2533.618388
852.625947	2535.259284
852.939914	2531.082688
853.253837	2533.298275
853.567718	2533.729293
853.881555	2534.374561
854.195350	2533.474715
854.509103	2532.073274
854.822812	2531.543953
855.136479	2531.997657
855.450103	2530.810465
855.763685	2531.327184
856.077224	2531.392719
856.390720	2532.481608
856.704173	2533.504962
857.017584	2533.071423
857.330953	2532.254756
857.644278	2532.227030
857.957561	2537.248019
858.270802	2532.910106
858.584000	2531.249046
858.897155	2534.263656
859.210268	2532.146371
859.523339	2535.294572
859.836367	2530.550846
860.149352	2533.847761
860.462295	2531.115455
860.775195	2530.603778
861.088054	2525.618077
861.400869	2527.112779
861.713642	2528.156298
862.026373	2530.407173
862.339062	2533.394057
862.651708	2534.682072
862.964312	2532.670651
863.276873	2533.182328
863.589392	2533.078985
863.901869	2532.826927
864.214303	2530.674354
864.526696	2532.184180
864.839045	2533.010929
865.151353	2530.830630
865.463619	2535.362627
865.775842	2533.159643
866.088023	2531.100332
866.400162	2530.722245
866.712258	2532.426155
867.024313	2533.288192
867.336325	2531.939684
867.648296	2535.158461
867.960224	2530.233253
868.272110	2533.618388
868.583954	2534.649304
868.895755	2533.063861
869.207515	2532.206865
869.519233	2534.160312
869.830909	2533.588141
870.142542	2533.063861
870.454134	2533.643594
870.765684	2533.189890
871.077191	2533.464633
871.388657	2535.138296
871.700081	2534.301464
872.011463	2533.406660
872.322803	2532.577390
872.634101	2531.720394
872.945357	2532.244674
873.256571	2531.468336
873.567744	2530.923891
873.878874	2534.974458
874.189963	2533.590662
874.501010	2535.221475
874.812015	2530.906247
875.122979	2533.699047
875.433900	2532.569828
875.744780	2535.329860
876.055618	2531.329704
876.366415	2534.455220
876.677169	2532.847092
876.987882	2531.843902
877.298554	2529.925743
877.609183	2530.820548
877.919771	2530.959179
878.230317	2531.327184
878.540822	2535.445806
878.851285	2539.110725
879.161707	2536.103677
879.472087	2539.445962
879.782425	2539.554347
880.092722	2543.357897
880.402977	2552.174875
880.713191	2561.947152
881.023363	2576.891653
881.333494	2583.402303
881.643583	2583.500605
881.953631	2580.443146
882.263637	2580.743094
882.573602	2578.557754
882.883526	2569.501321
883.193408	2562.569735
883.503248	2557.319373
883.813048	2552.981460
884.122806	2552.696635
884.432522	2547.567261
884.742197	2546.440563
885.051831	2544.058618
885.361424	2541.076775
885.670975	2539.516538
885.980485	2539.665252
886.289954	2539.917310
886.599382	2539.153575
886.908768	2536.678368
887.218113	2538.906558
887.527417	2536.738862
887.836680	2537.817669
888.145901	2535.823893
888.455082	2535.022349
888.764221	2535.153419
889.073319	2534.472864
889.382376	2531.372554
889.691392	2534.462781
890.000366	2534.742565
890.309300	2532.539581
890.618193	2534.777853
890.927044	2533.419263
891.235855	2535.309695
891.544625	2532.930271
891.853353	2534.694674
892.162041	2534.820703
892.470687	2535.884387
892.779293	2536.005374
893.087858	2536.174253
893.396381	2534.747607
893.704864	2536.675848
894.013306	2538.793132
894.321707	2544.250182
894.630068	2547.108516
894.938387	2551.703528
895.246665	2549.576161
895.554903	2548.396531
895.863100	2545.777651
896.171256	2543.161292
896.479371	2542.228679
896.787446	2542.659697
897.095480	2537.764737
897.403473	2538.909079
897.711425	2534.976979
898.019336	2538.031918
898.327207	2537.416898
898.635038	2535.670138
898.942827	2535.362627
899.250576	2537.348842
899.558284	2533.315919
899.865952	2536.706095
900.173579	2533.923378
900.481165	2536.567463
900.788711	2533.580579
901.096216	2534.843388
901.403681	2536.605272
901.711105	2535.337422
902.018489	2534.044366
902.325832	2537.558050
902.633135	2534.457740
902.940397	2533.313398
903.247619	2535.052596
903.554800	2538.697351
903.861941	2541.762372
904.169041	2553.175544
904.476101	2555.033210
904.783121	2555.386090
905.090100	2551.766542
905.397039	2548.673794
905.703938	2546.717826
906.010796	2543.032743
906.317614	2540.630633
906.624391	2539.287166
906.931129	2535.561753
907.237826	2535.755837
907.544483	2536.118800
907.851099	2532.002698
908.157675	2532.557225
908.464211	2533.081505
908.770707	2527.193437
909.077163	2528.531864
909.383578	2528.499096
909.689954	2530.003881
909.996289	2526.444826
910.302584	2533.275590
910.608839	2531.238963
910.915054	2530.901206
911.221229	2529.734179
911.527363	2532.390867
911.833458	2531.150743
912.139513	2529.814838
912.445527	2531.690147
912.751502	2529.673685
913.057436	2532.022863
913.363331	2531.475898
913.669186	2534.122503
913.975000	2534.671989
914.280775	2533.772143
914.586510	2538.841023
914.892205	2539.594676
915.197859	2542.992414
915.503475	2545.102137
915.809050	2548.583053
916.114585	2554.478683
916.420081	2557.712583
916.725536	2551.055739
917.030952	2552.142108
917.336328	2547.905018
917.641665	2545.691952
917.946961	2544.459389
918.252218	2541.449821
918.557435	2536.897659
918.862612	2538.770447
919.167750	2538.578883
919.472848	2538.563760
919.777906	2536.632998
920.082925	2534.603934
920.387904	2531.367513
920.692843	2533.222658
920.997743	2532.678213
921.302603	2532.509334
921.607423	2533.222658
921.912204	2531.944725
922.216946	2530.150074
922.521647	2532.973120
922.826310	2532.053110
923.130932	2531.165867
923.435516	2529.562780
923.740059	2529.628315
924.044564	2528.665454
924.349028	2532.741227
924.653454	2526.727131
924.957840	2529.290558
925.262186	2528.156298
925.566493	2528.483973
925.870761	2527.803417
926.174989	2529.734179
926.479178	2530.518078
926.783328	2531.443130
927.087438	2527.127903
927.391509	2530.964221
927.695541	2527.846267
927.999533	2530.056813
928.303486	2528.587317
928.607400	2530.006401
928.911275	2528.138654
929.215110	2528.146216
929.518906	2528.186545
929.822663	2529.285516
930.126381	2527.974816
930.430060	2529.938346
930.733699	2530.961700
931.037299	2526.235618
931.340861	2527.853829
931.644383	2528.930115
931.947866	2527.420289
932.251309	2528.458767
932.554714	2528.405835
932.858080	2530.744930
933.161407	2527.737882
933.464694	2528.012625
933.767943	2526.333921
934.071153	2529.093953
934.374323	2527.329549
934.677455	2531.178470
934.980548	2530.772657
935.283602	2531.085208
935.586617	2529.492204
935.889593	2531.654859
936.192530	2526.480114
936.495428	2531.221319
936.798287	2526.485155
937.101108	2529.799714
937.403890	2529.104035
937.706632	2529.706453
938.009336	2529.567821
938.312002	2529.716535
938.614628	2528.572193
938.917216	2530.502955
939.219765	2529.071267
939.522275	2530.777698
939.824747	2530.230733
940.127179	2527.236287
940.429573	2525.300484
940.731929	2528.703263
941.034246	2526.220495
941.336524	2529.852646
941.638763	2532.327853
941.940964	2530.185362
942.243126	2531.019673
942.545250	2530.906247
942.847335	2530.293747
943.149381	2527.800897
943.451389	2527.798376
943.753359	2530.167718
944.055290	2527.962213
944.357182	2529.565300
944.659036	2528.390712
944.960851	2528.836854
945.262628	2529.968593
945.564367	2529.920702
945.866067	2528.305012
946.167729	2527.213602
946.469352	2528.214271
946.770937	2530.402132
947.072484	2527.450536
947.373992	2528.572193
947.675462	2528.715866
947.976893	2530.639066
948.278286	2528.834333
948.579641	2529.411545
948.880958	2526.044054
949.182236	2531.072605
949.483476	2528.373068
949.784678	2528.282327
950.085841	2527.858870
950.386967	2529.565300
950.688054	2527.115300
950.989103	2525.963396
951.290114	2529.310722
951.591087	2530.036648
951.892021	2525.003056
952.192917	2528.302491
952.493776	2530.167718
952.794596	2528.448685
953.095378	2529.335928
953.396122	2530.729807
953.696828	2529.706453
953.997496	2530.502955
954.298126	2527.274096
954.598718	2530.203006
954.899272	2527.200999
955.199788	2528.264683
955.500266	2529.940866
955.800706	2525.265196
956.101108	2524.549352
956.401472	2527.836185
956.701798	2521.542304
957.002087	2524.829136
957.302337	2526.533046
957.602550	2528.310053
957.902724	2525.590351
958.202861	2528.458767
958.502960	2528.156298
958.803022	2529.580424
959.103045	2526.147398
959.403031	2528.695701
959.702979	2527.236287
960.002889	2527.490866
960.302762	2527.934487
960.602596	2527.490866
960.902393	2524.753519
961.202153	2528.690660
961.501875	2524.665299
961.801559	2530.167718
962.101205	2527.130423
962.400814	2528.204189
962.700385	2527.105217
962.999918	2529.587986
963.299414	2527.662265
963.598873	2526.437264
963.898293	2528.121010
964.197677	2523.538601
964.497022	2525.214785
964.796331	2524.352747
965.095601	2527.964734
965.394835	2528.478932
965.694030	2526.558252
965.993189	2528.693181
966.292309	2526.974147
966.591393	2526.780063
966.890439	2525.799558
967.189447	2525.197141
967.488419	2527.231246
967.787353	2528.642769
968.086249	2526.785104
968.385108	2525.734023
968.683930	2526.603623
968.982714	2527.942049
969.281462	2527.914323
969.580172	2526.603623
969.878844	2526.961544
970.177480	2529.845084
970.476078	2528.320135
970.774639	2527.387522
971.073162	2526.028931
971.371649	2522.883251
971.670098	2524.902233
971.968510	2522.948786
972.266885	2520.196316
972.565223	2528.604961
972.863524	2526.724610
973.161788	2527.543798
973.460014	2524.715710
973.758204	2527.143026
974.056356	2529.194776
974.354471	2530.578572
974.652550	2525.849970
974.950591	2526.540608
975.248595	2526.810310
975.546563	2529.653521
975.844493	2526.447347
976.142386	2528.723428
976.440243	2525.151770
976.738062	2530.709642
977.035845	2528.610002
977.333590	2525.529857
977.631299	2528.920033
977.928971	2527.379960
978.226606	2525.759229
978.524204	2526.701925
978.821765	2527.841226
979.119290	2527.707635
979.416777	2526.303674
979.714228	2524.834178
980.011642	2528.998171
980.309020	2528.037831
980.606360	2528.564631
980.903664	2525.688653
981.200931	2526.528005
981.498162	2526.996833
981.795356	2522.807634
982.092513	2529.139323
982.389633	2527.193438
982.686717	2527.274096
982.983764	2528.138654
983.280775	2527.788294
983.577749	2528.675537
983.874686	2531.359951
984.171587	2527.120341
984.468451	2528.688140
984.765279	2526.517923
985.062070	2527.054806
985.358824	2526.003725
985.655543	2527.349713
985.952224	2527.362316
986.248869	2527.344672
986.545478	2523.223529
986.842050	2525.164373
987.138586	2523.470545
987.435086	2522.490041
987.731549	2522.938704
988.027975	2528.965403
988.324366	2527.465660
988.620719	2524.846780
988.917037	2527.463139
989.213318	2529.162008
989.509563	2524.440968
989.805772	2528.042872
990.101944	2527.432892
990.398080	2526.646472
990.694180	2526.769981
990.990244	2527.339631
991.286271	2524.506502
991.582262	2524.897192
991.878217	2525.237470
992.174136	2526.404497
992.470019	2524.539270
992.765865	2526.948942
993.061676	2527.742923
993.357450	2527.256452
993.653188	2524.597243
993.948890	2528.221833
994.244556	2522.288395
994.540186	2526.344003
994.835780	2524.337624
995.131337	2525.988602
995.426859	2525.310567
995.722345	2528.015146
996.017795	2523.896523
996.313208	2527.417769
996.608586	2525.330731
996.903928	2526.699404
997.199234	2523.543642
997.494504	2528.302491
997.789738	2524.173786
998.084936	2526.149919
998.380099	2524.125895
998.675225	2525.131606
998.970316	2525.839888
999.265371	2526.956503
999.560390	2527.924405
999.855373	2528.057995
1000.150320	2528.352903
1000.445232	2527.679909
1000.740108	2524.032634
1001.034948	2527.838705
1001.329752	2527.692512
1001.624521	2525.855011
1001.919254	2526.313756
1002.213951	2525.212264
1002.508613	2523.415093
1002.803239	2526.585978
1003.097829	2523.931811
1003.392384	2527.120341
1003.686903	2527.707635
1003.981386	2527.264014
1004.275834	2523.243693
1004.570246	2525.502130
1004.864623	2525.852491
1005.158964	2525.870135
1005.453270	2528.463808
1005.747540	2528.005063
1006.041775	2526.802748
1006.335974	2526.651513
1006.630138	2523.969620
1006.924266	2526.865763
1007.218359	2525.686132
1007.512416	2525.194620
1007.806438	2526.840557
1008.100425	2526.033972
1008.394376	2524.703107
1008.688292	2527.720238
1008.982172	2523.334434
1009.276017	2526.202851
1009.569827	2527.639580
1009.863602	2527.145547
1010.157341	2524.743437
1010.451045	2525.502130
1010.744714	2524.801410
1011.038347	2525.066071
1011.331945	2522.971471
1011.625508	2525.426513
1011.919036	2522.358971
1012.212528	2526.747295
1012.505986	2524.952645
1012.799408	2524.632531
1013.092795	2524.904754
1013.386147	2523.684794
1013.679464	2524.990453
1013.972745	2524.680422
1014.265992	2527.019518
1014.559204	2524.524147
1014.852380	2525.963396
1015.145521	2526.906092
1015.438628	2526.336441
1015.731699	2524.597243
1016.024736	2525.451719
1016.317737	2527.251411
1016.610703	2527.516071
1016.903635	2522.321162
1017.196531	2517.496778
1017.489393	2522.845442
1017.782219	2517.093486
1018.075011	2521.509537
1018.367768	2524.725793
1018.660490	2525.219826
1018.953177	2525.219826
1019.245829	2525.219826
