Dividing Wavelength (nm)	Counts (n)	Blue Motor Position (mm): 0.000000	Red Motor Position (mm): 7.800000	
326.493990	2129.128806
326.888308	2129.128806
327.282561	2129.128806
327.676750	2096.648652
328.070874	2091.894844
328.464933	2097.046903
328.858929	2103.267687
329.252859	2113.289501
329.646726	2124.594288
330.040528	2136.534261
330.434265	2155.756181
330.827938	2170.325116
331.221547	2188.604339
331.615091	2208.620241
332.008571	2226.292006
332.401986	2246.123905
332.795338	2265.607964
333.188625	2286.339710
333.581847	2305.682617
333.975006	2323.460246
334.368100	2340.849706
334.761129	2360.437109
335.154095	2376.687269
335.546996	2393.708725
335.939833	2405.250447
336.332606	2420.499937
336.725315	2436.999633
337.117960	2445.551951
337.510540	2455.803137
337.903056	2464.978037
338.295508	2471.413070
338.687896	2478.921869
339.080220	2490.380412
339.472480	2494.108345
339.864676	2496.863335
340.256807	2504.377175
340.648875	2507.152330
341.040879	2506.335663
341.432818	2509.347753
341.824694	2511.918741
342.216506	2512.977384
342.608253	2511.825480
342.999937	2511.366735
343.391557	2510.245078
343.783113	2509.796416
344.174605	2508.576456
344.566033	2505.793739
344.957397	2504.793070
345.348697	2504.059583
345.739934	2504.840961
346.131106	2504.551095
346.522215	2498.657986
346.913260	2497.785867
347.304241	2495.966010
347.695159	2495.088849
348.086012	2491.282778
348.476802	2492.250680
348.867528	2491.048364
349.258191	2488.845380
349.648789	2486.261789
350.039324	2486.286995
350.429796	2485.457725
350.820203	2481.102168
351.210548	2483.980667
351.600828	2480.199801
351.991045	2481.442446
352.381198	2478.773155
352.771288	2479.332723
353.161314	2479.612507
353.551276	2480.250213
353.941175	2477.449852
354.331010	2479.340285
354.720782	2477.238123
355.110490	2479.070583
355.500135	2478.339616
355.889717	2478.906745
356.279235	2477.984214
356.668689	2481.412199
357.058080	2479.118474
357.447408	2476.862558
357.836672	2477.326344
358.225873	2481.936479
358.615010	2477.956488
359.004084	2481.487816
359.393095	2479.166365
359.782043	2485.276243
360.170927	2482.622076
360.559748	2483.027889
360.948505	2483.630307
361.337199	2485.505616
361.725830	2483.670636
362.114398	2486.176089
362.502903	2484.333548
362.891344	2490.677840
363.279722	2488.820174
363.668037	2488.074084
364.056289	2485.009062
364.444478	2490.299753
364.832603	2489.606594
365.220665	2488.623569
365.608665	2492.780001
365.996601	2490.584578
366.384474	2493.906699
366.772284	2493.626915
367.160031	2495.658500
367.547715	2495.731596
367.935336	2498.297544
368.322893	2502.459016
368.710388	2501.899448
369.097820	2509.375479
369.485189	2513.103413
369.872495	2518.928466
370.259738	2526.528005
370.646918	2535.337422
371.034035	2540.224820
371.421090	2550.108002
371.808081	2564.351782
372.195010	2568.946794
372.581875	2581.597570
372.968678	2592.965372
373.355418	2603.050200
373.742096	2622.589712
374.128710	2634.754017
374.515262	2646.746922
374.901751	2662.636638
375.288177	2670.147958
375.674540	2688.631348
376.060841	2702.068544
376.447079	2715.455328
376.833254	2729.623491
377.219367	2734.193297
377.605417	2758.834457
377.991404	2759.026021
378.377329	2774.676283
378.763191	2778.494957
379.148991	2799.813996
379.534727	2812.366469
379.920402	2820.835608
380.306013	2819.298056
380.691563	2844.271932
381.077049	2846.928620
381.462474	2843.351922
381.847835	2854.765094
382.233134	2857.792307
382.618371	2843.147755
383.003545	2865.195241
383.388657	2853.736698
383.773706	2852.118488
384.158693	2846.061542
384.543618	2842.973835
384.928480	2837.723473
385.313280	2841.705985
385.698017	2825.034889
386.082692	2825.047492
386.467305	2806.856488
386.851856	2799.052782
387.236344	2788.010135
387.620770	2777.847168
388.005133	2764.934253
388.389435	2754.587285
388.773674	2740.129255
389.157851	2728.343038
389.541965	2717.968343
389.926018	2694.065712
390.310008	2693.329704
390.693936	2676.590552
391.077802	2666.903975
391.461606	2653.265133
391.845348	2645.660553
392.229027	2633.586989
392.612645	2621.130298
392.996200	2614.922117
393.379694	2608.164451
393.763125	2603.529110
394.146494	2588.201481
394.529801	2583.588826
394.913047	2573.740932
395.296230	2565.977555
395.679351	2558.239383
396.062410	2551.859803
396.445408	2542.420243
396.828343	2542.737835
397.211217	2532.494211
397.594028	2529.270393
397.976778	2524.115813
398.359466	2524.395597
398.742092	2520.024917
399.124656	2525.996163
399.507158	2518.772190
399.889598	2520.070287
400.271977	2520.029958
400.654294	2516.554082
401.036549	2517.655574
401.418742	2519.959382
401.800874	2516.241531
402.182944	2516.405368
402.564952	2515.205574
402.946898	2517.960564
403.328783	2514.830008
403.710606	2517.191788
404.092367	2513.289935
404.474067	2514.162055
404.855705	2513.423526
405.237282	2515.878568
405.618797	2511.959071
406.000250	2516.304545
406.381642	2516.261695
406.762972	2517.650533
407.144240	2515.263547
407.525447	2516.332272
407.906593	2517.096006
408.287677	2517.411078
408.668700	2516.344874
409.049661	2515.777745
409.430560	2516.503671
409.811399	2519.840915
410.192176	2515.666839
410.572891	2518.409227
410.953545	2515.137518
411.334138	2516.423012
411.714669	2516.652385
412.095139	2519.997190
412.475547	2516.284381
412.855894	2517.111130
413.236180	2514.731705
413.616405	2521.320493
413.996568	2514.915707
414.376670	2517.902591
414.756711	2519.125071
415.136691	2520.803775
415.516609	2517.600122
415.896466	2519.407375
416.276262	2520.299660
416.655997	2517.607683
417.035670	2514.449401
417.415283	2517.232118
417.794834	2514.270440
418.174324	2519.440143
418.553753	2519.543487
418.933121	2519.286388
419.312428	2520.471059
419.691674	2519.009124
420.070859	2521.340658
420.449983	2517.774042
420.829045	2521.350740
421.208047	2519.588857
421.586988	2522.626152
421.965867	2520.874351
422.344686	2521.375946
422.723444	2522.411903
423.102141	2520.276974
423.480777	2521.302849
423.859352	2519.861079
424.237866	2522.114475
424.616319	2523.510875
424.994712	2524.566996
425.373044	2520.886954
425.751314	2522.066584
426.129524	2519.987108
426.507673	2523.450381
426.885762	2523.044568
427.263789	2522.497603
427.641756	2523.347037
428.019662	2522.502644
428.397508	2523.710000
428.775292	2524.524147
429.153016	2522.338806
429.530679	2522.853004
429.908282	2521.633045
430.285824	2521.491893
430.663305	2522.283354
431.040726	2523.357119
431.418086	2521.270082
431.795385	2525.479445
432.172624	2524.135978
432.549802	2523.105062
432.926920	2523.122706
433.303977	2524.955165
433.680974	2524.642614
434.057910	2522.142201
434.434786	2526.275948
434.811601	2525.252593
435.188355	2523.843591
435.565050	2526.812830
435.941683	2526.386853
436.318257	2522.474918
436.694770	2518.532735
437.071222	2521.839732
437.447614	2521.123888
437.823946	2522.734537
438.200218	2524.677902
438.576429	2523.778056
438.952580	2524.922398
439.328670	2525.416431
439.704700	2525.260155
440.080670	2528.264683
440.456580	2524.259486
440.832429	2525.814682
441.208218	2528.741072
441.583947	2529.593027
441.959616	2523.858714
442.335224	2528.670496
442.710773	2525.113962
443.086261	2527.518592
443.461689	2527.490866
443.837057	2525.887779
444.212365	2525.597912
444.587612	2527.233767
444.962800	2528.015146
445.337927	2527.684950
445.712995	2526.964065
446.088002	2527.838705
446.462949	2526.545649
446.837837	2527.485824
447.212664	2529.580424
447.587431	2528.105886
447.962139	2528.083201
448.336786	2533.835158
448.711374	2528.841895
449.085901	2530.114786
449.460369	2529.300640
449.834776	2528.451205
450.209124	2528.743592
450.583412	2528.768798
450.957640	2532.017822
451.331808	2528.063037
451.705917	2529.066226
452.079965	2528.463808
452.453954	2529.338448
452.827883	2530.477749
453.201752	2529.711494
453.575562	2530.376926
453.949311	2529.063706
454.323001	2528.889786
454.696632	2529.086391
455.070202	2530.581093
455.443713	2530.908768
455.817164	2528.519261
456.190556	2523.533560
456.563888	2526.918695
456.937160	2526.827954
457.310373	2530.492873
457.683526	2530.329035
458.056619	2530.999509
458.429653	2532.005219
458.802628	2529.129241
459.175542	2532.380785
459.548398	2531.344828
459.921194	2529.706453
460.293930	2530.724766
460.666607	2533.477236
461.039224	2533.305837
461.411782	2531.690147
461.784280	2532.887421
462.156719	2534.548481
462.529099	2534.359438
462.901419	2531.596885
463.273680	2530.709642
463.645882	2531.538912
464.018024	2531.518748
464.390106	2531.546474
464.762130	2533.283151
465.134094	2531.080167
465.505999	2534.185518
465.877845	2534.009078
466.249631	2535.153419
466.621358	2534.929088
466.993026	2540.439069
467.364634	2536.627957
467.736184	2532.625281
468.107674	2534.145189
468.479105	2533.061341
468.850477	2533.744417
469.221790	2535.256763
469.593043	2533.923378
469.964238	2535.125693
470.335373	2535.143337
470.706449	2534.498069
471.077467	2531.990095
471.448425	2535.788605
471.819324	2535.103008
472.190164	2533.368851
472.560945	2534.203162
472.931667	2534.137627
473.302330	2534.298944
473.672934	2533.273069
474.043479	2534.520755
474.413965	2532.514375
474.784393	2532.390867
475.154761	2531.548994
475.525070	2531.115455
475.895321	2532.912627
476.265513	2527.879034
476.635645	2535.158461
477.005719	2534.828265
477.375734	2535.203831
477.745691	2536.380940
478.115588	2535.307175
478.485427	2534.886238
478.855207	2537.802546
479.224928	2538.311702
479.594591	2538.664583
479.964194	2537.958822
480.333739	2536.811959
480.703226	2535.919675
481.072653	2538.203317
481.442022	2536.801877
481.811333	2538.722556
482.180584	2539.047711
482.549777	2535.881866
482.918912	2539.602238
483.287988	2536.272556
483.657005	2536.448996
484.025964	2537.240457
484.394864	2534.929088
484.763706	2538.594007
485.132489	2537.162319
485.501213	2539.793802
485.869879	2536.448996
486.238487	2535.493697
486.607036	2536.103677
486.975527	2538.019315
487.343959	2535.256763
487.712333	2538.162988
488.080648	2535.377751
488.448905	2536.454037
488.817104	2536.131403
489.185244	2538.697351
489.553326	2538.170550
489.921350	2538.644418
490.289315	2538.445293
490.657222	2538.984696
491.025070	2539.549306
491.392861	2540.527289
491.760593	2538.601569
492.128267	2537.008564
492.495883	2537.764737
492.863440	2538.349511
493.230939	2538.011754
493.598380	2538.281455
493.965763	2533.746938
494.333088	2536.058307
494.700354	2533.230219
495.067563	2536.569984
495.434713	2534.641742
495.801805	2539.307330
496.168839	2538.155427
496.535815	2535.929757
496.902733	2538.155427
497.269593	2540.527289
497.636395	2535.546629
498.003139	2537.386651
498.369825	2538.941847
498.736453	2536.776671
499.103023	2539.282124
499.469535	2538.699871
499.835989	2537.782381
500.202385	2539.072917
500.568723	2537.187525
500.935003	2537.469830
501.301226	2537.328677
501.667390	2540.325643
502.033497	2538.074768
502.399546	2539.090561
502.765537	2537.232895
503.131470	2538.825900
503.497345	2537.616023
503.863163	2538.636857
504.228923	2537.300951
504.594625	2536.111239
504.960269	2539.564429
505.325856	2539.927392
505.691385	2537.540406
506.056856	2540.890253
506.422270	2537.784902
506.787625	2537.731970
507.152924	2538.886394
507.518164	2537.061496
507.883347	2539.498894
508.248472	2537.719367
508.613540	2538.669624
508.978550	2539.788760
509.343503	2539.788760
509.708398	2538.168029
510.073236	2537.540406
510.438016	2541.283463
510.802738	2539.060314
511.167403	2537.797505
511.532010	2539.640046
511.896561	2541.414533
512.261053	2543.078113
512.625488	2538.299099
512.989866	2535.483615
513.354186	2535.483615
513.718449	2534.916485
514.082655	2537.394212
514.446803	2539.405633
514.810894	2541.875798
515.174927	2541.772454
515.538904	2539.312371
515.902822	2535.642411
516.266684	2541.117104
516.630488	2539.854295
516.994235	2541.994265
517.357925	2539.105684
517.721558	2541.782537
518.085133	2539.385468
518.448651	2539.892104
518.812112	2540.307999
519.175516	2539.335057
519.538863	2539.582073
519.902152	2541.346477
520.265385	2538.611651
520.628560	2542.339584
520.991678	2540.819676
521.354739	2538.712474
521.717743	2541.306148
522.080690	2539.239275
522.443580	2538.987217
522.806413	2542.513504
523.169189	2540.698689
523.531908	2539.670293
523.894569	2542.478216
524.257174	2540.771785
524.619722	2538.914120
524.982213	2542.984852
525.344647	2539.813966
525.707025	2540.733977
526.069345	2539.055272
526.431608	2542.899152
526.793815	2540.335726
527.155964	2541.149872
527.518057	2541.464944
527.880093	2540.686086
528.242072	2538.883873
528.603995	2540.348328
528.965860	2539.680376
529.327669	2542.072403
529.689421	2541.079296
530.051117	2544.908052
530.412755	2540.769265
530.774337	2539.977804
531.135862	2540.925541
531.497331	2540.653318
531.858743	2536.547298
532.220098	2538.838503
532.581396	2537.147196
532.942638	2538.566281
533.303824	2539.057793
533.664953	2543.761190
534.026025	2541.495191
534.387040	2540.388658
534.747999	2543.241951
535.108902	2542.745397
535.469748	2543.667928
535.830537	2541.343956
536.191270	2542.377393
536.551947	2541.873277
536.912567	2540.507125
537.273131	2542.629451
537.633638	2539.889583
537.994089	2543.171375
538.354483	2539.524100
538.714821	2540.582742
539.075103	2542.117773
539.435328	2540.570139
539.795497	2540.376055
540.155609	2543.055428
540.515665	2541.273380
540.875665	2543.602393
541.235609	2543.980480
541.595496	2543.856972
541.955328	2542.954605
542.315102	2540.262629
542.674821	2541.694317
543.034483	2542.425284
543.394090	2544.020809
543.753640	2540.577701
544.113134	2541.870757
544.472571	2543.136087
544.831953	2540.660880
545.191278	2544.477033
545.550548	2540.537372
545.909761	2543.773793
546.268918	2537.358924
546.628019	2543.289842
546.987064	2542.884029
547.346053	2543.178936
547.704986	2541.986703
548.063863	2539.990407
548.422684	2540.925541
548.781449	2542.516025
549.140158	2545.074410
549.498811	2543.551982
549.857408	2542.175747
550.215949	2541.374203
550.574434	2538.457896
550.932864	2539.889583
551.291237	2538.672145
551.649555	2541.535520
552.007817	2542.697506
552.366022	2544.676159
552.724173	2543.027702
553.082267	2541.114584
553.440305	2542.856303
553.798288	2543.824204
554.156215	2543.872095
554.514086	2544.608103
554.871902	2542.352187
555.229661	2543.965356
555.587365	2543.007537
555.945014	2540.897814
556.302606	2542.964687
556.660143	2542.248843
557.017625	2541.222969
557.375050	2541.008720
557.732421	2542.140459
558.089735	2543.660367
558.446994	2539.740869
558.804197	2542.821014
559.161345	2539.970242
559.518437	2541.061652
559.875474	2541.341436
560.232455	2542.349667
560.589381	2543.942671
560.946251	2544.240099
561.303065	2542.480737
561.659825	2542.778165
562.016528	2542.102650
562.373177	2543.819163
562.729770	2541.301107
563.086307	2543.793957
563.442789	2542.160623
563.799216	2543.627599
564.155587	2543.607434
564.511904	2541.369162
564.868164	2540.431507
565.224370	2543.433515
565.580520	2540.945705
565.936615	2543.143648
566.292654	2541.293545
566.648638	2540.923020
567.004567	2542.737835
567.360441	2540.887732
567.716260	2542.352187
568.072023	2541.069213
568.427732	2538.601569
568.783385	2540.176929
569.138982	2537.984027
569.494525	2541.064172
569.850013	2540.555016
570.205445	2541.419574
570.560823	2542.848741
570.916145	2543.385624
571.271412	2541.361600
571.626625	2545.029040
571.981782	2543.957795
572.336884	2542.112732
572.691931	2542.334543
573.046923	2540.592824
573.401860	2543.594832
573.756743	2542.863864
574.111570	2541.858154
574.466342	2543.224307
574.821059	2538.848585
575.175722	2542.074924
575.530330	2542.266488
575.884882	2543.065510
576.239380	2543.894780
576.593823	2543.234389
576.948211	2540.776827
577.302544	2540.960829
577.656823	2543.448638
578.011047	2543.234389
578.365216	2539.733308
578.719330	2539.201466
579.073389	2540.960829
579.427394	2540.854964
579.781344	2542.614327
580.135239	2543.867054
580.489080	2541.999306
580.842866	2542.105171
581.196597	2542.742877
581.550273	2543.231868
581.903895	2541.840510
582.257463	2542.604245
582.610975	2540.658359
582.964434	2543.776313
583.317837	2541.422094
583.671186	2543.304965
584.024481	2540.993596
584.377721	2543.635161
584.730906	2541.361600
585.084037	2543.413350
585.437113	2541.596014
585.790135	2542.740356
586.143103	2543.708257
586.496016	2546.788403
586.848874	2537.605941
587.201679	2540.577701
587.554428	2537.021167
587.907124	2541.283463
588.259765	2538.684748
588.612352	2541.502753
588.964884	2542.455531
589.317362	2543.960315
589.669786	2541.727084
590.022155	2544.056097
590.374470	2542.931920
590.726731	2542.480737
591.078937	2543.788916
591.431090	2541.079296
591.783188	2542.788247
592.135232	2543.559543
592.487222	2541.661549
592.839157	2544.219935
593.191038	2544.061138
593.542866	2540.749100
593.894639	2542.115253
594.246358	2542.405119
594.598022	2538.445293
594.949633	2542.672300
595.301190	2543.128525
595.652692	2542.831097
596.004141	2540.522248
596.355535	2542.011909
596.706876	2541.717002
597.058162	2542.352187
597.409395	2540.244985
597.760573	2541.016281
598.111698	2542.516025
598.462768	2543.506611
598.813785	2541.376724
599.164748	2541.117104
599.515657	2542.682383
599.866511	2541.197763
600.217312	2540.804553
600.568060	2540.827238
600.918753	2540.376055
601.269392	2539.289686
601.619978	2542.392516
601.970510	2545.765048
602.320988	2540.151723
602.671412	2540.411343
603.021783	2540.688606
603.372100	2542.969728
603.722363	2539.176260
604.072572	2542.800850
604.422728	2541.008720
604.772830	2539.123328
605.122878	2538.087371
605.472872	2540.192053
605.822813	2538.319264
606.172701	2541.371683
606.522534	2542.609286
606.872314	2542.180788
607.222041	2542.125335
607.571714	2540.013092
607.921333	2540.857485
608.270899	2542.153062
608.620411	2542.561395
608.969870	2543.713299
609.319276	2542.856302
609.668627	2546.523742
610.017926	2547.375697
610.367171	2547.748742
610.716362	2548.681356
611.065500	2548.071376
611.414585	2544.305634
611.763616	2546.095244
612.112594	2542.637012
612.461518	2546.102806
612.810389	2544.663556
613.159207	2541.956457
613.507971	2543.723381
613.856682	2542.982331
614.205340	2540.940664
614.553945	2543.867054
614.902496	2537.522762
615.250994	2542.894111
615.599439	2541.928730
615.947830	2540.189532
616.296169	2544.328319
616.644454	2544.897970
616.992686	2541.076775
617.340864	2540.368493
617.688990	2540.754141
618.037063	2543.375541
618.385082	2541.185160
618.733048	2542.379913
619.080961	2541.719522
619.428821	2542.909235
619.776628	2543.307486
620.124382	2539.826569
620.472083	2541.825387
620.819731	2542.576518
621.167326	2542.889070
621.514868	2542.866385
621.862357	2541.848072
622.209793	2541.545603
622.557176	2541.452341
622.904506	2539.745911
623.251783	2536.060827
623.599007	2537.832793
623.946179	2535.244160
624.293297	2538.896476
624.640363	2539.980324
624.987376	2541.051569
625.334336	2539.435880
625.681243	2542.233720
626.028097	2540.630633
626.374899	2540.744059
626.721647	2541.303627
627.068343	2541.235572
627.414987	2538.876312
627.761577	2541.333874
628.108115	2537.167360
628.454600	2538.649460
628.801032	2540.749100
629.147412	2540.063503
629.493739	2538.520910
629.840014	2540.144162
630.186236	2540.048380
630.532405	2539.098122
630.878521	2539.516538
631.224585	2541.487629
631.570597	2540.817156
631.916556	2543.612476
632.262462	2542.072403
632.608316	2540.439069
632.954117	2539.788760
633.299866	2537.399253
633.645562	2540.996117
633.991206	2539.256919
634.336797	2539.438400
634.682336	2539.793802
635.027823	2537.275745
635.373257	2538.452855
635.718639	2539.017464
636.063968	2537.989068
636.409245	2538.226003
636.754470	2539.135931
637.099642	2535.899510
637.444762	2539.667773
637.789829	2537.747093
638.134845	2540.224820
638.479808	2536.912782
638.824719	2539.771116
639.169577	2539.269522
639.514383	2539.801363
639.859137	2538.780530
640.203839	2541.795140
640.548489	2540.063503
640.893086	2537.873122
641.237632	2534.881197
641.582125	2538.505787
641.926566	2534.810621
642.270955	2537.895807
642.615292	2540.917979
642.959576	2536.716177
643.303809	2537.968904
643.647990	2539.140972
643.992118	2538.861188
644.336195	2537.815149
644.680219	2541.248174
645.024192	2540.055942
645.368112	2541.923689
645.711981	2540.428987
646.055797	2540.784388
646.399562	2538.021836
646.743274	2537.653832
647.086935	2540.912938
647.430544	2537.563091
647.774101	2537.162319
648.117606	2539.027546
648.461059	2538.689789
648.804460	2543.562064
649.147810	2539.813966
649.491108	2539.821528
649.834354	2541.795140
650.177548	2539.745911
650.520690	2543.100798
650.863781	2538.717515
651.206820	2540.527289
651.549807	2539.816487
651.892742	2541.656508
652.235626	2536.582587
652.578458	2538.588966
652.921238	2537.046373
653.263967	2539.100643
653.606644	2538.722556
653.949269	2538.609130
654.291843	2536.756506
654.634365	2537.371527
654.976836	2538.498225
655.319255	2542.019471
655.661622	2539.884542
656.003938	2539.851775
656.346203	2537.396733
656.688416	2537.484953
657.030577	2541.081816
657.372687	2539.135931
657.714746	2536.086033
658.056753	2537.638708
658.398708	2532.350538
658.740612	2535.856660
659.082465	2533.998995
659.424266	2535.085364
659.766016	2534.926567
660.107715	2538.904038
660.449362	2537.921013
660.790958	2541.792619
661.132503	2538.611651
661.473996	2537.857998
661.815438	2536.486805
662.156829	2538.352032
662.498168	2536.426311
662.839456	2537.626105
663.180693	2538.430169
663.521879	2537.331198
663.863013	2536.632998
664.204097	2537.046373
664.545129	2537.263142
664.886110	2536.527134
665.227040	2539.398071
665.567918	2539.788760
665.908746	2538.105015
666.249522	2539.377906
666.590248	2539.677855
666.930922	2538.188194
667.271545	2538.374717
667.612118	2539.582073
667.952639	2539.453524
668.293109	2536.264994
668.633528	2537.686599
668.973896	2537.467309
669.314213	2538.530993
669.654480	2538.047042
669.994695	2538.513348
670.334859	2537.787422
670.674973	2537.905889
671.015035	2537.174922
671.355047	2538.720036
671.695008	2536.116280
672.034918	2535.561753
672.374777	2537.575694
672.714585	2538.783050
673.054342	2538.215920
673.394049	2538.876312
673.733705	2538.604089
674.073310	2537.459747
674.412864	2539.176260
674.752368	2537.762217
675.091820	2537.026208
675.431223	2536.834644
675.770574	2538.576363
676.109875	2532.877338
676.449125	2537.001002
676.788324	2534.573687
677.127473	2535.914634
677.466571	2532.879859
677.805619	2538.651980
678.144616	2539.133410
678.483562	2537.411856
678.822458	2535.902031
679.161303	2538.367155
679.500098	2536.557381
679.838842	2537.127031
680.177535	2539.435880
680.516179	2538.011754
680.854771	2540.509645
681.193314	2538.490663
681.531805	2537.474871
681.870247	2537.870601
682.208638	2537.515200
682.546978	2538.946888
682.885268	2538.097453
683.223508	2539.771116
683.561697	2535.619726
683.899836	2536.305323
684.237925	2537.439583
684.575963	2536.418749
684.913951	2538.566281
685.251889	2536.794315
685.589776	2536.312885
685.927614	2537.666435
686.265401	2536.080992
686.603137	2538.674665
686.940824	2537.058976
687.278460	2537.560570
687.616046	2538.357073
687.953582	2538.485622
688.291068	2534.989582
688.628504	2535.536547
688.965889	2540.789429
689.303224	2537.447144
689.640510	2541.222969
689.977745	2538.780530
690.314930	2537.046373
690.652065	2539.660211
690.989150	2536.471681
691.326185	2537.598379
691.663170	2536.267514
692.000105	2536.201979
692.336990	2536.065868
692.673825	2538.145344
693.010610	2537.837834
693.347345	2536.307844
693.684030	2534.412370
694.020665	2534.533358
694.357251	2532.355579
694.693786	2538.203318
695.030272	2536.295241
695.366707	2538.911600
695.703093	2538.835982
696.039429	2535.506300
696.375716	2537.686599
696.711952	2536.443955
697.048139	2535.876825
697.384276	2536.116280
697.720363	2537.139634
698.056400	2536.315405
698.392388	2537.106867
698.728326	2536.746424
699.064214	2536.980838
699.400053	2536.096115
699.735842	2536.587628
700.071581	2536.091074
700.407270	2535.672658
700.742910	2537.283307
701.078501	2533.807431
701.414042	2536.887576
701.749533	2536.340611
702.084974	2536.980838
702.420366	2534.820703
702.755709	2534.659386
703.091002	2536.776671
703.426246	2535.985210
703.761440	2536.401105
704.096584	2537.946219
704.431679	2534.664427
704.766725	2537.487474
705.101721	2534.908923
705.436668	2534.641742
705.771565	2537.623585
706.106413	2535.967566
706.441212	2533.855322
706.775961	2538.788091
707.110661	2536.035621
707.445311	2537.583256
707.779913	2534.919006
708.114465	2539.299768
708.448967	2535.145858
708.783421	2537.363965
709.117825	2533.547812
709.452180	2537.537885
709.786485	2535.665097
710.120742	2537.084181
710.454949	2537.991589
710.789107	2533.688964
711.123216	2533.454551
711.457275	2534.868594
711.791286	2533.255425
712.125247	2532.426155
712.459159	2534.170394
712.793023	2537.290869
713.126837	2537.757175
713.460602	2536.814480
713.794318	2539.002340
714.127985	2537.384130
714.461602	2538.379758
714.795171	2538.712474
715.128691	2535.551671
715.462162	2536.575025
715.795584	2536.383461
716.128957	2535.009747
716.462281	2536.360776
716.795556	2538.515869
717.128782	2534.490508
717.461960	2533.696526
717.795088	2532.569828
718.128167	2536.627957
718.461198	2535.372710
718.794180	2535.622247
719.127113	2535.655014
719.459997	2538.896476
719.792833	2536.690971
720.125619	2535.647453
720.458357	2534.563604
720.791046	2536.872453
721.123686	2534.266176
721.456278	2535.317257
721.788821	2534.956814
722.121315	2536.343132
722.453761	2532.678213
722.786158	2533.658717
723.118506	2532.988244
723.450805	2537.356404
723.783056	2534.200641
724.115259	2533.497400
724.447412	2535.972607
724.779518	2536.000333
725.111574	2533.046217
725.443582	2535.544109
725.775542	2535.576876
726.107453	2535.743234
726.439315	2535.433203
726.771129	2540.711292
727.102895	2535.619726
727.434612	2534.235929
727.766281	2536.403626
728.097901	2535.312216
728.429473	2531.138140
728.760996	2532.431196
729.092471	2530.266021
729.423897	2533.951104
729.755276	2534.750127
730.086606	2537.230375
730.417887	2533.872966
730.749120	2535.261804
731.080305	2535.208872
731.411442	2534.182997
731.742530	2537.058976
732.073570	2536.078471
732.404562	2535.067720
732.735506	2535.604603
733.066401	2538.518390
733.397249	2534.682072
733.728048	2537.505118
734.058798	2536.564943
734.389501	2534.150230
734.720156	2537.185004
735.050762	2533.061341
735.381320	2536.401105
735.711831	2534.467822
736.042293	2535.947401
736.372707	2533.704088
736.703073	2536.002854
737.033391	2534.228368
737.363661	2534.523275
737.693883	2534.755168
738.024056	2539.458565
738.354182	2532.801721
738.684260	2535.435724
739.014290	2534.593851
739.344272	2532.572349
739.674207	2532.239633
740.004093	2535.914634
740.333931	2534.974458
740.663722	2535.400436
740.993464	2538.155427
741.323159	2534.114942
741.652806	2534.946732
741.982405	2537.195087
742.311956	2534.445137
742.641460	2533.595703
742.970915	2534.903882
743.300323	2533.842719
743.629683	2533.885569
743.958996	2534.482946
744.288260	2534.863553
744.617477	2533.363810
744.946647	2532.169056
745.275768	2532.516896
745.604842	2533.031094
745.933869	2531.697708
746.262847	2529.882893
746.591778	2532.290044
746.920662	2533.517565
747.249498	2534.934129
747.578286	2536.358255
747.907027	2535.478574
748.235720	2533.857843
748.564365	2539.014943
748.892963	2535.569315
749.221514	2534.992102
749.550017	2534.437576
749.878473	2536.340611
750.206881	2535.027391
750.535242	2534.296423
750.863555	2533.580579
751.191821	2536.948070
751.520039	2535.440765
751.848210	2535.405477
752.176334	2534.409849
752.504411	2534.427493
752.832440	2536.219623
753.160421	2537.326157
753.488356	2533.973789
753.816243	2534.596372
754.144082	2533.462112
754.471875	2535.801208
754.799620	2533.789787
755.127318	2531.763243
755.454969	2534.432534
755.782572	2535.478574
756.110129	2533.935981
756.437638	2535.160981
756.765100	2531.601927
757.092515	2533.169725
757.419882	2532.131248
757.747203	2535.488656
758.074477	2535.375230
758.401703	2532.448840
758.728882	2534.424973
759.056014	2533.633512
759.383099	2532.340456
759.710138	2535.786084
760.037129	2532.617719
760.364073	2535.007226
760.690970	2533.472195
761.017820	2534.732483
761.344623	2534.180477
761.671379	2532.506814
761.998088	2529.409025
762.324751	2533.774664
762.651366	2532.642925
762.977935	2534.263656
763.304456	2532.272400
763.630931	2535.697864
763.957359	2535.201310
764.283740	2536.295241
764.610074	2538.437731
764.936362	2534.853471
765.262602	2534.377082
765.588796	2534.278779
765.914943	2534.364479
766.241044	2534.750127
766.567097	2532.249715
766.893104	2535.362627
767.219064	2533.499921
767.544978	2532.121165
767.870845	2535.604603
768.196665	2535.718029
768.522438	2531.969931
768.848165	2533.157123
769.173846	2533.588141
769.499479	2533.998995
769.825066	2534.621578
770.150607	2532.988244
770.476101	2532.892462
770.801548	2534.792977
771.126949	2531.430527
771.452303	2535.186187
771.777611	2534.407329
772.102872	2534.908923
772.428087	2534.523275
772.753256	2533.719211
773.078378	2535.962525
773.403453	2534.399767
773.728482	2533.298275
774.053465	2532.721063
774.378401	2531.485980
774.703291	2535.576876
775.028135	2533.315919
775.352932	2530.860877
775.677683	2533.603265
776.002388	2532.763913
776.327046	2535.914634
776.651658	2531.644776
776.976224	2531.886752
777.300743	2534.520755
777.625216	2532.965559
777.949643	2532.937832
778.274024	2535.468492
778.598359	2530.896165
778.922647	2532.773995
779.246889	2531.874149
779.571086	2527.032121
779.895236	2530.641587
780.219339	2534.611495
780.543397	2532.194262
780.867409	2532.884900
781.191374	2532.348017
781.515294	2532.892462
781.839167	2531.344828
782.162995	2532.847092
782.486776	2532.942873
782.810511	2531.559077
783.134201	2534.543440
783.457844	2531.286854
783.781441	2533.323481
784.104993	2532.116124
784.428498	2535.370189
784.751958	2531.072605
785.075372	2533.872966
785.398739	2536.159130
785.722061	2532.179139
786.045337	2531.503624
786.368568	2531.707791
786.691752	2529.532533
787.014891	2533.094108
787.337983	2536.017977
787.661030	2535.428162
787.984031	2533.618388
788.306987	2532.600075
788.629897	2532.451361
788.952760	2531.327184
789.275579	2530.981865
789.598351	2533.583100
789.921078	2532.088398
790.243759	2534.029242
790.566395	2530.823068
790.888984	2532.751310
791.211529	2531.478418
791.534027	2533.245343
791.856480	2533.010929
792.178888	2535.244160
792.501249	2533.893131
792.823566	2534.266176
793.145836	2533.199972
793.468062	2534.823224
793.790241	2530.734848
794.112375	2533.026052
794.434464	2531.763243
794.756507	2530.989426
795.078505	2534.208203
795.400457	2532.811803
795.722364	2527.984899
796.044226	2530.500434
796.366042	2530.003881
796.687812	2528.746113
797.009538	2532.020342
797.331218	2531.367513
797.652852	2532.002698
797.974442	2535.682741
798.295986	2531.889272
798.617484	2532.022863
798.938938	2530.409694
799.260346	2534.455220
799.581709	2534.235929
799.903026	2534.112421
800.224299	2532.864736
800.545526	2532.295085
800.866708	2532.506814
801.187845	2533.424304
801.508936	2532.131248
801.829983	2535.718029
802.150984	2531.770805
802.471940	2531.899355
802.792851	2533.250384
803.113717	2532.179139
803.434538	2532.196783
803.755314	2532.786598
804.076045	2531.312060
804.396731	2530.792821
804.717372	2533.341125
805.037967	2530.686957
805.358518	2531.523789
805.679024	2533.235260
805.999485	2532.983203
806.319901	2531.203675
806.640272	2531.445651
806.960598	2532.526978
807.280879	2531.644776
807.601115	2529.313243
807.921306	2533.031094
808.241453	2532.988244
808.561554	2531.332225
808.881611	2530.417255
809.201623	2531.743079
809.521590	2533.411701
809.841513	2529.971113
810.161390	2532.912627
810.481223	2533.754499
810.801011	2532.826927
811.120755	2532.005219
811.440453	2532.814324
811.760107	2528.945238
812.079716	2531.249046
812.399281	2528.849457
812.718801	2530.916330
813.038276	2527.198479
813.357707	2533.570497
813.677093	2532.509334
813.996434	2532.169056
814.315731	2531.125537
814.634983	2531.909437
814.954191	2534.500590
815.273354	2529.693850
815.592473	2531.589324
815.911547	2532.148892
816.230577	2533.860363
816.549562	2531.135620
816.868502	2529.991278
817.187399	2532.353058
817.506250	2532.579910
817.825058	2533.409180
818.143821	2531.294416
818.462539	2530.329035
818.781213	2530.165198
819.099843	2531.934643
819.418429	2533.056299
819.736970	2531.042358
820.055466	2532.037986
820.373919	2532.083357
820.692327	2532.776515
821.010691	2534.067051
821.329011	2533.991433
821.647286	2538.241126
821.965517	2539.771116
822.283704	2541.729605
822.601847	2544.313196
822.919945	2539.090561
823.237999	2536.953111
823.556010	2535.670138
823.873976	2535.589479
824.191897	2538.568801
824.509775	2533.988913
824.827609	2535.574356
825.145398	2532.559746
825.463144	2533.923378
825.780845	2532.153933
826.098502	2536.819521
826.416116	2535.836496
826.733685	2532.166536
827.051210	2536.564943
827.368692	2537.016126
827.686129	2533.184849
828.003522	2534.215765
828.320872	2529.466998
828.638177	2533.356248
828.955439	2528.388191
829.272656	2532.408511
829.589830	2528.105886
829.906960	2530.099663
830.224046	2530.853315
830.541088	2533.005888
830.858086	2529.976154
831.175041	2532.471526
831.491952	2529.250228
831.808819	2530.477749
832.125642	2534.334232
832.442421	2530.114786
832.759157	2533.938501
833.075849	2531.642256
833.392497	2533.525127
833.709101	2529.734179
834.025662	2533.081505
834.342179	2532.010260
834.658653	2532.025383
834.975083	2530.704601
835.291469	2537.336239
835.607811	2530.492873
835.924110	2530.835671
836.240366	2530.112266
836.556578	2530.918850
836.872746	2530.329035
837.188871	2529.754344
837.504952	2531.370033
837.820990	2531.276772
838.136984	2530.109745
838.452935	2531.808614
838.768842	2532.713501
839.084706	2529.759385
839.400526	2531.382636
839.716303	2531.609488
840.032037	2531.622091
840.347727	2532.244674
840.663373	2531.531350
840.978977	2531.362472
841.294537	2532.446320
841.610054	2531.705270
841.925527	2531.876669
842.240957	2534.407329
842.556344	2529.656041
842.871687	2531.556556
843.186987	2531.052441
843.502244	2530.475229
843.817458	2531.846423
844.132629	2532.373223
844.447756	2531.982534
844.762840	2526.918695
845.077881	2528.347862
845.392879	2529.333407
845.707833	2529.131761
846.022745	2528.176463
846.337613	2530.444982
846.652438	2530.417255
846.967221	2531.286854
847.281960	2529.308202
847.596656	2530.555887
847.911309	2529.885414
848.225919	2530.815507
848.540485	2530.384488
848.855009	2530.084539
849.169490	2530.911288
849.483928	2532.844571
849.798323	2529.996319
850.112675	2531.508665
850.426984	2531.624612
850.741251	2530.253418
851.055474	2528.874662
851.369654	2528.778880
851.683792	2528.594878
851.997887	2529.845084
852.311938	2531.054961
852.625947	2529.227543
852.939914	2527.352234
853.253837	2533.726773
853.567718	2529.842564
853.881555	2530.694519
854.195350	2528.005063
854.509103	2530.248377
854.822812	2529.701412
855.136479	2530.876000
855.450103	2530.387008
855.763685	2532.738707
856.077224	2528.259642
856.390720	2530.876000
856.704173	2530.500434
857.017584	2530.928932
857.330953	2528.476411
857.644278	2528.456247
857.957561	2532.925229
858.270802	2532.022863
858.584000	2527.780732
858.897155	2529.925743
859.210268	2529.456916
859.523339	2532.506814
859.836367	2530.293747
860.149352	2530.437420
860.462295	2533.366330
860.775195	2526.006246
861.088054	2526.540608
861.400869	2527.238808
861.713642	2527.397604
862.026373	2530.913809
862.339062	2529.759385
862.651708	2529.088911
862.964312	2530.180321
863.276873	2528.355423
863.589392	2529.923222
863.901869	2528.746113
864.214303	2532.761392
864.526696	2528.766278
864.839045	2529.358613
865.151353	2528.494055
865.463619	2532.620240
865.775842	2530.845753
866.088023	2527.513551
866.400162	2528.483973
866.712258	2530.240815
867.024313	2531.564118
867.336325	2529.895496
867.648296	2531.443130
867.960224	2528.768798
868.272110	2529.114117
868.583954	2532.171577
868.895755	2528.483973
869.207515	2531.576721
869.519233	2532.738707
869.830909	2531.518748
870.142542	2530.293747
870.454134	2530.162677
870.765684	2530.394570
871.077191	2530.054292
871.388657	2531.564118
871.700081	2531.488501
872.011463	2530.298788
872.322803	2529.804755
872.634101	2529.832482
872.945357	2526.759898
873.256571	2531.916999
873.567744	2529.610671
873.878874	2533.041176
874.189963	2529.741741
874.501010	2530.213089
874.812015	2528.559590
875.122979	2529.933305
875.433900	2529.174611
875.744780	2532.859694
876.055618	2526.890968
876.366415	2531.775846
876.677169	2528.718387
876.987882	2526.800227
877.298554	2525.950793
877.609183	2529.862728
877.919771	2527.566483
878.230317	2528.985568
878.540822	2529.867770
878.851285	2531.317101
879.161707	2529.338448
879.472087	2529.598068
879.782425	2530.089580
880.092722	2532.620240
880.402977	2530.129910
880.713191	2535.009747
881.023363	2535.163502
881.333494	2533.812472
881.643583	2534.787936
881.953631	2532.373223
882.263637	2536.864891
882.573602	2534.687113
882.883526	2533.636032
883.193408	2530.628984
883.503248	2532.088398
883.813048	2531.470857
884.122806	2531.765764
884.432522	2531.223840
884.742197	2529.756864
885.051831	2531.596885
885.361424	2528.546987
885.670975	2531.576721
885.980485	2529.691329
886.289954	2532.335414
886.599382	2530.883562
886.908768	2529.086391
887.218113	2530.087060
887.527417	2531.662420
887.836680	2528.206709
888.145901	2531.160826
888.455082	2527.548839
888.764221	2529.320804
889.073319	2528.141174
889.382376	2528.955321
889.691392	2528.005063
890.000366	2529.111597
890.309300	2529.391381
890.618193	2533.152081
890.927044	2531.483459
891.235855	2529.618232
891.544625	2529.207378
891.853353	2529.754344
892.162041	2529.267872
892.470687	2529.464477
892.779293	2529.409025
893.087858	2528.373068
893.396381	2522.071625
893.704864	2527.417769
894.013306	2526.096987
894.321707	2530.661751
894.630068	2530.102183
894.938387	2531.642256
895.246665	2531.223840
895.554903	2532.736186
895.863100	2529.136802
896.171256	2532.524458
896.479371	2529.197296
896.787446	2532.451361
897.095480	2530.268541
897.403473	2530.094622
897.711425	2527.450536
898.019336	2528.420958
898.327207	2528.846936
898.635038	2531.193593
898.942827	2530.228212
899.250576	2531.128058
899.558284	2525.902902
899.865952	2531.422966
900.173579	2530.480270
900.481165	2529.519930
900.788711	2530.475229
901.096216	2531.012112
901.403681	2529.093952
901.711105	2530.810465
902.018489	2529.335928
902.325832	2529.981196
902.633135	2527.276617
902.940397	2527.024559
903.247619	2529.509848
903.554800	2530.525640
903.861941	2528.887265
904.169041	2533.688964
904.476101	2532.332894
904.783121	2531.160826
905.090100	2531.085208
905.397039	2530.172759
905.703938	2530.399611
906.010796	2529.119158
906.317614	2527.632018
906.624391	2528.773839
906.931129	2528.967924
907.237826	2530.323994
907.544483	2529.489683
907.851099	2526.235618
908.157675	2529.542615
908.464211	2529.981196
908.770707	2523.568848
909.077163	2525.512213
909.383578	2523.899043
909.689954	2525.489527
909.996289	2525.146729
910.302584	2528.015146
910.608839	2527.385001
910.915054	2529.101514
911.221229	2527.616894
911.527363	2530.034128
911.833458	2529.003212
912.139513	2531.493542
912.445527	2529.308202
912.751502	2529.197296
913.057436	2527.246370
913.363331	2529.703932
913.669186	2529.570342
913.975000	2531.128058
914.280775	2530.891124
914.586510	2529.323325
914.892205	2527.962213
915.197859	2528.786442
915.503475	2529.812317
915.809050	2532.083357
916.114585	2532.103521
916.420081	2530.684437
916.725536	2528.337779
917.030952	2532.768954
917.336328	2529.792152
917.641665	2530.298788
917.946961	2529.797193
918.252218	2526.815351
918.557435	2529.225022
918.862612	2528.360465
919.167750	2529.620753
919.472848	2526.780063
919.777906	2529.577903
920.082925	2529.613191
920.387904	2527.614374
920.692843	2529.681247
920.997743	2527.904240
921.302603	2529.681247
921.607423	2529.661082
921.912204	2529.613191
922.216946	2529.313243
922.521647	2526.608664
922.826310	2526.369209
923.130932	2529.565300
923.435516	2528.178983
923.740059	2527.458098
924.044564	2527.483304
924.349028	2530.089580
924.653454	2524.123375
924.957840	2526.452388
925.262186	2524.962727
925.566493	2526.449867
925.870761	2519.782941
926.174989	2528.108407
926.479178	2528.922553
926.783328	2528.373067
927.087438	2527.697553
927.391509	2529.991278
927.695541	2528.698222
927.999533	2529.131761
928.303486	2528.340300
928.607400	2528.546987
928.911275	2526.485155
929.215110	2531.639735
929.518906	2526.850639
929.822663	2529.550177
930.126381	2526.961544
930.430060	2526.354085
930.733699	2525.819723
931.037299	2531.168387
931.340861	2525.045906
931.644383	2525.751668
931.947866	2525.718900
932.251309	2526.250742
932.554714	2529.333407
932.858080	2529.993798
933.161407	2526.412059
933.464694	2526.706966
933.767943	2527.415248
934.071153	2531.102852
934.374323	2528.196627
934.677455	2529.451874
934.980548	2527.732841
935.283602	2527.095135
935.586617	2526.681760
935.889593	2526.255783
936.192530	2526.669157
936.495428	2528.819210
936.798287	2525.527336
937.101108	2526.069260
937.403890	2526.137316
937.706632	2531.659900
938.009336	2524.380474
938.312002	2525.423992
938.614628	2524.887110
938.917216	2530.664272
939.219765	2529.673685
939.522275	2527.332069
939.824747	2527.826102
940.127179	2525.119003
940.429573	2523.331914
940.731929	2523.916687
941.034246	2520.907119
941.336524	2526.832995
941.638763	2526.769981
941.940964	2528.347862
942.243126	2528.181504
942.545250	2527.498427
942.847335	2529.477080
943.149381	2526.389373
943.451389	2527.269055
943.753359	2527.316946
944.055290	2529.978675
944.357182	2523.725124
944.659036	2529.298119
944.960851	2527.727800
945.262628	2529.623274
945.564367	2528.327697
945.866067	2528.920033
946.167729	2527.710156
946.469352	2527.069929
946.770937	2528.085722
947.072484	2526.144877
947.373992	2528.105886
947.675462	2526.447347
947.976893	2527.566483
948.278286	2528.299971
948.579641	2526.858201
948.880958	2527.838705
949.182236	2529.981196
949.483476	2525.613036
949.784678	2526.447347
950.085841	2526.507841
950.386967	2530.601258
950.688054	2524.710669
950.989103	2526.177645
951.290114	2528.451205
951.591087	2528.786442
951.892021	2527.125382
952.192917	2529.058664
952.493776	2525.045906
952.794596	2527.243849
953.095378	2526.553211
953.396122	2528.902389
953.696828	2526.890968
953.997496	2528.892306
954.298126	2529.676206
954.598718	2525.975999
954.899272	2528.786442
955.199788	2525.812161
955.500266	2526.817872
955.800706	2526.432223
956.101108	2520.642458
956.401472	2523.415093
956.701798	2524.196472
957.002087	2524.904754
957.302337	2527.662265
957.602550	2525.444157
957.902724	2525.605474
958.202861	2525.963396
958.502960	2526.152439
958.803022	2527.253931
959.103045	2524.317459
959.403031	2524.985412
959.702979	2528.420958
960.002889	2527.982378
960.302762	2527.422810
960.602596	2527.135464
960.902393	2526.018849
961.202153	2526.573376
961.501875	2524.398118
961.801559	2526.966586
962.101205	2526.641431
962.400814	2526.303674
962.700385	2524.980371
962.999918	2527.760567
963.299414	2527.833664
963.598873	2526.890968
963.898293	2526.079343
964.197677	2529.950949
964.497022	2526.570855
964.796331	2526.903571
965.095601	2526.548170
965.394835	2526.323838
965.694030	2529.194776
965.993189	2528.247039
966.292309	2527.505989
966.591393	2527.700073
966.890439	2527.148067
967.189447	2525.950793
967.488419	2525.817203
967.787353	2527.586647
968.086249	2525.451719
968.385108	2525.623118
968.683930	2526.563293
968.982714	2529.348531
969.281462	2525.870135
969.580172	2527.034641
969.878844	2525.383663
970.177480	2528.365506
970.476078	2525.781914
970.774639	2526.671678
971.073162	2523.866276
971.371649	2526.512882
971.670098	2522.396780
971.968510	2527.488345
972.266885	2521.542304
972.565223	2525.073632
972.863524	2525.423992
973.161788	2526.260824
973.460014	2527.644621
973.758204	2528.746113
974.056356	2528.337779
974.354471	2524.917357
974.652550	2526.656555
974.950591	2527.420289
975.248595	2528.748633
975.546563	2526.989271
975.844493	2525.189579
976.142386	2526.966586
976.440243	2526.613705
976.738062	2527.649662
977.035845	2524.587161
977.333590	2524.733354
977.631299	2525.797038
977.928971	2524.700587
978.226606	2527.206040
978.524204	2524.350227
978.821765	2524.584640
979.119290	2526.384332
979.416777	2525.872655
979.714228	2527.019518
980.011642	2526.712007
980.309020	2528.889786
980.606360	2527.720238
980.903664	2525.093797
981.200931	2526.588499
981.498162	2527.720238
981.795356	2529.136802
982.092513	2526.016328
982.389633	2528.252080
982.686717	2529.013294
982.983764	2525.292923
983.280775	2526.913653
983.577749	2529.247708
983.874686	2524.498941
984.171587	2527.193438
984.468451	2527.455577
984.765279	2526.517923
985.062070	2524.871986
985.358824	2528.970444
985.655543	2527.195958
985.952224	2525.512213
986.248869	2524.927439
986.545478	2525.794517
986.842050	2524.783766
987.138586	2521.817047
987.435086	2525.396266
987.731549	2521.179341
988.027975	2529.610671
988.324366	2526.943900
988.620719	2528.267203
988.917037	2524.607326
989.213318	2524.985412
989.509563	2526.160001
989.805772	2524.698066
990.101944	2527.480783
990.398080	2526.911133
990.694180	2526.795186
990.990244	2523.624301
991.286271	2528.216792
991.582262	2526.008766
991.878217	2528.126051
992.174136	2526.729651
992.470019	2525.618077
992.765865	2526.364168
993.061676	2527.916843
993.357450	2527.662265
993.653188	2526.540608
993.948890	2526.812830
994.244556	2523.495751
994.540186	2525.547501
994.835780	2524.725793
995.131337	2527.468180
995.426859	2525.459281
995.722345	2523.836029
996.017795	2527.019518
996.313208	2528.385670
996.608586	2526.999353
996.903928	2525.829805
997.199234	2526.011287
997.494504	2526.611184
997.789738	2524.695546
998.084936	2527.785773
998.380099	2526.475073
998.675225	2527.674868
998.970316	2526.593540
999.265371	2526.235618
999.560390	2526.729651
999.855373	2525.267717
1000.150320	2528.531864
1000.445232	2526.641431
1000.740108	2525.852491
1001.034948	2528.582275
1001.329752	2527.170752
1001.624521	2528.254600
1001.919254	2522.832839
1002.213951	2525.287881
1002.508613	2523.389887
1002.803239	2524.360309
1003.097829	2520.554238
1003.392384	2527.493386
1003.686903	2526.964065
1003.981386	2525.149250
1004.275834	2525.713859
1004.570246	2527.841226
1004.864623	2525.643283
1005.158964	2526.429703
1005.453270	2527.087573
1005.747540	2527.914322
1006.041775	2523.795700
1006.335974	2526.530526
1006.630138	2525.706297
1006.924266	2523.750329
1007.218359	2524.977850
1007.512416	2524.821575
1007.806438	2526.172604
1008.100425	2525.131606
1008.394376	2527.001874
1008.688292	2525.595392
1008.982172	2525.492048
1009.276017	2525.033303
1009.569827	2524.756040
1009.863602	2527.785773
1010.157341	2527.218643
1010.451045	2526.064219
1010.744714	2525.194620
1011.038347	2525.981040
1011.331945	2522.961389
1011.625508	2523.294105
1011.919036	2526.598581
1012.212528	2527.122861
1012.505986	2525.580268
1012.799408	2525.212264
1013.092795	2524.730834
1013.386147	2527.105217
1013.679464	2526.364168
1013.972745	2523.921729
1014.265992	2525.756709
1014.559204	2525.827285
1014.852380	2526.790145
1015.145521	2526.361647
1015.438628	2524.098169
1015.731699	2524.960206
1016.024736	2524.516585
1016.317737	2526.752337
1016.610703	2526.351565
1016.903635	2525.575227
1017.196531	2520.707993
1017.489393	2522.847963
1017.782219	2520.977695
1018.075011	2523.762932
1018.367768	2526.497758
1018.660490	2524.995494
1018.953177	2524.995494
1019.245829	2524.995494
