Dividing Wavelength (nm)	Counts (n)	Blue Motor Position (mm): 0.000000	Red Motor Position (mm): 17.800000	
326.493990	2129.388426
326.888308	2129.388426
327.282561	2129.388426
327.676750	2095.776533
328.070874	2093.500452
328.464933	2096.696543
328.858929	2108.185333
329.252859	2114.086003
329.646726	2126.076388
330.040528	2135.838582
330.434265	2154.437919
330.827938	2171.580363
331.221547	2190.819927
331.615091	2209.147041
332.008571	2229.334342
332.401986	2249.861920
332.795338	2266.654004
333.188625	2285.787703
333.581847	2304.361835
333.975006	2323.893785
334.368100	2341.653770
334.761129	2360.709332
335.154095	2377.778679
335.546996	2392.670247
335.939833	2409.081723
336.332606	2425.115113
336.725315	2438.103646
337.117960	2446.154369
337.510540	2455.528394
337.903056	2465.272945
338.295508	2474.793164
338.687896	2478.526138
339.080220	2491.507109
339.472480	2496.437358
339.864676	2501.811228
340.256807	2503.615961
340.648875	2508.082423
341.040879	2509.410767
341.432818	2511.449914
341.824694	2515.518125
342.216506	2514.038547
342.608253	2516.223887
342.999937	2512.591735
343.391557	2515.134998
343.783113	2513.680625
344.174605	2511.643998
344.566033	2511.712054
344.957397	2509.577125
345.348697	2507.018740
345.739934	2504.803153
346.131106	2503.820128
346.522215	2503.298368
346.913260	2500.094715
347.304241	2498.587410
347.695159	2495.996257
348.086012	2496.165136
348.476802	2494.050372
348.867528	2490.546770
349.258191	2491.565083
349.648789	2488.573158
350.039324	2487.426295
350.429796	2487.698518
350.820203	2486.130719
351.210548	2486.201295
351.600828	2482.065028
351.991045	2485.447642
352.381198	2481.570995
352.771288	2481.034112
353.161314	2484.386480
353.551276	2484.477220
353.941175	2481.056797
354.331010	2481.959164
354.720782	2482.339771
355.110490	2482.738022
355.500135	2483.131232
355.889717	2483.035450
356.279235	2482.407827
356.668689	2484.293218
357.058080	2482.586788
357.447408	2482.319607
357.836672	2482.004534
358.225873	2483.103506
358.615010	2481.528145
359.004084	2485.016624
359.393095	2487.887561
359.782043	2488.842860
360.170927	2487.968219
360.559748	2487.005359
360.948505	2490.750936
361.337199	2488.290853
361.725830	2490.816471
362.114398	2492.152377
362.502903	2490.554331
362.891344	2491.925525
363.279722	2492.971565
363.668037	2493.820999
364.056289	2491.567603
364.444478	2495.713952
364.832603	2492.626246
365.220665	2498.136227
365.608665	2492.961482
365.996601	2498.468943
366.384474	2497.322080
366.772284	2500.092194
367.160031	2498.698315
367.547715	2503.862977
367.935336	2505.443379
368.322893	2506.713750
368.710388	2512.916890
369.097820	2521.983405
369.485189	2520.382839
369.872495	2524.977850
370.259738	2532.731145
370.646918	2540.726415
371.034035	2547.037940
371.421090	2558.471277
371.808081	2569.977710
372.195010	2577.743608
372.581875	2593.819847
372.968678	2602.621702
373.355418	2615.043105
373.742096	2631.351238
374.128710	2647.976963
374.515262	2661.366268
374.901751	2675.221879
375.288177	2688.308714
375.674540	2712.914586
376.060841	2730.987123
376.447079	2751.403796
376.833254	2770.965993
377.219367	2784.279681
377.605417	2820.384425
377.991404	2829.859273
378.377329	2851.899198
378.763191	2866.808410
379.148991	2905.345511
379.534727	2928.870055
379.920402	2959.222843
380.306013	2971.283803
380.691563	3022.005373
381.077049	3043.173178
381.462474	3059.705642
381.847835	3097.511775
382.233134	3123.352730
382.618371	3119.803757
383.003545	3192.270344
383.388657	3194.869059
383.773706	3225.534397
384.158693	3244.600041
384.543618	3268.543002
384.928480	3307.778302
385.313280	3352.425281
385.698017	3349.869416
386.082692	3404.273548
386.467305	3408.951739
386.851856	3441.568004
387.236344	3462.224132
387.620770	3495.520953
388.005133	3520.698996
388.389435	3548.538768
388.773674	3560.052764
389.157851	3603.109259
389.541965	3617.239613
389.926018	3578.115218
390.310008	3655.990963
390.693936	3670.126358
391.077802	3707.277141
391.461606	3700.973178
391.845348	3764.590019
392.229027	3760.849483
392.612645	3778.982514
392.996200	3850.874409
393.379694	3893.285636
393.763125	3955.561530
394.146494	3920.679266
394.529801	3983.905417
394.913047	4033.623797
395.296230	4002.403932
395.679351	4053.947209
396.062410	4075.598965
396.445408	4060.412489
396.828343	4091.788630
397.211217	4115.335860
397.594028	4033.248231
397.976778	4101.875979
398.359466	4128.044609
398.742092	4154.893794
399.124656	4076.846650
399.507158	4159.514012
399.889598	4183.194832
400.271977	4243.232454
400.654294	4213.945870
401.036549	4216.842013
401.418742	4190.479299
401.800874	4287.461017
402.182944	4308.757371
402.564952	4368.981516
402.946898	4352.426367
403.328783	4345.837578
403.710606	4251.358794
404.092367	4435.161783
404.474067	4396.049991
404.855705	4394.172162
405.237282	4316.818176
405.618797	4413.840223
406.000250	4436.122123
406.381642	4500.757277
406.762972	4452.493270
407.144240	4443.320891
407.525447	4432.994087
407.906593	4475.352383
408.287677	4492.404085
408.668700	4412.075819
409.049661	4435.260086
409.430560	4452.359680
409.811399	4363.766442
410.192176	4478.782888
410.572891	4406.255807
410.953545	4466.447184
411.334138	4341.945808
411.714669	4370.708111
412.095139	4261.582254
412.475547	4339.142926
412.855894	4293.376811
413.236180	4269.829581
413.616405	4203.603943
413.996568	4233.293819
414.376670	4155.012261
414.756711	4092.471707
415.136691	4074.837751
415.516609	4089.867951
415.896466	4083.435438
416.276262	4061.120771
416.655997	4011.777957
417.035670	4080.690530
417.415283	4092.000359
417.794834	4012.191332
418.174324	3947.515848
418.553753	3855.214842
418.933121	3905.283582
419.312428	3889.106519
419.691674	3812.110456
420.070859	3824.705779
420.449983	3738.330649
420.829045	3743.293665
421.208047	3658.652692
421.586988	3635.170997
421.965867	3597.868979
422.344686	3592.762291
422.723444	3501.429186
423.102141	3399.003022
423.480777	3452.315744
423.859352	3333.707477
424.237866	3369.066130
424.616319	3328.648679
424.994712	3315.826504
425.373044	3242.618868
425.751314	3232.153432
426.129524	3150.186792
426.507673	3151.333654
426.885762	3135.595172
427.263789	3086.496854
427.641756	3032.327135
428.019662	3022.537214
428.397508	2987.896926
428.775292	2949.266564
429.153016	2932.489604
429.530679	2894.653224
429.908282	2877.599000
430.285824	2842.633557
430.663305	2844.529031
431.040726	2795.662606
431.418086	2777.033022
431.795385	2764.896444
432.172624	2745.939185
432.549802	2729.883110
432.926920	2712.637323
433.303977	2697.919674
433.680974	2683.406192
434.057910	2672.358504
434.434786	2657.769404
434.811601	2646.721716
435.188355	2643.712147
435.565050	2631.038686
435.941683	2620.880761
436.318257	2614.206273
436.694770	2607.360387
437.071222	2599.276896
437.447614	2589.134095
437.823946	2582.988928
438.200218	2581.521952
438.576429	2578.119174
438.952580	2572.868812
439.328670	2571.827814
439.704700	2562.363047
440.080670	2561.962276
440.456580	2562.562173
440.832429	2558.526729
441.208218	2552.691594
441.583947	2556.507747
441.959616	2554.450956
442.335224	2551.670760
442.710773	2549.566078
443.086261	2548.343598
443.461689	2548.537683
443.837057	2548.441901
444.212365	2547.673125
444.587612	2549.371994
444.962800	2546.952240
445.337927	2545.875954
445.712995	2544.076262
446.088002	2548.275543
446.462949	2543.554502
446.837837	2545.228165
447.212664	2544.993752
447.587431	2546.962322
447.962139	2548.693959
448.336786	2551.123795
448.711374	2551.433826
449.085901	2546.987528
449.460369	2546.503577
449.834776	2546.377548
450.209124	2546.571633
450.583412	2546.737991
450.957640	2547.365615
451.331808	2546.798485
451.705917	2543.320089
452.079965	2544.935778
452.453954	2546.054915
452.827883	2546.390151
453.201752	2544.030891
453.575562	2542.901673
453.949311	2544.237579
454.323001	2541.853113
454.696632	2543.168854
455.070202	2545.593649
455.443713	2545.631458
455.817164	2541.507794
456.190556	2540.633154
456.563888	2546.992569
456.937160	2541.548123
457.310373	2545.361756
457.683526	2547.342929
458.056619	2546.180943
458.429653	2546.460728
458.802628	2544.938299
459.175542	2546.387631
459.548398	2548.948537
459.921194	2548.167158
460.293930	2551.474155
460.666607	2553.064639
461.039224	2554.080432
461.411782	2554.360216
461.784280	2553.215874
462.156719	2552.013558
462.529099	2556.701832
462.901419	2549.951727
463.273680	2551.181768
463.645882	2551.083466
464.018024	2547.559699
464.390106	2550.687735
464.762130	2554.977757
465.134094	2554.019938
465.505999	2557.014383
465.877845	2562.758778
466.249631	2567.142061
466.621358	2568.054510
466.993026	2565.423028
467.364634	2567.338666
467.736184	2563.378840
468.107674	2559.855073
468.479105	2561.551422
468.850477	2559.976061
469.221790	2560.170145
469.593043	2558.201575
469.964238	2558.345248
470.335373	2559.746688
470.706449	2563.131823
471.077467	2557.783159
471.448425	2565.302040
471.819324	2569.821434
472.190164	2571.888308
472.560945	2564.984447
472.931667	2560.313818
473.302330	2559.088818
473.672934	2560.276010
474.043479	2561.261555
474.413965	2563.971175
474.784393	2558.481359
475.154761	2558.524209
475.525070	2558.582182
475.895321	2556.225443
476.265513	2558.090669
476.635645	2563.905640
477.005719	2563.814900
477.375734	2560.066802
477.745691	2562.632749
478.115588	2566.509396
478.485427	2566.461505
478.855207	2570.680951
479.224928	2574.348391
479.594591	2574.406364
479.964194	2574.315623
480.333739	2574.497105
480.703226	2572.309244
481.072653	2575.878381
481.442022	2573.776220
481.811333	2577.128587
482.180584	2577.970460
482.549777	2575.543144
482.918912	2574.562640
483.287988	2572.389902
483.657005	2574.502146
484.025964	2572.256312
484.394864	2572.198338
484.763706	2574.189594
485.132489	2570.431414
485.501213	2570.605334
485.869879	2571.389233
486.238487	2570.204562
486.607036	2570.088616
486.975527	2569.211455
487.343959	2570.328070
487.712333	2571.502659
488.080648	2566.219530
488.448905	2570.199521
488.817104	2569.975190
489.185244	2570.444017
489.553326	2570.615416
489.921350	2572.415108
490.289315	2575.999368
490.657222	2579.429874
491.025070	2577.940213
491.392861	2579.155131
491.760593	2576.919379
492.128267	2575.457444
492.495883	2573.135993
492.863440	2572.158009
493.230939	2568.195662
493.598380	2572.203380
493.965763	2564.024107
494.333088	2565.110476
494.700354	2567.769685
495.067563	2566.456464
495.434713	2563.988819
495.801805	2568.687175
496.168839	2565.198696
496.535815	2565.798594
496.902733	2567.590724
497.269593	2568.714901
497.636395	2567.875549
498.003139	2568.583831
498.369825	2568.765313
498.736453	2571.167423
499.103023	2569.420663
499.469535	2569.168605
499.835989	2570.227247
500.202385	2571.046435
500.568723	2566.093501
500.935003	2568.656928
501.301226	2566.625343
501.667390	2567.862946
502.033497	2569.937381
502.399546	2570.519634
502.765537	2567.220199
503.131470	2567.386557
503.497345	2568.787998
503.863163	2569.672720
504.228923	2568.762792
504.594625	2570.948132
504.960269	2568.213306
505.325856	2569.962587
505.691385	2569.375292
506.056856	2568.115004
506.422270	2571.941240
506.787625	2568.346897
507.152924	2568.583831
507.518164	2569.249263
507.883347	2568.858574
508.248472	2571.041394
508.613540	2572.223544
508.978550	2569.095508
509.343503	2569.249263
509.708398	2569.960066
510.073236	2571.689182
510.438016	2569.009809
510.802738	2570.133986
511.167403	2571.517783
511.532010	2569.518965
511.896561	2572.034501
512.261053	2571.573235
512.625488	2570.053328
512.989866	2566.353121
513.354186	2568.069633
513.718449	2566.093501
514.082655	2568.712381
514.446803	2569.685323
514.810894	2573.388051
515.174927	2570.953173
515.538904	2570.378482
515.902822	2571.243040
516.266684	2572.896538
516.630488	2572.818400
516.994235	2570.595252
517.357925	2573.708164
517.721558	2572.954512
518.085133	2571.842937
518.448651	2572.563822
518.812112	2571.863102
519.175516	2570.534758
519.538863	2572.601631
519.902152	2572.591548
520.265385	2572.707495
520.628560	2572.999882
520.991678	2571.356466
521.354739	2575.187743
521.717743	2572.221024
522.080690	2575.152455
522.443580	2573.889646
522.806413	2572.515931
523.169189	2574.590366
523.531908	2572.387382
523.894569	2573.269584
524.257174	2574.630695
524.619722	2573.468709
524.982213	2572.488205
525.344647	2573.075499
525.707025	2574.885273
526.069345	2571.863102
526.431608	2573.529203
526.793815	2575.008782
527.155964	2574.756724
527.518057	2571.222875
527.880093	2571.999213
528.242072	2573.836713
528.603995	2571.623647
528.965860	2570.832186
529.327669	2574.597928
529.689421	2574.474419
530.051117	2573.105746
530.412755	2572.876374
530.774337	2570.869994
531.135862	2571.525344
531.497331	2570.106260
531.858743	2568.803121
532.220098	2573.957701
532.581396	2566.403532
532.942638	2571.512742
533.303824	2573.456106
533.664953	2571.669017
534.026025	2570.005437
534.387040	2571.487536
534.747999	2570.764130
535.108902	2572.047104
535.469748	2569.105591
535.830537	2575.767475
536.191270	2570.950653
536.551947	2572.281518
536.912567	2570.486867
537.273131	2575.308730
537.633638	2570.401167
537.994089	2574.179512
538.354483	2571.752196
538.714821	2569.370251
539.075103	2571.485015
539.435328	2568.934191
539.795497	2570.554922
540.155609	2572.009295
540.515665	2571.414439
540.875665	2572.286559
541.235609	2571.918554
541.595496	2570.456620
541.955328	2572.939388
542.315102	2573.299831
542.674821	2573.299831
543.034483	2571.527865
543.394090	2571.994172
543.753640	2570.078533
544.113134	2571.792526
544.472571	2573.498956
544.831953	2572.740262
545.191278	2571.404357
545.550548	2568.911506
545.909761	2571.278328
546.268918	2568.263718
546.628019	2572.150447
546.987064	2571.308575
547.346053	2570.933009
547.704986	2570.020560
548.063863	2571.487536
548.422684	2571.225396
548.781449	2571.207752
549.140158	2570.796898
549.498811	2569.249263
549.857408	2569.488718
550.215949	2566.184242
550.574434	2568.916547
550.932864	2568.372103
551.291237	2566.602658
551.649555	2570.126424
552.007817	2569.377813
552.366022	2571.701785
552.724173	2572.883935
553.082267	2571.285890
553.440305	2571.043914
553.798288	2570.645663
554.156215	2568.099880
554.514086	2572.765468
554.871902	2572.037022
555.229661	2568.414953
555.587365	2573.501477
555.945014	2569.478636
556.302606	2566.859757
556.660143	2572.457958
557.017625	2570.595252
557.375050	2571.941240
557.732421	2571.774882
558.089735	2572.011816
558.446994	2570.887638
558.804197	2571.086764
559.161345	2571.790005
559.518437	2572.752865
559.875474	2569.166084
560.232455	2572.210941
560.589381	2570.539799
560.946251	2572.599110
561.303065	2571.409398
561.659825	2570.383523
562.016528	2569.602144
562.373177	2571.827814
562.729770	2568.044428
563.086307	2572.130283
563.442789	2571.028791
563.799216	2569.846640
564.155587	2569.962587
564.511904	2570.580128
564.868164	2567.794891
565.224370	2571.341342
565.580520	2570.658266
565.936615	2571.371589
566.292654	2567.016032
566.648638	2569.322360
567.004567	2569.395457
567.360441	2572.127762
567.716260	2564.626525
568.072023	2569.927299
568.427732	2564.863460
568.783385	2566.547205
569.138982	2567.560477
569.494525	2565.659962
569.850013	2564.719787
570.205445	2568.780436
570.560823	2569.511403
570.916145	2569.977710
571.271412	2567.754561
571.626625	2570.456620
571.981782	2567.857905
572.336884	2568.735066
572.691931	2567.247925
573.046923	2567.905796
573.401860	2567.401681
573.756743	2567.058882
574.111570	2569.158523
574.466342	2566.884962
574.821059	2567.404201
575.175722	2567.474777
575.530330	2569.196331
575.884882	2569.423183
576.239380	2568.185580
576.593823	2569.032494
576.948211	2567.678944
577.302544	2567.494942
577.656823	2569.191290
578.011047	2568.029304
578.365216	2564.661813
578.719330	2567.545353
579.073389	2565.581824
579.427394	2564.649211
579.781344	2563.146947
580.135239	2568.152812
580.489080	2566.131310
580.842866	2567.366392
581.196597	2568.283883
581.550273	2564.492935
581.903895	2564.376988
582.257463	2567.376475
582.610975	2564.074519
582.964434	2563.739282
583.317837	2565.107956
583.671186	2564.805486
584.024481	2565.715415
584.377721	2565.465877
584.730906	2565.942267
585.084037	2565.982596
585.437113	2562.274827
585.790135	2565.728018
586.143103	2567.308419
586.496016	2564.291289
586.848874	2559.890361
587.201679	2563.489745
587.554428	2562.819272
587.907124	2565.523851
588.259765	2561.511092
588.612352	2562.519323
588.964884	2562.967986
589.317362	2564.308933
589.669786	2562.645352
590.022155	2567.000909
590.374470	2563.729200
590.726731	2565.481001
591.078937	2564.283727
591.431090	2562.816751
591.783188	2565.967472
592.135232	2564.717266
592.487222	2564.598799
592.839157	2563.477142
593.191038	2563.502348
593.542866	2563.857749
593.894639	2562.710887
594.246358	2562.887327
594.598022	2561.440516
594.949633	2562.128634
595.301190	2563.532595
595.652692	2561.987481
596.004141	2561.932029
596.355535	2562.713408
596.706876	2561.304405
597.058162	2562.554611
597.409395	2560.361709
597.760573	2561.692574
598.111698	2560.407080
598.462768	2561.135526
598.813785	2562.040413
599.164748	2562.781463
599.515657	2562.199210
599.866511	2560.780125
600.217312	2560.107131
600.568060	2562.368088
600.918753	2563.184755
601.269392	2562.947821
601.619978	2560.286092
601.970510	2562.438665
602.320988	2561.498489
602.671412	2560.112172
603.021783	2560.573438
603.372100	2561.846329
603.722363	2559.620660
604.072572	2560.036555
604.422728	2565.506207
604.772830	2556.003632
605.122878	2558.977912
605.472872	2558.103272
605.822813	2557.861297
606.172701	2557.919270
606.522534	2560.195351
606.872314	2561.248952
607.222041	2559.565207
607.571714	2561.460681
607.921333	2562.365568
608.270899	2558.060422
608.620411	2559.303067
608.969870	2561.518654
609.319276	2560.744837
609.668627	2564.545867
610.017926	2565.864129
610.367171	2568.193142
610.716362	2568.377144
611.065500	2567.908317
611.414585	2564.397153
611.763616	2563.550239
612.112594	2562.025290
612.461518	2561.916905
612.810389	2563.038562
613.159207	2562.789025
613.507971	2561.160732
613.856682	2559.595454
614.205340	2561.304405
614.553945	2565.332287
614.902496	2563.217523
615.250994	2559.756771
615.599439	2560.293654
615.947830	2562.834395
616.296169	2564.172822
616.644454	2561.914385
616.992686	2562.249621
617.340864	2562.897410
617.688990	2560.996895
618.037063	2561.271637
618.385082	2559.560166
618.733048	2564.145095
619.080961	2561.561504
619.428821	2563.444375
619.776628	2559.419013
620.124382	2563.603171
620.472083	2561.165773
620.819731	2560.848181
621.167326	2560.417162
621.514868	2561.248952
621.862357	2557.329455
622.209793	2560.591082
622.557176	2561.190979
622.904506	2556.474980
623.251783	2555.161759
623.599007	2555.365926
623.946179	2554.256872
624.293297	2556.376677
624.640363	2558.995557
624.987376	2558.672923
625.334336	2558.975392
625.681243	2555.668395
626.028097	2557.266441
626.374899	2558.529250
626.721647	2556.522871
627.068343	2557.465566
627.414987	2558.619991
627.761577	2559.182079
628.108115	2558.274672
628.454600	2557.717624
628.801032	2558.546894
629.147412	2556.653941
629.493739	2556.263251
629.840014	2556.537994
630.186236	2555.111347
630.532405	2554.869372
630.878521	2558.219219
631.224585	2556.245607
631.570597	2556.535473
631.916556	2555.456667
632.262462	2558.788869
632.608316	2556.248128
632.954117	2554.703014
633.299866	2555.945658
633.645562	2553.903991
633.991206	2556.038920
634.336797	2555.953220
634.682336	2554.476162
635.027823	2550.072714
635.373257	2554.632438
635.718639	2556.658982
636.063968	2557.881462
636.409245	2553.188147
636.754470	2553.508261
637.099642	2551.572457
637.444762	2556.306101
637.789829	2551.852242
638.134845	2556.956410
638.479808	2552.106820
638.824719	2554.372818
639.169577	2555.922973
639.514383	2554.120761
639.859137	2554.440874
640.203839	2554.166131
640.548489	2553.503219
640.893086	2551.317879
641.237632	2549.664381
641.582125	2550.702858
641.926566	2545.064328
642.270955	2552.283260
642.615292	2554.314845
642.959576	2552.028682
643.303809	2552.305945
643.647990	2553.122612
643.992118	2552.384083
644.336195	2549.613969
644.680219	2549.324103
645.024192	2552.379042
645.368112	2550.841490
645.711981	2552.295863
646.055797	2553.601522
646.399562	2554.115720
646.743274	2552.769732
647.086935	2553.432643
647.430544	2553.805689
647.774101	2550.796120
648.117606	2554.541697
648.461059	2552.767211
648.804460	2558.103272
649.147810	2554.597150
649.491108	2551.441387
649.834354	2553.735113
650.177548	2552.923487
650.520690	2554.370298
650.863781	2552.005997
651.206820	2554.803837
651.549807	2551.955585
651.892742	2551.146480
652.235626	2551.063301
652.578458	2550.087838
652.921238	2552.656306
653.263967	2553.321738
653.606644	2550.559186
653.949269	2549.122457
654.291843	2550.838970
654.634365	2551.824515
654.976836	2549.949206
655.319255	2551.300235
655.661622	2550.365101
656.003938	2549.634134
656.346203	2549.591284
656.688416	2548.933413
657.030577	2551.731254
657.372687	2550.322251
657.714746	2552.633620
658.056753	2552.134546
658.398708	2546.710265
658.740612	2549.684545
659.082465	2542.228679
659.424266	2546.480892
659.766016	2546.140614
660.107715	2551.829556
660.449362	2548.542724
660.790958	2549.629093
661.132503	2552.636141
661.473996	2552.860472
661.815438	2549.646737
662.156829	2551.484237
662.498168	2549.886192
662.839456	2551.582540
663.180693	2549.455173
663.521879	2551.632951
663.863013	2548.111705
664.204097	2550.470965
664.545129	2550.652447
664.886110	2550.415513
665.227040	2552.472303
665.567918	2551.116233
665.908746	2550.977601
666.249522	2550.228990
666.590248	2550.879299
666.930922	2552.368960
667.271545	2551.393497
667.612118	2550.665050
667.952639	2549.422405
668.293109	2551.605225
668.633528	2550.647406
668.973896	2550.937272
669.314213	2549.601366
669.654480	2549.379556
669.994695	2549.866027
670.334859	2554.584547
670.674973	2550.584391
671.015035	2550.523898
671.355047	2551.083466
671.695008	2551.043136
672.034918	2551.249824
672.374777	2549.003990
672.714585	2547.673125
673.054342	2552.457180
673.394049	2547.418547
673.733705	2550.339895
674.073310	2551.403579
674.412864	2550.365101
674.752368	2547.158927
675.091820	2549.409802
675.431223	2549.127498
675.770574	2550.481048
676.109875	2542.140459
676.449125	2550.791079
676.788324	2545.956612
677.127473	2545.568443
677.466571	2544.862682
677.805619	2549.172868
678.144616	2546.755635
678.483562	2550.533980
678.822458	2549.530790
679.161303	2551.484237
679.500098	2550.314690
679.838842	2549.359391
680.177535	2547.731098
680.516179	2546.707744
680.854771	2548.078938
681.193314	2550.748229
681.531805	2547.451314
681.870247	2548.058773
682.208638	2549.871068
682.546978	2550.009700
682.885268	2549.470296
683.223508	2550.889381
683.561697	2547.632796
683.899836	2549.946685
684.237925	2550.160934
684.575963	2552.184958
684.913951	2548.000800
685.251889	2551.937941
685.589776	2549.082128
685.927614	2547.884853
686.265401	2548.590615
686.603137	2550.037426
686.940824	2547.393341
687.278460	2553.465411
687.616046	2550.307128
687.953582	2549.671943
688.291068	2548.787220
688.628504	2550.821326
688.965889	2549.797971
689.303224	2548.656150
689.640510	2549.639175
689.977745	2549.621531
690.314930	2549.392158
690.652065	2548.197405
690.989150	2549.001469
691.326185	2547.867209
691.663170	2549.142621
692.000105	2547.834442
692.336990	2548.157076
692.673825	2548.663712
693.010610	2546.284287
693.347345	2545.147507
693.684030	2544.628268
694.020665	2545.018957
694.357251	2541.172557
694.693786	2546.196067
695.030272	2544.449307
695.366707	2547.965512
695.703093	2544.603062
696.039429	2549.361912
696.375716	2546.422919
696.711952	2547.784030
697.048139	2548.078938
697.384276	2547.007693
697.720363	2546.659853
698.056400	2546.286808
698.392388	2544.537527
698.728326	2544.373690
699.064214	2542.866385
699.400053	2546.122970
699.735842	2546.617003
700.071581	2543.862013
700.407270	2544.429143
700.742910	2545.565923
701.078501	2542.694986
701.414042	2545.797816
701.749533	2546.380069
702.084974	2545.142466
702.420366	2543.816642
702.755709	2546.470810
703.091002	2543.115922
703.426246	2543.758669
703.761440	2544.265305
704.096584	2543.831766
704.431679	2544.676159
704.766725	2545.576005
705.101721	2543.297403
705.436668	2543.894780
705.771565	2543.614996
706.106413	2544.711447
706.441212	2544.524924
706.775961	2545.119781
707.110661	2541.810263
707.445311	2546.304452
707.779913	2544.477033
708.114465	2548.184802
708.448967	2544.787064
708.783421	2546.445604
709.117825	2543.496529
709.452180	2543.219266
709.786485	2545.334030
710.120742	2548.232693
710.454949	2545.722198
710.789107	2545.467620
711.123216	2542.422763
711.457275	2543.766231
711.791286	2539.042670
712.125247	2542.616848
712.459159	2545.449976
712.793023	2547.204298
713.126837	2544.875285
713.460602	2543.128525
713.794318	2545.218083
714.127985	2544.585418
714.461602	2544.605583
714.795171	2545.656663
715.128691	2545.245809
715.462162	2543.022661
715.795584	2546.256561
716.128957	2541.706919
716.462281	2547.042981
716.795556	2545.954092
717.128782	2543.410829
717.461960	2541.772454
717.795088	2542.150541
718.128167	2544.121632
718.461198	2544.293031
718.794180	2547.229503
719.127113	2541.142310
719.459997	2542.014430
719.792833	2541.976621
720.125619	2545.132383
720.458357	2544.900490
720.791046	2543.083154
721.123686	2540.686086
721.456278	2541.696837
721.788821	2544.335881
722.121315	2542.571477
722.453761	2541.855633
722.786158	2544.184647
723.118506	2541.054090
723.450805	2543.614996
723.783056	2538.208359
724.115259	2541.280942
724.447412	2538.165509
724.779518	2544.585418
725.111574	2543.562064
725.443582	2542.430325
725.775542	2540.887732
726.107453	2543.027702
726.439315	2542.369831
726.771129	2548.313352
727.102895	2542.450490
727.434612	2544.217414
727.766281	2542.513504
728.097901	2540.779347
728.429473	2539.642567
728.760996	2540.023174
729.092471	2536.680889
729.423897	2542.828576
729.755276	2538.415046
730.086606	2542.495860
730.417887	2544.935778
730.749120	2545.268495
731.080305	2546.405275
731.411442	2544.033412
731.742530	2541.069213
732.073570	2546.604400
732.404562	2542.185829
732.735506	2542.601724
733.066401	2544.252702
733.397249	2541.976621
733.728048	2543.433515
734.058798	2543.705737
734.389501	2542.195911
734.720156	2541.459903
735.050762	2543.123484
735.381320	2545.618855
735.711831	2541.348997
736.042293	2542.510983
736.372707	2545.182795
736.703073	2544.930737
737.033391	2540.484440
737.363661	2543.027702
737.693883	2542.243802
738.024056	2545.956612
738.354182	2541.878319
738.684260	2543.851930
739.014290	2542.974770
739.344272	2543.390665
739.674207	2541.167516
740.004093	2543.216745
740.333931	2544.928217
740.663722	2539.882022
740.993464	2540.444110
741.323159	2545.165151
741.652806	2542.851261
741.982405	2543.516694
742.311956	2542.357228
742.641460	2542.531148
742.970915	2541.996786
743.300323	2542.417722
743.629683	2542.735315
743.958996	2543.672969
744.288260	2539.445962
744.617477	2541.122146
744.946647	2534.097298
745.275768	2537.941177
745.604842	2536.935467
745.933869	2540.212217
746.262847	2535.884387
746.591778	2539.430838
746.920662	2540.749100
747.249498	2541.815304
747.578286	2540.262629
747.907027	2542.616848
748.235720	2541.220448
748.564365	2541.684234
748.892963	2541.038967
749.221514	2540.355890
749.550017	2544.345963
749.878473	2540.713812
750.206881	2539.766075
750.535242	2542.395037
750.863555	2541.570808
751.191821	2542.851261
751.520039	2540.723894
751.848210	2540.378575
752.176334	2537.618544
752.504411	2540.996117
752.832440	2541.454862
753.160421	2541.553164
753.488356	2536.113759
753.816243	2542.833617
754.144082	2539.251878
754.471875	2541.222969
754.799620	2541.038967
755.127318	2539.650129
755.454969	2539.738349
755.782572	2540.081147
756.110129	2539.803884
756.437638	2539.549306
756.765100	2539.682896
757.092515	2542.649615
757.419882	2542.021992
757.747203	2539.385468
758.074477	2540.202135
758.401703	2542.712630
758.728882	2542.170706
759.056014	2541.908566
759.383099	2541.321271
759.710138	2542.727753
760.037129	2541.031405
760.364073	2541.495191
760.690970	2538.289017
761.017820	2540.280273
761.344623	2542.155582
761.671379	2542.195911
761.998088	2537.918492
762.324751	2540.393699
762.651366	2538.999820
762.977935	2545.066848
763.304456	2545.144986
763.630931	2550.024823
763.957359	2547.703372
764.283740	2548.038609
764.610074	2543.511652
764.936362	2543.620037
765.262602	2541.212886
765.588796	2541.754810
765.914943	2544.575336
766.241044	2542.760521
766.567097	2541.170037
766.893104	2539.730787
767.219064	2538.019315
767.544978	2541.757331
767.870845	2541.273380
768.196665	2540.050900
768.522438	2538.014274
768.848165	2540.060983
769.173846	2540.915458
769.499479	2539.932433
769.825066	2538.009233
770.150607	2540.141641
770.476101	2538.873791
770.801548	2539.466127
771.126949	2536.512010
771.452303	2537.903369
771.777611	2539.773637
772.102872	2538.951929
772.428087	2538.004192
772.753256	2535.501259
773.078378	2538.087371
773.403453	2537.086702
773.728482	2537.399253
774.053465	2537.298430
774.378401	2538.273894
774.703291	2538.530992
775.028135	2538.135262
775.352932	2538.246167
775.677683	2535.617206
776.002388	2538.127700
776.327046	2535.188708
776.651658	2538.576363
776.976224	2536.824562
777.300743	2537.159799
777.625216	2538.654501
777.949643	2535.907072
778.274024	2538.780530
778.598359	2534.689633
778.922647	2531.697708
779.246889	2535.508821
779.571086	2532.191742
779.895236	2534.351876
780.219339	2536.328008
780.543397	2538.226003
780.867409	2536.665766
781.191374	2537.472350
781.515294	2539.171219
781.839167	2533.454551
782.162995	2535.317257
782.486776	2539.725746
782.810511	2536.864891
783.134201	2537.870601
783.457844	2537.346321
783.781441	2536.925385
784.104993	2538.243647
784.428498	2535.982689
784.751958	2535.813811
785.075372	2536.159130
785.398739	2538.520910
785.722061	2537.689120
786.045337	2536.002854
786.368568	2536.380940
786.691752	2536.822041
787.014891	2534.039324
787.337983	2539.272042
787.661030	2538.321785
787.984031	2539.178781
788.306987	2539.607279
788.629897	2541.893442
788.952760	2538.246167
789.275579	2537.139634
789.598351	2537.752134
789.921078	2537.038811
790.243759	2534.034283
790.566395	2536.174253
790.888984	2534.455220
791.211529	2536.219623
791.534027	2536.857329
791.856480	2538.798174
792.178888	2538.919161
792.501249	2536.413708
792.823566	2539.642567
793.145836	2533.084026
793.468062	2540.214738
793.790241	2535.171063
794.112375	2536.544778
794.434464	2536.282638
794.756507	2533.041176
795.078505	2536.479243
795.400457	2533.968748
795.722364	2532.632843
796.044226	2538.543595
796.366042	2532.859694
796.687812	2532.990764
797.009538	2538.601569
797.331218	2538.704912
797.652852	2535.080323
797.974442	2536.534696
798.295986	2538.147865
798.617484	2536.292720
798.938938	2536.368337
799.260346	2538.238606
799.581709	2537.399253
799.903026	2539.256919
800.224299	2535.123173
800.545526	2537.737011
800.866708	2536.627957
801.187845	2537.371527
801.508936	2536.058307
801.829983	2536.030580
802.150984	2536.895138
802.471940	2535.120652
802.792851	2533.124355
803.113717	2537.079140
803.434538	2534.349355
803.755314	2536.391023
804.076045	2535.798687
804.396731	2537.900848
804.717372	2534.921526
805.037967	2536.058307
805.358518	2537.376568
805.679024	2533.530168
805.999485	2535.181146
806.319901	2532.584952
806.640272	2538.505787
806.960598	2535.130734
807.280879	2536.471681
807.601115	2539.682896
807.921306	2536.469161
808.241453	2537.041332
808.561554	2533.966228
808.881611	2535.808769
809.201623	2535.748276
809.521590	2532.912627
809.841513	2536.534696
810.161390	2534.230888
810.481223	2535.695343
810.801011	2533.114273
811.120755	2534.430014
811.440453	2533.893131
811.760107	2537.497556
812.079716	2533.515044
812.399281	2530.795342
812.718801	2532.469005
813.038276	2531.959848
813.357707	2532.995806
813.677093	2535.781043
813.996434	2536.093595
814.315731	2536.229706
814.634983	2534.583769
814.954191	2534.266176
815.273354	2534.440096
815.592473	2534.722401
815.911547	2537.389171
816.230577	2537.810107
816.549562	2536.728780
816.868502	2535.660055
817.187399	2534.596372
817.506250	2535.765920
817.825058	2534.145189
818.143821	2535.823893
818.462539	2536.080992
818.781213	2535.319778
819.099843	2537.623585
819.418429	2540.123997
819.736970	2538.006713
820.055466	2538.052083
820.373919	2541.147351
820.692327	2544.240099
821.010691	2546.543907
821.329011	2552.147149
821.647286	2564.956721
821.965517	2579.676890
822.283704	2585.955647
822.601847	2590.459918
822.919945	2584.153435
823.237999	2575.250757
823.556010	2564.747513
823.873976	2557.478169
824.191897	2552.903322
824.509775	2551.196892
824.827609	2547.857127
825.145398	2548.124308
825.463144	2545.109698
825.780845	2544.789585
826.098502	2548.509957
826.416116	2551.721172
826.733685	2555.058415
827.051210	2555.481872
827.368692	2556.595967
827.686129	2550.755791
828.003522	2546.848896
828.320872	2540.207176
828.638177	2541.757331
828.955439	2536.544778
829.272656	2538.329346
829.589830	2534.223327
829.906960	2538.170550
830.224046	2538.389840
830.541088	2535.133255
830.858086	2534.951773
831.175041	2536.375899
831.491952	2536.542257
831.808819	2537.900848
832.125642	2535.649973
832.442421	2536.842206
832.759157	2538.495704
833.075849	2542.931920
833.392497	2544.938299
833.709101	2546.206149
834.025662	2545.999462
834.342179	2545.616334
834.658653	2542.679862
834.975083	2541.243133
835.291469	2542.087527
835.607811	2537.772299
835.924110	2537.595858
836.240366	2539.125849
836.556578	2537.179963
836.872746	2537.205169
837.188871	2537.832793
837.504952	2538.218441
837.820990	2536.519572
838.136984	2534.694674
838.452935	2534.039324
838.768842	2535.801208
839.084706	2533.013450
839.400526	2534.341794
839.716303	2538.034439
840.032037	2540.885211
840.347727	2540.681045
840.663373	2537.537885
840.978977	2537.583256
841.294537	2535.405477
841.610054	2536.973276
841.925527	2532.375744
842.240957	2534.364479
842.556344	2534.992102
842.871687	2532.446320
843.186987	2535.622247
843.502244	2531.538912
843.817458	2536.610313
844.132629	2535.032432
844.447756	2534.046886
844.762840	2531.238963
845.077881	2531.090249
845.392879	2533.976310
845.707833	2531.680064
846.022745	2526.023890
846.337613	2535.276928
846.652438	2530.956659
846.967221	2532.234591
847.281960	2533.726773
847.596656	2531.906916
847.911309	2534.752648
848.225919	2532.602596
848.540485	2531.612009
848.855009	2532.685775
849.169490	2534.341794
849.483928	2531.178470
849.798323	2532.852133
850.112675	2529.930784
850.426984	2533.840199
850.741251	2533.951104
851.055474	2531.843902
851.369654	2535.476053
851.683792	2533.696526
851.997887	2534.414890
852.311938	2533.658717
852.625947	2530.792821
852.939914	2530.195445
853.253837	2537.021167
853.567718	2533.636032
853.881555	2533.714170
854.195350	2533.454551
854.509103	2530.757533
854.822812	2533.701567
855.136479	2530.437420
855.450103	2533.147040
855.763685	2532.030425
856.077224	2530.966741
856.390720	2531.581762
856.704173	2531.193593
857.017584	2532.479087
857.330953	2533.507483
857.644278	2531.642256
857.957561	2533.842719
858.270802	2534.336752
858.584000	2532.164015
858.897155	2532.781557
859.210268	2531.569159
859.523339	2534.379602
859.836367	2533.240302
860.149352	2531.133099
860.462295	2534.530837
860.775195	2526.722090
861.088054	2529.502286
861.400869	2530.790301
861.713642	2527.863911
862.026373	2531.690147
862.339062	2531.551515
862.651708	2533.630991
862.964312	2530.200486
863.276873	2530.349200
863.589392	2531.894313
863.901869	2535.584438
864.214303	2533.638553
864.526696	2533.104190
864.839045	2533.091588
865.151353	2534.503111
865.463619	2532.380785
865.775842	2536.484284
866.088023	2534.329191
866.400162	2533.671320
866.712258	2534.551002
867.024313	2533.610826
867.336325	2531.778367
867.648296	2533.401618
867.960224	2532.239632
868.272110	2533.925898
868.583954	2532.879859
868.895755	2534.006557
869.207515	2534.051927
869.519233	2532.166536
869.830909	2533.177287
870.142542	2535.108049
870.454134	2532.441279
870.765684	2535.105528
871.077191	2533.968748
871.388657	2531.551515
871.700081	2532.486649
872.011463	2534.472864
872.322803	2532.209386
872.634101	2533.941022
872.945357	2535.465971
873.256571	2533.240302
873.567744	2533.081505
873.878874	2534.881197
874.189963	2530.137471
874.501010	2533.507483
874.812015	2534.656866
875.122979	2534.470343
875.433900	2535.430683
875.744780	2532.436238
876.055618	2531.869108
876.366415	2530.157636
876.677169	2533.026053
876.987882	2532.370702
877.298554	2530.455064
877.609183	2534.351876
877.919771	2528.899868
878.230317	2532.441279
878.540822	2537.386651
878.851285	2535.589479
879.161707	2537.527803
879.472087	2536.690971
879.782425	2534.616537
880.092722	2541.343956
880.402977	2545.155069
880.713191	2548.762014
881.023363	2559.401369
881.333494	2565.133161
881.643583	2566.252297
881.953631	2563.918243
882.263637	2561.155691
882.573602	2563.010836
882.883526	2557.210988
883.193408	2550.833928
883.503248	2549.382076
883.813048	2545.825542
884.122806	2546.533824
884.432522	2544.199770
884.742197	2542.826056
885.051831	2538.069727
885.361424	2539.773637
885.670975	2541.190201
885.980485	2535.952442
886.289954	2535.100487
886.599382	2535.039993
886.908768	2536.053265
887.218113	2533.799870
887.527417	2536.315405
887.836680	2535.695343
888.145901	2533.835158
888.455082	2534.719880
888.764221	2531.501103
889.073319	2532.176618
889.382376	2533.598223
889.691392	2530.329035
890.000366	2536.212062
890.309300	2532.012781
890.618193	2533.116793
890.927044	2534.631660
891.235855	2534.792977
891.544625	2533.507483
891.853353	2535.644932
892.162041	2533.562935
892.470687	2537.321116
892.779293	2534.954294
893.087858	2533.920857
893.396381	2531.909437
893.704864	2532.811803
894.013306	2534.873635
894.321707	2540.560057
894.630068	2541.860675
894.938387	2545.555840
895.246665	2542.921838
895.554903	2542.939482
895.863100	2540.252547
896.171256	2536.897659
896.479371	2539.211548
896.787446	2540.255067
897.095480	2537.225334
897.403473	2537.132072
897.711425	2536.025539
898.019336	2535.874304
898.327207	2532.733666
898.635038	2535.503780
898.942827	2534.661907
899.250576	2532.411032
899.558284	2534.324150
899.865952	2533.477236
900.173579	2534.573687
900.481165	2533.981351
900.788711	2531.818696
901.096216	2535.836496
901.403681	2534.490508
901.711105	2536.764068
902.018489	2533.474715
902.325832	2533.890610
902.633135	2532.776515
902.940397	2534.535878
903.247619	2535.022349
903.554800	2536.277597
903.861941	2537.580735
904.169041	2544.469472
904.476101	2546.019627
904.783121	2549.341747
905.090100	2544.091385
905.397039	2543.158772
905.703938	2540.804553
906.010796	2538.246167
906.317614	2536.068389
906.624391	2537.737011
906.931129	2535.730632
907.237826	2532.378264
907.544483	2534.414890
907.851099	2532.174097
908.157675	2529.726617
908.464211	2532.605116
908.770707	2527.203520
909.077163	2532.761392
909.383578	2527.251411
909.689954	2529.456916
909.996289	2526.286030
910.302584	2530.540764
910.608839	2531.037317
910.915054	2534.077133
911.221229	2534.553522
911.527363	2532.363141
911.833458	2531.798532
912.139513	2534.145189
912.445527	2529.714014
912.751502	2529.270393
913.057436	2532.809283
913.363331	2531.433048
913.669186	2534.581248
913.975000	2533.457071
914.280775	2532.852133
914.586510	2533.772143
914.892205	2537.192566
915.197859	2537.731970
915.503475	2540.479398
915.809050	2541.800181
916.114585	2546.427960
916.420081	2545.712116
916.725536	2547.635316
917.030952	2542.473175
917.336328	2540.809594
917.641665	2541.560726
917.946961	2540.368493
918.252218	2536.809438
918.557435	2534.344314
918.862612	2536.320447
919.167750	2534.029242
919.472848	2531.947246
919.777906	2535.564273
920.082925	2536.068389
920.387904	2535.929757
920.692843	2532.017822
920.997743	2534.240971
921.302603	2529.905578
921.607423	2530.881042
921.912204	2535.110570
922.216946	2530.838192
922.521647	2529.676206
922.826310	2532.358100
923.130932	2531.949766
923.435516	2532.521937
923.740059	2532.032945
924.044564	2532.068233
924.349028	2532.090918
924.653454	2526.608664
924.957840	2526.669158
925.262186	2528.529343
925.566493	2528.340300
925.870761	2526.240659
926.174989	2532.763912
926.479178	2532.776515
926.783328	2530.571011
927.087438	2528.173942
927.391509	2532.279962
927.695541	2529.618233
927.999533	2530.613860
928.303486	2531.619571
928.607400	2529.018335
928.911275	2532.852133
929.215110	2527.962213
929.518906	2528.325177
929.822663	2528.564631
930.126381	2528.075639
930.430060	2530.056813
930.733699	2528.171421
931.037299	2531.896834
931.340861	2529.630835
931.644383	2529.782070
931.947866	2528.957841
932.251309	2527.339631
932.554714	2530.185362
932.858080	2530.709642
933.161407	2530.013963
933.464694	2530.250897
933.767943	2526.633869
934.071153	2531.816176
934.374323	2529.504807
934.677455	2529.827440
934.980548	2529.908099
935.283602	2528.814168
935.586617	2526.964065
935.889593	2528.857018
936.192530	2527.858870
936.495428	2526.744775
936.798287	2531.922040
937.101108	2526.442306
937.403890	2531.349869
937.706632	2529.086391
938.009336	2532.491690
938.312002	2530.732327
938.614628	2530.003881
938.917216	2529.673685
939.219765	2531.067564
939.522275	2532.209386
939.824747	2533.036135
940.127179	2529.333407
940.429573	2527.037162
940.731929	2529.209899
941.034246	2524.947603
941.336524	2527.853829
941.638763	2532.285003
941.940964	2529.192255
942.243126	2529.645959
942.545250	2531.710311
942.847335	2527.132944
943.149381	2526.790145
943.451389	2525.688653
943.753359	2528.042872
944.055290	2530.374406
944.357182	2530.979344
944.659036	2528.305012
944.960851	2531.503624
945.262628	2527.926925
945.564367	2529.898017
945.866067	2530.959179
946.167729	2530.525640
946.469352	2529.570342
946.770937	2529.272913
947.072484	2530.810465
947.373992	2528.738551
947.675462	2531.521268
947.976893	2528.627646
948.278286	2530.649148
948.579641	2531.319622
948.880958	2530.399611
949.182236	2528.950280
949.483476	2529.456916
949.784678	2528.136133
950.085841	2527.122861
950.386967	2530.812986
950.688054	2529.076308
950.989103	2531.826258
951.290114	2529.449354
951.591087	2530.104704
951.892021	2529.522451
952.192917	2532.645445
952.493776	2528.703263
952.794596	2531.130579
953.095378	2531.329704
953.396122	2529.618232
953.696828	2531.453213
953.997496	2528.678057
954.298126	2530.245856
954.598718	2527.689991
954.899272	2529.252749
955.199788	2531.062523
955.500266	2530.984385
955.800706	2528.108407
956.101108	2524.834178
956.401472	2528.073119
956.701798	2525.247552
957.002087	2524.786287
957.302337	2530.989426
957.602550	2531.586803
957.902724	2528.705784
958.202861	2527.841226
958.502960	2529.303160
958.803022	2529.918181
959.103045	2530.205527
959.403031	2528.521782
959.702979	2528.194107
960.002889	2528.110928
960.302762	2529.172090
960.602596	2530.024045
960.902393	2527.203520
961.202153	2529.885414
961.501875	2531.364992
961.801559	2528.521782
962.101205	2526.593540
962.400814	2527.311905
962.700385	2527.228726
962.999918	2527.410207
963.299414	2527.677388
963.598873	2529.401463
963.898293	2530.137471
964.197677	2527.763088
964.497022	2528.166380
964.796331	2527.037162
965.095601	2527.599250
965.394835	2530.702081
965.694030	2529.212420
965.993189	2529.817358
966.292309	2525.613036
966.591393	2529.472039
966.890439	2527.211082
967.189447	2527.780732
967.488419	2528.728469
967.787353	2527.944569
968.086249	2528.799045
968.385108	2527.591689
968.683930	2527.992460
968.982714	2525.542460
969.281462	2530.046731
969.580172	2527.695032
969.878844	2527.969775
970.177480	2527.624456
970.476078	2525.905423
970.774639	2525.855011
971.073162	2529.474560
971.371649	2528.027748
971.670098	2524.491379
971.968510	2524.877027
972.266885	2525.091276
972.565223	2527.775691
972.863524	2528.065557
973.161788	2528.398273
973.460014	2526.490197
973.758204	2529.676206
974.056356	2530.515558
974.354471	2526.437264
974.652550	2527.891637
974.950591	2524.128416
975.248595	2530.802904
975.546563	2530.523120
975.844493	2529.832482
976.142386	2528.209230
976.440243	2527.808458
976.738062	2527.349713
977.035845	2529.131761
977.333590	2528.393232
977.631299	2526.202851
977.928971	2528.355423
978.226606	2529.497245
978.524204	2530.361803
978.821765	2529.053623
979.119290	2529.451874
979.416777	2526.109589
979.714228	2529.837523
980.011642	2528.471370
980.309020	2527.526154
980.606360	2527.513551
980.903664	2529.043541
981.200931	2527.437933
981.498162	2530.815507
981.795356	2528.839374
982.092513	2531.944725
982.389633	2530.268541
982.686717	2527.148067
982.983764	2531.095291
983.280775	2526.613705
983.577749	2527.427851
983.874686	2526.207892
984.171587	2527.495907
984.468451	2526.263345
984.765279	2528.224353
985.062070	2527.453057
985.358824	2527.490866
985.655543	2529.272913
985.952224	2527.385001
986.248869	2528.010104
986.545478	2521.486851
986.842050	2526.661596
987.138586	2523.868797
987.435086	2528.423479
987.731549	2523.478107
988.027975	2525.063550
988.324366	2527.258972
988.620719	2528.572193
988.917037	2527.788294
989.213318	2525.297964
989.509563	2528.887265
989.805772	2529.035979
990.101944	2526.492717
990.398080	2526.417100
990.694180	2526.626308
990.990244	2525.658406
991.286271	2526.591020
991.582262	2527.697553
991.878217	2528.388191
992.174136	2529.056144
992.470019	2525.837367
992.765865	2528.194107
993.061676	2524.284692
993.357450	2526.452388
993.653188	2526.568334
993.948890	2525.804600
994.244556	2528.887265
994.540186	2528.783922
994.835780	2527.276617
995.131337	2526.835516
995.426859	2526.890968
995.722345	2527.019518
996.017795	2529.981196
996.313208	2524.718231
996.608586	2524.151101
996.903928	2528.037831
997.199234	2527.740403
997.494504	2527.319466
997.789738	2526.366688
998.084936	2525.242511
998.380099	2525.393746
998.675225	2529.787111
998.970316	2525.849970
999.265371	2525.292923
999.560390	2527.289219
999.855373	2527.669827
1000.150320	2528.151257
1000.445232	2526.210412
1000.740108	2528.637728
1001.034948	2526.805269
1001.329752	2526.384332
1001.624521	2526.404497
1001.919254	2522.474917
1002.213951	2526.712007
1002.508613	2521.333096
1002.803239	2524.135978
1003.097829	2521.106244
1003.392384	2526.321318
1003.686903	2525.388704
1003.981386	2529.260311
1004.275834	2528.272244
1004.570246	2526.528005
1004.864623	2524.635052
1005.158964	2526.533046
1005.453270	2525.166894
1005.747540	2527.442975
1006.041775	2525.973478
1006.335974	2525.063550
1006.630138	2529.051103
1006.924266	2527.468180
1007.218359	2525.441637
1007.512416	2528.723428
1007.806438	2529.754344
1008.100425	2525.320649
1008.394376	2528.042872
1008.688292	2527.745444
1008.982172	2526.384332
1009.276017	2524.330062
1009.569827	2525.567665
1009.863602	2528.055475
1010.157341	2527.500948
1010.451045	2523.014321
1010.744714	2527.659744
1011.038347	2522.371574
1011.331945	2526.023890
1011.625508	2525.381143
1011.919036	2525.466842
1012.212528	2525.759229
1012.505986	2526.671678
1012.799408	2526.880886
1013.092795	2526.525485
1013.386147	2524.138498
1013.679464	2526.515402
1013.972745	2526.822913
1014.265992	2527.722759
1014.559204	2526.807789
1014.852380	2528.219312
1015.145521	2527.924405
1015.438628	2527.750485
1015.731699	2525.857532
1016.024736	2525.673530
1016.317737	2527.435413
1016.610703	2526.807789
1016.903635	2522.580782
1017.196531	2524.435926
1017.489393	2524.556914
1017.782219	2521.413755
1018.075011	2524.811492
1018.367768	2526.863242
1018.660490	2527.919364
1018.953177	2527.919364
1019.245829	2527.919364
