Dividing Wavelength (nm)	Counts (n)	Blue Motor Position (mm): 0.000000	Red Motor Position (mm): 43.400000	
326.493990	2126.489762
326.888308	2126.489762
327.282561	2126.489762
327.676750	2094.375092
328.070874	2093.714701
328.464933	2095.995823
328.858929	2102.486308
329.252859	2111.162134
329.646726	2123.661675
330.040528	2138.167595
330.434265	2156.726603
330.827938	2173.508604
331.221547	2194.457119
331.615091	2209.527648
332.008571	2230.287120
332.401986	2249.307393
332.795338	2267.599220
333.188625	2285.671757
333.581847	2303.560291
333.975006	2323.934114
334.368100	2341.757114
334.761129	2359.300329
335.154095	2375.064017
335.546996	2394.716956
335.939833	2421.576223
336.332606	2435.061310
336.725315	2446.792075
337.117960	2453.824484
337.510540	2463.727831
337.903056	2477.021354
338.295508	2484.018475
338.687896	2495.915598
339.080220	2501.745693
339.472480	2507.217865
339.864676	2509.798936
340.256807	2517.688342
340.648875	2517.441325
341.040879	2518.194978
341.432818	2526.008766
341.824694	2524.178828
342.216506	2524.877027
342.608253	2527.150588
342.999937	2526.608664
343.391557	2524.705628
343.783113	2525.272758
344.174605	2521.305370
344.566033	2521.935514
344.957397	2517.559793
345.348697	2515.974350
345.739934	2515.918897
346.131106	2516.637261
346.522215	2515.387055
346.913260	2510.633247
347.304241	2510.418998
347.695159	2508.757938
348.086012	2507.994203
348.476802	2505.216527
348.867528	2503.621002
349.258191	2501.511279
349.648789	2502.335508
350.039324	2500.455158
350.429796	2499.678820
350.820203	2498.514313
351.210548	2498.831906
351.600828	2493.304281
351.991045	2494.801503
352.381198	2494.133551
352.771288	2492.059116
353.161314	2493.755464
353.551276	2493.485762
353.941175	2495.030876
354.331010	2493.689929
354.720782	2493.490803
355.110490	2494.309991
355.500135	2492.822851
355.889717	2494.965341
356.279235	2494.604898
356.668689	2495.519868
357.058080	2493.999960
357.447408	2494.035248
357.836672	2492.331338
358.225873	2493.115237
358.615010	2492.860659
359.004084	2499.124293
359.393095	2497.014570
359.782043	2498.269817
360.170927	2495.424086
360.559748	2500.530775
360.948505	2501.758296
361.337199	2500.956752
361.725830	2503.278204
362.114398	2503.510097
362.502903	2502.516989
362.891344	2504.929182
363.279722	2504.178050
363.668037	2507.399347
364.056289	2504.636795
364.444478	2504.609068
364.832603	2507.079234
365.220665	2507.505211
365.608665	2509.085613
365.996601	2510.045953
366.384474	2509.993021
366.772284	2511.480161
367.160031	2511.956550
367.547715	2513.708351
367.935336	2517.337982
368.322893	2519.246058
368.710388	2523.052130
369.097820	2529.925743
369.485189	2532.927750
369.872495	2539.362783
370.259738	2544.124153
370.646918	2555.010524
371.034035	2559.003118
371.421090	2569.145920
371.808081	2579.197981
372.195010	2589.184506
372.581875	2604.986003
372.968678	2617.525873
373.355418	2625.556431
373.742096	2641.488998
374.128710	2657.106493
374.515262	2672.842454
374.901751	2688.444826
375.288177	2701.151054
375.674540	2725.101576
376.060841	2742.554050
376.447079	2763.857967
376.833254	2782.757252
377.219367	2794.677061
377.605417	2832.599140
377.991404	2842.575584
378.377329	2865.394367
378.763191	2879.030688
379.148991	2919.375042
379.534727	2942.445883
379.920402	2976.128352
380.306013	2981.640854
380.691563	3033.932743
381.077049	3056.282698
381.462474	3073.667117
381.847835	3111.047273
382.233134	3135.169194
382.618371	3133.871097
383.003545	3204.732076
383.388657	3210.174002
383.773706	3244.194228
384.158693	3261.543359
384.543618	3284.838531
384.928480	3319.695590
385.313280	3365.106303
385.698017	3364.922301
386.082692	3417.035229
386.467305	3424.667536
386.851856	3457.460242
387.236344	3476.745176
387.620770	3508.378416
388.005133	3535.656100
388.389435	3560.824060
388.773674	3572.375864
389.157851	3618.661218
389.541965	3629.897950
389.926018	3596.570882
390.310008	3668.568642
390.693936	3686.225283
391.077802	3725.253896
391.461606	3716.590673
391.845348	3780.026033
392.229027	3776.935805
392.612645	3791.943320
392.996200	3871.182697
393.379694	3911.164088
393.763125	3974.428048
394.146494	3940.639715
394.529801	4004.375023
394.913047	4051.358577
395.296230	4018.018906
395.679351	4072.105445
396.062410	4096.101338
396.445408	4077.756579
396.828343	4111.330663
397.211217	4136.533912
397.594028	4054.118608
397.976778	4121.612097
398.359466	4147.863905
398.742092	4174.145961
399.124656	4099.080659
399.507158	4179.214841
399.889598	4205.890107
400.271977	4266.741875
400.654294	4235.859766
401.036549	4241.019387
401.418742	4214.548288
401.800874	4315.371365
402.182944	4339.092515
402.564952	4402.343872
402.946898	4386.595307
403.328783	4383.588259
403.710606	4301.614056
404.092367	4491.872244
404.474067	4459.986946
404.855705	4465.267554
405.237282	4395.200557
405.618797	4505.896734
406.000250	4534.689284
406.381642	4616.842447
406.762972	4581.756017
407.144240	4589.504270
407.525447	4587.341615
407.906593	4651.412160
408.287677	4694.750960
408.668700	4617.633909
409.049661	4672.990819
409.430560	4713.194021
409.811399	4635.756857
410.192176	4798.525632
410.572891	4740.078494
410.953545	4842.257642
411.334138	4723.256164
411.714669	4791.306700
412.095139	4687.211914
412.475547	4830.098379
412.855894	4811.524247
413.236180	4816.023477
413.616405	4771.011014
413.996568	4858.064180
414.376670	4803.821364
414.756711	4756.240434
415.136691	4787.997182
415.516609	4865.396538
415.896466	4900.833329
416.276262	4934.374646
416.655997	4916.171039
417.035670	5100.064770
417.415283	5190.061969
417.794834	5135.945183
418.174324	5088.031536
418.553753	4997.154655
418.933121	5179.649466
419.312428	5246.782512
419.691674	5186.016443
420.070859	5311.364733
420.449983	5225.715530
420.829045	5341.919167
421.208047	5246.951390
421.586988	5318.145085
421.965867	5329.205377
422.344686	5464.983815
422.723444	5318.717256
423.102141	5134.173217
423.480777	5434.580616
423.859352	5203.466397
424.237866	5458.639522
424.616319	5452.675837
424.994712	5559.354215
425.373044	5437.438950
425.751314	5579.851546
426.129524	5388.519593
426.507673	5579.387760
426.885762	5662.932282
427.263789	5601.228559
427.641756	5473.634435
428.019662	5603.968426
428.397508	5607.381287
428.775292	5550.733842
429.153016	5651.022556
429.530679	5574.707049
429.908282	5662.375235
430.285824	5533.069638
430.663305	5807.759591
431.040726	5544.777718
431.418086	5544.301329
431.795385	5644.605167
432.172624	5662.924720
432.549802	5652.910468
432.926920	5665.659546
433.303977	5670.090721
433.680974	5715.163677
434.057910	5734.330144
434.434786	5738.083283
434.811601	5709.872986
435.188355	5942.529798
435.565050	5813.244366
435.941683	5799.131656
436.318257	6014.169635
436.694770	5994.418394
437.071222	6030.414753
437.447614	5961.199711
437.823946	5874.968254
438.200218	6025.146748
438.576429	5893.698661
438.952580	5991.189535
439.328670	6034.500609
439.704700	5941.473676
440.080670	5925.374751
440.456580	6204.206012
440.832429	6081.101035
441.208218	5930.315082
441.583947	6085.885090
441.959616	6090.011274
442.335224	6013.501682
442.710773	6153.996119
443.086261	6181.919071
443.461689	5978.037165
443.837057	6122.791377
444.212365	6275.495489
444.587612	6169.560682
444.962800	6325.942315
445.337927	6310.602084
445.712995	5918.004584
446.088002	6493.122100
446.462949	6322.398384
446.837837	6251.010605
447.212664	6429.066679
447.587431	6567.123718
447.962139	7111.238138
448.336786	8038.777678
448.711374	7782.019110
449.085901	6850.713828
449.460369	6775.018382
449.834776	6707.204781
450.209124	7100.336643
450.583412	7251.556135
450.957640	7397.832775
451.331808	7160.865777
451.705917	6708.510440
452.079965	6637.077290
452.453954	6851.212902
452.827883	6724.475774
453.201752	6817.875752
453.575562	6621.353931
453.949311	6825.916392
454.323001	6710.189144
454.696632	6787.591020
455.070202	6926.048831
455.443713	7078.311842
455.817164	7178.156935
456.190556	7258.817917
456.563888	7337.918662
456.937160	7380.135805
457.310373	7033.294338
457.683526	7059.457926
458.056619	6947.451050
458.429653	6941.830163
458.802628	6877.578137
459.175542	6986.741803
459.548398	7337.606110
459.921194	7494.882549
460.293930	7501.015112
460.666607	8032.690485
461.039224	8341.042742
461.411782	8467.941188
461.784280	8488.529260
462.156719	8380.986325
462.529099	8253.172910
462.901419	7839.216042
463.273680	7732.535144
463.645882	7753.115654
464.018024	7616.570961
464.390106	7784.698483
464.762130	8167.347266
465.134094	8641.959298
465.505999	9662.124999
465.877845	10886.585980
466.249631	11537.232583
466.621358	11154.553554
466.993026	10525.072235
467.364634	10263.688408
467.736184	9900.054857
468.107674	9568.805679
468.479105	9603.352707
468.850477	9360.096869
469.221790	9136.569587
469.593043	8802.018453
469.964238	8666.300509
470.335373	8682.966564
470.706449	8739.661900
471.077467	8721.506185
471.448425	10027.790134
471.819324	11102.375091
472.190164	11132.498506
472.560945	9877.200786
472.931667	9092.255324
473.302330	8954.583933
473.672934	8604.564018
474.043479	8958.987381
474.413965	8891.514057
474.784393	8783.222511
475.154761	8940.987941
475.525070	9020.451649
475.895321	8853.770938
476.265513	9029.997074
476.635645	9197.590233
477.005719	9196.929842
477.375734	9315.081886
477.745691	9542.458089
478.115588	9683.111322
478.485427	9930.261451
478.855207	10463.360950
479.224928	11277.101483
479.594591	11910.346023
479.964194	11717.340407
480.333739	11657.375882
480.703226	11568.938920
481.072653	11673.159735
481.442022	11909.272258
481.811333	12096.604055
482.180584	11896.598797
482.549777	11603.985022
482.918912	11427.529514
483.287988	11449.914757
483.657005	11466.356481
484.025964	11148.105918
484.394864	11276.176431
484.763706	11246.131154
485.132489	11004.569144
485.501213	10970.793414
485.869879	11037.019052
486.238487	10882.663962
486.607036	10998.867599
486.975527	10774.785790
487.343959	10967.748557
487.712333	11014.916113
488.080648	10937.209247
488.448905	10990.516928
488.817104	10924.059397
489.185244	11194.260202
489.553326	11345.469612
489.921350	11889.432797
490.289315	12946.701390
490.657222	13295.080409
491.025070	13197.486191
491.392861	13079.361874
491.760593	12698.595962
492.128267	12343.635717
492.495883	12020.797704
492.863440	11677.694253
493.230939	11340.776297
493.598380	11280.070723
493.965763	11147.412759
494.333088	11044.779908
494.700354	10962.513318
495.067563	11025.968842
495.434713	10856.684376
495.801805	10976.767181
496.168839	10907.627756
496.535815	10841.381953
496.902733	10838.737868
497.269593	10778.407859
497.636395	10876.213806
498.003139	10865.725685
498.369825	10735.474873
498.736453	10886.941381
499.103023	10810.144443
499.469535	10844.598209
499.835989	10830.016672
500.202385	10794.466455
500.568723	10644.061109
500.935003	10870.731551
501.301226	10672.074801
501.667390	10926.237175
502.033497	11035.491582
502.399546	10890.167720
502.765537	10798.524584
503.131470	10871.361695
503.497345	11042.062726
503.863163	10652.852882
504.228923	10971.103445
504.594625	11029.739626
504.960269	10779.552201
505.325856	11004.566624
505.691385	10791.988728
506.056856	10947.387336
506.422270	10970.717796
506.787625	10859.951043
507.152924	10981.974693
507.518164	10960.383431
507.883347	10874.852694
508.248472	10801.922322
508.613540	11035.736078
508.978550	10915.189487
509.343503	10886.979190
509.708398	11009.378405
510.073236	11121.899480
510.438016	11123.051383
510.802738	11068.584237
511.167403	11124.687238
511.532010	11026.798112
511.896561	11255.608524
512.261053	11329.900008
512.625488	11196.949657
512.989866	11177.876452
513.354186	11169.074597
513.718449	11074.628580
514.082655	11262.477096
514.446803	11163.461273
514.810894	11286.959459
515.174927	11145.935701
515.538904	11168.394042
515.902822	11325.294914
516.266684	11216.584952
516.630488	11154.306537
516.994235	11209.335772
517.357925	11265.237127
517.721558	11365.798064
518.085133	11372.401976
518.448651	11385.123328
518.812112	11269.552355
519.175516	11285.464757
519.538863	11403.082438
519.902152	11319.484984
520.265385	11485.071764
520.628560	11391.099616
520.991678	11372.447346
521.354739	11433.410020
521.717743	11367.688497
522.080690	11339.122799
522.443580	11485.253246
522.806413	11430.707961
523.169189	11458.547733
523.531908	11519.830520
523.894569	11342.286123
524.257174	11343.193531
524.619722	11463.888836
524.982213	11412.776577
525.344647	11453.874584
525.707025	11408.574775
526.069345	11506.786535
526.431608	11415.851681
526.793815	11530.953826
527.155964	11320.236116
527.518057	11379.888089
527.880093	11321.539254
528.242072	11385.876980
528.603995	11302.801285
528.965860	11216.900024
529.327669	11269.302818
529.689421	11220.302803
530.051117	11191.585870
530.412755	11292.794595
530.774337	11189.400530
531.135862	11165.475213
531.497331	11192.712568
531.858743	11041.891327
532.220098	11206.270751
532.581396	11079.372306
532.942638	11062.499564
533.303824	11021.890549
533.664953	11030.510922
534.026025	10951.435383
534.387040	11044.948787
534.747999	11046.871987
535.108902	11110.473704
535.469748	10862.814419
535.830537	10963.456014
536.191270	10947.364651
536.551947	10968.736623
536.912567	10966.944493
537.273131	10897.948741
537.633638	10870.991170
537.994089	10863.517660
538.354483	10811.692078
538.714821	10957.295724
539.075103	10961.442073
539.435328	10929.513925
539.795497	10755.876422
540.155609	10913.349466
540.515665	11000.538742
540.875665	10735.127033
541.235609	10810.341048
541.595496	10803.845522
541.955328	10956.632813
542.315102	10841.540750
542.674821	10791.580394
543.034483	10788.482605
543.394090	10799.076590
543.753640	10720.124559
544.113134	10949.766761
544.472571	10804.460543
544.831953	10941.128744
545.191278	10749.955587
545.550548	10775.262179
545.909761	10916.787532
546.268918	10886.419622
546.628019	10971.713424
546.987064	10831.564306
547.346053	10757.464386
547.704986	10856.825528
548.063863	10845.009063
548.422684	10831.644965
548.781449	10746.106666
549.140158	10856.550785
549.498811	10726.045394
549.857408	10583.315206
550.215949	10815.346914
550.574434	10661.773203
550.932864	10764.277505
551.291237	10828.330406
551.649555	10769.933680
552.007817	10782.521441
552.366022	10750.709240
552.724173	10738.343289
553.082267	10719.973325
553.440305	10860.581188
553.798288	10667.063894
554.156215	10817.267594
554.514086	10790.577205
554.871902	10639.151026
555.229661	10674.701243
555.587365	10654.776082
555.945014	10541.602178
556.302606	10671.815182
556.660143	10568.637886
557.017625	10723.398789
557.375050	10620.125711
557.732421	10758.984294
558.089735	10667.724286
558.446994	10666.791672
558.804197	10703.403052
559.161345	10706.067302
559.518437	10553.476616
559.875474	10650.722994
560.232455	10671.419451
560.589381	10626.044026
560.946251	10620.836514
561.303065	10726.098327
561.659825	10658.478809
562.016528	10593.430281
562.373177	10472.661879
562.729770	10593.546227
563.086307	10500.065591
563.442789	10594.224262
563.799216	10480.531120
564.155587	10522.680207
564.511904	10475.764709
564.868164	10461.863727
565.224370	10482.053548
565.580520	10401.153111
565.936615	10413.027549
566.292654	10282.562488
566.648638	10410.575028
567.004567	10368.594819
567.360441	10351.964053
567.716260	10263.269992
568.072023	10357.912614
568.427732	10310.863525
568.783385	10221.269619
569.138982	10288.327047
569.494525	10302.863214
569.850013	10186.384834
570.205445	10263.711093
570.560823	10156.405092
570.916145	10081.085213
571.271412	10148.619030
571.626625	10094.746739
571.981782	10065.107275
572.336884	10046.417198
572.691931	10050.613958
573.046923	9996.643365
573.401860	9952.802971
573.756743	9882.594821
574.111570	9925.958826
574.466342	9918.071941
574.821059	9943.217217
575.175722	9833.405762
575.530330	9848.284728
575.884882	9843.099901
576.239380	9758.378270
576.593823	9746.246733
576.948211	9754.282332
577.302544	9642.759406
577.656823	9650.941199
578.011047	9654.893463
578.365216	9623.918094
578.719330	9557.135408
579.073389	9559.315707
579.427394	9510.217389
579.781344	9485.866096
580.135239	9438.978324
580.489080	9448.082648
580.842866	9346.999951
581.196597	9346.581535
581.550273	9387.296414
581.903895	9355.375828
582.257463	9431.633362
582.610975	9298.138568
582.964434	9333.164504
583.317837	9250.071166
583.671186	9234.592303
584.024481	9222.059994
584.377721	9151.927462
584.730906	9123.245817
585.084037	9154.674891
585.437113	9093.190458
585.790135	9106.524310
586.143103	9010.787757
586.496016	8985.690373
586.848874	9044.966780
587.201679	9032.716776
587.554428	8913.049866
587.907124	8962.359913
588.259765	8936.652549
588.612352	8937.852343
588.964884	8812.211666
589.317362	8823.461001
589.669786	8824.607863
590.022155	8873.970842
590.374470	8895.534377
590.726731	8828.779418
591.078937	8687.591822
591.431090	8794.567627
591.783188	8665.947628
592.135232	8657.609560
592.487222	8661.032503
592.839157	8709.626706
593.191038	8644.220255
593.542866	8588.129857
593.894639	8490.696956
594.246358	8541.012713
594.598022	8559.924601
594.949633	8455.209753
595.301190	8430.011546
595.652692	8454.123385
596.004141	8569.114625
596.355535	8338.461672
596.706876	8325.402562
597.058162	8256.948734
597.409395	8334.877411
597.760573	8393.233808
598.111698	8306.536044
598.462768	8292.700598
598.813785	8252.260461
599.164748	8228.531750
599.515657	8213.373001
599.866511	8122.758260
600.217312	8256.285823
600.568060	8108.048173
600.918753	8214.650933
601.269392	8180.983587
601.619978	8095.767922
601.970510	8161.431472
602.320988	8155.740009
602.671412	8213.473824
603.021783	8144.190726
603.372100	8122.309597
603.722363	8122.468394
604.072572	8093.580062
604.422728	8108.998431
604.772830	8035.052266
605.122878	8044.627937
605.472872	8038.339098
605.822813	8066.912358
606.172701	8016.279009
606.522534	8089.103517
606.872314	8088.034792
607.222041	8057.523209
607.571714	8114.856252
607.921333	8069.785816
608.270899	8076.619100
608.620411	8161.252511
608.969870	8074.902587
609.319276	8067.292965
609.668627	8082.769307
610.017926	8110.341898
610.367171	8161.315525
610.716362	8138.872308
611.065500	8124.976368
611.414585	8153.877303
611.763616	8145.322465
612.112594	8125.157849
612.461518	8135.169581
612.810389	8201.677524
613.159207	8135.557750
613.507971	8083.953978
613.856682	8200.467647
614.205340	8157.388467
614.553945	8234.437462
614.902496	8129.962069
615.250994	8189.190586
615.599439	8169.900610
615.947830	8177.028802
616.296169	8146.925552
616.644454	8165.887852
616.992686	8162.227974
617.340864	8220.208805
617.688990	8118.526212
618.037063	8217.136222
618.385082	8154.474680
618.733048	8242.644460
619.080961	8183.766304
619.428821	8199.429169
619.776628	8197.077471
620.124382	8151.288670
620.472083	8133.810990
620.819731	8166.326432
621.167326	8055.519350
621.514868	8066.158705
621.862357	7949.624872
622.209793	7970.260836
622.557176	7902.225423
622.904506	7875.524952
623.251783	7804.669014
623.599007	7759.109586
623.946179	7764.773323
624.293297	7719.347485
624.640363	7636.425546
624.987376	7621.332331
625.334336	7564.332005
625.681243	7516.904829
626.028097	7502.560226
626.374899	7482.004921
626.721647	7467.035215
627.068343	7400.335708
627.414987	7367.485029
627.761577	7320.241856
628.108115	7358.509255
628.454600	7252.702997
628.801032	7304.906666
629.147412	7260.723473
629.493739	7248.279385
629.840014	7183.883686
630.186236	7240.458035
630.532405	7116.929601
630.878521	7171.061511
631.224585	7126.333873
631.570597	7049.728499
631.916556	7080.482058
632.262462	7074.379742
632.608316	7029.279059
632.954117	7006.679566
633.299866	6994.873184
633.645562	6974.247303
633.991206	6901.294245
634.336797	6841.664957
634.682336	6799.866230
635.027823	6767.244923
635.373257	6758.246463
635.718639	6682.150246
636.063968	6695.151382
636.409245	6598.537668
636.754470	6592.243788
637.099642	6546.051695
637.444762	6492.320557
637.789829	6497.034036
638.134845	6439.461538
638.479808	6418.127375
638.824719	6425.245484
639.169577	6351.458116
639.514383	6370.793461
639.859137	6297.348891
640.203839	6305.079500
640.548489	6289.782119
640.893086	6265.985352
641.237632	6235.410754
641.582125	6250.496407
641.926566	6219.601696
642.270955	6232.839766
642.615292	6224.347942
642.959576	6232.688531
643.303809	6221.318208
643.647990	6218.656479
643.992118	6209.048040
644.336195	6158.956615
644.680219	6177.744995
645.024192	6166.591442
645.368112	6252.429689
645.711981	6269.279746
646.055797	6345.741447
646.399562	6292.078364
646.743274	6405.194295
647.086935	6454.096008
647.430544	6442.047650
647.774101	6456.664476
648.117606	6461.887111
648.461059	6447.547549
648.804460	6408.077835
649.147810	6320.618857
649.491108	6287.216172
649.834354	6267.933758
650.177548	6179.501837
650.520690	6092.773827
650.863781	6072.042081
651.206820	6081.264872
651.549807	6006.890209
651.892742	5947.092042
652.235626	5948.745541
652.578458	5931.698879
652.921238	5839.455846
653.263967	5873.647472
653.606644	5815.074305
653.949269	5811.376619
654.291843	5750.756744
654.634365	5790.501201
654.976836	5741.576803
655.319255	5737.478345
655.661622	5712.350713
656.003938	5702.538107
656.346203	5665.793137
656.688416	5691.755079
657.030577	5647.244211
657.372687	5613.844047
657.714746	5596.663794
658.056753	5632.995390
658.398708	5571.979784
658.740612	5561.663063
659.082465	5595.380821
659.424266	5590.508545
659.766016	5583.725673
660.107715	5549.672679
660.449362	5562.406633
660.790958	5551.918513
661.132503	5531.953023
661.473996	5565.519546
661.815438	5544.434920
662.156829	5542.589857
662.498168	5526.869019
662.839456	5506.124671
663.180693	5532.794896
663.521879	5529.077045
663.863013	5516.307802
664.204097	5522.072361
664.545129	5558.071241
664.886110	5542.567172
665.227040	5562.252878
665.567918	5533.077200
665.908746	5549.350045
666.249522	5547.411721
666.590248	5529.704668
666.930922	5550.575045
667.271545	5551.411877
667.612118	5549.922216
667.952639	5527.259709
668.293109	5532.507550
668.633528	5493.325182
668.973896	5496.155789
669.314213	5481.370085
669.654480	5453.575683
669.994695	5448.912616
670.334859	5438.424496
670.674973	5414.874745
671.015035	5423.152320
671.355047	5410.352830
671.695008	5391.231734
672.034918	5367.157704
672.374777	5367.906315
672.714585	5345.132903
673.054342	5342.599723
673.394049	5330.069935
673.733705	5348.855795
674.073310	5326.437783
674.412864	5299.961643
674.752368	5274.002222
675.091820	5273.563641
675.431223	5220.024067
675.770574	5210.410587
676.109875	5166.310573
676.449125	5168.044730
676.788324	5134.773114
677.127473	5081.493159
677.466571	5069.769956
677.805619	5056.242020
678.144616	5035.921128
678.483562	5016.487480
678.822458	4987.205938
679.161303	4972.211026
679.500098	4959.459428
679.838842	4944.782108
680.177535	4942.032159
680.516179	4949.432573
680.854771	4948.429383
681.193314	5007.960369
681.531805	5089.745528
681.870247	5192.028019
682.208638	5265.946458
682.546978	5272.757057
682.885268	5251.047328
683.223508	5173.471532
683.561697	5124.925220
683.899836	5098.174337
684.237925	5045.811872
684.575963	5021.135424
684.913951	4983.656966
685.251889	5012.837685
685.589776	4991.558975
685.927614	4973.771263
686.265401	5009.825596
686.603137	4996.156507
686.940824	5036.291653
687.278460	5051.531061
687.616046	5052.231782
687.953582	5098.623000
688.291068	5080.870577
688.628504	5110.898210
688.965889	5078.854115
689.303224	5039.389442
689.640510	4992.602493
689.977745	4929.656126
690.314930	4846.023384
690.652065	4804.194410
690.989150	4739.173607
691.326185	4672.348072
691.663170	4619.211790
692.000105	4561.924118
692.336990	4505.211137
692.673825	4473.232577
693.010610	4421.102005
693.347345	4375.540057
693.684030	4341.595448
694.020665	4311.245181
694.357251	4252.304010
694.693786	4251.371397
695.030272	4224.065987
695.366707	4191.812684
695.703093	4159.597191
696.039429	4173.034386
696.375716	4149.340963
696.711952	4128.273981
697.048139	4122.554792
697.384276	4098.120320
697.720363	4100.991257
698.056400	4098.558900
698.392388	4062.330648
698.728326	4050.418401
699.064214	4033.132285
699.400053	4017.787012
699.735842	3984.505315
700.071581	3969.966627
700.407270	3946.469809
700.742910	3929.123199
701.078501	3889.212384
701.414042	3879.808111
701.749533	3853.185778
702.084974	3815.677073
702.420366	3837.263293
702.755709	3799.283240
703.091002	3764.587499
703.426246	3779.524438
703.761440	3756.904780
704.096584	3733.985174
704.431679	3733.360071
704.766725	3721.029409
705.101721	3703.639949
705.436668	3717.533369
705.771565	3691.982281
706.106413	3708.076164
706.441212	3713.013974
706.775961	3710.793346
707.110661	3711.872153
707.445311	3724.298597
707.779913	3723.113926
708.114465	3734.022983
708.448967	3751.142742
708.783421	3782.667597
709.117825	3803.905978
709.452180	3806.358500
709.786485	3832.322963
710.120742	3881.086044
710.454949	3875.082029
710.789107	3908.701484
711.123216	3945.738842
711.457275	3945.572484
711.791286	3985.044718
712.125247	3982.201507
712.459159	3940.803552
712.793023	3989.470851
713.126837	3929.907098
713.460602	3925.168413
713.794318	3893.865369
714.127985	3885.305489
714.461602	3814.736897
714.795171	3804.969662
715.128691	3755.523504
715.462162	3709.956515
715.795584	3678.923172
716.128957	3662.909946
716.462281	3637.285761
716.795556	3611.205352
717.128782	3582.047318
717.461960	3538.703477
717.795088	3538.615257
718.128167	3513.623737
718.461198	3482.504694
718.794180	3471.242757
719.127113	3451.884726
719.459997	3437.068775
719.792833	3411.842841
720.125619	3406.579876
720.458357	3379.849158
720.791046	3376.592573
721.123686	3360.377701
721.456278	3339.328363
721.788821	3342.879856
722.121315	3326.395283
722.453761	3313.578149
722.786158	3311.513797
723.118506	3317.454797
723.450805	3300.022487
723.783056	3310.150165
724.115259	3305.751758
724.447412	3301.101294
724.779518	3305.648414
725.111574	3306.419711
725.443582	3316.922955
725.775542	3305.192190
726.107453	3331.383505
726.439315	3324.837567
726.771129	3342.048066
727.102895	3362.071529
727.434612	3379.634909
727.766281	3386.110271
728.097901	3388.645971
728.429473	3385.659088
728.760996	3382.276473
729.092471	3380.892677
729.423897	3370.565873
729.755276	3362.283257
730.086606	3361.033051
730.417887	3386.614386
730.749120	3416.102616
731.080305	3432.544339
731.411442	3448.751649
731.742530	3438.671862
732.073570	3437.930812
732.404562	3454.054943
732.735506	3447.022533
733.066401	3431.399997
733.397249	3390.599418
733.728048	3348.566278
734.058798	3289.398255
734.389501	3251.647574
734.720156	3226.479614
735.050762	3200.762167
735.381320	3184.307841
735.711831	3166.333607
736.042293	3150.632934
736.372707	3155.263233
736.703073	3139.817138
737.033391	3142.120945
737.363661	3145.269146
737.693883	3149.438180
738.024056	3159.230622
738.354182	3161.098369
738.684260	3184.517049
739.014290	3197.150181
739.344272	3198.332331
739.674207	3212.056873
740.004093	3220.281515
740.333931	3212.593756
740.663722	3206.267107
740.993464	3204.210317
741.323159	3192.177082
741.652806	3170.479956
741.982405	3157.451094
742.311956	3134.334883
742.641460	3126.649644
742.970915	3111.874022
743.300323	3092.848708
743.629683	3074.435893
743.958996	3064.189748
744.288260	3048.453786
744.617477	3031.323946
744.946647	3018.600073
745.275768	3006.292096
745.604842	3000.278000
745.933869	2985.822491
746.262847	2978.177581
746.591778	2984.715958
746.920662	2974.346304
747.249498	2967.311374
747.578286	2976.398054
747.907027	2988.695949
748.235720	2996.623163
748.564365	2999.693226
748.892963	2989.631083
749.221514	2988.605208
749.550017	2979.044660
749.878473	2971.777836
750.206881	2957.549180
750.535242	2954.340485
750.863555	2950.463838
751.191821	2946.307407
751.520039	2940.976386
751.848210	2933.709563
752.176334	2940.260543
752.504411	2940.331119
752.832440	2923.594488
753.160421	2921.953592
753.488356	2917.698858
753.816243	2917.386307
754.144082	2907.039339
754.471875	2900.994995
754.799620	2904.606982
755.127318	2900.838719
755.454969	2898.847464
755.782572	2898.229922
756.110129	2891.925959
756.437638	2891.305898
756.765100	2887.169631
757.092515	2892.097359
757.419882	2890.131309
757.747203	2886.642830
758.074477	2885.203581
758.401703	2887.426730
758.728882	2893.304715
759.056014	2895.036351
759.383099	2896.941908
759.710138	2902.167063
760.037129	2906.101684
760.364073	2908.773496
760.690970	2903.470202
761.017820	2899.704460
761.344623	2903.767630
761.671379	2913.144176
761.998088	2926.339396
762.324751	2972.254225
762.651366	3072.608475
762.977935	3275.671193
763.304456	3433.363527
763.630931	3446.122687
763.957359	3306.044145
764.283740	3175.347190
764.610074	3089.012390
764.936362	3012.459948
765.262602	2964.095118
765.588796	2916.748601
765.914943	2885.034702
766.241044	2857.429344
766.567097	2842.855368
766.893104	2825.531443
767.219064	2813.099957
767.544978	2800.849953
767.870845	2783.349588
768.196665	2782.364042
768.522438	2774.772065
768.848165	2770.229985
769.173846	2761.087852
769.499479	2755.325814
769.825066	2749.014289
770.150607	2741.893659
770.476101	2742.861561
770.801548	2739.317630
771.126949	2727.370095
771.452303	2721.507233
771.777611	2720.206615
772.102872	2717.406254
772.428087	2713.721171
772.753256	2709.451314
773.078378	2707.392002
773.403453	2695.671320
773.728482	2688.880885
774.053465	2695.310877
774.378401	2687.592871
774.703291	2680.999041
775.028135	2678.120542
775.352932	2677.966787
775.677683	2675.113494
776.002388	2672.635767
776.327046	2672.590397
776.651658	2669.590910
776.976224	2663.027328
777.300743	2663.319715
777.625216	2660.486586
777.949643	2659.659837
778.274024	2659.990033
778.598359	2653.693632
778.922647	2652.468631
779.246889	2654.129691
779.571086	2649.340595
779.895236	2650.253044
780.219339	2653.514671
780.543397	2654.467449
780.867409	2655.072387
781.191374	2654.890906
781.515294	2654.890906
781.839167	2652.284629
782.162995	2649.731285
782.486776	2652.183806
782.810511	2648.937303
783.134201	2646.056283
783.457844	2646.542755
783.781441	2641.546971
784.104993	2637.582104
784.428498	2639.049080
784.751958	2638.176960
785.075372	2637.652680
785.398739	2633.889459
785.722061	2637.246867
786.045337	2637.211579
786.368568	2639.036477
786.691752	2634.665796
787.014891	2644.037301
787.337983	2655.367295
787.661030	2666.800632
787.984031	2687.297963
788.306987	2697.813810
788.629897	2691.708973
788.952760	2683.955678
789.275579	2672.706343
789.598351	2660.116062
789.921078	2651.399907
790.243759	2644.090233
790.566395	2640.677372
790.888984	2631.310908
791.211529	2630.590023
791.534027	2625.591719
791.856480	2622.345216
792.178888	2619.015534
792.501249	2620.364043
792.823566	2615.579988
793.145836	2611.421036
793.468062	2612.603187
793.790241	2612.073865
794.112375	2614.382714
794.434464	2613.815584
794.756507	2616.573095
795.078505	2620.429578
795.400457	2622.458642
795.722364	2632.031793
796.044226	2640.732825
796.366042	2640.695016
796.687812	2637.143523
797.009538	2638.565129
797.331218	2635.144706
797.652852	2630.005250
797.974442	2629.032307
798.295986	2627.172121
798.617484	2623.121554
798.938938	2618.574433
799.260346	2615.148969
799.581709	2614.917076
799.903026	2613.283742
800.224299	2610.548916
800.545526	2607.791405
800.866708	2605.225458
801.187845	2603.607247
801.508936	2599.992740
801.829983	2603.198914
802.150984	2599.523913
802.471940	2600.980806
802.792851	2599.468460
803.113717	2599.281937
803.434538	2596.645414
803.755314	2594.127358
804.076045	2595.362440
804.396731	2595.145671
804.717372	2595.468305
805.037967	2595.130547
805.358518	2596.292533
805.679024	2600.532144
805.999485	2600.607761
806.319901	2602.203286
806.640272	2598.903851
806.960598	2596.544591
807.280879	2597.028542
807.601115	2602.694799
807.921306	2597.215064
808.241453	2597.328490
808.561554	2598.452668
808.881611	2599.077771
809.201623	2595.871597
809.521590	2596.199272
809.841513	2596.189190
810.161390	2595.599375
810.481223	2589.807089
810.801011	2592.778849
811.120755	2591.755495
811.440453	2594.361771
811.760107	2591.329517
812.079716	2586.066553
812.399281	2583.608990
812.718801	2585.534711
813.038276	2583.074628
813.357707	2585.867427
813.677093	2588.854311
813.996434	2583.571182
814.315731	2582.691500
814.634983	2584.438260
814.954191	2582.270564
815.273354	2586.447160
815.592473	2586.568147
815.911547	2587.031934
816.230577	2592.030238
816.549562	2589.237438
816.868502	2591.027048
817.187399	2590.492686
817.506250	2595.680033
817.825058	2592.224322
818.143821	2594.896134
818.462539	2595.198603
818.781213	2601.343769
819.099843	2607.292331
819.418429	2620.996708
819.736970	2631.983902
820.055466	2644.087713
820.373919	2661.280568
820.692327	2678.559123
821.010691	2711.306458
821.329011	2816.492654
821.647286	3064.688822
821.965517	3446.273922
822.283704	3648.207421
822.601847	3616.254068
822.919945	3405.090215
823.237999	3220.165569
823.556010	3070.932291
823.873976	2949.405196
824.191897	2860.249869
824.509775	2799.236784
824.827609	2751.081162
825.145398	2730.029304
825.463144	2724.398335
825.780845	2734.896538
826.098502	2762.658172
826.416116	2823.436843
826.733685	2891.217677
827.051210	2905.433731
827.368692	2869.263452
827.686129	2804.666107
828.003522	2745.845924
828.320872	2697.143337
828.638177	2668.174346
828.955439	2641.027733
829.272656	2624.752367
829.589830	2612.464555
829.906960	2608.698813
830.224046	2599.710436
830.541088	2594.933942
830.858086	2592.231884
831.175041	2589.481934
831.491952	2587.218456
831.808819	2588.204002
832.125642	2591.942017
832.442421	2596.761361
832.759157	2616.734412
833.075849	2648.725574
833.392497	2693.135619
833.709101	2724.562172
834.025662	2717.454145
834.342179	2689.432892
834.658653	2658.931390
834.975083	2635.328708
835.291469	2622.171297
835.607811	2603.965169
835.924110	2593.323294
836.240366	2583.062025
836.556578	2581.741243
836.872746	2574.844944
837.188871	2572.306723
837.504952	2570.698595
837.820990	2565.410425
838.136984	2563.774570
838.452935	2565.380178
838.768842	2566.053172
839.084706	2566.501835
839.400526	2584.019844
839.716303	2604.867536
840.032037	2620.205247
840.347727	2616.179885
840.663373	2603.647577
840.978977	2587.843559
841.294537	2580.428022
841.610054	2570.454099
841.925527	2565.352452
842.240957	2562.995712
842.556344	2560.465053
842.871687	2557.279044
843.186987	2555.275185
843.502244	2556.437171
843.817458	2553.351985
844.132629	2552.747046
844.447756	2553.205791
844.762840	2548.658671
845.077881	2549.167827
845.392879	2547.143804
845.707833	2547.509287
846.022745	2542.561395
846.337613	2551.401058
846.652438	2546.969884
846.967221	2548.908208
847.281960	2546.959802
847.596656	2550.113043
847.911309	2547.842004
848.225919	2547.874771
848.540485	2547.347971
848.855009	2547.332847
849.169490	2545.944009
849.483928	2547.831921
849.798323	2546.057435
850.112675	2549.505584
850.426984	2546.473330
850.741251	2548.484751
851.055474	2547.862168
851.369654	2545.051725
851.683792	2542.934440
851.997887	2548.136911
852.311938	2544.182126
852.625947	2547.743701
852.939914	2545.306303
853.253837	2548.204967
853.567718	2544.930737
853.881555	2548.348640
854.195350	2548.600697
854.509103	2545.830583
854.822812	2546.914431
855.136479	2546.223793
855.450103	2549.218239
855.763685	2547.678166
856.077224	2545.349153
856.390720	2546.609442
856.704173	2548.903167
857.017584	2548.351160
857.330953	2546.369987
857.644278	2546.117929
857.957561	2547.169010
858.270802	2549.124977
858.584000	2547.113557
858.897155	2546.430481
859.210268	2548.976263
859.523339	2546.533824
859.836367	2547.090872
860.149352	2547.219421
860.462295	2548.711603
860.775195	2543.350336
861.088054	2543.889739
861.400869	2542.936961
861.713642	2542.392516
862.026373	2545.941489
862.339062	2549.417364
862.651708	2546.732950
862.964312	2548.416695
863.276873	2547.232024
863.589392	2550.148332
863.901869	2548.814946
864.214303	2548.008362
864.526696	2552.096738
864.839045	2550.044988
865.151353	2547.514329
865.463619	2548.104144
865.775842	2547.766386
866.088023	2552.434495
866.400162	2549.003990
866.712258	2551.781665
867.024313	2551.854762
867.336325	2549.966850
867.648296	2551.655637
867.960224	2549.193033
868.272110	2549.429967
868.583954	2549.109854
868.895755	2549.533311
869.207515	2551.083466
869.519233	2548.434339
869.830909	2550.440718
870.142542	2550.977601
870.454134	2549.087169
870.765684	2550.647406
871.077191	2550.894422
871.388657	2551.688404
871.700081	2552.361398
872.011463	2552.200081
872.322803	2551.726213
872.634101	2552.038764
872.945357	2552.225287
873.256571	2555.897768
873.567744	2556.442212
873.878874	2554.307283
874.189963	2553.566234
874.501010	2552.764690
874.812015	2553.969526
875.122979	2552.832746
875.433900	2552.305945
875.744780	2554.118240
876.055618	2552.154711
876.366415	2557.573951
876.677169	2555.244938
876.987882	2554.816440
877.298554	2551.779145
877.609183	2555.144115
877.919771	2552.666388
878.230317	2554.856769
878.540822	2558.758622
878.851285	2563.552760
879.161707	2565.990157
879.472087	2568.477967
879.782425	2578.958526
880.092722	2594.911257
880.402977	2625.536267
880.713191	2677.709688
881.023363	2747.885071
881.333494	2793.724282
881.643583	2815.030719
881.953631	2798.679737
882.263637	2765.476177
882.573602	2731.834037
882.883526	2704.097608
883.193408	2678.939730
883.503248	2657.537511
883.813048	2638.938174
884.122806	2622.395628
884.432522	2608.363576
884.742197	2597.517534
885.051831	2587.490679
885.361424	2583.828280
885.670975	2578.895511
885.980485	2572.644481
886.289954	2571.104408
886.599382	2567.313460
886.908768	2567.600806
887.218113	2561.579148
887.527417	2561.475804
887.836680	2558.713252
888.145901	2558.688046
888.455082	2557.170659
888.764221	2556.661502
889.073319	2555.091183
889.382376	2554.370298
889.691392	2554.478683
890.000366	2556.343910
890.309300	2553.339382
890.618193	2556.230484
890.927044	2554.425751
891.235855	2553.392314
891.544625	2554.879454
891.853353	2555.013045
892.162041	2556.238045
892.470687	2557.498334
892.779293	2559.691236
893.087858	2563.179714
893.396381	2565.178532
893.704864	2573.788823
894.013306	2580.554051
894.321707	2597.419231
894.630068	2609.235696
894.938387	2614.349946
895.246665	2608.474482
895.554903	2601.326125
895.863100	2593.167018
896.171256	2586.527818
896.479371	2575.505335
896.787446	2573.435942
897.095480	2567.885631
897.403473	2565.637277
897.711425	2562.310115
898.019336	2561.513613
898.327207	2559.691236
898.635038	2560.681822
898.942827	2557.258879
899.250576	2557.309291
899.558284	2554.292160
899.865952	2553.757798
900.173579	2552.263096
900.481165	2553.916594
900.788711	2552.212684
901.096216	2554.345092
901.403681	2552.293343
901.711105	2553.702345
902.018489	2551.333003
902.325832	2555.335679
902.633135	2552.593291
902.940397	2555.186965
903.247619	2558.582182
903.554800	2571.694223
903.861941	2594.878490
904.169041	2620.999228
904.476101	2633.523975
904.783121	2631.391567
905.090100	2619.350771
905.397039	2607.516662
905.703938	2590.558221
906.010796	2580.604463
906.317614	2572.291600
906.624391	2564.497976
906.931129	2562.564693
907.237826	2558.897254
907.544483	2555.091183
907.851099	2550.884340
908.157675	2549.719833
908.464211	2549.445091
908.770707	2542.760521
909.077163	2544.847558
909.383578	2541.452341
909.689954	2540.562578
909.996289	2541.094419
910.302584	2545.913762
910.608839	2541.555685
910.915054	2546.173382
911.221229	2544.340922
911.527363	2545.258412
911.833458	2543.806560
912.139513	2545.439894
912.445527	2547.607590
912.751502	2546.226314
913.057436	2548.356201
913.363331	2547.746222
913.669186	2549.414844
913.975000	2552.341233
914.280775	2557.750392
914.586510	2560.573438
914.892205	2569.932340
915.197859	2577.889801
915.503475	2592.335228
915.809050	2603.753441
916.114585	2611.491612
916.420081	2617.049484
916.725536	2616.048815
917.030952	2608.852568
917.336328	2598.240939
917.641665	2591.982347
917.946961	2582.441963
918.252218	2577.327712
918.557435	2570.154151
918.862612	2568.346897
919.167750	2563.900599
919.472848	2558.955227
919.777906	2558.141081
920.082925	2556.018755
920.387904	2550.488609
920.692843	2553.377191
920.997743	2552.888199
921.302603	2548.416695
921.607423	2548.900646
921.912204	2548.318393
922.216946	2547.448794
922.521647	2547.244627
922.826310	2547.423588
923.130932	2546.818649
923.435516	2544.466951
923.740059	2545.412168
924.044564	2545.248330
924.349028	2543.841848
924.653454	2539.551826
924.957840	2541.016281
925.262186	2539.012423
925.566493	2538.936805
925.870761	2536.201979
926.174989	2538.778009
926.479178	2539.080478
926.783328	2539.635005
927.087438	2538.208359
927.391509	2538.609130
927.695541	2541.437218
927.999533	2541.190201
928.303486	2539.844213
928.607400	2538.147865
928.911275	2539.879501
929.215110	2541.323792
929.518906	2541.429656
929.822663	2539.970242
930.126381	2537.797505
930.430060	2540.010571
930.733699	2536.413708
931.037299	2538.604089
931.340861	2537.336239
931.644383	2539.675334
931.947866	2539.012423
932.251309	2541.341436
932.554714	2536.713657
932.858080	2538.828421
933.161407	2538.062165
933.464694	2538.427649
933.767943	2538.094933
934.071153	2535.375230
934.374323	2538.208359
934.677455	2538.556198
934.980548	2540.882691
935.283602	2537.240457
935.586617	2537.711805
935.889593	2537.568132
936.192530	2538.473019
936.495428	2540.877650
936.798287	2537.921013
937.101108	2538.964532
937.403890	2539.766075
937.706632	2539.536703
938.009336	2540.098791
938.312002	2542.823535
938.614628	2540.953267
938.917216	2542.483257
939.219765	2541.101981
939.522275	2540.597866
939.824747	2542.427804
940.127179	2542.183308
940.429573	2538.636857
940.731929	2538.800694
941.034246	2536.529654
941.336524	2540.693648
941.638763	2539.755993
941.940964	2542.919317
942.243126	2540.431508
942.545250	2538.319264
942.847335	2538.369676
943.149381	2540.282793
943.451389	2537.560570
943.753359	2537.845396
944.055290	2537.875642
944.357182	2538.873791
944.659036	2538.785571
944.960851	2539.640046
945.262628	2537.258101
945.564367	2537.404295
945.866067	2541.903524
946.167729	2539.065355
946.469352	2536.113759
946.770937	2539.040149
947.072484	2540.691127
947.373992	2537.588297
947.675462	2537.240457
947.976893	2540.020653
948.278286	2537.250539
948.579641	2536.998482
948.880958	2535.387833
949.182236	2538.740200
949.483476	2538.334387
949.784678	2538.813297
950.085841	2538.460416
950.386967	2540.060983
950.688054	2537.921013
950.989103	2538.772968
951.290114	2536.877494
951.591087	2539.103163
951.892021	2536.786753
952.192917	2540.368493
952.493776	2535.639891
952.794596	2539.241795
953.095378	2540.166847
953.396122	2538.629295
953.696828	2538.883873
953.997496	2540.371014
954.298126	2538.760365
954.598718	2536.678368
954.899272	2537.721887
955.199788	2534.288862
955.500266	2533.421783
955.800706	2533.620909
956.101108	2533.799870
956.401472	2536.050745
956.701798	2532.153933
957.002087	2532.642925
957.302337	2532.589993
957.602550	2535.503780
957.902724	2535.818852
958.202861	2535.445806
958.502960	2533.840199
958.803022	2536.771630
959.103045	2533.300795
959.403031	2533.315919
959.702979	2535.967566
960.002889	2534.409849
960.302762	2533.467153
960.602596	2534.614016
960.902393	2532.761392
961.202153	2533.736855
961.501875	2535.576876
961.801559	2533.673841
962.101205	2534.677030
962.400814	2532.642925
962.700385	2534.626619
962.999918	2534.104859
963.299414	2533.326001
963.598873	2534.427493
963.898293	2533.378933
964.197677	2531.024714
964.497022	2532.045548
964.796331	2534.140148
965.095601	2535.050076
965.394835	2532.882380
965.694030	2534.750127
965.993189	2533.225178
966.292309	2532.678213
966.591393	2534.213244
966.890439	2533.855322
967.189447	2531.649817
967.488419	2532.292565
967.787353	2532.920188
968.086249	2533.441948
968.385108	2535.075282
968.683930	2531.997657
968.982714	2532.489170
969.281462	2532.584952
969.580172	2532.491690
969.878844	2534.074612
970.177480	2532.607637
970.476078	2532.554705
970.774639	2534.553522
971.073162	2529.482121
971.371649	2529.953469
971.670098	2531.332225
971.968510	2530.669313
972.266885	2528.688140
972.565223	2532.216947
972.863524	2531.745599
973.161788	2532.153933
973.460014	2531.576721
973.758204	2535.166022
974.056356	2529.041020
974.354471	2532.728624
974.652550	2531.790970
974.950591	2533.255425
975.248595	2531.491021
975.546563	2532.736186
975.844493	2531.450692
976.142386	2533.144520
976.440243	2530.893644
976.738062	2532.748789
977.035845	2533.031094
977.333590	2532.393388
977.631299	2530.981865
977.928971	2530.069416
978.226606	2531.738038
978.524204	2530.676875
978.821765	2532.489170
979.119290	2529.426669
979.416777	2531.589324
979.714228	2532.789118
980.011642	2533.401618
980.309020	2535.788605
980.606360	2530.182842
980.903664	2530.182842
981.200931	2534.074613
981.498162	2533.089067
981.795356	2531.574200
982.092513	2532.037986
982.389633	2533.653676
982.686717	2534.999664
982.983764	2534.760209
983.280775	2534.240971
983.577749	2533.847761
983.874686	2535.546629
984.171587	2533.147040
984.468451	2534.240971
984.765279	2532.428676
985.062070	2531.453213
985.358824	2529.484642
985.655543	2532.607637
985.952224	2532.358100
986.248869	2531.796011
986.545478	2528.927594
986.842050	2531.339787
987.138586	2528.526823
987.435086	2526.381812
987.731549	2526.051616
988.027975	2532.516896
988.324366	2531.077647
988.620719	2531.294416
988.917037	2529.288037
989.213318	2528.751154
989.509563	2530.271062
989.805772	2527.732841
990.101944	2529.724097
990.398080	2529.182173
990.694180	2528.814168
990.990244	2529.489683
991.286271	2527.531195
991.582262	2531.859025
991.878217	2530.555887
992.174136	2529.265352
992.470019	2529.330887
992.765865	2531.619571
993.061676	2529.091432
993.357450	2531.586803
993.653188	2531.675023
993.948890	2529.963552
994.244556	2529.620753
994.540186	2530.016484
994.835780	2528.927594
995.131337	2531.460774
995.426859	2530.913809
995.722345	2528.458767
996.017795	2529.388860
996.313208	2531.009591
996.608586	2529.635877
996.903928	2530.296268
997.199234	2529.572862
997.494504	2530.974303
997.789738	2529.976154
998.084936	2529.237625
998.380099	2531.382636
998.675225	2530.951618
998.970316	2529.714014
999.265371	2528.647810
999.560390	2530.112266
999.855373	2529.971113
1000.150320	2526.510361
1000.445232	2530.674354
1000.740108	2529.560259
1001.034948	2528.834333
1001.329752	2529.305681
1001.624521	2529.217461
1001.919254	2523.500792
1002.213951	2526.611184
1002.508613	2525.582789
1002.803239	2526.681760
1003.097829	2525.766791
1003.392384	2527.715197
1003.686903	2529.121679
1003.981386	2528.816689
1004.275834	2529.426669
1004.570246	2529.658562
1004.864623	2526.217974
1005.158964	2528.978006
1005.453270	2527.067409
1005.747540	2528.211751
1006.041775	2529.749303
1006.335974	2529.035979
1006.630138	2527.432892
1006.924266	2529.149405
1007.218359	2528.559590
1007.512416	2528.531864
1007.806438	2527.405166
1008.100425	2532.408511
1008.394376	2528.299971
1008.688292	2529.159487
1008.982172	2525.345855
1009.276017	2530.417255
1009.569827	2528.957841
1009.863602	2529.766947
1010.157341	2528.461288
1010.451045	2526.540608
1010.744714	2527.657224
1011.038347	2527.692512
1011.331945	2527.480783
1011.625508	2526.959024
1011.919036	2529.898017
1012.212528	2528.065557
1012.505986	2528.612522
1012.799408	2525.696215
1013.092795	2527.611853
1013.386147	2527.256452
1013.679464	2528.352903
1013.972745	2526.767460
1014.265992	2529.530012
1014.559204	2528.060516
1014.852380	2529.948428
1015.145521	2529.756864
1015.438628	2528.894827
1015.731699	2529.565300
1016.024736	2527.553880
1016.317737	2527.372398
1016.610703	2529.550177
1016.903635	2525.484486
1017.196531	2524.773684
1017.489393	2525.635721
1017.782219	2523.150432
1018.075011	2525.338293
1018.367768	2527.505989
1018.660490	2527.700073
1018.953177	2527.700073
1019.245829	2527.700073
