Dividing Wavelength (nm)	Counts (n)	Blue Motor Position (mm): 0.000000	Red Motor Position (mm): 38.200000	
326.493990	2127.077057
326.888308	2127.077057
327.282561	2127.077057
327.676750	2096.598241
328.070874	2093.031624
328.464933	2096.547829
328.858929	2104.762389
329.252859	2111.862854
329.646726	2125.741151
330.040528	2134.444703
330.434265	2155.710811
330.827938	2170.020126
331.221547	2189.211798
331.615091	2207.962370
332.008571	2227.464074
332.401986	2247.764800
332.795338	2267.848757
333.188625	2284.887857
333.581847	2305.992648
333.975006	2322.227684
334.368100	2344.323061
334.761129	2358.307222
335.154095	2375.986548
335.546996	2394.694270
335.939833	2417.011458
336.332606	2432.633994
336.725315	2442.547423
337.117960	2454.401697
337.510540	2462.313788
337.903056	2473.338791
338.295508	2478.160655
338.687896	2488.772283
339.080220	2497.785867
339.472480	2506.756600
339.864676	2507.787516
340.256807	2512.369925
340.648875	2516.140708
341.040879	2518.772190
341.432818	2519.435102
341.824694	2521.237314
342.216506	2520.735719
342.608253	2520.914680
342.999937	2521.701100
343.391557	2522.666481
343.783113	2518.535256
344.174605	2520.103055
344.566033	2519.220853
344.957397	2514.698938
345.348697	2513.279853
345.739934	2513.433608
346.131106	2512.080058
346.522215	2511.457476
346.913260	2507.837927
347.304241	2503.560508
347.695159	2505.284583
348.086012	2501.770899
348.476802	2501.874242
348.867528	2498.350476
349.258191	2497.758140
349.648789	2497.049858
350.039324	2493.014414
350.429796	2496.177738
350.820203	2490.246821
351.210548	2492.913591
351.600828	2491.555000
351.991045	2492.089363
352.381198	2489.760350
352.771288	2489.372181
353.161314	2489.289002
353.551276	2490.889568
353.941175	2490.221615
354.331010	2489.518374
354.720782	2487.096100
355.110490	2490.317397
355.500135	2491.071050
355.889717	2491.887717
356.279235	2490.705566
356.668689	2490.801348
357.058080	2492.873262
357.447408	2487.897643
357.836672	2487.083497
358.225873	2488.590802
358.615010	2487.222129
359.004084	2495.509786
359.393095	2492.676657
359.782043	2497.332163
360.170927	2493.485762
360.559748	2495.963489
360.948505	2499.209992
361.337199	2498.864673
361.725830	2497.909375
362.114398	2499.918275
362.502903	2499.759478
362.891344	2503.394150
363.279722	2499.971207
363.668037	2503.487412
364.056289	2497.291833
364.444478	2507.215345
364.832603	2502.595127
365.220665	2503.575632
365.608665	2505.062772
365.996601	2504.782988
366.384474	2505.229130
366.772284	2507.522855
367.160031	2509.491426
367.547715	2509.367918
367.935336	2512.669873
368.322893	2518.809999
368.710388	2519.445184
369.097820	2527.130423
369.485189	2526.679240
369.872495	2535.105528
370.259738	2541.240613
370.646918	2549.656819
371.034035	2556.018755
371.421090	2565.397822
371.808081	2578.628330
372.195010	2585.983374
372.581875	2598.283789
372.968678	2610.974894
373.355418	2622.902264
373.742096	2639.202835
374.128710	2654.298570
374.515262	2670.208452
374.901751	2685.024403
375.288177	2698.832123
375.674540	2720.630072
376.060841	2737.104563
376.447079	2761.271855
376.833254	2780.153496
377.219367	2791.170938
377.605417	2830.640652
377.991404	2839.465192
378.377329	2860.161649
378.763191	2879.864999
379.148991	2916.443611
379.534727	2940.361366
379.920402	2969.935295
380.306013	2977.648260
380.691563	3033.363092
381.077049	3054.235990
381.462474	3070.498752
381.847835	3107.067282
382.233134	3135.098618
382.618371	3131.524440
383.003545	3199.635470
383.388657	3208.822972
383.773706	3239.536202
384.158693	3249.316041
384.543618	3283.056483
384.928480	3317.069148
385.313280	3365.849874
385.698017	3364.138402
386.082692	3417.194026
386.467305	3422.537649
386.851856	3455.708441
387.236344	3477.662666
387.620770	3505.880525
388.005133	3532.719628
388.389435	3564.645255
388.773674	3568.763878
389.157851	3613.017647
389.541965	3628.791417
389.926018	3596.896037
390.310008	3669.271883
390.693936	3684.304603
391.077802	3726.544431
391.461606	3716.038667
391.845348	3777.359262
392.229027	3779.529479
392.612645	3788.946354
392.996200	3866.103734
393.379694	3908.330960
393.763125	3972.134323
394.146494	3936.672327
394.529801	4001.912419
394.913047	4049.876477
395.296230	4013.708719
395.679351	4070.404056
396.062410	4094.518415
396.445408	4078.684151
396.828343	4110.750931
397.211217	4133.040392
397.594028	4053.866551
397.976778	4118.206797
398.359466	4142.868122
398.742092	4175.128986
399.124656	4098.770628
399.507158	4179.978576
399.889598	4199.497923
400.271977	4264.579220
400.654294	4235.413624
401.036549	4243.545005
401.418742	4209.968400
401.800874	4316.946726
402.182944	4338.112010
402.564952	4401.917894
402.946898	4388.916759
403.328783	4383.532806
403.710606	4300.197492
404.092367	4493.223273
404.474067	4453.665339
404.855705	4463.750167
405.237282	4393.337851
405.618797	4498.178727
406.000250	4535.626938
406.381642	4615.146099
406.762972	4575.883072
407.144240	4589.463941
407.525447	4587.623920
407.906593	4646.418897
408.287677	4689.014127
408.668700	4617.238178
409.049661	4670.298843
409.430560	4713.647725
409.811399	4639.217609
410.192176	4800.708452
410.572891	4738.729986
410.953545	4842.303012
411.334138	4723.800609
411.714669	4788.581956
412.095139	4682.460627
412.475547	4827.323223
412.855894	4807.783711
413.236180	4814.102797
413.616405	4769.077732
413.996568	4853.053273
414.376670	4797.766938
414.756711	4749.455041
415.136691	4787.447697
415.516609	4865.608266
415.896466	4899.555396
416.276262	4935.965130
416.655997	4916.402933
417.035670	5099.522846
417.415283	5189.993913
417.794834	5134.352178
418.174324	5086.287297
418.553753	4994.059387
418.933121	5177.222150
419.312428	5245.186986
419.691674	5188.935271
420.070859	5311.208458
420.449983	5222.128749
420.829045	5337.520760
421.208047	5242.316049
421.586988	5314.749868
421.965867	5329.911138
422.344686	5459.146158
422.723444	5312.425896
423.102141	5135.158763
423.480777	5433.597591
423.859352	5200.971026
424.237866	5461.475172
424.616319	5452.784222
424.994712	5564.990225
425.373044	5442.167552
425.751314	5581.600827
426.129524	5384.446341
426.507673	5580.096042
426.885762	5665.042005
427.263789	5592.998875
427.641756	5477.075022
428.019662	5596.200008
428.397508	5602.141008
428.775292	5551.878183
429.153016	5650.178163
429.530679	5573.126647
429.908282	5661.079658
430.285824	5535.033168
430.663305	5810.408717
431.040726	5538.151122
431.418086	5539.519795
431.795385	5642.699611
432.172624	5658.503628
432.549802	5649.603471
432.926920	5666.982849
433.303977	5675.232697
433.680974	5711.713007
434.057910	5734.740998
434.434786	5736.243262
434.811601	5703.054826
435.188355	5939.174910
435.565050	5817.365510
435.941683	5800.644002
436.318257	6011.364233
436.694770	5991.555019
437.071222	6028.163878
437.447614	5957.683506
437.823946	5873.652513
438.200218	6027.909300
438.576429	5889.080964
438.952580	5986.324822
439.328670	6034.982039
439.704700	5942.910405
440.080670	5930.342808
440.456580	6201.365322
440.832429	6083.644297
441.208218	5928.724598
441.583947	6082.966262
441.959616	6085.123876
442.335224	6016.682650
442.710773	6151.601571
443.086261	6179.030489
443.461689	5974.568851
443.837057	6123.741635
444.212365	6279.258710
444.587612	6170.069838
444.962800	6318.640204
445.337927	6305.215611
445.712995	5915.670530
446.088002	6491.634960
446.462949	6319.522406
446.837837	6250.972796
447.212664	6427.907214
447.587431	6572.837866
447.962139	7107.885771
448.336786	8043.357567
448.711374	7775.344622
449.085901	6853.796493
449.460369	6775.078876
449.834776	6703.023144
450.209124	7103.331088
450.583412	7244.990032
450.957640	7402.470637
451.331808	7164.129924
451.705917	6711.192333
452.079965	6634.201311
452.453954	6847.409352
452.827883	6724.405198
453.201752	6816.333159
453.575562	6617.689012
453.949311	6820.204765
454.323001	6711.487241
454.696632	6781.662623
455.070202	6922.462050
455.443713	7080.550114
455.817164	7175.359094
456.190556	7262.747496
456.563888	7335.849268
456.937160	7380.707976
457.310373	7033.921962
457.683526	7059.813328
458.056619	6949.671678
458.429653	6937.416633
458.802628	6873.179730
459.175542	6981.672923
459.548398	7341.323961
459.921194	7499.386820
460.293930	7503.760021
460.666607	8037.328347
461.039224	8342.353442
461.411782	8466.759037
461.784280	8488.269640
462.156719	8375.728401
462.529099	8258.140967
462.901419	7843.395158
463.273680	7736.636123
463.645882	7749.543997
464.018024	7612.966536
464.390106	7786.180582
464.762130	8166.633943
465.134094	8638.795974
465.505999	9662.800513
465.877845	10883.132789
466.249631	11533.497088
466.621358	11153.812504
466.993026	10516.451862
467.364634	10261.470300
467.736184	9896.616790
468.107674	9568.457840
468.479105	9599.763405
468.850477	9364.021407
469.221790	9135.024473
469.593043	8807.593969
469.964238	8668.863936
470.335373	8681.650822
470.706449	8740.755831
471.077467	8718.247079
471.448425	10030.726606
471.819324	11114.025197
472.190164	11134.928342
472.560945	9884.210511
472.931667	9091.635262
473.302330	8952.660733
473.672934	8603.500335
474.043479	8958.586609
474.413965	8897.661744
474.784393	8778.700596
475.154761	8938.719422
475.525070	9023.098255
475.895321	8847.025874
476.265513	9025.424747
476.635645	9198.613588
477.005719	9196.831540
477.375734	9305.556625
477.745691	9546.470847
478.115588	9682.213997
478.485427	9926.059649
478.855207	10463.567637
479.224928	11273.870103
479.594591	11905.453584
479.964194	11717.345448
480.333739	11657.383444
480.703226	11575.603326
481.072653	11663.526090
481.442022	11901.839076
481.811333	12091.242788
482.180584	11900.246072
482.549777	11607.846546
482.918912	11432.681573
483.287988	11446.146495
483.657005	11466.696759
484.025964	11145.938222
484.394864	11280.239601
484.763706	11249.362534
485.132489	10998.340799
485.501213	10970.004473
485.869879	11046.950125
486.238487	10882.550536
486.607036	10995.883236
486.975527	10771.105748
487.343959	10959.602052
487.712333	11016.105825
488.080648	10935.056674
488.448905	10987.933337
488.817104	10927.217680
489.185244	11190.529748
489.553326	11343.710249
489.921350	11872.739016
490.289315	12944.057305
490.657222	13286.608750
491.025070	13201.204042
491.392861	13069.667735
491.760593	12685.002491
492.128267	12347.920698
492.495883	12013.117506
492.863440	11680.474449
493.230939	11341.736637
493.598380	11276.378077
493.965763	11144.393108
494.333088	11041.548528
494.700354	10963.755963
495.067563	11026.331806
495.434713	10848.237923
495.801805	10988.785292
496.168839	10901.855635
496.535815	10837.200316
496.902733	10837.651499
497.269593	10769.701787
497.636395	10872.621984
498.003139	10860.699655
498.369825	10723.776875
498.736453	10885.154292
499.103023	10809.650410
499.469535	10833.611015
499.835989	10828.116157
500.202385	10792.739860
500.568723	10641.996757
500.935003	10859.867864
501.301226	10667.520119
501.667390	10928.793040
502.033497	11025.835252
502.399546	10890.326516
502.765537	10794.405961
503.131470	10864.334327
503.497345	11043.683457
503.863163	10652.452110
504.228923	10961.797475
504.594625	11027.324913
504.960269	10779.332911
505.325856	10995.069090
505.691385	10790.773810
506.056856	10946.003540
506.422270	10969.747374
506.787625	10860.263595
507.152924	10980.079219
507.518164	10951.203490
507.883347	10870.555111
508.248472	10790.819180
508.613540	11027.458503
508.978550	10903.231870
509.343503	10889.419108
509.708398	11001.567137
510.073236	11115.318253
510.438016	11119.099119
510.802738	11066.971067
511.167403	11121.337391
511.532010	11018.409632
511.896561	11247.272976
512.261053	11316.021711
512.625488	11186.718636
512.989866	11170.692808
513.354186	11158.644450
513.718449	11062.449152
514.082655	11250.534602
514.446803	11152.489201
514.810894	11274.840526
515.174927	11135.422375
515.538904	11162.942034
515.902822	11311.772019
516.266684	11196.069976
516.630488	11140.821451
516.994235	11200.294463
517.357925	11258.484502
517.721558	11347.092863
518.085133	11361.409740
518.448651	11371.406348
518.812112	11264.609504
519.175516	11270.260637
519.538863	11387.953936
519.902152	11310.877214
520.265385	11473.701442
520.628560	11379.326001
520.991678	11354.321878
521.354739	11416.925447
521.717743	11349.285765
522.080690	11332.201295
522.443580	11462.283228
522.806413	11413.290775
523.169189	11450.665889
523.531908	11507.328459
523.894569	11324.085037
524.257174	11324.470685
524.619722	11441.347317
524.982213	11392.692620
525.344647	11440.661720
525.707025	11396.791078
526.069345	11488.492187
526.431608	11408.100907
526.793815	11514.686023
527.155964	11302.604680
527.518057	11361.553413
527.880093	11307.565176
528.242072	11371.895340
528.603995	11281.242791
528.965860	11194.310613
529.327669	11258.169430
529.689421	11200.833867
530.051117	11168.943527
530.412755	11273.076122
530.774337	11165.845738
531.135862	11141.431430
531.497331	11170.221460
531.858743	11014.086843
532.220098	11184.792915
532.581396	11050.428521
532.942638	11037.548373
533.303824	11002.577889
533.664953	11007.800524
534.026025	10919.630743
534.387040	11019.564057
534.747999	11021.164623
535.108902	11075.848539
535.469748	10834.263844
535.830537	10938.703949
536.191270	10912.530278
536.551947	10937.715883
536.912567	10934.842425
537.273131	10858.708399
537.633638	10835.534215
537.994089	10818.366565
538.354483	10769.890830
538.714821	10911.343086
539.075103	10918.138562
539.435328	10881.300330
539.795497	10712.542664
540.155609	10864.823319
540.515665	10947.404980
540.875665	10684.534013
541.235609	10749.632953
541.595496	10743.691953
541.955328	10894.876157
542.315102	10779.380802
542.674821	10721.984745
543.034483	10718.851668
543.394090	10727.517411
543.753640	10651.890021
544.113134	10871.318845
544.472571	10717.228416
544.831953	10860.838287
545.191278	10665.178503
545.550548	10691.901659
545.909761	10819.828500
546.268918	10784.311051
546.628019	10867.724503
546.987064	10724.412061
547.346053	10643.393157
547.704986	10740.205996
548.063863	10730.700900
548.422684	10710.274145
548.781449	10621.736360
549.140158	10714.448220
549.498811	10593.994890
549.857408	10448.461820
550.215949	10659.706330
550.574434	10507.932312
550.932864	10593.750394
551.291237	10651.963118
551.649555	10596.482699
552.007817	10602.401014
552.366022	10558.399303
552.724173	10540.188134
553.082267	10520.789774
553.440305	10642.203444
553.798288	10442.876221
554.156215	10585.959291
554.514086	10550.577952
554.871902	10396.984077
555.229661	10428.113202
555.587365	10392.683973
555.945014	10288.226224
556.302606	10392.772193
556.660143	10281.581983
557.017625	10423.245968
557.375050	10312.562394
557.732421	10427.999776
558.089735	10331.491927
558.446994	10328.245424
558.804197	10348.583959
559.161345	10336.543163
559.518437	10186.959526
559.875474	10254.316903
560.232455	10266.309808
560.589381	10207.756806
560.946251	10177.817393
561.303065	10275.681313
561.659825	10196.149549
562.016528	10119.201377
562.373177	9996.101441
562.729770	10088.873795
563.086307	9995.914918
563.442789	10066.009642
563.799216	9926.702397
564.155587	9962.754208
564.511904	9898.663499
564.868164	9876.379078
565.224370	9871.340445
565.580520	9770.711453
565.936615	9774.318398
566.292654	9624.359195
566.648638	9735.110824
567.004567	9672.789560
567.360441	9641.420980
567.716260	9533.610864
568.072023	9605.359086
568.427732	9534.906440
568.783385	9439.747100
569.138982	9472.534764
569.494525	9470.152819
569.850013	9339.234054
570.205445	9391.893947
570.560823	9281.409498
570.916145	9178.050721
571.271412	9221.734840
571.626625	9147.196339
571.981782	9107.383827
572.336884	9053.438439
572.691931	9043.620792
573.046923	8962.468297
573.401860	8908.099453
573.756743	8822.268768
574.111570	8842.778702
574.466342	8810.389289
574.821059	8804.501221
575.175722	8694.571300
575.530330	8672.246550
575.884882	8636.419070
576.239380	8547.291470
576.593823	8513.810646
576.948211	8496.340528
577.302544	8382.309628
577.656823	8347.170265
578.011047	8332.424890
578.365216	8279.588556
578.719330	8195.925567
579.073389	8169.477153
579.427394	8111.113195
579.781344	8066.113335
580.135239	7998.599682
580.489080	7976.834500
580.842866	7865.871142
581.196597	7839.062286
581.550273	7851.249276
581.903895	7785.792414
582.257463	7816.881209
582.610975	7679.177051
582.964434	7679.797113
583.317837	7592.562466
583.671186	7559.205151
584.024481	7514.180086
584.377721	7430.950636
584.730906	7384.453553
585.084037	7378.484827
585.437113	7308.498488
585.790135	7285.679705
586.143103	7188.017432
586.496016	7140.002962
586.848874	7150.788511
587.201679	7120.745754
587.554428	7012.434043
587.907124	7011.062849
588.259765	6966.725901
588.612352	6937.250275
588.964884	6833.415108
589.317362	6807.377549
589.669786	6780.921573
590.022155	6795.803060
590.374470	6763.864829
590.726731	6709.508588
591.078937	6576.863228
591.431090	6617.736903
591.783188	6513.211098
592.135232	6471.735005
592.487222	6454.204393
592.839157	6453.249094
593.191038	6383.600512
593.542866	6322.184135
593.894639	6229.028653
594.246358	6233.215332
594.598022	6221.524896
594.949633	6123.955884
595.301190	6084.085398
595.652692	6077.322690
596.004141	6110.158246
596.355535	5954.217713
596.706876	5912.822278
597.058162	5851.491601
597.409395	5864.149938
597.760573	5871.779724
598.111698	5791.169154
598.462768	5760.294607
598.813785	5718.727773
599.164748	5664.563095
599.515657	5643.707842
599.866511	5556.712650
600.217312	5609.813644
600.568060	5506.323797
600.918753	5535.222211
601.269392	5494.915666
601.619978	5420.525879
601.970510	5429.456283
602.320988	5402.385287
602.671412	5403.149022
603.021783	5349.276731
603.372100	5312.251977
603.722363	5276.429537
604.072572	5248.584724
604.422728	5229.806426
604.772830	5171.659237
605.122878	5141.641686
605.472872	5122.918841
605.822813	5104.485862
606.172701	5059.768307
606.522534	5060.963060
606.872314	5046.419331
607.222041	5003.491386
607.571714	4998.982074
607.921333	4960.013954
608.270899	4932.736271
608.620411	4950.110608
608.969870	4888.537955
609.319276	4855.289024
609.668627	4841.461139
610.017926	4838.912836
610.367171	4826.491433
610.716362	4801.623421
611.065500	4770.038072
611.414585	4750.203652
611.763616	4731.989963
612.112594	4697.868913
612.461518	4680.610523
612.810389	4686.680072
613.159207	4640.397239
613.507971	4599.790745
613.856682	4614.586531
614.205340	4580.352055
614.553945	4586.353549
614.902496	4525.411040
615.250994	4525.262326
615.599439	4498.135877
615.947830	4476.960511
616.296169	4447.898259
616.644454	4434.443419
616.992686	4407.707660
617.340864	4400.662647
617.688990	4351.105584
618.037063	4363.590002
618.385082	4326.557686
618.733048	4329.678160
619.080961	4298.107934
619.428821	4282.011530
619.776628	4257.057818
620.124382	4228.328282
620.472083	4196.362326
620.819731	4187.603321
621.167326	4132.954693
621.514868	4118.027836
621.862357	4068.125454
622.209793	4051.895459
622.557176	4013.134027
622.904506	3979.431393
623.251783	3948.506435
623.599007	3913.871188
623.946179	3898.851070
624.293297	3866.960731
624.640363	3833.255576
624.987376	3808.949653
625.334336	3779.572329
625.681243	3749.350611
626.028097	3731.557859
626.374899	3712.852657
626.721647	3685.181764
627.068343	3663.091428
627.414987	3639.418169
627.761577	3614.860188
628.108115	3611.810290
628.454600	3570.520720
628.801032	3564.680543
629.147412	3549.637740
629.493739	3530.539329
629.840014	3505.389012
630.186236	3506.170391
630.532405	3470.184114
630.878521	3466.373002
631.224585	3445.016154
631.570597	3420.924479
631.916556	3413.007347
632.262462	3401.420255
632.608316	3382.974673
632.954117	3362.878113
633.299866	3354.847555
633.645562	3335.348372
633.991206	3318.616783
634.336797	3288.410189
634.682336	3274.736059
635.027823	3252.224787
635.373257	3242.946543
635.718639	3218.804457
636.063968	3210.473950
636.409245	3182.248530
636.754470	3170.537930
637.099642	3155.636279
637.444762	3136.003505
637.789829	3127.514202
638.134845	3110.238168
638.479808	3097.801641
638.824719	3091.296032
639.169577	3073.709967
639.514383	3065.157650
639.859137	3049.318344
640.203839	3044.861964
640.548489	3030.605581
640.893086	3020.792975
641.237632	3004.121879
641.582125	3002.077692
641.926566	2988.501864
642.270955	2985.565392
642.615292	2978.999289
642.959576	2977.096254
643.303809	2968.317084
643.647990	2961.869448
643.992118	2954.763942
644.336195	2943.456634
644.680219	2937.455140
645.024192	2933.313833
645.368112	2937.886159
645.711981	2935.829368
646.055797	2938.049997
646.399562	2927.183789
646.743274	2937.319029
647.086935	2939.751386
647.430544	2932.605550
647.774101	2929.477514
648.117606	2925.240425
648.461059	2918.457552
648.804460	2907.367014
649.147810	2893.168604
649.491108	2880.840462
649.834354	2873.911396
650.177548	2861.419417
650.520690	2847.765452
650.863781	2840.556602
651.206820	2838.547702
651.549807	2827.215188
651.892742	2816.258240
652.235626	2812.111891
652.578458	2806.117959
652.921238	2796.655713
653.263967	2794.455250
653.606644	2787.453087
653.949269	2783.528549
654.291843	2774.925820
654.634365	2774.925820
654.976836	2768.861312
655.319255	2767.772422
655.661622	2759.202461
656.003938	2757.871596
656.346203	2753.720206
656.688416	2749.011768
657.030577	2744.101685
657.372687	2739.209245
657.714746	2734.825962
658.056753	2735.889645
658.398708	2723.954713
658.740612	2723.347254
659.082465	2720.042778
659.424266	2717.726368
659.766016	2712.801160
660.107715	2714.459700
660.449362	2710.767055
660.790958	2712.118084
661.132503	2706.703885
661.473996	2706.287990
661.815438	2701.211548
662.156829	2698.862370
662.498168	2694.917667
662.839456	2695.676361
663.180693	2691.295598
663.521879	2689.596729
663.863013	2685.369722
664.204097	2685.566327
664.545129	2686.408199
664.886110	2684.860565
665.227040	2682.816377
665.567918	2681.546007
665.908746	2682.191274
666.249522	2677.044256
666.590248	2677.868485
666.930922	2676.053669
667.271545	2675.325223
667.612118	2673.734739
667.952639	2670.190807
668.293109	2669.142247
668.633528	2664.529592
668.973896	2663.062616
669.314213	2660.521874
669.654480	2657.799651
669.994695	2656.211688
670.334859	2656.315032
670.674973	2653.280257
671.015035	2653.736481
671.355047	2650.101809
671.695008	2648.463434
672.034918	2648.942344
672.374777	2645.647950
672.714585	2644.415388
673.054342	2643.729791
673.394049	2643.145017
673.733705	2641.473875
674.073310	2641.420942
674.412864	2639.041518
674.752368	2635.293420
675.091820	2637.778709
675.431223	2632.223357
675.770574	2631.570528
676.109875	2624.943931
676.449125	2623.960906
676.788324	2621.712552
677.127473	2620.321193
677.466571	2615.370780
677.805619	2619.915380
678.144616	2618.307252
678.483562	2615.673249
678.822458	2616.608383
679.161303	2616.971346
679.500098	2612.809874
679.838842	2611.899946
680.177535	2612.744339
680.516179	2613.772734
680.854771	2612.535131
681.193314	2616.159721
681.531805	2615.007817
681.870247	2619.635596
682.208638	2620.986625
682.546978	2620.495113
682.885268	2618.861779
683.223508	2616.502519
683.561697	2611.862137
683.899836	2612.890532
684.237925	2608.653442
684.575963	2610.153186
684.913951	2609.351642
685.251889	2611.063114
685.589776	2610.654781
685.927614	2609.099585
686.265401	2607.849378
686.603137	2610.995058
686.940824	2607.541868
687.278460	2612.981273
687.616046	2610.196036
687.953582	2613.712240
688.291068	2610.566560
688.628504	2610.206118
688.965889	2610.606890
689.303224	2609.989348
689.640510	2608.013216
689.977745	2605.779985
690.314930	2600.925354
690.652065	2601.071547
690.989150	2598.838316
691.326185	2596.458891
691.663170	2592.367995
692.000105	2593.945876
692.336990	2592.645258
692.673825	2592.332707
693.010610	2589.144177
693.347345	2585.542273
693.684030	2583.145204
694.020665	2583.624114
694.357251	2578.530028
694.693786	2583.177972
695.030272	2585.716192
695.366707	2583.228383
695.703093	2580.682600
696.039429	2583.072107
696.375716	2579.079513
696.711952	2579.112281
697.048139	2581.710996
697.384276	2579.782754
697.720363	2581.408527
698.056400	2582.618403
698.392388	2579.533217
698.728326	2578.686303
699.064214	2580.705286
699.400053	2578.855182
699.735842	2576.374934
700.071581	2577.194122
700.407270	2573.632547
700.742910	2576.135480
701.078501	2575.265881
701.414042	2572.813359
701.749533	2574.199677
702.084974	2573.662794
702.420366	2572.662125
702.755709	2572.001733
703.091002	2570.227247
703.426246	2568.132648
703.761440	2574.713874
704.096584	2571.127093
704.431679	2571.159861
704.766725	2570.698595
705.101721	2568.591393
705.436668	2571.472412
705.771565	2570.547361
706.106413	2571.669017
706.441212	2568.682134
706.775961	2570.365879
707.110661	2569.518965
707.445311	2569.282031
707.779913	2571.522824
708.114465	2569.508883
708.448967	2572.296641
708.783421	2572.589028
709.117825	2571.951322
709.452180	2571.951322
709.786485	2571.437124
710.120742	2576.478278
710.454949	2575.396951
710.789107	2576.218659
711.123216	2573.766137
711.457275	2572.704974
711.791286	2572.962073
712.125247	2574.671024
712.459159	2576.684965
712.793023	2581.544638
713.126837	2576.442990
713.460602	2575.069276
713.794318	2575.250757
714.127985	2574.900397
714.461602	2573.199007
714.795171	2575.666652
715.128691	2571.268246
715.462162	2569.314798
715.795584	2568.609037
716.128957	2567.749520
716.462281	2569.680282
716.795556	2569.483677
717.128782	2568.379664
717.461960	2566.607699
717.795088	2566.131310
718.128167	2565.667524
718.461198	2567.595765
718.794180	2568.407391
719.127113	2566.159036
719.459997	2564.286248
719.792833	2565.949828
720.125619	2565.002091
720.458357	2560.949004
720.791046	2564.790363
721.123686	2561.947152
721.456278	2562.312636
721.788821	2563.381360
722.121315	2562.294992
722.453761	2563.958572
722.786158	2560.308777
723.118506	2561.531257
723.450805	2559.721483
723.783056	2563.192317
724.115259	2563.605692
724.447412	2564.379509
724.779518	2562.380691
725.111574	2561.652245
725.443582	2560.896072
725.775542	2563.184755
726.107453	2563.267934
726.439315	2563.726679
726.771129	2566.574931
727.102895	2562.778943
727.434612	2566.842112
727.766281	2562.539488
728.097901	2565.584345
728.429473	2561.536298
728.760996	2561.977399
729.092471	2561.982440
729.423897	2563.885476
729.755276	2563.903120
730.086606	2564.245918
730.417887	2563.338511
730.749120	2567.260528
731.080305	2566.819427
731.411442	2568.379664
731.742530	2567.631053
732.073570	2570.751527
732.404562	2565.879252
732.735506	2570.469223
733.066401	2569.781105
733.397249	2567.058882
733.728048	2567.043759
734.058798	2565.208779
734.389501	2565.675085
734.720156	2562.105948
735.050762	2561.367419
735.381320	2563.570404
735.711831	2558.902295
736.042293	2559.285423
736.372707	2561.085115
736.703073	2559.333314
737.033391	2561.657286
737.363661	2564.354303
737.693883	2560.868345
738.024056	2564.530743
738.354182	2561.775753
738.684260	2563.204920
739.014290	2560.268448
739.344272	2559.716442
739.674207	2562.660475
740.004093	2563.184755
740.333931	2561.780794
740.663722	2562.221895
740.993464	2560.202913
741.323159	2562.771381
741.652806	2562.844477
741.982405	2564.079560
742.311956	2561.506051
742.641460	2560.142419
742.970915	2561.090156
743.300323	2559.716442
743.629683	2557.906667
743.958996	2559.154353
744.288260	2558.413303
744.617477	2557.344579
744.946647	2549.828218
745.275768	2557.362223
745.604842	2551.033054
745.933869	2555.519681
746.262847	2551.915256
746.591778	2555.731409
746.920662	2558.733417
747.249498	2557.334496
747.578286	2557.173179
747.907027	2556.056564
748.235720	2557.097562
748.564365	2557.566389
748.892963	2557.364743
749.221514	2557.478169
749.550017	2556.837943
749.878473	2558.718293
750.206881	2557.684857
750.535242	2559.413972
750.863555	2554.511450
751.191821	2555.149156
751.520039	2556.598488
751.848210	2555.862479
752.176334	2554.700493
752.504411	2557.435319
752.832440	2555.597819
753.160421	2556.469938
753.488356	2554.491286
753.816243	2557.629404
754.144082	2557.571431
754.471875	2554.191337
754.799620	2554.105637
755.127318	2555.073539
755.454969	2555.708724
755.782572	2558.874569
756.110129	2554.289639
756.437638	2556.069167
756.765100	2556.860628
757.092515	2556.064126
757.419882	2554.856769
757.747203	2552.850390
758.074477	2555.796944
758.401703	2555.088662
758.728882	2556.482541
759.056014	2557.644527
759.383099	2556.585885
759.710138	2558.577141
760.037129	2555.600339
760.364073	2556.353992
760.690970	2557.780638
761.017820	2556.762325
761.344623	2558.191493
761.671379	2559.114024
761.998088	2555.048333
762.324751	2556.200237
762.651366	2561.899261
762.977935	2575.918710
763.304456	2582.641089
763.630931	2586.558065
763.957359	2577.100861
764.283740	2574.113977
764.610074	2568.636763
764.936362	2566.917730
765.262602	2563.356155
765.588796	2560.391956
765.914943	2559.154353
766.241044	2559.139229
766.567097	2555.224773
766.893104	2553.009186
767.219064	2553.049516
767.544978	2555.139074
767.870845	2553.147818
768.196665	2553.498178
768.522438	2549.308979
768.848165	2553.815771
769.173846	2552.633620
769.499479	2552.431974
769.825066	2551.249824
770.150607	2550.501212
770.476101	2548.399051
770.801548	2553.830894
771.126949	2550.261757
771.452303	2548.048691
771.777611	2549.689587
772.102872	2549.412323
772.428087	2548.252858
772.753256	2548.935934
773.078378	2547.295038
773.403453	2544.252702
773.728482	2547.305121
774.053465	2548.903167
774.378401	2548.328475
774.703291	2547.027857
775.028135	2547.801674
775.352932	2545.102137
775.677683	2547.277394
776.002388	2547.317724
776.327046	2544.807229
776.651658	2547.050542
776.976224	2545.192877
777.300743	2544.769420
777.625216	2547.108516
777.949643	2546.947199
778.274024	2546.052394
778.598359	2540.255067
778.922647	2544.439225
779.246889	2544.696324
779.571086	2540.169367
779.895236	2543.950233
780.219339	2546.770758
780.543397	2548.194884
780.867409	2547.111036
781.191374	2546.952240
781.515294	2544.938299
781.839167	2547.103475
782.162995	2545.966694
782.486776	2549.981973
782.810511	2547.564740
783.134201	2546.861499
783.457844	2545.719678
783.781441	2542.959646
784.104993	2544.817311
784.428498	2543.925027
784.751958	2545.911242
785.075372	2544.547610
785.398739	2544.348484
785.722061	2544.746735
786.045337	2543.521735
786.368568	2546.347302
786.691752	2546.044832
787.014891	2549.235883
787.337983	2546.329657
787.661030	2547.345450
787.984031	2549.724875
788.306987	2550.924669
788.629897	2550.017262
788.952760	2550.186140
789.275579	2548.890564
789.598351	2551.058260
789.921078	2549.787889
790.243759	2548.709082
790.566395	2547.010213
790.888984	2548.532642
791.211529	2544.701365
791.534027	2546.584236
791.856480	2547.292518
792.178888	2545.699513
792.501249	2545.656663
792.823566	2547.289997
793.145836	2545.709596
793.468062	2544.736653
793.790241	2544.887887
794.112375	2544.242620
794.434464	2546.506098
794.756507	2546.468289
795.078505	2546.236396
795.400457	2542.770603
795.722364	2544.613145
796.044226	2546.082641
796.366042	2545.926365
796.687812	2541.681714
797.009538	2547.582384
797.331218	2547.733619
797.652852	2546.352343
797.974442	2547.446273
798.295986	2545.112219
798.617484	2545.533155
798.938938	2547.794113
799.260346	2546.312013
799.581709	2543.877136
799.903026	2545.991900
800.224299	2545.021478
800.545526	2544.267826
800.866708	2545.644061
801.187845	2546.911911
801.508936	2544.537527
801.829983	2543.557023
802.150984	2543.496529
802.471940	2546.009544
802.792851	2544.487116
803.113717	2543.960315
803.434538	2543.751107
803.755314	2545.654143
804.076045	2542.276570
804.396731	2545.679349
804.717372	2544.832435
805.037967	2542.400078
805.358518	2545.586087
805.679024	2547.105995
805.999485	2544.169523
806.319901	2544.451828
806.640272	2543.284801
806.960598	2543.622558
807.280879	2544.441745
807.601115	2544.595501
807.921306	2545.081972
808.241453	2542.798329
808.561554	2544.464431
808.881611	2543.378062
809.201623	2546.743032
809.521590	2545.339071
809.841513	2545.034081
810.161390	2543.337733
810.481223	2544.613145
810.801011	2542.286652
811.120755	2542.672300
811.440453	2542.286652
811.760107	2541.522917
812.079716	2541.137269
812.399281	2540.759182
812.718801	2541.845551
813.038276	2539.360262
813.357707	2543.715819
813.677093	2542.964687
813.996434	2545.220604
814.315731	2544.784544
814.634983	2543.544420
814.954191	2543.602393
815.273354	2547.254709
815.592473	2543.307486
815.911547	2542.687424
816.230577	2546.455686
816.549562	2544.338402
816.868502	2545.255892
817.187399	2545.175233
817.506250	2547.799154
817.825058	2545.807898
818.143821	2545.510470
818.462539	2547.509287
818.781213	2547.156407
819.099843	2546.546427
819.418429	2552.542880
819.736970	2552.356357
820.055466	2558.972871
820.373919	2561.483366
820.692327	2563.376319
821.010691	2573.461147
821.329011	2593.310691
821.647286	2630.504324
821.965517	2666.346928
822.283704	2691.966072
822.601847	2702.481918
822.919945	2682.148424
823.237999	2660.451298
823.556010	2636.783081
823.873976	2617.944289
824.191897	2602.309150
824.509775	2591.952100
824.827609	2582.822570
825.145398	2581.285018
825.463144	2576.606827
825.780845	2577.478947
826.098502	2581.118660
826.416116	2592.748602
826.733685	2604.444079
827.051210	2610.047322
827.368692	2603.062803
827.686129	2593.255238
828.003522	2581.106057
828.320872	2569.866805
828.638177	2565.574262
828.955439	2556.190154
829.272656	2554.050185
829.589830	2549.825698
829.906960	2550.564227
830.224046	2551.915256
830.541088	2549.944165
830.858086	2549.770245
831.175041	2549.530790
831.491952	2550.108002
831.808819	2546.392672
832.125642	2548.174720
832.442421	2553.626728
832.759157	2555.295350
833.075849	2563.608212
833.392497	2571.669017
833.709101	2577.441138
834.025662	2576.616910
834.342179	2572.536096
834.658653	2563.676268
834.975083	2560.800290
835.291469	2560.941442
835.607811	2553.102448
835.924110	2546.501057
836.240366	2548.164638
836.556578	2548.192364
836.872746	2546.185985
837.188871	2543.869574
837.504952	2543.209183
837.820990	2544.010727
838.136984	2541.487629
838.452935	2542.372352
838.768842	2541.386806
839.084706	2544.078782
839.400526	2546.291849
839.716303	2552.431974
840.032037	2555.605381
840.347727	2556.449774
840.663373	2552.971378
840.978977	2547.952909
841.294537	2546.624565
841.610054	2546.158258
841.925527	2544.434184
842.240957	2540.580222
842.556344	2543.713299
842.871687	2543.088196
843.186987	2546.576674
843.502244	2537.822710
843.817458	2540.875129
844.132629	2537.938657
844.447756	2539.135931
844.762840	2536.045704
845.077881	2536.302802
845.392879	2534.077133
845.707833	2535.168543
846.022745	2535.241640
846.337613	2538.445293
846.652438	2537.358924
846.967221	2535.874304
847.281960	2538.115097
847.596656	2539.405633
847.911309	2537.893287
848.225919	2539.561908
848.540485	2540.688606
848.855009	2537.832793
849.169490	2536.572504
849.483928	2536.391023
849.798323	2539.163657
850.112675	2538.606610
850.426984	2539.690458
850.741251	2537.293389
851.055474	2536.882535
851.369654	2536.035621
851.683792	2538.074768
851.997887	2538.722556
852.311938	2539.710623
852.625947	2538.155427
852.939914	2536.237267
853.253837	2538.636857
853.567718	2539.307330
853.881555	2539.146013
854.195350	2536.917823
854.509103	2539.566950
854.822812	2536.973276
855.136479	2537.989068
855.450103	2536.731301
855.763685	2540.146682
856.077224	2535.952442
856.390720	2535.531506
856.704173	2536.053265
857.017584	2538.248688
857.330953	2538.152906
857.644278	2536.012936
857.957561	2537.787422
858.270802	2540.318082
858.584000	2536.063348
858.897155	2538.659542
859.210268	2537.323636
859.523339	2537.111908
859.836367	2536.078471
860.149352	2539.511497
860.462295	2538.415046
860.775195	2534.203162
861.088054	2534.798018
861.400869	2535.960004
861.713642	2535.120652
862.026373	2537.099305
862.339062	2537.215251
862.651708	2536.232226
862.964312	2538.800694
863.276873	2537.656352
863.589392	2537.227854
863.901869	2538.515869
864.214303	2536.582587
864.526696	2539.834131
864.839045	2536.887576
865.151353	2539.488812
865.463619	2540.917979
865.775842	2537.857998
866.088023	2537.762217
866.400162	2538.795653
866.712258	2540.434028
867.024313	2539.894625
867.336325	2540.204656
867.648296	2538.841023
867.960224	2540.882691
868.272110	2535.397915
868.583954	2540.776827
868.895755	2540.824718
869.207515	2539.960160
869.519233	2538.667104
869.830909	2541.157434
870.142542	2540.965870
870.454134	2538.808256
870.765684	2540.577701
871.077191	2540.761703
871.388657	2537.575694
871.700081	2537.464788
872.011463	2539.151054
872.322803	2536.995961
872.634101	2540.678524
872.945357	2539.781199
873.256571	2541.971580
873.567744	2541.205325
873.878874	2542.178267
874.189963	2540.633154
874.501010	2539.607279
874.812015	2538.467978
875.122979	2539.261960
875.433900	2540.363452
875.744780	2540.376055
876.055618	2538.165509
876.366415	2541.671631
876.677169	2538.921682
876.987882	2542.634492
877.298554	2539.214069
877.609183	2540.277752
877.919771	2537.875643
878.230317	2542.528627
878.540822	2543.678011
878.851285	2545.518032
879.161707	2547.789072
879.472087	2551.370811
879.782425	2557.528581
880.092722	2560.800290
880.402977	2573.239337
880.713191	2594.326483
881.023363	2615.151490
881.333494	2630.751340
881.643583	2635.101856
881.953631	2631.487349
882.263637	2623.023252
882.573602	2618.443363
882.883526	2609.424739
883.193408	2597.295723
883.503248	2588.730802
883.813048	2581.083372
884.122806	2570.103739
884.432522	2571.079202
884.742197	2561.299364
885.051831	2561.876576
885.361424	2556.911039
885.670975	2553.425082
885.980485	2548.033568
886.289954	2550.622200
886.599382	2549.646737
886.908768	2548.388969
887.218113	2544.093906
887.527417	2548.104144
887.836680	2543.829245
888.145901	2543.153731
888.455082	2544.136756
888.764221	2544.424101
889.073319	2542.389996
889.382376	2544.988711
889.691392	2539.019984
890.000366	2540.618030
890.309300	2542.909235
890.618193	2542.853782
890.927044	2542.001827
891.235855	2542.488298
891.544625	2542.352187
891.853353	2543.388144
892.162041	2541.318751
892.470687	2547.093392
892.779293	2545.601211
893.087858	2546.712785
893.396381	2545.976777
893.704864	2552.671429
894.013306	2552.810061
894.321707	2565.473439
894.630068	2568.959397
894.938387	2570.633060
895.246665	2571.522824
895.554903	2570.166753
895.863100	2562.562173
896.171256	2561.879097
896.479371	2557.599157
896.787446	2556.260731
897.095480	2551.758980
897.403473	2547.332847
897.711425	2547.489123
898.019336	2547.211859
898.327207	2548.310831
898.635038	2546.407795
898.942827	2545.253371
899.250576	2544.308155
899.558284	2544.043494
899.865952	2542.657177
900.173579	2539.801363
900.481165	2542.105171
900.788711	2542.589121
901.096216	2541.117104
901.403681	2543.776313
901.711105	2542.392516
902.018489	2538.901517
902.325832	2541.848072
902.633135	2543.403268
902.940397	2543.786395
903.247619	2546.574153
903.554800	2551.973229
903.861941	2562.567214
904.169041	2574.726477
904.476101	2586.273240
904.783121	2583.142683
905.090100	2576.629513
905.397039	2570.996023
905.703938	2561.069991
906.010796	2557.826009
906.317614	2553.359547
906.624391	2549.815615
906.931129	2546.296890
907.237826	2544.358566
907.544483	2542.301776
907.851099	2542.016950
908.157675	2539.297248
908.464211	2541.175078
908.770707	2534.049407
909.077163	2535.985210
909.383578	2533.126876
909.689954	2535.876825
909.996289	2531.896834
910.302584	2538.231044
910.608839	2535.753317
910.915054	2538.536034
911.221229	2539.304810
911.527363	2537.018646
911.833458	2539.387989
912.139513	2539.191384
912.445527	2535.223996
912.751502	2538.664583
913.057436	2541.696837
913.363331	2538.858668
913.669186	2544.189688
913.975000	2541.621220
914.280775	2544.529966
914.586510	2547.960471
914.892205	2553.520863
915.197859	2557.057233
915.503475	2564.684499
915.809050	2572.021898
916.114585	2577.791499
916.420081	2584.244176
916.725536	2578.222517
917.030952	2576.712692
917.336328	2569.821434
917.641665	2567.399160
917.946961	2558.693087
918.252218	2556.061605
918.557435	2554.448436
918.862612	2549.661860
919.167750	2546.947199
919.472848	2546.269164
919.777906	2547.531973
920.082925	2545.581046
920.387904	2545.747404
920.692843	2540.585263
920.997743	2544.204811
921.302603	2540.121477
921.607423	2540.754141
921.912204	2541.926210
922.216946	2539.458565
922.521647	2541.785057
922.826310	2537.096784
923.130932	2537.616023
923.435516	2539.279604
923.740059	2538.891435
924.044564	2535.387833
924.349028	2535.453368
924.653454	2533.303316
924.957840	2535.108049
925.262186	2531.395239
925.566493	2534.054448
925.870761	2531.375075
926.174989	2534.699716
926.479178	2533.998995
926.783328	2532.685775
927.087438	2533.484798
927.391509	2537.968904
927.695541	2532.766433
927.999533	2537.111908
928.303486	2535.264325
928.607400	2534.480425
928.911275	2533.091587
929.215110	2535.723070
929.518906	2530.674354
929.822663	2534.966897
930.126381	2529.928263
930.430060	2536.547298
930.733699	2532.136289
931.037299	2534.414890
931.340861	2531.922040
931.644383	2533.131917
931.947866	2533.956145
932.251309	2535.337422
932.554714	2531.569159
932.858080	2536.111239
933.161407	2534.283820
933.464694	2534.530837
933.767943	2530.003881
934.071153	2536.020498
934.374323	2533.003367
934.677455	2532.436237
934.980548	2529.209899
935.283602	2534.929088
935.586617	2532.269879
935.889593	2533.749458
936.192530	2529.600588
936.495428	2530.376926
936.798287	2531.296937
937.101108	2533.048738
937.403890	2531.881711
937.706632	2534.006557
938.009336	2535.939839
938.312002	2534.246012
938.614628	2534.621578
938.917216	2536.645601
939.219765	2535.181146
939.522275	2536.721218
939.824747	2537.863040
940.127179	2531.362472
940.429573	2532.506814
940.731929	2535.103008
941.034246	2532.660569
941.336524	2533.797349
941.638763	2537.237937
941.940964	2536.688451
942.243126	2536.033101
942.545250	2534.271218
942.847335	2532.252235
943.149381	2533.157123
943.451389	2534.608975
943.753359	2533.946063
944.055290	2533.288192
944.357182	2532.083357
944.659036	2532.017822
944.960851	2535.181146
945.262628	2531.929602
945.564367	2533.870446
945.866067	2532.743748
946.167729	2533.247863
946.469352	2531.871628
946.770937	2533.751979
947.072484	2535.029911
947.373992	2534.114942
947.675462	2534.624098
947.976893	2533.250384
948.278286	2532.295085
948.579641	2533.865405
948.880958	2534.588810
949.182236	2532.128727
949.483476	2534.223327
949.784678	2533.136958
950.085841	2534.026722
950.386967	2535.891948
950.688054	2532.176618
950.989103	2530.074457
951.290114	2534.215765
951.591087	2531.347348
951.892021	2533.600744
952.192917	2535.365148
952.493776	2531.609488
952.794596	2534.886238
953.095378	2530.586134
953.396122	2534.046886
953.696828	2535.017308
953.997496	2533.008408
954.298126	2532.766433
954.598718	2533.683923
954.899272	2531.521268
955.199788	2531.226361
955.500266	2532.501773
955.800706	2530.336597
956.101108	2528.244518
956.401472	2529.333407
956.701798	2528.191586
957.002087	2531.238963
957.302337	2531.105373
957.602550	2531.254087
957.902724	2532.007739
958.202861	2533.782226
958.502960	2527.717718
958.803022	2530.432379
959.103045	2530.387008
959.403031	2529.701412
959.702979	2531.188552
960.002889	2531.518747
960.302762	2529.676206
960.602596	2530.823068
960.902393	2530.094622
961.202153	2530.671834
961.501875	2530.064375
961.801559	2530.288706
962.101205	2530.066895
962.400814	2532.463964
962.700385	2531.266690
962.999918	2529.971113
963.299414	2530.107224
963.598873	2529.645959
963.898293	2531.816176
964.197677	2527.475742
964.497022	2529.562780
964.796331	2530.558408
965.095601	2530.187883
965.394835	2529.708973
965.694030	2528.413397
965.993189	2531.004550
966.292309	2530.447502
966.591393	2527.687471
966.890439	2528.879703
967.189447	2531.886752
967.488419	2526.991791
967.787353	2530.152595
968.086249	2528.665454
968.385108	2528.725948
968.683930	2528.385670
968.982714	2530.598737
969.281462	2528.809127
969.580172	2529.066226
969.878844	2530.722245
970.177480	2529.230064
970.476078	2526.918695
970.774639	2529.867770
971.073162	2528.857018
971.371649	2526.255783
971.670098	2526.661596
971.968510	2527.569003
972.266885	2525.726462
972.565223	2527.130423
972.863524	2526.699404
973.161788	2529.635877
973.460014	2529.910619
973.758204	2530.197965
974.056356	2528.577234
974.354471	2530.082019
974.652550	2525.381143
974.950591	2528.214271
975.248595	2528.352903
975.546563	2530.722245
975.844493	2527.984899
976.142386	2529.141843
976.440243	2528.171421
976.738062	2530.429858
977.035845	2529.252749
977.333590	2529.477080
977.631299	2526.994312
977.928971	2527.702594
978.226606	2529.449354
978.524204	2528.993129
978.821765	2529.000691
979.119290	2529.550177
979.416777	2528.181504
979.714228	2527.334590
980.011642	2531.070085
980.309020	2529.741741
980.606360	2530.210568
980.903664	2532.579910
981.200931	2531.276772
981.498162	2527.715197
981.795356	2528.224353
982.092513	2528.730989
982.389633	2529.835002
982.686717	2533.237781
982.983764	2528.718387
983.280775	2531.823737
983.577749	2531.859025
983.874686	2533.310878
984.171587	2531.982534
984.468451	2529.925743
984.765279	2531.180990
985.062070	2527.334590
985.358824	2530.273583
985.655543	2527.861390
985.952224	2527.478263
986.248869	2531.065044
986.545478	2524.919877
986.842050	2528.821730
987.138586	2524.410721
987.435086	2524.924918
987.731549	2523.825947
988.027975	2530.649148
988.324366	2526.863242
988.620719	2528.723428
988.917037	2529.088911
989.213318	2529.164529
989.509563	2526.371729
989.805772	2529.335928
990.101944	2528.115969
990.398080	2527.558921
990.694180	2527.470701
990.990244	2528.221833
991.286271	2530.147554
991.582262	2529.681247
991.878217	2528.194107
992.174136	2524.229239
992.470019	2528.362985
992.765865	2527.659744
993.061676	2526.613705
993.357450	2527.823582
993.653188	2526.086904
993.948890	2527.372398
994.244556	2527.952131
994.540186	2529.472039
994.835780	2528.640249
995.131337	2528.972965
995.426859	2529.724097
995.722345	2528.277286
996.017795	2525.822244
996.313208	2529.439272
996.608586	2527.478263
996.903928	2528.312574
997.199234	2529.035979
997.494504	2529.288037
997.789738	2527.551359
998.084936	2528.156298
998.380099	2527.621936
998.675225	2530.250897
998.970316	2526.976668
999.265371	2526.394415
999.560390	2527.165711
999.855373	2529.313243
1000.150320	2529.217461
1000.445232	2525.464322
1000.740108	2528.005063
1001.034948	2526.280989
1001.329752	2528.993129
1001.624521	2530.843233
1001.919254	2522.941224
1002.213951	2524.761081
1002.508613	2523.652027
1002.803239	2527.475742
1003.097829	2522.384177
1003.392384	2529.817358
1003.686903	2524.362830
1003.981386	2527.821061
1004.275834	2527.765608
1004.570246	2527.188396
1004.864623	2527.813499
1005.158964	2525.328211
1005.453270	2528.264683
1005.747540	2526.603623
1006.041775	2527.377440
1006.335974	2526.543129
1006.630138	2527.321987
1006.924266	2529.608150
1007.218359	2526.734693
1007.512416	2524.965248
1007.806438	2526.434744
1008.100425	2528.168901
1008.394376	2527.329549
1008.688292	2528.478932
1008.982172	2526.926256
1009.276017	2524.899713
1009.569827	2523.462984
1009.863602	2529.802235
1010.157341	2526.659075
1010.451045	2526.044054
1010.744714	2526.399456
1011.038347	2525.726462
1011.331945	2528.771319
1011.625508	2528.680578
1011.919036	2527.581606
1012.212528	2526.686802
1012.505986	2526.396935
1012.799408	2525.187058
1013.092795	2524.501461
1013.386147	2528.962883
1013.679464	2523.495751
1013.972745	2527.137985
1014.265992	2528.196627
1014.559204	2528.776360
1014.852380	2525.476925
1015.145521	2528.620084
1015.438628	2526.759898
1015.731699	2526.722090
1016.024736	2525.043385
1016.317737	2528.851977
1016.610703	2524.922398
1016.903635	2525.325690
1017.196531	2524.221677
1017.489393	2526.127233
1017.782219	2521.060874
1018.075011	2525.333252
1018.367768	2525.925587
1018.660490	2525.202182
1018.953177	2525.202182
1019.245829	2525.202182
