Dividing Wavelength (nm)	Counts (n)	Blue Motor Position (mm): 0.000000	Red Motor Position (mm): 48.900000	
326.493990	2129.184259
326.888308	2129.184259
327.282561	2129.184259
327.676750	2096.578076
328.070874	2093.553384
328.464933	2095.327870
328.858929	2102.193921
329.252859	2115.696652
329.646726	2123.767539
330.040528	2138.608696
330.434265	2156.167035
330.827938	2170.579694
331.221547	2189.509227
331.615091	2209.709130
332.008571	2229.677140
332.401986	2249.526684
332.795338	2270.321443
333.188625	2287.937755
333.581847	2304.346711
333.975006	2323.082159
334.368100	2340.516990
334.761129	2358.607171
335.154095	2377.261960
335.546996	2396.514127
335.939833	2421.964392
336.332606	2436.576177
336.725315	2450.411623
337.117960	2460.955197
337.510540	2468.456433
337.903056	2481.283649
338.295508	2488.255565
338.687896	2498.060609
339.080220	2505.554285
339.472480	2512.632065
339.864676	2516.811181
340.256807	2521.217150
340.648875	2520.546676
341.040879	2527.511030
341.432818	2525.000536
341.824694	2529.257790
342.216506	2527.087573
342.608253	2530.679395
342.999937	2526.565814
343.391557	2529.245187
343.783113	2525.560104
344.174605	2524.025072
344.566033	2525.295443
344.957397	2524.075484
345.348697	2522.288395
345.739934	2521.960720
346.131106	2518.812519
346.522215	2519.850997
346.913260	2515.946623
347.304241	2513.874709
347.695159	2510.391272
348.086012	2508.531086
348.476802	2507.694254
348.867528	2506.421363
349.258191	2506.663338
349.648789	2500.621516
350.039324	2502.355673
350.429796	2501.239057
350.820203	2502.252329
351.210548	2499.169663
351.600828	2496.989364
351.991045	2499.625888
352.381198	2498.252173
352.771288	2497.947183
353.161314	2497.138078
353.551276	2497.606906
353.941175	2498.892400
354.331010	2497.818634
354.720782	2495.880310
355.110490	2497.566576
355.500135	2496.419714
355.889717	2498.988182
356.279235	2496.991885
356.668689	2501.002123
357.058080	2500.170332
357.447408	2495.051041
357.836672	2497.329642
358.225873	2495.683705
358.615010	2496.240753
359.004084	2497.322080
359.393095	2499.376351
359.782043	2503.068996
360.170927	2505.826507
360.559748	2504.561177
360.948505	2505.009840
361.337199	2504.651918
361.725830	2503.590755
362.114398	2508.417660
362.502903	2506.570077
362.891344	2506.552433
363.279722	2502.935405
363.668037	2508.145438
364.056289	2512.780779
364.444478	2510.295490
364.832603	2509.788854
365.220665	2509.667866
365.608665	2511.701972
365.996601	2514.275481
366.384474	2513.269771
366.772284	2512.430418
367.160031	2516.533918
367.547715	2517.232118
367.935336	2517.842097
368.322893	2522.752181
368.710388	2526.873324
369.097820	2533.656197
369.485189	2534.611495
369.872495	2542.425284
370.259738	2551.103630
370.646918	2557.805844
371.034035	2560.868345
371.421090	2574.802094
371.808081	2585.751481
372.195010	2591.518561
372.581875	2606.374841
372.968678	2620.598457
373.355418	2629.395270
373.742096	2647.238434
374.128710	2660.902482
374.515262	2676.278001
374.901751	2691.635876
375.288177	2704.586600
375.674540	2732.446537
376.060841	2745.029257
376.447079	2765.806372
376.833254	2787.327058
377.219367	2796.461629
377.605417	2836.793380
377.991404	2845.718743
378.377329	2868.779502
378.763191	2885.324568
379.148991	2923.561720
379.534727	2946.718261
379.920402	2975.082313
380.306013	2988.978253
380.691563	3040.481202
381.077049	3060.166907
381.462474	3078.665421
381.847835	3117.255454
382.233134	3141.037097
382.618371	3137.548619
383.003545	3206.173846
383.388657	3214.421174
383.773706	3246.455186
384.158693	3263.113679
384.543618	3292.072587
384.928480	3324.479645
385.313280	3370.407077
385.698017	3370.603682
386.082692	3426.570572
386.467305	3429.007970
386.851856	3460.210191
387.236344	3483.341526
387.620770	3515.068027
388.005133	3542.496946
388.389435	3569.273034
388.773674	3581.853234
389.157851	3619.767752
389.541965	3634.984475
389.926018	3600.417283
390.310008	3671.868077
390.693936	3693.890357
391.077802	3733.365112
391.461606	3720.081672
391.845348	3785.498205
392.229027	3785.974594
392.612645	3796.124957
392.996200	3878.530179
393.379694	3914.261877
393.763125	3981.309223
394.146494	3948.004840
394.529801	4008.793594
394.913047	4057.153383
395.296230	4024.625338
395.679351	4076.345056
396.062410	4102.659879
396.445408	4082.013833
396.828343	4112.754789
397.211217	4145.512207
397.594028	4063.543045
397.976778	4128.563848
398.359466	4149.598062
398.742092	4181.112835
399.124656	4105.354375
399.507158	4183.620809
399.889598	4209.776836
400.271977	4271.848563
400.654294	4240.008636
401.036549	4251.928444
401.418742	4225.089341
401.800874	4324.276563
402.182944	4345.325901
402.564952	4410.210592
402.946898	4400.599633
403.328783	4392.115371
403.710606	4307.756702
404.092367	4496.678984
404.474067	4459.445022
404.855705	4473.746775
405.237282	4400.007297
405.618797	4509.092825
406.000250	4541.762023
406.381642	4622.465855
406.762972	4582.965894
407.144240	4593.791772
407.525447	4597.295373
407.906593	4655.001462
408.287677	4700.291188
408.668700	4626.886947
409.049661	4677.527857
409.430560	4716.924475
409.811399	4648.158095
410.192176	4812.204803
410.572891	4749.286162
410.953545	4847.568497
411.334138	4728.284715
411.714669	4799.700221
412.095139	4694.062842
412.475547	4836.931663
412.855894	4815.446265
413.236180	4824.989169
413.616405	4779.621305
413.996568	4867.503740
414.376670	4807.284637
414.756711	4765.097741
415.136691	4797.000683
415.516609	4873.132188
415.896466	4908.173249
416.276262	4942.395122
416.655997	4924.768727
417.035670	5106.124237
417.415283	5200.844997
417.794834	5141.682016
418.174324	5096.614100
418.553753	5004.668495
418.933121	5188.035425
419.312428	5257.184932
419.691674	5195.337537
420.070859	5316.378161
420.449983	5233.597374
420.829045	5346.224312
421.208047	5253.484726
421.586988	5323.511394
421.965867	5338.952448
422.344686	5470.108147
422.723444	5322.414943
423.102141	5143.796780
423.480777	5444.741061
423.859352	5210.047623
424.237866	5472.830371
424.616319	5465.404751
424.994712	5573.645886
425.373044	5445.681237
425.751314	5589.243216
426.129524	5390.956991
426.507673	5588.655921
426.885762	5672.472666
427.263789	5600.858034
427.641756	5483.126927
428.019662	5608.618891
428.397508	5615.144664
428.775292	5565.161624
429.153016	5661.467827
429.530679	5584.131486
429.908282	5673.420403
430.285824	5539.560124
430.663305	5821.000182
431.040726	5546.446340
431.418086	5549.592020
431.795385	5655.816693
432.172624	5666.725750
432.549802	5662.045039
432.926920	5678.108676
433.303977	5682.217216
433.680974	5719.816662
434.057910	5740.964303
434.434786	5746.559983
434.811601	5712.532195
435.188355	5952.266787
435.565050	5822.918341
435.941683	5805.874199
436.318257	6020.637436
436.694770	6007.028841
437.071222	6036.766607
437.447614	5967.912008
437.823946	5882.255242
438.200218	6037.583274
438.576429	5902.024127
438.952580	5997.692624
439.328670	6043.463780
439.704700	5957.191994
440.080670	5939.583243
440.456580	6212.629780
440.832429	6093.207366
441.208218	5941.322442
441.583947	6094.427325
441.959616	6097.583087
442.335224	6024.519124
442.710773	6159.773282
443.086261	6186.070461
443.461689	5980.938349
443.837057	6132.054497
444.212365	6286.016377
444.587612	6184.283372
444.962800	6334.887843
445.337927	6315.973434
445.712995	5928.759886
446.088002	6505.296487
446.462949	6331.568243
446.837837	6266.784375
447.212664	6433.278563
447.587431	6583.391522
447.962139	7119.377081
448.336786	8053.883496
448.711374	7796.537633
449.085901	6861.393512
449.460369	6780.074660
449.834776	6720.636935
450.209124	7113.617563
450.583412	7259.233812
450.957640	7404.625730
451.331808	7173.108219
451.705917	6724.475774
452.079965	6649.390308
452.453954	6860.854109
452.827883	6739.942034
453.201752	6830.372772
453.575562	6627.627647
453.949311	6828.840261
454.323001	6718.393622
454.696632	6793.773995
455.070202	6931.778102
455.443713	7093.952022
455.817164	7188.415683
456.190556	7268.534741
456.563888	7341.775145
456.937160	7391.186014
457.310373	7047.429733
457.683526	7069.961170
458.056619	6965.677341
458.429653	6950.934487
458.802628	6885.840588
459.175542	6994.817731
459.548398	7347.048192
459.921194	7512.612287
460.293930	7512.035075
460.666607	8040.942854
461.039224	8355.455401
461.411782	8472.752969
461.784280	8501.600972
462.156719	8390.564517
462.529099	8271.116897
462.901419	7856.769339
463.273680	7748.981908
463.645882	7758.655883
464.018024	7627.608568
464.390106	7792.965976
464.762130	8182.195985
465.134094	8651.749218
465.505999	9673.036576
465.877845	10892.295087
466.249631	11552.005685
466.621358	11165.029071
466.993026	10540.561180
467.364634	10277.029821
467.736184	9915.062372
468.107674	9579.916382
468.479105	9614.796126
468.850477	9381.420950
469.221790	9153.361670
469.593043	8825.265734
469.964238	8680.682921
470.335373	8698.271507
470.706449	8756.111185
471.077467	8730.832319
471.448425	10046.238237
471.819324	11118.761361
472.190164	11152.751341
472.560945	9899.520495
472.931667	9109.947253
473.302330	8969.462898
473.672934	8614.023744
474.043479	8976.429773
474.413965	8912.039115
474.784393	8795.359089
475.154761	8954.266340
475.525070	9038.433445
475.895321	8863.908699
476.265513	9037.752889
476.635645	9212.887615
477.005719	9210.384682
477.375734	9321.771497
477.745691	9565.780987
478.115588	9695.835194
478.485427	9940.132030
478.855207	10477.493825
479.224928	11296.419185
479.594591	11927.664907
479.964194	11734.170299
480.333739	11674.891371
480.703226	11597.713827
481.072653	11687.567353
481.442022	11924.657859
481.811333	12109.867331
482.180584	11914.215109
482.549777	11623.201900
482.918912	11443.787235
483.287988	11470.270937
483.657005	11474.611370
484.025964	11166.090234
484.394864	11291.196549
484.763706	11266.958682
485.132489	11022.187977
485.501213	10987.633388
485.869879	11062.996118
486.238487	10900.423947
486.607036	11008.990236
486.975527	10798.680860
487.343959	10983.048459
487.712333	11036.756912
488.080648	10962.369646
488.448905	11005.869762
488.817104	10939.598754
489.185244	11208.574558
489.553326	11367.784279
489.921350	11900.568706
490.289315	12963.788381
490.657222	13311.277636
491.025070	13218.442267
491.392861	13090.691867
491.760593	12716.454250
492.128267	12364.256557
492.495883	12034.648274
492.863440	11696.780061
493.230939	11360.948474
493.598380	11289.301075
493.965763	11161.026395
494.333088	11064.092568
494.700354	10985.992492
495.067563	11041.762778
495.434713	10872.826150
495.801805	10999.676705
496.168839	10921.702657
496.535815	10859.925838
496.902733	10856.553306
497.269593	10791.330857
497.636395	10896.353215
498.003139	10880.503828
498.369825	10746.454506
498.736453	10913.309136
499.103023	10828.216980
499.469535	10866.552434
499.835989	10848.086688
500.202385	10810.116717
500.568723	10666.302680
500.935003	10881.280165
501.301226	10686.048880
501.667390	10944.584455
502.033497	11046.624970
502.399546	10908.676316
502.765537	10807.822992
503.131470	10885.242512
503.497345	11061.168699
503.863163	10670.602784
504.228923	10986.196659
504.594625	11049.165712
504.960269	10803.953907
505.325856	11020.226968
505.691385	10811.762654
506.056856	10966.319390
506.422270	10988.818059
506.787625	10878.746986
507.152924	10992.498102
507.518164	10971.892385
507.883347	10897.517722
508.248472	10818.197687
508.613540	11046.493900
508.978550	10933.710686
509.343503	10903.718341
509.708398	11029.721982
510.073236	11140.708025
510.438016	11143.304219
510.802738	11086.767678
511.167403	11151.964921
511.532010	11042.266893
511.896561	11269.186872
512.261053	11343.806031
512.625488	11208.667820
512.989866	11198.588032
513.354186	11182.360558
513.718449	11084.438665
514.082655	11282.692123
514.446803	11168.053764
514.810894	11298.680142
515.174927	11164.008238
515.538904	11189.912207
515.902822	11338.066677
516.266684	11221.152237
516.630488	11168.008393
516.994235	11226.878988
517.357925	11293.558330
517.721558	11373.090093
518.085133	11397.915256
518.448651	11399.888867
518.812112	11293.117229
519.175516	11304.666512
519.538863	11422.753021
519.902152	11339.536173
520.265385	11505.909374
520.628560	11408.113510
520.991678	11389.229347
521.354739	11449.355189
521.717743	11384.654500
522.080690	11356.915551
522.443580	11491.617703
522.806413	11450.186980
523.169189	11487.579738
523.531908	11543.486135
523.894569	11365.281346
524.257174	11361.119874
524.619722	11484.746610
524.982213	11424.696385
525.344647	11480.416259
525.707025	11432.704258
526.069345	11526.890656
526.431608	11438.945207
526.793815	11554.032228
527.155964	11344.151350
527.518057	11392.732949
527.880093	11348.948008
528.242072	11412.108624
528.603995	11317.304685
528.965860	11250.733728
529.327669	11296.673763
529.689421	11245.001936
530.051117	11209.998684
530.412755	11317.690333
530.774337	11205.685977
531.135862	11186.514469
531.497331	11208.259486
531.858743	11066.081304
532.220098	11230.942158
532.581396	11099.405851
532.942638	11080.062944
533.303824	11042.438292
533.664953	11064.332023
534.026025	10966.828546
534.387040	11069.201778
534.747999	11070.457025
535.108902	11131.959102
535.469748	10891.322144
535.830537	10987.956022
536.191270	10976.318518
536.551947	10996.352064
536.912567	10991.925931
537.273131	10914.035063
537.633638	10900.640717
537.994089	10886.026412
538.354483	10834.185706
538.714821	10982.506535
539.075103	10991.583132
539.435328	10957.414191
539.795497	10780.149578
540.155609	10939.671850
540.515665	11034.637107
540.875665	10764.433781
541.235609	10830.243524
541.595496	10827.564151
541.955328	10984.623819
542.315102	10870.240038
542.674821	10815.286420
543.034483	10813.953035
543.394090	10820.062914
543.753640	10751.392316
544.113134	10973.094700
544.472571	10828.567340
544.831953	10972.114196
545.191278	10780.033632
545.550548	10808.853908
545.909761	10947.823396
546.268918	10919.973542
546.628019	10997.773669
546.987064	10865.143432
547.346053	10782.657552
547.704986	10889.678728
548.063863	10869.496468
548.422684	10859.106650
548.781449	10778.987592
549.140158	10883.296627
549.498811	10759.750549
549.857408	10619.147727
550.215949	10841.656696
550.574434	10694.175220
550.932864	10798.753956
551.291237	10852.361586
551.649555	10801.975254
552.007817	10814.230299
552.366022	10771.342682
552.724173	10763.236507
553.082267	10756.894735
553.440305	10882.512728
553.798288	10690.338902
554.156215	10847.985865
554.514086	10819.785650
554.871902	10673.609833
555.229661	10705.066633
555.587365	10689.517194
555.945014	10579.322612
556.302606	10709.437313
556.660143	10599.966137
557.017625	10758.575960
557.375050	10647.295010
557.732421	10785.099991
558.089735	10700.948010
558.446994	10696.980622
558.804197	10737.884544
559.161345	10738.799514
559.518437	10591.297873
559.875474	10677.879690
560.232455	10707.554442
560.589381	10651.814404
560.946251	10649.092181
561.303065	10759.750549
561.659825	10690.495178
562.016528	10618.537747
562.373177	10497.038378
562.729770	10618.336101
563.086307	10533.775787
563.442789	10622.608479
563.799216	10502.228246
564.155587	10554.048787
564.511904	10502.744964
564.868164	10493.595270
565.224370	10515.110915
565.580520	10438.976889
565.936615	10439.561662
566.292654	10308.857146
566.648638	10439.261714
567.004567	10399.343337
567.360441	10377.023628
567.716260	10293.642944
568.072023	10383.587211
568.427732	10338.511734
568.783385	10244.887424
569.138982	10313.545419
569.494525	10330.140898
569.850013	10207.655983
570.205445	10289.854517
570.560823	10190.667294
570.916145	10111.127969
571.271412	10177.015850
571.626625	10119.672725
571.981782	10100.750754
572.336884	10070.682792
572.691931	10067.474097
573.046923	10019.802426
573.401860	9979.430345
573.756743	9916.804091
574.111570	9958.189443
574.466342	9938.586917
574.821059	9966.678747
575.175722	9862.180668
575.530330	9865.059167
575.884882	9860.746460
576.239380	9791.657447
576.593823	9766.774311
576.948211	9778.497515
577.302544	9660.007714
577.656823	9673.759982
578.011047	9677.656794
578.365216	9650.991610
578.719330	9570.696112
579.073389	9584.697917
579.427394	9531.480976
579.781344	9512.730404
580.135239	9458.167476
580.489080	9467.481007
580.842866	9365.322025
581.196597	9372.934167
581.550273	9412.358511
581.903895	9380.947081
582.257463	9451.321589
582.610975	9328.481272
582.964434	9357.863638
583.317837	9273.210062
583.671186	9259.735058
584.024481	9247.434642
584.377721	9164.855501
584.730906	9148.365887
585.084037	9175.217593
585.437113	9112.611503
585.790135	9136.090677
586.143103	9033.538484
586.496016	9005.565122
586.848874	9067.170542
587.201679	9054.391217
587.554428	8940.307385
587.907124	8989.579623
588.259765	8960.663564
588.612352	8962.309501
588.964884	8837.951797
589.317362	8848.699537
589.669786	8847.434208
590.022155	8897.870952
590.374470	8912.374352
590.726731	8855.396710
591.078937	8705.782826
591.431090	8818.661822
591.783188	8690.296401
592.135232	8682.293570
592.487222	8685.449332
592.839157	8737.174091
593.191038	8665.786311
593.542866	8612.690358
593.894639	8509.011468
594.246358	8569.177639
594.598022	8580.621058
594.949633	8474.817321
595.301190	8453.515926
595.652692	8477.030388
596.004141	8594.645548
596.355535	8367.743214
596.706876	8347.268567
597.058162	8278.068648
597.409395	8359.657203
597.760573	8414.850276
598.111698	8326.241915
598.462768	8314.720358
598.813785	8278.391282
599.164748	8247.935151
599.515657	8240.887618
599.866511	8148.931931
600.217312	8277.226776
600.568060	8130.811503
600.918753	8240.822083
601.269392	8207.492495
601.619978	8119.085780
601.970510	8181.722116
602.320988	8179.506529
602.671412	8236.564829
603.021783	8169.787184
603.372100	8142.189388
603.722363	8144.074779
604.072572	8120.903116
604.422728	8136.933985
604.772830	8062.375319
605.122878	8070.126093
605.472872	8061.646873
605.822813	8091.430010
606.172701	8037.293058
606.522534	8113.585881
606.872314	8114.253834
607.222041	8082.547497
607.571714	8138.526989
607.921333	8098.767409
608.270899	8101.565249
608.620411	8196.033952
608.969870	8096.839168
609.319276	8091.646779
609.668627	8112.665870
610.017926	8144.767938
610.367171	8191.118827
610.716362	8168.920106
611.065500	8157.113724
611.414585	8186.203702
611.763616	8174.271291
612.112594	8153.655492
612.461518	8171.995210
612.810389	8227.851194
613.159207	8170.215683
613.507971	8113.900953
613.856682	8235.894355
614.205340	8188.240328
614.553945	8267.691433
614.902496	8167.541350
615.250994	8219.129998
615.599439	8202.652987
615.947830	8214.305614
616.296169	8193.057151
616.644454	8201.879170
616.992686	8198.930095
617.340864	8256.600895
617.688990	8162.885845
618.037063	8254.622242
618.385082	8200.379427
618.733048	8284.455790
619.080961	8225.539825
619.428821	8239.869305
619.776628	8249.303825
620.124382	8197.921864
620.472083	8183.483999
620.819731	8207.668935
621.167326	8104.209335
621.514868	8116.295501
621.862357	8000.641349
622.209793	8012.903956
622.557176	7950.650747
622.904506	7922.241325
623.251783	7851.478648
623.599007	7809.395096
623.946179	7822.212230
624.293297	7774.596011
624.640363	7690.007970
624.987376	7671.753952
625.334336	7613.982329
625.681243	7567.737304
626.028097	7558.355717
626.374899	7532.862602
626.721647	7519.707711
627.068343	7451.982329
627.414987	7430.070954
627.761577	7383.341979
628.108115	7413.626710
628.454600	7316.181207
628.801032	7362.274997
629.147412	7324.055489
629.493739	7306.635782
629.840014	7248.221412
630.186236	7305.693086
630.532405	7187.546084
630.878521	7241.604897
631.224585	7191.636980
631.570597	7122.094263
631.916556	7154.440827
632.262462	7146.891699
632.608316	7107.442149
632.954117	7088.263079
633.299866	7070.089720
633.645562	7063.788277
633.991206	6980.891544
634.336797	6928.382885
634.682336	6886.841257
635.027823	6849.246852
635.373257	6842.148908
635.718639	6770.977898
636.063968	6789.607482
636.409245	6683.279465
636.754470	6680.264855
637.099642	6639.686087
637.444762	6582.060657
637.789829	6595.298727
638.134845	6528.301792
638.479808	6516.555904
638.824719	6523.202665
639.169577	6453.697757
639.514383	6474.381611
639.859137	6394.829683
640.203839	6406.658750
640.548489	6392.130145
640.893086	6376.742023
641.237632	6340.327248
641.582125	6364.607965
641.926566	6329.677810
642.270955	6346.311097
642.615292	6344.196333
642.959576	6357.368868
643.303809	6350.843095
643.647990	6352.612540
643.992118	6344.254307
644.336195	6289.890504
644.680219	6317.833619
645.024192	6304.973636
645.368112	6400.216156
645.711981	6419.314567
646.055797	6496.328274
646.399562	6452.165246
646.743274	6583.242808
647.086935	6635.519573
647.430544	6632.172247
647.774101	6657.740979
648.117606	6658.708881
648.461059	6652.795607
648.804460	6616.358147
649.147810	6524.001688
649.491108	6492.023129
649.834354	6461.751000
650.177548	6381.717642
650.520690	6295.498787
650.863781	6276.518843
651.206820	6294.165402
651.549807	6213.068360
651.892742	6153.489483
652.235626	6158.485267
652.578458	6148.392877
652.921238	6060.797788
653.263967	6093.829948
653.606644	6033.522625
653.949269	6040.144180
654.291843	5981.812989
654.634365	6026.401995
654.976836	5980.116641
655.319255	5978.828626
655.661622	5957.867508
656.003938	5958.643846
656.346203	5916.444347
656.688416	5950.388957
657.030577	5899.813581
657.372687	5870.670670
657.714746	5859.910328
658.056753	5903.226442
658.398708	5836.017779
658.740612	5833.439229
659.082465	5877.856835
659.424266	5870.988263
659.766016	5867.502305
660.107715	5845.074212
660.449362	5864.585998
660.790958	5854.692733
661.132503	5845.275858
661.473996	5882.789604
661.815438	5867.577923
662.156829	5863.686152
662.498168	5855.030491
662.839456	5831.778168
663.180693	5864.822932
663.521879	5870.234611
663.863013	5860.089288
664.204097	5877.045209
664.545129	5921.021715
664.886110	5911.987967
665.227040	5945.541887
665.567918	5911.322535
665.908746	5941.655158
666.249522	5942.910405
666.590248	5930.894815
666.930922	5953.441375
667.271545	5973.021217
667.612118	5974.951979
667.952639	5947.109686
668.293109	5969.729343
668.633528	5926.526655
668.973896	5930.675525
669.314213	5921.707312
669.654480	5901.875413
669.994695	5891.649432
670.334859	5884.057454
670.674973	5880.952104
671.015035	5883.339090
671.355047	5880.919336
671.695008	5864.139856
672.034918	5836.272357
672.374777	5846.301733
672.714585	5836.831925
673.054342	5837.928376
673.394049	5834.152552
673.733705	5857.533423
674.073310	5851.970510
674.412864	5810.166742
674.752368	5804.591226
675.091820	5805.682636
675.431223	5737.226287
675.770574	5743.462194
676.109875	5692.531417
676.449125	5702.104568
676.788324	5661.911448
677.127473	5606.604950
677.466571	5600.744608
677.805619	5592.552733
678.144616	5574.560855
678.483562	5554.950767
678.822458	5521.180077
679.161303	5518.631774
679.500098	5508.940156
679.838842	5488.475592
680.177535	5495.049256
680.516179	5510.765053
680.854771	5522.392475
681.193314	5602.851811
681.531805	5712.320466
681.870247	5861.747828
682.208638	5968.136339
682.546978	5977.966589
682.885268	5955.856088
683.223508	5872.641762
683.561697	5819.651673
683.899836	5784.996261
684.237925	5741.420527
684.575963	5707.932142
684.913951	5663.214587
685.251889	5726.113063
685.589776	5692.760789
685.927614	5665.566285
686.265401	5738.713427
686.603137	5721.702054
686.940824	5798.834228
687.278460	5821.824410
687.616046	5829.620555
687.953582	5895.049690
688.291068	5879.124685
688.628504	5942.832267
688.965889	5903.150825
689.303224	5848.988668
689.640510	5803.298170
689.977745	5727.302776
690.314930	5630.469772
690.652065	5569.723868
690.989150	5478.955372
691.326185	5404.973919
691.663170	5348.381926
692.000105	5270.175986
692.336990	5190.747566
692.673825	5172.952293
693.010610	5101.322538
693.347345	5030.655643
693.684030	5019.605434
694.020665	4978.023477
694.357251	4881.263570
694.693786	4899.474738
695.030272	4860.128532
695.366707	4828.205425
695.703093	4795.379952
696.039429	4818.639836
696.375716	4797.545128
696.711952	4775.979072
697.048139	4757.110033
697.384276	4737.925922
697.720363	4753.248509
698.056400	4757.536010
698.392388	4708.967013
698.728326	4688.343653
699.064214	4665.809695
699.400053	4658.394158
699.735842	4629.455414
700.071581	4606.921457
700.407270	4575.089091
700.742910	4560.348757
701.078501	4508.198020
701.414042	4503.729038
701.749533	4475.680057
702.084974	4405.323194
702.420366	4466.812668
702.755709	4404.662803
703.091002	4350.813197
703.426246	4399.667019
703.761440	4353.600955
704.096584	4317.579391
704.431679	4339.730221
704.766725	4327.026513
705.101721	4311.572856
705.436668	4341.277855
705.771565	4287.544196
706.106413	4315.005882
706.441212	4349.983927
706.775961	4359.907439
707.110661	4336.639993
707.445311	4366.695353
707.779913	4386.726377
708.114465	4401.766660
708.448967	4424.381276
708.783421	4486.054752
709.117825	4526.893139
709.452180	4534.593502
709.786485	4575.930963
710.120742	4665.378677
710.454949	4646.900327
710.789107	4711.480029
711.123216	4789.035660
711.457275	4782.222541
711.791286	4854.089230
712.125247	4871.264441
712.459159	4772.553607
712.793023	4845.395760
713.126837	4810.445440
713.460602	4805.086694
713.794318	4718.928333
714.127985	4730.706989
714.461602	4641.831447
714.795171	4612.454123
715.128691	4546.838465
715.462162	4490.559023
715.795584	4437.732772
716.128957	4424.219959
716.462281	4373.810941
716.795556	4345.154502
717.128782	4308.671672
717.461960	4237.316660
717.795088	4249.274277
718.128167	4205.635528
718.461198	4146.780057
718.794180	4141.028101
719.127113	4124.561172
719.459997	4099.993108
719.792833	4059.807550
720.125619	4048.911096
720.458357	4010.467257
720.791046	4017.711395
721.123686	3990.804237
721.456278	3949.595324
721.788821	3963.014876
722.121315	3939.056792
722.453761	3915.068462
722.786158	3928.694701
723.118506	3949.502063
723.450805	3899.582037
723.783056	3920.833021
724.115259	3943.198100
724.447412	3941.779015
724.779518	3937.050413
725.111574	3943.228347
725.443582	3974.768326
725.775542	3956.249647
726.107453	4006.651104
726.439315	4007.039272
726.771129	4020.224410
727.102895	4056.084658
727.434612	4107.302781
727.766281	4120.084627
728.097901	4119.835090
728.429473	4124.291470
728.760996	4130.751708
729.092471	4126.391110
729.423897	4113.354687
729.755276	4115.739152
730.086606	4116.384420
730.417887	4155.876819
730.749120	4219.087847
731.080305	4284.963125
731.411442	4310.380623
731.742530	4277.648411
732.073570	4285.368938
732.404562	4343.327084
732.735506	4332.665043
733.066401	4296.991318
733.397249	4233.974375
733.728048	4150.863392
734.058798	4066.197213
734.389501	3994.746419
734.720156	3935.200310
735.050762	3889.174575
735.381320	3882.767268
735.711831	3834.447809
736.042293	3800.616625
736.372707	3826.450018
736.703073	3798.884989
737.033391	3785.876292
737.363661	3806.625681
737.693883	3831.569310
738.024056	3839.181452
738.354182	3835.519054
738.684260	3896.849732
739.014290	3918.062907
739.344272	3915.290272
739.674207	3957.399031
740.004093	3960.872386
740.333931	3955.231334
740.663722	3955.929534
740.993464	3954.016416
741.323159	3930.592695
741.652806	3899.942480
741.982405	3874.582955
742.311956	3842.052389
742.641460	3834.044517
742.970915	3806.943273
743.300323	3767.229063
743.629683	3734.413672
743.958996	3722.874471
744.288260	3695.054864
744.617477	3665.430523
744.946647	3652.252947
745.275768	3624.922332
745.604842	3621.385962
745.933869	3575.158581
746.262847	3564.950245
746.591778	3603.331070
746.920662	3574.667069
747.249498	3543.048952
747.578286	3588.994028
747.907027	3606.408694
748.235720	3608.306688
748.564365	3627.516005
748.892963	3631.727889
749.221514	3614.930765
749.550017	3592.651385
749.878473	3591.993515
750.206881	3557.131415
750.535242	3557.055798
750.863555	3555.039336
751.191821	3550.381310
751.520039	3534.206768
751.848210	3509.459744
752.176334	3543.512738
752.504411	3549.420970
752.832440	3509.328674
753.160421	3491.810664
753.488356	3501.930781
753.816243	3512.416381
754.144082	3469.047334
754.471875	3456.152063
754.799620	3473.410453
755.127318	3466.965338
755.454969	3471.706543
755.782572	3473.992706
756.110129	3448.459262
756.437638	3437.265380
756.765100	3453.452525
757.092515	3461.876293
757.419882	3470.695791
757.747203	3443.017336
758.074477	3445.026236
758.401703	3459.632979
758.728882	3481.231803
759.056014	3489.327896
759.383099	3498.578413
759.710138	3486.159531
760.037129	3508.627953
760.364073	3536.903785
760.690970	3522.544059
761.017820	3500.489011
761.344623	3517.906197
761.671379	3560.849266
761.998088	3617.569809
762.324751	3744.513624
762.651366	3987.434225
762.977935	4462.447029
763.304456	4910.235081
763.630931	5008.068753
763.957359	4650.955936
764.283740	4301.982061
764.610074	4105.412349
764.936362	3912.394130
765.262602	3752.949995
765.588796	3639.488746
765.914943	3550.572874
766.241044	3457.172896
766.567097	3428.713062
766.893104	3387.184037
767.219064	3352.450487
767.544978	3327.032989
767.870845	3269.931839
768.196665	3251.824015
768.522438	3257.061774
768.848165	3255.993049
769.173846	3219.527863
769.499479	3199.380891
769.825066	3183.975125
770.150607	3169.323012
770.476101	3182.682069
770.801548	3178.409691
771.126949	3133.258597
771.452303	3117.295783
771.777611	3121.600929
772.102872	3125.417082
772.428087	3104.150975
772.753256	3090.524736
773.078378	3084.442584
773.403453	3051.665001
773.728482	3038.978938
774.053465	3061.452402
774.378401	3047.425391
774.703291	3016.777696
775.028135	3018.017820
775.352932	3011.423991
775.677683	3000.046107
776.002388	2995.705673
776.327046	2995.314984
776.651658	2987.675115
776.976224	2974.124493
777.300743	2975.833445
777.625216	2965.002526
777.949643	2959.076649
778.274024	2964.944552
778.598359	2949.899229
778.922647	2958.335600
779.246889	2958.045733
779.571086	2942.438321
779.895236	2935.637804
780.219339	2947.572736
780.543397	2958.277626
780.867409	2961.894654
781.191374	2955.767132
781.515294	2952.513067
781.839167	2952.951647
782.162995	2944.956377
782.486776	2951.835032
782.810511	2950.446194
783.134201	2937.445058
783.457844	2941.551078
783.781441	2933.906168
784.104993	2914.346491
784.428498	2915.069897
784.751958	2925.036258
785.075372	2922.891247
785.398739	2903.634039
785.722061	2924.237235
786.045337	2935.252156
786.368568	2918.956626
786.691752	2908.861716
787.014891	2958.247379
787.337983	2990.087307
787.661030	3018.143849
787.984031	3083.560382
788.306987	3133.755151
788.629897	3123.980353
788.952760	3105.401181
789.275579	3094.207299
789.598351	3036.823844
789.921078	2989.066473
790.243759	2981.943323
790.566395	2963.527988
790.888984	2939.431273
791.211529	2922.190527
791.534027	2911.407498
791.856480	2901.912485
792.178888	2886.247100
792.501249	2876.444576
792.823566	2876.731922
793.145836	2873.170347
793.468062	2868.051055
793.790241	2867.705736
794.112375	2871.297558
794.434464	2882.950185
794.756507	2887.945968
795.078505	2894.877555
795.400457	2908.266860
795.722364	2947.640792
796.044226	2972.801191
796.366042	2976.599700
796.687812	2961.924901
797.009538	2981.963488
797.331218	2971.571149
797.652852	2953.271761
797.974442	2936.951025
798.295986	2934.672423
798.617484	2927.352668
798.938938	2914.727098
799.260346	2897.015004
799.581709	2893.594581
799.903026	2885.722820
800.224299	2879.864999
800.545526	2872.066334
800.866708	2851.430371
801.187845	2845.708661
801.508936	2845.643126
801.829983	2853.086390
802.150984	2841.549709
802.471940	2827.300888
802.792851	2828.069664
803.113717	2825.745692
803.434538	2829.559325
803.755314	2825.544046
804.076045	2818.919969
804.396731	2817.589105
804.717372	2818.889722
805.037967	2813.099957
805.358518	2819.529949
805.679024	2831.119562
805.999485	2827.489931
806.319901	2832.296671
806.640272	2822.519353
806.960598	2828.200734
807.280879	2837.302537
807.601115	2844.992817
807.921306	2832.455467
808.241453	2831.674089
808.561554	2833.040241
808.881611	2837.662979
809.201623	2830.517144
809.521590	2831.779953
809.841513	2827.883141
810.161390	2832.422700
810.481223	2825.390290
810.801011	2812.863023
811.120755	2811.774134
811.440453	2815.250009
811.760107	2815.015596
812.079716	2811.852272
812.399281	2802.059830
812.718801	2796.398615
813.038276	2789.862759
813.357707	2798.387350
813.677093	2803.365489
813.996434	2798.253759
814.315731	2793.489869
814.634983	2787.531225
814.954191	2790.344189
815.273354	2804.759368
815.592473	2811.058290
815.911547	2814.244299
816.230577	2822.065649
816.549562	2831.555622
816.868502	2830.325580
817.187399	2841.975687
817.506250	2855.060001
817.825058	2852.015144
818.143821	2864.378574
818.462539	2879.605379
818.781213	2906.189904
819.099843	2941.425049
819.418429	3001.631549
819.736970	3060.645817
820.055466	3137.326808
820.373919	3243.097777
820.692327	3384.660939
821.010691	3554.721744
821.329011	3997.420751
821.647286	4902.244852
821.965517	6296.567512
822.283704	7060.244346
822.601847	7046.177007
822.919945	6403.051805
823.237999	5893.461727
823.556010	5310.401873
823.873976	4745.026387
824.191897	4335.304088
824.509775	4029.835370
824.827609	3757.355964
825.145398	3631.596819
825.463144	3621.353195
825.780845	3708.154302
826.098502	3815.656908
826.416116	4099.753653
826.733685	4420.597890
827.051210	4491.201770
827.368692	4372.349007
827.686129	4103.428655
828.003522	3777.964201
828.320872	3510.800691
828.638177	3316.842297
828.955439	3175.143024
829.272656	3090.252513
829.589830	3026.814633
829.906960	2971.699698
830.224046	2928.136568
830.541088	2892.372102
830.858086	2876.926006
831.175041	2859.541587
831.491952	2860.811958
831.808819	2871.680686
832.125642	2897.355282
832.442421	2945.377314
832.759157	3027.671630
833.075849	3202.027497
833.392497	3489.698421
833.709101	3696.166438
834.025662	3649.079541
834.342179	3485.438646
834.658653	3309.330977
834.975083	3154.335661
835.291469	3057.545507
835.607811	2972.435707
835.924110	2913.746594
836.240366	2861.822709
836.556578	2819.320741
836.872746	2792.448871
837.188871	2769.138575
837.504952	2752.268354
837.820990	2746.818867
838.136984	2730.793038
838.452935	2723.385063
838.768842	2721.343396
839.084706	2740.668659
839.400526	2818.786379
839.716303	2954.814354
840.032037	3032.490973
840.347727	3021.473531
840.663373	2960.783080
840.978977	2884.752398
841.294537	2812.197591
841.610054	2763.270672
841.925527	2741.364338
842.240957	2718.275853
842.556344	2692.419775
842.871687	2678.869154
843.186987	2670.198369
843.502244	2666.064623
843.817458	2662.266114
844.132629	2652.829074
844.447756	2639.326343
844.762840	2632.367030
845.077881	2635.900879
845.392879	2637.388019
845.707833	2629.135651
846.022745	2620.966461
846.337613	2623.963427
846.652438	2623.401338
846.967221	2625.352265
847.281960	2621.513426
847.596656	2619.867489
847.911309	2621.503344
848.225919	2620.928652
848.540485	2616.671398
848.855009	2613.845831
849.169490	2615.426233
849.483928	2613.064452
849.798323	2614.100409
850.112675	2612.865327
850.426984	2613.601335
850.741251	2610.916921
851.055474	2612.968670
851.369654	2617.457818
851.683792	2617.614093
851.997887	2611.141252
852.311938	2611.325254
852.625947	2613.308948
852.939914	2613.180399
853.253837	2615.849690
853.567718	2608.638319
853.881555	2611.146293
854.195350	2615.416150
854.509103	2611.630244
854.822812	2610.518669
855.136479	2610.521190
855.450103	2611.347939
855.763685	2615.683332
856.077224	2612.494802
856.390720	2609.848196
856.704173	2608.638319
857.017584	2617.039402
857.330953	2618.080400
857.644278	2619.769187
857.957561	2616.547889
858.270802	2611.504215
858.584000	2613.029164
858.897155	2619.128960
859.210268	2619.522170
859.523339	2613.903804
859.836367	2610.306941
860.149352	2613.039246
860.462295	2611.355501
860.775195	2608.502208
861.088054	2606.629419
861.400869	2605.865684
861.713642	2605.704367
862.026373	2607.849378
862.339062	2607.854420
862.651708	2613.145111
862.964312	2615.136366
863.276873	2613.003958
863.589392	2618.029989
863.901869	2621.180710
864.214303	2624.485186
864.526696	2626.819240
864.839045	2628.303860
865.151353	2635.190076
865.463619	2633.241670
865.775842	2631.447020
866.088023	2630.592544
866.400162	2633.047586
866.712258	2634.627988
867.024313	2631.809983
867.336325	2626.453757
867.648296	2630.111114
867.960224	2637.060344
868.272110	2633.246712
868.583954	2627.051133
868.895755	2628.346710
869.207515	2633.939870
869.519233	2639.452372
869.830909	2634.862401
870.142542	2631.943573
870.454134	2635.147227
870.765684	2640.198463
871.077191	2641.698206
871.388657	2646.930924
871.700081	2642.461941
872.011463	2640.639564
872.322803	2644.609472
872.634101	2650.132056
872.945357	2655.740340
873.256571	2659.170845
873.567744	2656.804023
873.878874	2654.659012
874.189963	2656.778818
874.501010	2662.056906
874.812015	2665.860456
875.122979	2667.529078
875.433900	2659.248983
875.744780	2653.262613
876.055618	2664.983296
876.366415	2669.356497
876.677169	2667.292144
876.987882	2664.597647
877.298554	2660.746206
877.609183	2670.397495
877.919771	2678.284380
878.230317	2687.809640
878.540822	2697.854139
878.851285	2711.661860
879.161707	2733.633729
879.472087	2773.413474
879.782425	2824.566062
880.092722	2938.622168
880.402977	3132.933443
880.713191	3393.661919
881.023363	3695.117878
881.333494	3895.037437
881.643583	4070.968665
881.953631	4070.769539
882.263637	3890.157600
882.573602	3666.748785
882.883526	3533.803476
883.193408	3412.246133
883.503248	3310.384578
883.813048	3191.259592
884.122806	3075.643250
884.432522	2986.606390
884.742197	2920.960485
885.051831	2883.532438
885.361424	2847.039526
885.670975	2810.534010
885.980485	2778.920934
886.289954	2759.162132
886.599382	2744.351222
886.908768	2732.703636
887.218113	2714.399206
887.527417	2702.612988
887.836680	2691.749302
888.145901	2685.163034
888.455082	2677.228258
888.764221	2668.791887
889.073319	2656.793941
889.382376	2658.185300
889.691392	2658.334014
890.000366	2657.797131
890.309300	2658.008859
890.618193	2660.199241
890.927044	2663.861639
891.235855	2662.853408
891.544625	2662.679488
891.853353	2663.717966
892.162041	2668.305416
892.470687	2688.638910
892.779293	2701.491332
893.087858	2711.051880
893.396381	2734.001733
893.704864	2776.990172
894.013306	2849.615555
894.321707	2943.073506
894.630068	2992.973368
894.938387	3020.273736
895.246665	3011.204701
895.554903	2967.107207
895.863100	2921.462080
896.171256	2864.799511
896.479371	2800.302988
896.787446	2759.300763
897.095480	2743.083372
897.403473	2730.914026
897.711425	2718.043960
898.019336	2697.773481
898.327207	2684.001048
898.635038	2684.537931
898.942827	2683.988446
899.250576	2671.824141
899.558284	2657.766884
899.865952	2655.712614
900.173579	2652.677839
900.481165	2650.595842
900.788711	2639.711991
901.096216	2634.451547
901.403681	2631.900723
901.711105	2631.971300
902.018489	2628.513068
902.325832	2635.046403
902.633135	2635.762247
902.940397	2651.939310
903.247619	2691.414065
903.554800	2759.348654
903.861941	2891.734396
904.169041	3022.698531
904.476101	3085.342430
904.783121	3082.342943
905.090100	3023.537883
905.397039	2945.372273
905.703938	2868.903010
906.010796	2806.589307
906.317614	2750.561923
906.624391	2712.720502
906.931129	2684.666481
907.237826	2661.756957
907.544483	2645.017806
907.851099	2628.631535
908.157675	2616.235338
908.464211	2611.466406
908.770707	2600.055755
909.077163	2595.256576
909.383578	2592.287337
909.689954	2592.161308
909.996289	2588.322469
910.302584	2588.065370
910.608839	2589.199630
910.915054	2584.690318
911.221229	2587.984712
911.527363	2590.747264
911.833458	2586.623600
912.139513	2590.827923
912.445527	2593.862697
912.751502	2596.161463
913.057436	2604.043307
913.363331	2607.297372
913.669186	2620.353961
913.975000	2635.192597
914.280775	2653.023158
914.586510	2672.625685
914.892205	2710.648588
915.197859	2776.901952
915.503475	2866.049717
915.809050	2931.867021
916.114585	2949.934517
916.420081	2966.547639
916.725536	2976.279587
917.030952	2947.837397
917.336328	2899.694378
917.641665	2850.764938
917.946961	2795.919705
918.252218	2761.791093
918.557435	2734.344531
918.862612	2710.119267
919.167750	2693.543953
919.472848	2676.303207
919.777906	2661.580517
920.082925	2647.245996
920.387904	2634.905251
920.692843	2631.013480
920.997743	2625.354785
921.302603	2618.289608
921.607423	2609.502877
921.912204	2605.895931
922.216946	2603.478698
922.521647	2600.738831
922.826310	2596.652976
923.130932	2593.696339
923.435516	2588.209043
923.740059	2581.862230
924.044564	2582.510019
924.349028	2581.196798
924.653454	2572.957032
924.957840	2571.530386
925.262186	2566.950497
925.566493	2566.138872
925.870761	2563.683830
926.174989	2567.028635
926.479178	2563.141906
926.783328	2561.652245
927.087438	2561.440516
927.391509	2561.816082
927.695541	2557.601678
927.999533	2556.535473
928.303486	2555.809547
928.607400	2557.765515
928.911275	2553.994732
929.215110	2554.652603
929.518906	2555.711245
929.822663	2555.958261
930.126381	2553.861141
930.430060	2555.058415
930.733699	2553.299053
931.037299	2556.061605
931.340861	2555.479352
931.644383	2556.979095
931.947866	2555.910370
932.251309	2558.665361
932.554714	2553.452808
932.858080	2557.747871
933.161407	2555.988508
933.464694	2555.547407
933.767943	2551.703527
934.071153	2554.468600
934.374323	2554.445915
934.677455	2552.527756
934.980548	2549.576161
935.283602	2550.881819
935.586617	2551.564896
935.889593	2550.997766
936.192530	2552.489947
936.495428	2552.202602
936.798287	2553.122612
937.101108	2557.465566
937.403890	2557.868859
937.706632	2559.981102
938.009336	2561.811041
938.312002	2570.373441
938.614628	2572.238668
938.917216	2573.211610
939.219765	2578.366190
939.522275	2574.514749
939.824747	2574.083730
940.127179	2568.288924
940.429573	2569.541650
940.731929	2569.312278
941.034246	2567.457133
941.336524	2565.849005
941.638763	2565.637277
941.940964	2564.828172
942.243126	2565.150805
942.545250	2562.433623
942.847335	2561.284240
943.149381	2560.691905
943.451389	2557.253838
943.753359	2555.839794
944.055290	2556.106975
944.357182	2556.916081
944.659036	2553.268806
944.960851	2557.445402
945.262628	2555.116389
945.564367	2554.219063
945.866067	2556.109496
946.167729	2555.867521
946.469352	2555.960782
946.770937	2555.880123
947.072484	2553.155380
947.373992	2555.207129
947.675462	2553.510781
947.976893	2554.087993
948.278286	2554.423230
948.579641	2550.912066
948.880958	2550.372663
949.182236	2554.017417
949.483476	2554.045143
949.784678	2550.715461
950.085841	2549.308979
950.386967	2552.915925
950.688054	2549.848383
950.989103	2553.510781
951.290114	2554.050185
951.591087	2555.060936
951.892021	2555.396173
952.192917	2556.971533
952.493776	2558.526729
952.794596	2559.272820
953.095378	2558.846843
953.396122	2561.851370
953.696828	2559.237532
953.997496	2555.050854
954.298126	2554.282078
954.598718	2555.592778
954.899272	2553.190668
955.199788	2551.506923
955.500266	2550.818805
955.800706	2545.603731
956.101108	2544.968546
956.401472	2543.609955
956.701798	2542.581560
957.002087	2541.931251
957.302337	2542.238761
957.602550	2542.750438
957.902724	2538.886394
958.202861	2538.256250
958.502960	2540.534851
958.803022	2539.745911
959.103045	2539.740869
959.403031	2537.348842
959.702979	2537.999151
960.002889	2538.132741
960.302762	2536.063348
960.602596	2539.879501
960.902393	2537.835313
961.202153	2537.827752
961.501875	2536.753986
961.801559	2538.969573
962.101205	2538.921682
962.400814	2536.285158
962.700385	2537.646270
962.999918	2536.219623
963.299414	2535.415559
963.598873	2537.275745
963.898293	2537.671476
964.197677	2536.171732
964.497022	2535.584438
964.796331	2534.868594
965.095601	2534.356917
965.394835	2534.644263
965.694030	2533.459592
965.993189	2534.888759
966.292309	2534.240971
966.591393	2537.616023
966.890439	2533.648635
967.189447	2535.342463
967.488419	2533.618388
967.787353	2534.117462
968.086249	2535.201310
968.385108	2537.661393
968.683930	2532.080836
968.982714	2535.987730
969.281462	2535.592000
969.580172	2536.138965
969.878844	2536.328008
970.177480	2536.358255
970.476078	2537.731970
970.774639	2538.089892
971.073162	2535.062679
971.371649	2533.774664
971.670098	2532.085877
971.968510	2536.968235
972.266885	2532.143851
972.565223	2537.069058
972.863524	2536.985879
973.161788	2533.101670
973.460014	2538.735159
973.758204	2540.189532
974.056356	2537.374048
974.354471	2537.298430
974.652550	2535.574356
974.950591	2535.770961
975.248595	2535.523944
975.546563	2535.564273
975.844493	2535.844058
976.142386	2535.090405
976.440243	2533.121834
976.738062	2535.352545
977.035845	2533.875487
977.333590	2536.000333
977.631299	2536.380940
977.928971	2535.458409
978.226606	2534.067051
978.524204	2536.375899
978.821765	2533.066382
979.119290	2535.173584
979.416777	2532.678213
979.714228	2534.475384
980.011642	2535.939839
980.309020	2535.294572
980.606360	2534.326670
980.903664	2536.804397
981.200931	2533.726773
981.498162	2535.700385
981.795356	2537.303472
982.092513	2543.110881
982.389633	2546.319575
982.686717	2547.360573
982.983764	2550.418033
983.280775	2552.157231
983.577749	2551.136398
983.874686	2549.140101
984.171587	2548.066335
984.468451	2543.862013
984.765279	2540.335726
985.062070	2541.512835
985.358824	2540.013092
985.655543	2536.101156
985.952224	2538.097453
986.248869	2535.985210
986.545478	2529.056144
986.842050	2533.825075
987.138586	2529.169570
987.435086	2530.364323
987.731549	2529.645959
988.027975	2533.605785
988.324366	2531.284334
988.620719	2532.310209
988.917037	2529.875331
989.213318	2534.394726
989.509563	2534.039324
989.805772	2532.509334
990.101944	2532.075795
990.398080	2530.666793
990.694180	2529.240146
990.990244	2531.969931
991.286271	2531.438089
991.582262	2530.704601
991.878217	2530.414735
992.174136	2529.862728
992.470019	2530.757533
992.765865	2531.874149
993.061676	2531.170908
993.357450	2534.548481
993.653188	2529.272913
993.948890	2531.357431
994.244556	2531.077647
994.540186	2532.978162
994.835780	2530.807945
995.131337	2533.883049
995.426859	2533.472195
995.722345	2531.526309
996.017795	2536.154088
996.313208	2534.220806
996.608586	2536.703574
996.903928	2537.878163
997.199234	2535.052596
997.494504	2534.208203
997.789738	2532.978162
998.084936	2537.890766
998.380099	2534.145189
998.675225	2532.920188
998.970316	2533.172246
999.265371	2533.273069
999.560390	2533.182328
999.855373	2533.754499
1000.150320	2531.027235
1000.445232	2530.331556
1000.740108	2529.482121
1001.034948	2532.221988
1001.329752	2533.129396
1001.624521	2531.448171
1001.919254	2525.335772
1002.213951	2527.601771
1002.508613	2529.164529
1002.803239	2527.269055
1003.097829	2526.328880
1003.392384	2529.555218
1003.686903	2527.352234
1003.981386	2531.102852
1004.275834	2530.704601
1004.570246	2530.679395
1004.864623	2528.620084
1005.158964	2529.719056
1005.453270	2528.068078
1005.747540	2530.714683
1006.041775	2527.493386
1006.335974	2532.779036
1006.630138	2526.951462
1006.924266	2530.092101
1007.218359	2530.056813
1007.512416	2528.703263
1007.806438	2532.227030
1008.100425	2528.607481
1008.394376	2530.392050
1008.688292	2529.189734
1008.982172	2530.008922
1009.276017	2531.685106
1009.569827	2529.572862
1009.863602	2529.194776
1010.157341	2527.662265
1010.451045	2528.375588
1010.744714	2531.249046
1011.038347	2528.426000
1011.331945	2528.438603
1011.625508	2530.137471
1011.919036	2528.582275
1012.212528	2527.894158
1012.505986	2530.097142
1012.799408	2527.445495
1013.092795	2527.803417
1013.386147	2530.823068
1013.679464	2527.891637
1013.972745	2530.278624
1014.265992	2527.541277
1014.559204	2529.769467
1014.852380	2528.612522
1015.145521	2530.334076
1015.438628	2529.126720
1015.731699	2525.620597
1016.024736	2529.595547
1016.317737	2529.275434
1016.610703	2526.621267
1016.903635	2528.408356
1017.196531	2523.281502
1017.489393	2525.635721
1017.782219	2522.832839
1018.075011	2528.000022
1018.367768	2527.342152
1018.660490	2527.790814
1018.953177	2527.790814
1019.245829	2527.790814
