Dividing Wavelength (nm)	Counts (n)	Blue Motor Position (mm): 0.000000	Red Motor Position (mm): 25.300000	
326.493990	2126.336007
326.888308	2126.336007
327.282561	2126.336007
327.676750	2094.980030
328.070874	2091.978023
328.464933	2095.479104
328.858929	2103.219796
329.252859	2114.496857
329.646726	2125.395832
330.040528	2136.748510
330.434265	2153.553197
330.827938	2173.828718
331.221547	2192.334793
331.615091	2208.723584
332.008571	2228.005998
332.401986	2246.355798
332.795338	2266.984199
333.188625	2286.422889
333.581847	2306.542134
333.975006	2322.663744
334.368100	2340.138903
334.761129	2357.699763
335.154095	2377.667773
335.546996	2393.093704
335.939833	2409.742115
336.332606	2425.450350
336.725315	2439.053904
337.117960	2443.948864
337.510540	2458.028807
337.903056	2465.225054
338.295508	2475.279635
338.687896	2479.552013
339.080220	2491.517192
339.472480	2496.593634
339.864676	2497.591782
340.256807	2504.435148
340.648875	2505.735766
341.040879	2513.579802
341.432818	2514.981242
341.824694	2514.628362
342.216506	2515.969308
342.608253	2516.836387
342.999937	2514.237672
343.391557	2514.149452
343.783113	2513.055522
344.174605	2512.342198
344.566033	2511.157527
344.957397	2507.643843
345.348697	2509.249450
345.739934	2505.420694
346.131106	2504.099912
346.522215	2503.247957
346.913260	2501.692761
347.304241	2498.468943
347.695159	2496.820486
348.086012	2495.194713
348.476802	2494.476349
348.867528	2492.238077
349.258191	2490.962665
349.648789	2489.974599
350.039324	2488.832777
350.429796	2491.086173
350.820203	2486.125678
351.210548	2484.038640
351.600828	2483.310193
351.991045	2484.562920
352.381198	2486.639875
352.771288	2483.937817
353.161314	2481.460090
353.551276	2483.864720
353.941175	2483.083341
354.331010	2483.393372
354.720782	2481.155100
355.110490	2482.695172
355.500135	2482.982518
355.889717	2483.544607
356.279235	2481.709627
356.668689	2484.562920
357.058080	2479.864565
357.447408	2481.981849
357.836672	2482.508650
358.225873	2483.801706
358.615010	2480.527476
359.004084	2485.351861
359.393095	2486.571820
359.782043	2487.648106
360.170927	2485.009062
360.559748	2488.414362
360.948505	2488.343785
361.337199	2492.112048
361.725830	2490.806389
362.114398	2492.742192
362.502903	2491.960813
362.891344	2493.649600
363.279722	2494.688077
363.668037	2491.413848
364.056289	2496.452481
364.444478	2496.969200
364.832603	2495.948366
365.220665	2496.558346
365.608665	2498.647904
365.996601	2497.942142
366.384474	2499.325939
366.772284	2501.843995
367.160031	2499.966166
367.547715	2503.053872
367.935336	2507.280880
368.322893	2508.848679
368.710388	2508.352125
369.097820	2518.583147
369.485189	2522.442150
369.872495	2526.414579
370.259738	2534.926568
370.646918	2541.853113
371.034035	2547.385779
371.421090	2558.940104
371.808081	2571.265725
372.195010	2576.919379
372.581875	2590.235587
372.968678	2606.243771
373.355418	2615.499329
373.742096	2631.683954
374.128710	2649.126346
374.515262	2663.097904
374.901751	2678.128104
375.288177	2691.835002
375.674540	2712.949874
376.060841	2730.664489
376.447079	2750.521594
376.833254	2772.422887
377.219367	2785.081224
377.605417	2822.133705
377.991404	2828.669561
378.377329	2852.451204
378.763191	2868.577855
379.148991	2904.685120
379.534727	2932.555139
379.920402	2960.601598
380.306013	2973.511993
380.691563	3021.009745
381.077049	3044.423384
381.462474	3059.937535
381.847835	3099.674430
382.233134	3121.729478
382.618371	3119.770990
383.003545	3189.628779
383.388657	3199.166642
383.773706	3229.993298
384.158693	3246.901328
384.543618	3273.707664
384.928480	3308.567243
385.313280	3354.592977
385.698017	3351.149869
386.082692	3407.051224
386.467305	3413.599683
386.851856	3443.455917
387.236344	3466.861994
387.620770	3500.657889
388.005133	3522.037423
388.389435	3550.134294
388.773674	3561.489493
389.157851	3603.157150
389.541965	3620.871764
389.926018	3583.015220
390.310008	3655.590191
390.693936	3671.432017
391.077802	3715.521948
391.461606	3703.599620
391.845348	3765.363837
392.229027	3761.898043
392.612645	3775.567132
392.996200	3858.935214
393.379694	3895.695307
393.763125	3958.684525
394.146494	3925.536418
394.529801	3987.043536
394.913047	4037.213099
395.296230	4005.496679
395.679351	4059.391655
396.062410	4078.628698
396.445408	4064.067325
396.828343	4095.884568
397.211217	4120.956747
397.594028	4037.780229
397.976778	4108.237915
398.359466	4129.914877
398.742092	4160.897808
399.124656	4083.856375
399.507158	4165.621370
399.889598	4187.946119
400.271977	4248.508021
400.654294	4224.151686
401.036549	4226.306780
401.418742	4199.369374
401.800874	4300.603305
402.182944	4322.413857
402.564952	4384.001634
402.946898	4376.621384
403.328783	4370.849263
403.710606	4283.717960
404.092367	4473.885407
404.474067	4440.109676
404.855705	4447.439514
405.237282	4374.365468
405.618797	4486.982324
406.000250	4523.152603
406.381642	4603.478349
406.762972	4564.164910
407.144240	4572.490376
407.525447	4573.004574
407.906593	4636.137464
408.287677	4674.049461
408.668700	4603.700159
409.049661	4661.401206
409.430560	4698.549469
409.811399	4622.811174
410.192176	4783.765134
410.572891	4723.624168
410.953545	4829.969829
411.334138	4709.700501
411.714669	4774.285244
412.095139	4667.624511
412.475547	4809.774967
412.855894	4793.401299
413.236180	4802.707269
413.616405	4755.726236
413.996568	4836.175490
414.376670	4783.807983
414.756711	4737.860387
415.136691	4770.486734
415.516609	4845.844423
415.896466	4880.517479
416.276262	4919.546092
416.655997	4901.120675
417.035670	5081.619188
417.415283	5172.004556
417.794834	5117.234940
418.174324	5066.057146
418.553753	4977.090863
418.933121	5160.120036
419.312428	5222.985745
419.691674	5167.777548
420.070859	5289.322288
420.449983	5205.203075
420.829045	5320.426208
421.208047	5225.402978
421.586988	5296.256395
421.965867	5309.890196
422.344686	5438.144712
422.723444	5296.039626
423.102141	5116.186380
423.480777	5412.003808
423.859352	5180.652655
424.237866	5441.187048
424.616319	5432.536428
424.994712	5540.434764
425.373044	5417.082771
425.751314	5559.613834
426.129524	5365.017734
426.507673	5558.855140
426.885762	5637.348426
427.263789	5569.572633
427.641756	5455.272032
428.019662	5573.948355
428.397508	5581.704170
428.775292	5527.133680
429.153016	5626.429287
429.530679	5552.057144
429.908282	5637.507223
430.285824	5507.823540
430.663305	5781.729593
431.040726	5514.351834
431.418086	5517.202607
431.795385	5618.247494
432.172624	5631.427591
432.549802	5619.971569
432.926920	5635.848683
433.303977	5645.033665
433.680974	5680.646897
434.057910	5694.285738
434.434786	5695.848496
434.811601	5668.207850
435.188355	5897.197222
435.565050	5768.279795
435.941683	5745.607205
436.318257	5953.832065
436.694770	5930.420946
437.071222	5958.623682
437.447614	5885.736159
437.823946	5795.587725
438.200218	5942.615497
438.576429	5795.917921
438.952580	5886.280603
439.328670	5919.353093
439.704700	5823.820707
440.080670	5805.390249
440.456580	6054.551798
440.832429	5926.083033
441.208218	5772.894971
441.583947	5906.125105
441.959616	5894.485081
442.335224	5812.561290
442.710773	5927.928096
443.086261	5938.743891
443.461689	5730.571964
443.837057	5851.398339
444.212365	5978.155632
444.587612	5860.631212
444.962800	5980.822402
445.337927	5940.452843
445.712995	5567.309155
446.088002	6062.030350
446.462949	5888.498711
446.837837	5801.692562
447.212664	5932.124856
447.587431	6022.900914
447.962139	6450.932684
448.336786	7198.303906
448.711374	6950.500948
449.085901	6136.911649
449.460369	6039.035127
449.834776	5943.006187
450.209124	6222.719649
450.583412	6285.696264
450.957640	6377.427620
451.331808	6142.356095
451.705917	5749.682978
452.079965	5648.002905
452.453954	5766.107057
452.827883	5630.195029
453.201752	5655.743597
453.575562	5461.596159
453.949311	5556.236261
454.323001	5437.731337
454.696632	5443.795845
455.070202	5477.238860
455.443713	5534.052663
455.817164	5545.223860
456.190556	5536.401841
456.563888	5528.071334
456.937160	5498.746942
457.310373	5241.607767
457.683526	5196.572619
458.056619	5071.199123
458.429653	5008.041027
458.802628	4921.605403
459.175542	4927.516156
459.548398	5052.740938
459.921194	5079.585083
460.293930	5024.512997
460.666607	5215.998706
461.039224	5300.201098
461.411782	5294.852434
461.784280	5226.648143
462.156719	5105.877220
462.529099	4974.406449
462.901419	4731.037185
463.273680	4619.776399
463.645882	4567.522319
464.018024	4446.958083
464.390106	4450.481850
464.762130	4535.059809
465.134094	4640.777846
465.505999	4942.647179
465.877845	5287.386485
466.249631	5418.038069
466.621358	5181.348335
466.993026	4878.523702
467.364634	4709.118248
467.736184	4522.872819
468.107674	4366.581927
468.479105	4293.833035
468.850477	4183.270449
469.221790	4057.155903
469.593043	3912.774737
469.964238	3823.521108
470.335373	3768.885082
470.706449	3728.956623
471.077467	3683.152700
471.448425	3873.710836
471.819324	4011.001619
472.190164	3955.324596
472.560945	3686.547917
472.931667	3511.367821
473.302330	3448.101340
473.672934	3355.087010
474.043479	3363.447764
474.413965	3314.382213
474.784393	3256.149325
475.154761	3238.951428
475.525070	3211.479661
475.895321	3162.981240
476.265513	3146.015237
476.635645	3135.688433
477.005719	3101.035542
477.375734	3079.620720
477.745691	3068.593196
478.115588	3049.981256
478.485427	3035.170346
478.855207	3046.679300
479.224928	3075.802046
479.594591	3091.195209
479.964194	3034.736807
480.333739	3003.504338
480.703226	2965.554532
481.072653	2945.581480
481.442022	2934.357351
481.811333	2926.062133
482.180584	2891.804972
482.549777	2858.951772
482.918912	2836.934533
483.287988	2821.533808
483.657005	2806.160809
484.025964	2780.370266
484.394864	2768.689912
484.763706	2754.362953
485.132489	2734.347052
485.501213	2726.611401
485.869879	2717.804506
486.238487	2703.769933
486.607036	2700.830941
486.975527	2686.587160
487.343959	2685.473065
487.712333	2678.917045
488.080648	2672.804646
488.448905	2666.969510
488.817104	2660.181597
489.185244	2660.330311
489.553326	2657.381236
489.921350	2661.749395
490.289315	2671.476302
490.657222	2673.066786
491.025070	2668.832217
491.392861	2664.504386
491.760593	2654.369146
492.128267	2648.992756
492.495883	2640.281642
492.863440	2637.894655
493.230939	2629.407873
493.598380	2625.392594
493.965763	2621.949486
494.333088	2619.859927
494.700354	2616.368928
495.067563	2617.611573
495.434713	2612.101592
495.801805	2616.263064
496.168839	2615.370780
496.535815	2610.881632
496.902733	2612.671242
497.269593	2613.371962
497.636395	2610.430449
498.003139	2610.969853
498.369825	2605.953905
498.736453	2607.252002
499.103023	2603.035077
499.469535	2605.550612
499.835989	2604.310488
500.202385	2603.753441
500.568723	2601.805035
500.935003	2604.779316
501.301226	2598.850919
501.667390	2601.852926
502.033497	2602.788060
502.399546	2601.174891
502.765537	2598.578697
503.131470	2596.408480
503.497345	2599.067688
503.863163	2599.360075
504.228923	2601.313522
504.594625	2599.591968
504.960269	2595.138109
505.325856	2596.842019
505.691385	2596.685743
506.056856	2598.082143
506.422270	2597.845209
506.787625	2597.457040
507.152924	2595.443099
507.518164	2596.673140
507.883347	2595.022162
508.248472	2592.748602
508.613540	2594.102152
508.978550	2590.870772
509.343503	2594.840681
509.708398	2594.366812
510.073236	2595.629622
510.438016	2595.407811
510.802738	2592.869590
511.167403	2594.351689
511.532010	2590.497727
511.896561	2596.325301
512.261053	2595.891762
512.625488	2591.299270
512.989866	2590.343972
513.354186	2591.672316
513.718449	2589.643251
514.082655	2593.880341
514.446803	2594.581062
514.810894	2592.100814
515.174927	2594.134919
515.538904	2592.466297
515.902822	2594.984354
516.266684	2594.901175
516.630488	2592.146184
516.994235	2591.281626
517.357925	2593.522419
517.721558	2595.067533
518.085133	2595.080136
518.448651	2594.795311
518.812112	2592.942687
519.175516	2592.819178
519.538863	2595.861515
519.902152	2594.921339
520.265385	2595.193562
520.628560	2596.577358
520.991678	2591.831112
521.354739	2593.643407
521.717743	2596.156422
522.080690	2596.443768
522.443580	2596.209354
522.806413	2593.887903
523.169189	2594.165166
523.531908	2594.785228
523.894569	2591.848756
524.257174	2596.063161
524.619722	2596.388315
524.982213	2599.196238
525.344647	2595.385126
525.707025	2594.089549
526.069345	2597.003336
526.431608	2593.852615
526.793815	2594.860846
527.155964	2597.537698
527.518057	2594.447471
527.880093	2596.196751
528.242072	2597.041145
528.603995	2593.587954
528.965860	2595.649786
529.327669	2594.296236
529.689421	2593.635845
530.051117	2593.507296
530.412755	2595.095259
530.774337	2595.443099
531.135862	2594.409662
531.497331	2594.150043
531.858743	2588.251893
532.220098	2591.372367
532.581396	2588.748447
532.942638	2589.552511
533.303824	2593.247676
533.664953	2593.860177
534.026025	2592.715835
534.387040	2593.033427
534.747999	2594.727255
535.108902	2593.789600
535.469748	2592.917481
535.830537	2595.977461
536.191270	2593.686257
536.551947	2597.038624
536.912567	2593.650969
537.273131	2597.814962
537.633638	2591.115268
537.994089	2592.615012
538.354483	2591.321956
538.714821	2595.909406
539.075103	2593.270362
539.435328	2592.204157
539.795497	2594.649117
540.155609	2596.080805
540.515665	2593.358582
540.875665	2592.080649
541.235609	2591.006883
541.595496	2593.809765
541.955328	2593.782039
542.315102	2593.161977
542.674821	2594.011411
543.034483	2595.503593
543.394090	2591.793303
543.753640	2594.898654
544.113134	2593.686257
544.472571	2594.507965
544.831953	2595.007039
545.191278	2595.669951
545.550548	2593.845053
545.909761	2593.731627
546.268918	2595.201123
546.628019	2597.147009
546.987064	2588.622418
547.346053	2593.582913
547.704986	2593.290526
548.063863	2595.122986
548.422684	2594.318922
548.781449	2593.328335
549.140158	2595.687595
549.498811	2595.904364
549.857408	2592.108376
550.215949	2592.672985
550.574434	2588.592171
550.932864	2590.475042
551.291237	2590.676688
551.649555	2591.944538
552.007817	2594.376895
552.366022	2595.536360
552.724173	2592.345310
553.082267	2592.703232
553.440305	2593.540063
553.798288	2593.698860
554.156215	2593.527460
554.514086	2594.591144
554.871902	2592.057964
555.229661	2591.863880
555.587365	2592.065526
555.945014	2593.076277
556.302606	2593.477049
556.660143	2593.661051
557.017625	2594.747420
557.375050	2592.103334
557.732421	2593.194744
558.089735	2595.508634
558.446994	2596.519385
558.804197	2595.387646
559.161345	2595.664910
559.518437	2594.278592
559.875474	2596.395877
560.232455	2591.914291
560.589381	2593.504775
560.946251	2597.031062
561.303065	2595.770774
561.659825	2593.514857
562.016528	2592.204158
562.373177	2590.822881
562.729770	2593.151894
563.086307	2594.611308
563.442789	2595.594333
563.799216	2594.273551
564.155587	2593.179621
564.511904	2592.920001
564.868164	2594.386977
565.224370	2593.716504
565.580520	2593.439240
565.936615	2593.391349
566.292654	2592.287337
566.648638	2593.769436
567.004567	2594.208016
567.360441	2593.656010
567.716260	2591.672316
568.072023	2593.310691
568.427732	2586.764753
568.783385	2590.129723
569.138982	2588.516553
569.494525	2590.406986
569.850013	2590.001173
570.205445	2591.846236
570.560823	2592.241966
570.916145	2594.497882
571.271412	2591.387491
571.626625	2593.393870
571.981782	2592.786411
572.336884	2590.656523
572.691931	2592.642738
573.046923	2589.804568
573.401860	2592.378077
573.756743	2592.335228
574.111570	2591.715166
574.466342	2591.503437
574.821059	2591.758015
575.175722	2591.906729
575.530330	2590.906060
575.884882	2589.923035
576.239380	2589.943200
576.593823	2590.714497
576.948211	2590.704414
577.302544	2589.199630
577.656823	2589.648292
578.011047	2592.995619
578.365216	2591.737851
578.719330	2589.353385
579.073389	2590.598550
579.427394	2585.474217
579.781344	2588.569486
580.135239	2587.084866
580.489080	2588.324990
580.842866	2590.071749
581.196597	2592.103334
581.550273	2589.570155
581.903895	2587.462952
582.257463	2588.735844
582.610975	2585.081007
582.964434	2588.077973
583.317837	2585.368353
583.671186	2588.042685
584.024481	2588.241811
584.377721	2586.661409
584.730906	2586.605956
585.084037	2585.393559
585.437113	2586.139649
585.790135	2587.470514
586.143103	2584.067735
586.496016	2589.003025
586.848874	2584.430698
587.201679	2583.729978
587.554428	2584.415575
587.907124	2584.529001
588.259765	2581.960533
588.612352	2586.298446
588.964884	2586.527818
589.317362	2585.179310
589.669786	2582.620924
590.022155	2588.118302
590.374470	2586.174937
590.726731	2584.977663
591.078937	2585.431367
591.431090	2586.810123
591.783188	2580.987590
592.135232	2583.004052
592.487222	2583.268712
592.839157	2585.683425
593.191038	2585.222159
593.542866	2583.850966
593.894639	2583.243507
594.246358	2585.290215
594.598022	2583.888774
594.949633	2581.670667
595.301190	2581.837025
595.652692	2582.242837
596.004141	2583.792992
596.355535	2584.828949
596.706876	2580.685121
597.058162	2580.881726
597.409395	2580.896849
597.760573	2584.576892
598.111698	2579.601273
598.462768	2581.975656
598.813785	2582.411716
599.164748	2580.571695
599.515657	2583.780389
599.866511	2580.523804
600.217312	2582.091603
600.568060	2582.464648
600.918753	2584.579412
601.269392	2580.281829
601.619978	2579.291242
601.970510	2583.402303
602.320988	2580.780903
602.671412	2583.016655
603.021783	2579.991962
603.372100	2579.324009
603.722363	2580.904411
604.072572	2583.220821
604.422728	2580.057497
604.772830	2576.581622
605.122878	2575.641447
605.472872	2578.434246
605.822813	2575.026426
606.172701	2579.901222
606.522534	2580.216294
606.872314	2582.288208
607.222041	2579.800398
607.571714	2577.922569
607.921333	2581.537076
608.270899	2580.727971
608.620411	2582.066397
608.969870	2581.227045
609.319276	2581.305183
609.668627	2586.694176
610.017926	2585.809454
610.367171	2589.020669
610.716362	2587.102510
611.065500	2584.690318
611.414585	2585.864907
611.763616	2585.685946
612.112594	2586.371542
612.461518	2584.057653
612.810389	2584.471027
613.159207	2583.440112
613.507971	2580.377611
613.856682	2583.853486
614.205340	2578.945923
614.553945	2585.025554
614.902496	2581.428691
615.250994	2580.899370
615.599439	2581.958012
615.947830	2580.677559
616.296169	2582.260482
616.644454	2582.363825
616.992686	2580.533886
617.340864	2580.516242
617.688990	2580.823753
618.037063	2581.068249
618.385082	2581.791654
618.733048	2582.885585
619.080961	2584.251737
619.428821	2580.717888
619.776628	2583.906418
620.124382	2581.325347
620.472083	2578.540110
620.819731	2582.842735
621.167326	2580.198650
621.514868	2583.316603
621.862357	2578.411561
622.209793	2579.215625
622.557176	2576.715212
622.904506	2580.296952
623.251783	2572.397464
623.599007	2577.506673
623.946179	2573.408215
624.293297	2573.561971
624.640363	2577.463824
624.987376	2576.024574
625.334336	2576.818556
625.681243	2575.903587
626.028097	2575.021385
626.374899	2576.271591
626.721647	2573.652711
627.068343	2575.419636
627.414987	2575.225551
627.761577	2574.867629
628.108115	2573.458627
628.454600	2574.744121
628.801032	2575.018864
629.147412	2573.526682
629.493739	2576.064903
629.840014	2574.960891
630.186236	2575.316292
630.532405	2573.372927
630.878521	2575.013823
631.224585	2574.003072
631.570597	2572.639439
631.916556	2573.892166
632.262462	2571.968966
632.608316	2574.245047
632.954117	2570.938050
633.299866	2574.560119
633.645562	2572.974676
633.991206	2571.726991
634.336797	2570.113821
634.682336	2570.141548
635.027823	2569.287072
635.373257	2573.251940
635.718639	2567.595765
636.063968	2569.342525
636.409245	2569.521486
636.754470	2568.732545
637.099642	2566.975703
637.444762	2568.944274
637.789829	2567.489901
638.134845	2568.054510
638.479808	2565.828841
638.824719	2567.648697
639.169577	2568.162895
639.514383	2565.773388
639.859137	2570.169274
640.203839	2567.870508
640.548489	2567.671382
640.893086	2562.922615
641.237632	2562.473953
641.582125	2562.894889
641.926566	2562.957903
642.270955	2567.268090
642.615292	2565.685168
642.959576	2569.090467
643.303809	2566.476629
643.647990	2568.467885
643.992118	2567.086608
644.336195	2564.886145
644.680219	2565.450754
645.024192	2566.433779
645.368112	2565.344890
645.711981	2565.438151
646.055797	2567.988975
646.399562	2566.217009
646.743274	2567.744479
647.086935	2570.801939
647.430544	2570.000395
647.774101	2565.549057
648.117606	2568.334294
648.461059	2570.320509
648.804460	2570.607854
649.147810	2565.526371
649.491108	2566.098542
649.834354	2566.486711
650.177548	2564.855898
650.520690	2564.412276
650.863781	2562.201730
651.206820	2569.430745
651.549807	2563.005794
651.892742	2563.898079
652.235626	2562.143757
652.578458	2565.082750
652.921238	2563.714077
653.263967	2562.652914
653.606644	2561.760629
653.949269	2565.105435
654.291843	2559.749209
654.634365	2563.240208
654.976836	2562.138716
655.319255	2562.783984
655.661622	2562.058057
656.003938	2563.424210
656.346203	2560.888510
656.688416	2563.724159
657.030577	2560.686864
657.372687	2564.659293
657.714746	2561.788356
658.056753	2560.036555
658.398708	2558.456153
658.740612	2561.498489
659.082465	2557.962120
659.424266	2560.313818
659.766016	2558.534291
660.107715	2564.268603
660.449362	2562.491597
660.790958	2561.400187
661.132503	2565.317163
661.473996	2562.468912
661.815438	2562.171483
662.156829	2565.077709
662.498168	2562.587379
662.839456	2561.339693
663.180693	2562.471432
663.521879	2563.154508
663.863013	2561.248952
664.204097	2563.454457
664.545129	2560.749878
664.886110	2562.599982
665.227040	2561.385063
665.567918	2564.923953
665.908746	2561.528736
666.249522	2561.926987
666.590248	2560.853222
666.930922	2562.123592
667.271545	2561.914385
667.612118	2562.378171
667.952639	2563.441854
668.293109	2562.889848
668.633528	2564.162739
668.973896	2558.594785
669.314213	2564.954200
669.654480	2563.393963
669.994695	2563.232646
670.334859	2562.594940
670.674973	2560.840619
671.015035	2563.227605
671.355047	2562.231977
671.695008	2562.826833
672.034918	2558.839281
672.374777	2561.783315
672.714585	2562.799107
673.054342	2559.983623
673.394049	2563.272976
673.733705	2564.573593
674.073310	2565.259190
674.412864	2562.544529
674.752368	2563.464539
675.091820	2563.348593
675.431223	2561.992522
675.770574	2560.444888
676.109875	2556.485062
676.449125	2557.415155
676.788324	2557.707542
677.127473	2557.803324
677.466571	2557.115206
677.805619	2560.659137
678.144616	2557.969682
678.483562	2556.989177
678.822458	2560.981771
679.161303	2561.148129
679.500098	2559.527398
679.838842	2558.587223
680.177535	2562.345403
680.516179	2558.289795
680.854771	2559.386246
681.193314	2563.880435
681.531805	2560.555794
681.870247	2560.510423
682.208638	2562.297512
682.546978	2561.395146
682.885268	2566.842113
683.223508	2561.122923
683.561697	2560.797769
683.899836	2561.032183
684.237925	2560.885989
684.575963	2560.807851
684.913951	2560.666699
685.251889	2561.196020
685.589776	2560.885989
685.927614	2556.878272
686.265401	2559.126627
686.603137	2561.155691
686.940824	2559.487069
687.278460	2561.611915
687.616046	2561.644683
687.953582	2560.898592
688.291068	2561.498489
688.628504	2562.506720
688.965889	2561.831206
689.303224	2559.696277
689.640510	2563.547718
689.977745	2559.290464
690.314930	2559.212326
690.652065	2562.085784
690.989150	2560.611246
691.326185	2560.071843
691.663170	2555.542366
692.000105	2560.049158
692.336990	2556.754764
692.673825	2557.163097
693.010610	2557.515978
693.347345	2551.416182
693.684030	2551.869886
694.020665	2551.527087
694.357251	2549.535831
694.693786	2554.892057
695.030272	2554.367777
695.366707	2553.046995
695.703093	2554.254351
696.039429	2556.742161
696.375716	2552.689073
696.711952	2555.247459
697.048139	2555.086142
697.384276	2554.186296
697.720363	2554.277037
698.056400	2553.808209
698.392388	2555.209650
698.728326	2554.844166
699.064214	2551.131357
699.400053	2554.481203
699.735842	2549.835780
700.071581	2553.331820
700.407270	2553.256203
700.742910	2549.936603
701.078501	2552.250493
701.414042	2551.953065
701.749533	2549.447611
702.084974	2551.285112
702.420366	2551.930379
702.755709	2553.074721
703.091002	2550.125646
703.426246	2548.066335
703.761440	2548.368804
704.096584	2551.827036
704.431679	2551.088507
704.766725	2550.904505
705.101721	2550.271840
705.436668	2552.116902
705.771565	2551.645554
706.106413	2550.523897
706.441212	2550.773435
706.775961	2550.912066
707.110661	2549.979453
707.445311	2548.270502
707.779913	2552.104299
708.114465	2553.581357
708.448967	2550.402910
708.783421	2550.231511
709.117825	2551.716130
709.452180	2554.294681
709.786485	2549.228321
710.120742	2551.935421
710.454949	2552.830225
710.789107	2551.582540
711.123216	2549.631613
711.457275	2551.945503
711.791286	2552.303425
712.125247	2553.465411
712.459159	2556.568241
712.793023	2555.295350
713.126837	2552.457180
713.460602	2552.900802
713.794318	2552.605894
714.127985	2554.153528
714.461602	2552.502550
714.795171	2553.866182
715.128691	2550.508774
715.462162	2553.644372
715.795584	2549.533311
716.128957	2554.037582
716.462281	2550.218908
716.795556	2549.760163
717.128782	2551.227138
717.461960	2552.817622
717.795088	2551.653116
718.128167	2548.318393
718.461198	2549.951727
718.794180	2549.994576
719.127113	2548.141952
719.459997	2551.481717
719.792833	2550.849052
720.125619	2548.835111
720.458357	2548.051212
720.791046	2546.864020
721.123686	2547.393341
721.456278	2547.947868
721.788821	2546.448125
722.121315	2548.212528
722.453761	2546.639688
722.786158	2546.838814
723.118506	2548.900646
723.450805	2547.315203
723.783056	2547.322765
724.115259	2548.419216
724.447412	2546.465769
724.779518	2548.457024
725.111574	2546.939637
725.443582	2550.516336
725.775542	2547.594987
726.107453	2549.351829
726.439315	2545.777651
726.771129	2552.268137
727.102895	2546.052394
727.434612	2549.051881
727.766281	2548.961140
728.097901	2546.959802
728.429473	2543.221786
728.760996	2550.039947
729.092471	2544.686241
729.423897	2548.809905
729.755276	2548.688917
730.086606	2547.942827
730.417887	2546.405275
730.749120	2548.862837
731.080305	2551.292673
731.411442	2550.629762
731.742530	2551.920297
732.073570	2551.685883
732.404562	2553.059598
732.735506	2550.886861
733.066401	2548.010882
733.397249	2551.789227
733.728048	2550.476007
734.058798	2547.849565
734.389501	2549.475337
734.720156	2544.741694
735.050762	2547.809236
735.381320	2548.535162
735.711831	2548.305790
736.042293	2546.095244
736.372707	2546.347302
736.703073	2546.501057
737.033391	2546.201108
737.363661	2545.873433
737.693883	2546.680018
738.024056	2548.240255
738.354182	2548.325954
738.684260	2547.940306
739.014290	2547.146324
739.344272	2547.224462
739.674207	2548.721685
740.004093	2550.899463
740.333931	2548.908208
740.663722	2547.496685
740.993464	2548.840152
741.323159	2546.044832
741.652806	2546.196067
741.982405	2549.787889
742.311956	2547.254709
742.641460	2547.584905
742.970915	2549.094730
743.300323	2546.317055
743.629683	2547.315203
743.958996	2544.809750
744.288260	2546.538865
744.617477	2544.638350
744.946647	2540.456713
745.275768	2543.178936
745.604842	2540.960829
745.933869	2541.674152
746.262847	2539.521579
746.591778	2543.849410
746.920662	2542.223638
747.249498	2544.988711
747.578286	2543.473844
747.907027	2547.582384
748.235720	2543.778834
748.564365	2542.742877
748.892963	2545.702034
749.221514	2545.197918
749.550017	2542.304296
749.878473	2544.434184
750.206881	2546.672456
750.535242	2544.426622
750.863555	2545.719678
751.191821	2541.805222
751.520039	2545.021478
751.848210	2545.656663
752.176334	2541.177598
752.504411	2543.688093
752.832440	2545.185316
753.160421	2542.095088
753.488356	2544.136756
753.816243	2545.061807
754.144082	2544.446787
754.471875	2546.622044
754.799620	2540.159285
755.127318	2545.938968
755.454969	2543.922507
755.782572	2545.041643
756.110129	2541.694317
756.437638	2545.447456
756.765100	2543.005017
757.092515	2543.577188
757.419882	2544.535007
757.747203	2546.433001
758.074477	2541.729605
758.401703	2541.026364
758.728882	2542.808412
759.056014	2542.720191
759.383099	2545.749925
759.710138	2544.222455
760.037129	2541.112063
760.364073	2545.611293
760.690970	2542.591642
761.017820	2546.259081
761.344623	2543.814122
761.671379	2547.698331
761.998088	2543.678011
762.324751	2545.606252
762.651366	2547.136242
762.977935	2554.697973
763.304456	2556.908519
763.630931	2558.619991
763.957359	2558.869528
764.283740	2556.154866
764.610074	2553.515822
764.936362	2547.703372
765.262602	2546.627086
765.588796	2546.942158
765.914943	2546.695141
766.241044	2541.565767
766.567097	2541.527958
766.893104	2546.183464
767.219064	2543.937630
767.544978	2542.800850
767.870845	2541.480067
768.196665	2540.413863
768.522438	2539.393030
768.848165	2542.279090
769.173846	2540.136600
769.499479	2541.873278
769.825066	2540.718853
770.150607	2540.212217
770.476101	2539.350180
770.801548	2542.758000
771.126949	2541.429656
771.452303	2541.001158
771.777611	2540.774306
772.102872	2538.770447
772.428087	2539.763555
772.753256	2541.895963
773.078378	2537.696682
773.403453	2540.610468
773.728482	2540.403781
774.053465	2539.221631
774.378401	2539.120807
774.703291	2539.524100
775.028135	2539.148534
775.352932	2537.731970
775.677683	2540.837320
776.002388	2539.700540
776.327046	2537.600900
776.651658	2539.763555
776.976224	2540.890252
777.300743	2539.274563
777.625216	2539.181301
777.949643	2539.882022
778.274024	2539.256919
778.598359	2534.951773
778.922647	2534.835827
779.246889	2538.904038
779.571086	2533.832637
779.895236	2537.769778
780.219339	2538.987217
780.543397	2539.319933
780.867409	2537.394212
781.191374	2537.850437
781.515294	2538.238606
781.839167	2539.070396
782.162995	2536.055786
782.486776	2540.043339
782.810511	2538.218441
783.134201	2539.261960
783.457844	2537.237937
783.781441	2539.793802
784.104993	2536.980838
784.428498	2537.948739
784.751958	2538.460416
785.075372	2539.607279
785.398739	2539.922351
785.722061	2542.858823
786.045337	2535.287010
786.368568	2540.161806
786.691752	2539.733308
787.014891	2537.852957
787.337983	2537.210210
787.661030	2540.003009
787.984031	2540.345808
788.306987	2539.171219
788.629897	2540.255067
788.952760	2539.866898
789.275579	2539.743390
789.598351	2538.437731
789.921078	2539.425797
790.243759	2537.051414
790.566395	2536.837165
790.888984	2538.399923
791.211529	2539.277083
791.534027	2539.153575
791.856480	2536.781712
792.178888	2536.592669
792.501249	2535.239119
792.823566	2538.435211
793.145836	2536.572504
793.468062	2539.902186
793.790241	2540.192053
794.112375	2538.316743
794.434464	2536.055786
794.756507	2539.539223
795.078505	2538.727598
795.400457	2535.433203
795.722364	2535.705426
796.044226	2536.864891
796.366042	2533.807431
796.687812	2536.645601
797.009538	2539.287166
797.331218	2540.373534
797.652852	2538.067206
797.974442	2541.293545
798.295986	2540.930582
798.617484	2536.569984
798.938938	2538.841023
799.260346	2538.016795
799.581709	2538.016795
799.903026	2538.372196
800.224299	2537.888245
800.545526	2536.496887
800.866708	2539.342618
801.187845	2539.178781
801.508936	2537.701723
801.829983	2537.033770
802.150984	2535.909593
802.471940	2539.140972
802.792851	2537.305992
803.113717	2537.003523
803.434538	2536.963194
803.755314	2539.670293
804.076045	2537.255581
804.396731	2537.079140
804.717372	2536.113759
805.037967	2537.318595
805.358518	2535.183666
805.679024	2537.570653
805.999485	2534.810621
806.319901	2537.832793
806.640272	2536.406146
806.960598	2538.019315
807.280879	2537.270704
807.601115	2539.599717
807.921306	2535.813811
808.241453	2535.680220
808.561554	2537.258101
808.881611	2533.749458
809.201623	2536.020498
809.521590	2538.299099
809.841513	2538.220962
810.161390	2535.559232
810.481223	2535.292051
810.801011	2532.857174
811.120755	2537.006043
811.440453	2537.298430
811.760107	2536.630478
812.079716	2536.201979
812.399281	2532.065713
812.718801	2532.085877
813.038276	2531.503624
813.357707	2534.588810
813.677093	2536.940508
813.996434	2537.462268
814.315731	2537.200128
814.634983	2539.619882
814.954191	2536.988399
815.273354	2535.450848
815.592473	2536.625436
815.911547	2535.027391
816.230577	2535.798687
816.549562	2536.368338
816.868502	2538.609130
817.187399	2539.075437
817.506250	2537.537885
817.825058	2537.177443
818.143821	2539.345139
818.462539	2538.251208
818.781213	2538.646939
819.099843	2539.514017
819.418429	2542.868905
819.736970	2540.355890
820.055466	2545.893598
820.373919	2545.639019
820.692327	2546.004503
821.010691	2552.482386
821.329011	2565.246587
821.647286	2588.357757
821.965517	2609.563371
822.283704	2621.843622
822.601847	2627.782101
822.919945	2617.886316
823.237999	2604.134048
823.556010	2591.843715
823.873976	2579.051787
824.191897	2567.888152
824.509775	2563.572924
824.827609	2557.034548
825.145398	2557.773077
825.463144	2556.230484
825.780845	2555.948179
826.098502	2557.823488
826.416116	2562.761298
826.733685	2573.226734
827.051210	2573.486353
827.368692	2570.628019
827.686129	2565.748182
828.003522	2557.246276
828.320872	2546.007024
828.638177	2545.538196
828.955439	2542.349667
829.272656	2539.939995
829.589830	2536.968235
829.906960	2541.109543
830.224046	2538.467978
830.541088	2540.066024
830.858086	2540.628113
831.175041	2537.414377
831.491952	2539.582073
831.808819	2540.713812
832.125642	2542.175747
832.442421	2538.934285
832.759157	2542.332022
833.075849	2548.641027
833.392497	2550.070194
833.709101	2555.197047
834.025662	2555.265103
834.342179	2552.757129
834.658653	2547.957950
834.975083	2550.080276
835.291469	2548.333516
835.607811	2542.092568
835.924110	2539.768596
836.240366	2538.152906
836.556578	2535.781043
836.872746	2536.753986
837.188871	2538.604089
837.504952	2537.517721
837.820990	2535.899510
838.136984	2535.539068
838.452935	2536.038142
838.768842	2533.966228
839.084706	2536.121321
839.400526	2536.403626
839.716303	2537.762217
840.032037	2541.964018
840.347727	2544.769420
840.663373	2539.864378
840.978977	2536.658204
841.294537	2538.326826
841.610054	2538.664583
841.925527	2536.963194
842.240957	2533.585621
842.556344	2531.034797
842.871687	2536.937988
843.186987	2533.918337
843.502244	2530.719725
843.817458	2531.370033
844.132629	2534.119983
844.447756	2532.920188
844.762840	2532.743748
845.077881	2529.242667
845.392879	2529.875331
845.707833	2530.782739
846.022745	2528.786442
846.337613	2529.260311
846.652438	2533.250384
846.967221	2531.012112
847.281960	2529.487163
847.596656	2533.729293
847.911309	2530.777698
848.225919	2533.562935
848.540485	2532.353058
848.855009	2534.190559
849.169490	2534.639222
849.483928	2528.715866
849.798323	2531.828778
850.112675	2533.028573
850.426984	2535.375230
850.741251	2530.021525
851.055474	2530.286185
851.369654	2533.409180
851.683792	2533.484797
851.997887	2531.997657
852.311938	2532.968079
852.625947	2532.060672
852.939914	2531.554036
853.253837	2535.609644
853.567718	2532.279962
853.881555	2528.978006
854.195350	2530.749972
854.509103	2533.164684
854.822812	2531.155784
855.136479	2534.820703
855.450103	2530.855836
855.763685	2532.307688
856.077224	2528.705784
856.390720	2531.972451
856.704173	2531.649817
857.017584	2533.247863
857.330953	2530.830630
857.644278	2532.431196
857.957561	2534.354397
858.270802	2532.912627
858.584000	2531.218799
858.897155	2534.583769
859.210268	2531.478418
859.523339	2534.114942
859.836367	2531.415404
860.149352	2533.547812
860.462295	2532.894983
860.775195	2529.797193
861.088054	2529.489683
861.400869	2528.751154
861.713642	2528.516740
862.026373	2531.392719
862.339062	2532.610157
862.651708	2532.925229
862.964312	2530.381967
863.276873	2533.439427
863.589392	2534.538399
863.901869	2531.455733
864.214303	2532.083357
864.526696	2535.256763
864.839045	2532.622760
865.151353	2531.642256
865.463619	2534.412370
865.775842	2531.236443
866.088023	2531.478418
866.400162	2534.659386
866.712258	2531.740558
867.024313	2532.158974
867.336325	2536.466640
867.648296	2532.771474
867.960224	2531.879190
868.272110	2530.815507
868.583954	2533.709129
868.895755	2530.329035
869.207515	2532.496731
869.519233	2532.285003
869.830909	2533.308357
870.142542	2535.622247
870.454134	2533.865405
870.765684	2534.475384
871.077191	2534.203162
871.388657	2532.733666
871.700081	2535.344983
872.011463	2534.684592
872.322803	2534.548481
872.634101	2533.265507
872.945357	2535.203831
873.256571	2534.404808
873.567744	2533.683923
873.878874	2536.527134
874.189963	2536.322967
874.501010	2535.647453
874.812015	2534.240971
875.122979	2536.325488
875.433900	2533.789787
875.744780	2535.627288
876.055618	2532.451361
876.366415	2531.669982
876.677169	2535.942360
876.987882	2532.196783
877.298554	2530.984385
877.609183	2531.725435
877.919771	2531.690147
878.230317	2532.295085
878.540822	2536.136444
878.851285	2535.677699
879.161707	2537.580735
879.472087	2540.945705
879.782425	2542.112732
880.092722	2545.800336
880.402977	2550.748229
880.713191	2563.036041
881.023363	2575.437280
881.333494	2587.561255
881.643583	2585.791810
881.953631	2583.447673
882.263637	2582.590677
882.573602	2581.272415
882.883526	2568.954356
883.193408	2566.595096
883.503248	2560.303736
883.813048	2553.483055
884.122806	2554.382901
884.432522	2549.626572
884.742197	2544.202291
885.051831	2545.661705
885.361424	2542.258926
885.670975	2541.926210
885.980485	2542.770603
886.289954	2540.484440
886.599382	2538.924203
886.908768	2539.287166
887.218113	2537.865560
887.527417	2536.413708
887.836680	2537.484953
888.145901	2536.524613
888.455082	2534.626619
888.764221	2535.781043
889.073319	2534.818183
889.382376	2536.030580
889.691392	2534.298944
890.000366	2534.712318
890.309300	2535.551671
890.618193	2535.886907
890.927044	2532.411032
891.235855	2535.372710
891.544625	2537.111908
891.853353	2533.820034
892.162041	2532.340456
892.470687	2536.746424
892.779293	2536.716177
893.087858	2534.324150
893.396381	2535.919675
893.704864	2539.521579
894.013306	2539.403112
894.321707	2545.555840
894.630068	2550.055070
894.938387	2553.843497
895.246665	2549.606408
895.554903	2548.842673
895.863100	2547.307641
896.171256	2544.429143
896.479371	2544.598021
896.787446	2539.521579
897.095480	2540.600386
897.403473	2537.737011
897.711425	2534.881197
898.019336	2538.364634
898.327207	2535.710467
898.635038	2534.825744
898.942827	2533.368851
899.250576	2531.049920
899.558284	2535.753317
899.865952	2536.953111
900.173579	2533.124355
900.481165	2533.706608
900.788711	2533.585621
901.096216	2532.567307
901.403681	2534.246012
901.711105	2534.760209
902.018489	2533.015970
902.325832	2536.454037
902.633135	2533.041176
902.940397	2535.589479
903.247619	2535.443286
903.554800	2540.527289
903.861941	2546.007024
904.169041	2553.692263
904.476101	2557.994888
904.783121	2559.134188
905.090100	2552.189999
905.397039	2550.808723
905.703938	2544.865202
906.010796	2543.723381
906.317614	2540.938143
906.624391	2539.607279
906.931129	2534.069571
907.237826	2535.856660
907.544483	2533.784746
907.851099	2533.706608
908.157675	2533.547812
908.464211	2533.290713
908.770707	2529.812317
909.077163	2528.209230
909.383578	2529.600588
909.689954	2528.221833
909.996289	2527.178314
910.302584	2534.293903
910.608839	2529.683768
910.915054	2531.077647
911.221229	2531.233922
911.527363	2534.551002
911.833458	2530.679395
912.139513	2532.784077
912.445527	2533.762061
912.751502	2532.063192
913.057436	2531.692667
913.363331	2533.063861
913.669186	2531.702750
913.975000	2534.157792
914.280775	2534.863553
914.586510	2537.595858
914.892205	2541.795140
915.197859	2542.768082
915.503475	2546.566592
915.809050	2549.659340
916.114585	2555.340720
916.420081	2554.672767
916.725536	2556.064126
917.030952	2551.433826
917.336328	2549.160265
917.641665	2549.253527
917.946961	2545.444935
918.252218	2541.076775
918.557435	2540.837320
918.862612	2536.701054
919.167750	2538.657021
919.472848	2535.264325
919.777906	2535.521424
920.082925	2535.667617
920.387904	2532.824406
920.692843	2530.422297
920.997743	2533.749458
921.302603	2534.596372
921.607423	2535.443286
921.912204	2534.193080
922.216946	2531.271731
922.521647	2534.137627
922.826310	2530.870959
923.130932	2533.759540
923.435516	2533.862884
923.740059	2532.524458
924.044564	2530.313912
924.349028	2531.914478
924.653454	2525.713859
924.957840	2528.151257
925.262186	2526.724610
925.566493	2530.112266
925.870761	2525.381143
926.174989	2527.783253
926.479178	2530.518078
926.783328	2530.074457
927.087438	2529.096473
927.391509	2529.638397
927.695541	2529.446833
927.999533	2528.534384
928.303486	2531.470857
928.607400	2529.953469
928.911275	2528.771319
929.215110	2528.587317
929.518906	2528.637728
929.822663	2529.421627
930.126381	2529.441792
930.430060	2529.474560
930.733699	2530.117307
931.037299	2531.191072
931.340861	2528.582275
931.644383	2529.761905
931.947866	2529.804755
932.251309	2530.873480
932.554714	2529.719056
932.858080	2531.662420
933.161407	2529.214940
933.464694	2527.947090
933.767943	2529.124199
934.071153	2525.660927
934.374323	2528.337779
934.677455	2532.012781
934.980548	2527.803417
935.283602	2529.255269
935.586617	2530.684437
935.889593	2529.696370
936.192530	2527.841226
936.495428	2528.163860
936.798287	2529.472039
937.101108	2528.889786
937.403890	2528.652852
937.706632	2531.692667
938.009336	2529.247708
938.312002	2531.291896
938.614628	2530.649148
938.917216	2529.603109
939.219765	2530.565969
939.522275	2530.565969
939.824747	2531.894313
940.127179	2527.858870
940.429573	2527.395084
940.731929	2528.935156
941.034246	2522.933663
941.336524	2528.335259
941.638763	2529.046062
941.940964	2529.933305
942.243126	2530.863398
942.545250	2532.053110
942.847335	2527.899199
943.149381	2529.041020
943.451389	2528.489014
943.753359	2528.627646
944.055290	2526.540608
944.357182	2531.468336
944.659036	2527.402645
944.960851	2526.800228
945.262628	2526.631349
945.564367	2527.924405
945.866067	2525.824764
946.167729	2529.910619
946.469352	2526.296112
946.770937	2529.983716
947.072484	2526.071781
947.373992	2529.318284
947.675462	2527.150588
947.976893	2528.146216
948.278286	2529.746782
948.579641	2531.478418
948.880958	2529.230064
949.182236	2527.243849
949.483476	2529.855167
949.784678	2525.086235
950.085841	2527.926925
950.386967	2527.868952
950.688054	2527.488345
950.989103	2528.562111
951.290114	2527.629497
951.591087	2528.867101
951.892021	2530.036648
952.192917	2527.747964
952.493776	2527.203520
952.794596	2530.354241
953.095378	2527.538757
953.396122	2529.666123
953.696828	2529.845084
953.997496	2528.206709
954.298126	2529.207378
954.598718	2529.109076
954.899272	2529.605630
955.199788	2529.174611
955.500266	2532.862215
955.800706	2524.531708
956.101108	2522.991636
956.401472	2524.554393
956.701798	2524.078004
957.002087	2526.298633
957.302337	2525.948273
957.602550	2526.379291
957.902724	2527.253931
958.202861	2528.398273
958.502960	2525.423993
958.803022	2528.947759
959.103045	2525.628159
959.403031	2528.657893
959.702979	2528.141174
960.002889	2526.739734
960.302762	2526.948942
960.602596	2530.318953
960.902393	2526.147398
961.202153	2527.836185
961.501875	2525.635721
961.801559	2528.680578
962.101205	2525.005577
962.400814	2527.526154
962.700385	2525.151770
962.999918	2527.538757
963.299414	2526.147398
963.598873	2529.293078
963.898293	2527.833664
964.197677	2531.054961
964.497022	2528.801566
964.796331	2526.964065
965.095601	2526.502799
965.394835	2528.884745
965.694030	2525.267717
965.993189	2527.369878
966.292309	2527.382481
966.591393	2527.067409
966.890439	2527.453057
967.189447	2528.007584
967.488419	2526.477594
967.787353	2525.855011
968.086249	2526.858201
968.385108	2525.877696
968.683930	2526.089425
968.982714	2526.389373
969.281462	2525.174455
969.580172	2526.280989
969.878844	2526.144878
970.177480	2529.698891
970.476078	2526.870804
970.774639	2525.207223
971.073162	2531.014632
971.371649	2524.551873
971.670098	2522.941224
971.968510	2523.800741
972.266885	2521.295288
972.565223	2526.354085
972.863524	2527.548839
973.161788	2525.008097
973.460014	2523.785617
973.758204	2525.804600
974.056356	2527.856349
974.354471	2526.001205
974.652550	2524.226718
974.950591	2525.043385
975.248595	2525.439116
975.546563	2528.657893
975.844493	2525.771832
976.142386	2529.091432
976.440243	2523.750329
976.738062	2527.712676
977.035845	2524.841739
977.333590	2528.214271
977.631299	2527.327028
977.928971	2525.401307
978.226606	2527.178314
978.524204	2529.676206
978.821765	2524.604805
979.119290	2524.907274
979.416777	2527.763088
979.714228	2526.618746
980.011642	2526.739734
980.309020	2527.180835
980.606360	2525.754188
980.903664	2526.134795
981.200931	2526.359127
981.498162	2525.754188
981.795356	2526.825433
982.092513	2529.151926
982.389633	2527.097656
982.686717	2527.450536
982.983764	2525.514733
983.280775	2530.593696
983.577749	2526.031452
983.874686	2528.292409
984.171587	2528.746113
984.468451	2526.989271
984.765279	2526.684281
985.062070	2525.638242
985.358824	2527.649662
985.655543	2525.797038
985.952224	2524.970289
986.248869	2524.839219
986.545478	2519.984588
986.842050	2525.348375
987.138586	2525.837367
987.435086	2524.367871
987.731549	2519.130112
988.027975	2524.730834
988.324366	2523.112623
988.620719	2525.708818
988.917037	2528.625125
989.213318	2525.849970
989.509563	2526.089425
989.805772	2525.635721
990.101944	2525.308046
990.398080	2526.258303
990.694180	2524.743437
990.990244	2527.110258
991.286271	2525.093797
991.582262	2526.875845
991.878217	2525.552542
992.174136	2524.992974
992.470019	2525.091276
992.765865	2523.967099
993.061676	2526.974147
993.357450	2527.311905
993.653188	2524.967768
993.948890	2524.108251
994.244556	2522.389218
994.540186	2526.528005
994.835780	2526.429703
995.131337	2528.002543
995.426859	2526.094466
995.722345	2524.352747
996.017795	2525.812161
996.313208	2527.175793
996.608586	2526.437264
996.903928	2526.467511
997.199234	2525.537418
997.494504	2525.550021
997.789738	2526.464991
998.084936	2527.286699
998.380099	2524.700587
998.675225	2523.163035
998.970316	2526.122192
999.265371	2527.964734
999.560390	2526.792666
999.855373	2523.094979
1000.150320	2526.896009
1000.445232	2527.385001
1000.740108	2525.499610
1001.034948	2524.390556
1001.329752	2522.600946
1001.624521	2527.783253
1001.919254	2517.012827
1002.213951	2521.721265
1002.508613	2518.194978
1002.803239	2524.098169
1003.097829	2519.475431
1003.392384	2525.204702
1003.686903	2522.336286
1003.981386	2526.545649
1004.275834	2525.560104
1004.570246	2524.932480
1004.864623	2524.435926
1005.158964	2525.673530
1005.453270	2524.619928
1005.747540	2523.740247
1006.041775	2526.555732
1006.335974	2526.457429
1006.630138	2523.268899
1006.924266	2526.008766
1007.218359	2524.478776
1007.512416	2524.488858
1007.806438	2524.614887
1008.100425	2527.654703
1008.394376	2525.202182
1008.688292	2528.151257
1008.982172	2524.962727
1009.276017	2526.860721
1009.569827	2523.720082
1009.863602	2526.598581
1010.157341	2523.825947
1010.451045	2524.244363
1010.744714	2526.921215
1011.038347	2526.344003
1011.331945	2526.583458
1011.625508	2526.543129
1011.919036	2524.665299
1012.212528	2523.677233
1012.505986	2526.550690
1012.799408	2527.188396
1013.092795	2521.784279
1013.386147	2527.117820
1013.679464	2521.834691
1013.972745	2525.849970
1014.265992	2524.894671
1014.559204	2524.080525
1014.852380	2524.541791
1015.145521	2525.645803
1015.438628	2524.272089
1015.731699	2523.127747
1016.024736	2526.006246
1016.317737	2525.933149
1016.610703	2526.369209
1016.903635	2523.757891
1017.196531	2522.941224
1017.489393	2521.718744
1017.782219	2521.040709
1018.075011	2524.816533
1018.367768	2525.003056
1018.660490	2522.621111
1018.953177	2522.621111
1019.245829	2522.621111
