Dividing Wavelength (nm)	Counts (n)	Blue Motor Position (mm): 0.000000	Red Motor Position (mm): 26.800000	
326.493990	2128.604526
326.888308	2128.604526
327.282561	2128.604526
327.676750	2095.005236
328.070874	2093.157653
328.464933	2096.938518
328.858929	2102.876998
329.252859	2113.450818
329.646726	2126.593106
330.040528	2141.338481
330.434265	2156.174597
330.827938	2170.388130
331.221547	2188.042251
331.615091	2207.964891
332.008571	2228.273179
332.401986	2250.267733
332.795338	2266.117121
333.188625	2286.490944
333.581847	2301.886628
333.975006	2323.329176
334.368100	2343.052690
334.761129	2361.369723
335.154095	2375.880684
335.546996	2393.786863
335.939833	2412.403844
336.332606	2426.498910
336.725315	2438.864860
337.117960	2444.697475
337.510540	2457.207099
337.903056	2467.123048
338.295508	2474.372228
338.687896	2483.945379
339.080220	2491.333190
339.472480	2497.954745
339.864676	2501.700323
340.256807	2508.354646
340.648875	2509.221724
341.040879	2513.834380
341.432818	2513.562157
341.824694	2515.583660
342.216506	2518.835204
342.608253	2517.385873
342.999937	2515.213135
343.391557	2516.667508
343.783113	2515.003928
344.174605	2512.768176
344.566033	2512.256499
344.957397	2509.647702
345.348697	2510.560150
345.739934	2508.281549
346.131106	2503.484891
346.522215	2503.721825
346.913260	2503.121928
347.304241	2501.647390
347.695159	2502.093533
348.086012	2497.206134
348.476802	2496.737307
348.867528	2495.408963
349.258191	2495.285454
349.648789	2490.082983
350.039324	2489.518374
350.429796	2490.304794
350.820203	2485.677015
351.210548	2488.280771
351.600828	2484.444453
351.991045	2484.094093
352.381198	2486.521408
352.771288	2484.325986
353.161314	2483.680718
353.551276	2484.751963
353.941175	2486.241624
354.331010	2485.518219
354.720782	2480.840028
355.110490	2483.955461
355.500135	2485.311531
355.889717	2485.190544
356.279235	2485.450163
356.668689	2485.971922
357.058080	2484.351192
357.447408	2485.349340
357.836672	2482.470841
358.225873	2484.935965
358.615010	2483.859679
359.004084	2487.940493
359.393095	2488.545432
359.782043	2492.535505
360.170927	2489.893940
360.559748	2491.645741
360.948505	2488.137098
361.337199	2493.019456
361.725830	2490.667757
362.114398	2492.774960
362.502903	2493.495845
362.891344	2497.007008
363.279722	2493.027017
363.668037	2496.195383
364.056289	2496.187821
364.444478	2496.752430
364.832603	2497.339724
365.220665	2498.199241
365.608665	2497.647235
365.996601	2502.413646
366.384474	2500.117400
366.772284	2500.866012
367.160031	2501.332318
367.547715	2503.714263
367.935336	2506.325581
368.322893	2509.945130
368.710388	2514.056191
369.097820	2519.326717
369.485189	2518.507529
369.872495	2530.376926
370.259738	2536.678368
370.646918	2544.497198
371.034035	2549.707231
371.421090	2558.196534
371.808081	2567.308419
372.195010	2580.382652
372.581875	2593.328335
372.968678	2606.357197
373.355418	2617.619135
373.742096	2632.551032
374.128710	2649.774134
374.515262	2663.702843
374.901751	2677.853361
375.288177	2691.504806
375.674540	2715.288970
376.060841	2733.190107
376.447079	2753.664753
376.833254	2776.488577
377.219367	2785.613066
377.605417	2823.353664
377.991404	2834.265242
378.377329	2855.624611
378.763191	2874.355018
379.148991	2908.541603
379.534727	2933.959100
379.920402	2963.732155
380.306013	2974.190028
380.691563	3025.125847
381.077049	3045.013199
381.462474	3062.868966
381.847835	3103.901437
382.233134	3125.149901
382.618371	3123.491361
383.003545	3193.039120
383.388657	3200.782332
383.773706	3233.910275
384.158693	3249.079107
384.543618	3275.903086
384.928480	3312.338026
385.313280	3357.584902
385.698017	3356.803523
386.082692	3412.220927
386.467305	3413.214035
386.851856	3446.203345
387.236344	3465.339565
387.620770	3499.064885
388.005133	3524.971374
388.389435	3551.571022
388.773674	3565.449319
389.157851	3603.338631
389.541965	3619.359418
389.926018	3590.632403
390.310008	3656.129594
390.693936	3677.005012
391.077802	3718.886919
391.461606	3705.711863
391.845348	3771.146040
392.229027	3770.110083
392.612645	3781.613996
392.996200	3860.734906
393.379694	3897.948703
393.763125	3960.582519
394.146494	3930.275102
394.529801	3992.908918
394.913047	4045.319274
395.296230	4008.866691
395.679351	4063.391811
396.062410	4090.498095
396.445408	4065.821647
396.828343	4096.166872
397.211217	4124.946820
397.594028	4044.127041
397.976778	4108.999130
398.359466	4136.919560
398.742092	4168.252852
399.124656	4089.610852
399.507158	4170.523892
399.889598	4191.585833
400.271977	4255.169906
400.654294	4227.627562
401.036549	4236.109303
401.418742	4201.496741
401.800874	4309.571518
402.182944	4325.428467
402.564952	4393.126122
402.946898	4378.292527
403.328783	4373.957135
403.710606	4288.716264
404.092367	4478.911437
404.474067	4444.871046
404.855705	4452.528558
405.237282	4381.738156
405.618797	4492.618334
406.000250	4522.129249
406.381642	4608.292651
406.762972	4567.018203
407.144240	4580.505811
407.525447	4575.517589
407.906593	4639.262979
408.287677	4677.996685
408.668700	4608.549749
409.049661	4657.932892
409.430560	4699.993760
409.811399	4630.289725
410.192176	4791.031957
410.572891	4725.587698
410.953545	4835.384028
411.334138	4710.892734
411.714669	4781.879742
412.095139	4672.819420
412.475547	4814.687571
412.855894	4794.984222
413.236180	4803.655006
413.616405	4753.303962
413.996568	4844.863918
414.376670	4789.688489
414.756711	4743.655193
415.136691	4776.873876
415.516609	4852.397923
415.896466	4891.454262
416.276262	4925.776958
416.655997	4900.798041
417.035670	5085.115228
417.415283	5177.675854
417.794834	5117.963387
418.174324	5072.174586
418.553753	4980.637315
418.933121	5163.411909
419.312428	5232.400100
419.691674	5174.008415
420.070859	5298.497188
420.449983	5208.315987
420.829045	5321.353780
421.208047	5234.101489
421.586988	5301.078259
421.965867	5315.349766
422.344686	5446.253407
422.723444	5300.800996
423.102141	5120.743583
423.480777	5423.142238
423.859352	5188.121125
424.237866	5448.733655
424.616319	5436.357623
424.994712	5545.107914
425.373044	5424.659625
425.751314	5567.069701
426.129524	5369.516964
426.507673	5564.077776
426.885762	5647.917205
427.263789	5577.378860
427.641756	5457.021312
428.019662	5577.741823
428.397508	5590.707671
428.775292	5533.878744
429.153016	5635.780627
429.530679	5560.382610
429.908282	5646.525847
430.285824	5514.876114
430.663305	5791.690913
431.040726	5523.037742
431.418086	5525.051683
431.795385	5628.914576
432.172624	5644.156505
432.549802	5634.449763
432.926920	5648.706146
433.303977	5656.126724
433.680974	5695.155337
434.057910	5713.860539
434.434786	5715.783739
434.811601	5688.589235
435.188355	5920.631026
435.565050	5793.893897
435.941683	5777.104334
436.318257	5991.766748
436.694770	5971.251772
437.071222	6008.692422
437.447614	5936.795485
437.823946	5851.390778
438.200218	6003.633624
438.576429	5867.068766
438.952580	5965.550227
439.328670	6008.213512
439.704700	5918.523823
440.080670	5904.650568
440.456580	6172.398852
440.832429	6052.641201
441.208218	5902.576133
441.583947	6052.885697
441.959616	6055.716305
442.335224	5975.756043
442.710773	6110.649758
443.086261	6137.481299
443.461689	5930.244506
443.837057	6075.570889
444.212365	6223.453137
444.587612	6118.685357
444.962800	6263.507625
445.337927	6242.251600
445.712995	5853.629050
446.088002	6412.133443
446.462949	6237.785138
446.837837	6165.147152
447.212664	6326.267470
447.587431	6452.750020
447.962139	6971.623382
448.336786	7867.464147
448.711374	7601.071934
449.085901	6694.433018
449.460369	6610.346571
449.834776	6532.581732
450.209124	6890.894345
450.583412	7014.132912
450.957640	7144.668550
451.331808	6902.854482
451.705917	6468.370035
452.079965	6381.765532
452.453954	6562.311937
452.827883	6433.674294
453.201752	6504.880592
453.575562	6293.759589
453.949311	6461.173788
454.323001	6344.783628
454.696632	6386.335338
455.070202	6490.379713
455.443713	6598.653615
455.817164	6665.045611
456.190556	6704.106992
456.563888	6738.873309
456.937160	6754.634477
457.310373	6426.541061
457.683526	6421.462098
458.056619	6288.574762
458.429653	6244.817547
458.802628	6163.526421
459.175542	6220.143620
459.548398	6473.080993
459.921194	6563.186577
460.293930	6518.121182
460.666607	6872.133691
461.039224	7061.146713
461.411782	7111.631348
461.784280	7082.246462
462.156719	6954.100332
462.529099	6816.411297
462.901419	6457.405525
463.273680	6328.117573
463.645882	6295.828983
464.018024	6136.778058
464.390106	6199.260640
464.762130	6411.677219
465.134094	6651.527757
465.505999	7240.866368
465.877845	7960.788508
466.249631	8318.967530
466.621358	7996.414342
466.993026	7508.566761
467.364634	7270.193281
467.736184	6959.428831
468.107674	6683.665113
468.479105	6604.148473
468.850477	6416.673002
469.221790	6203.336413
469.593043	5943.122133
469.964238	5787.342918
470.335373	5722.241457
470.706449	5686.058575
471.077467	5605.979847
471.448425	6161.179764
471.819324	6590.675989
472.190164	6528.657194
472.560945	5873.846597
472.931667	5425.055356
473.302330	5290.385972
473.672934	5070.964709
474.043479	5149.377337
474.413965	5056.007606
474.784393	4930.364408
475.154761	4924.713275
475.525070	4889.916710
475.895321	4764.248307
476.265513	4754.995269
476.635645	4752.222634
477.005719	4672.635418
477.375734	4651.092047
477.745691	4655.092202
478.115588	4625.669508
478.485427	4622.644816
478.855207	4712.581521
479.224928	4863.556517
479.594591	4962.547134
479.964194	4822.239220
480.333739	4718.918251
480.703226	4600.075570
481.072653	4554.783323
481.442022	4540.438720
481.811333	4515.827807
482.180584	4398.736926
482.549777	4255.837859
482.918912	4163.078108
483.287988	4101.749950
483.657005	4043.040673
484.025964	3924.387035
484.394864	3881.519583
484.763706	3816.274449
485.132489	3727.872775
485.501213	3666.814320
485.869879	3629.275368
486.238487	3552.181002
486.607036	3524.618493
486.975527	3453.820529
487.343959	3430.797579
487.712333	3392.855335
488.080648	3346.496884
488.448905	3310.019095
488.817104	3267.320522
489.185244	3253.830394
489.553326	3226.537587
489.921350	3242.283631
490.289315	3286.219808
490.657222	3277.221348
491.025070	3231.576220
491.392861	3188.683563
491.760593	3127.330200
492.128267	3073.387333
492.495883	3020.198119
492.863440	2982.422233
493.230939	2940.772220
493.598380	2917.691297
493.965763	2886.259703
494.333088	2867.728421
494.700354	2844.803774
495.067563	2832.722649
495.434713	2808.141982
495.801805	2803.302475
496.168839	2790.366874
496.535815	2771.094543
496.902733	2762.189345
497.269593	2748.038826
497.636395	2740.865264
498.003139	2728.849674
498.369825	2719.752912
498.736453	2712.770913
499.103023	2703.298585
499.469535	2697.203830
499.835989	2691.948427
500.202385	2683.449042
500.568723	2675.481498
500.935003	2675.698268
501.301226	2666.001609
501.667390	2668.459171
502.033497	2666.883811
502.399546	2658.601195
502.765537	2654.291008
503.131470	2651.243631
503.497345	2650.432005
503.863163	2641.955305
504.228923	2643.404637
504.594625	2644.700213
504.960269	2636.949439
505.325856	2637.952629
505.691385	2634.963224
506.056856	2632.165384
506.422270	2630.267390
506.787625	2627.893006
507.152924	2626.811679
507.518164	2625.246400
507.883347	2620.782459
508.248472	2620.379166
508.613540	2619.938065
508.978550	2619.900257
509.343503	2618.410596
509.708398	2620.709362
510.073236	2620.278343
510.438016	2618.113168
510.802738	2614.007148
511.167403	2613.397168
511.532010	2616.109309
511.896561	2617.190637
512.261053	2617.019237
512.625488	2610.521190
512.989866	2608.156889
513.354186	2609.828031
513.718449	2605.084306
514.082655	2611.393310
514.446803	2608.860130
514.810894	2613.256016
515.174927	2611.907507
515.538904	2608.671087
515.902822	2608.955912
516.266684	2606.710078
516.630488	2606.306785
516.994235	2606.205962
517.357925	2605.800149
517.721558	2607.965325
518.085133	2604.713781
518.448651	2608.978597
518.812112	2606.899121
519.175516	2604.476847
519.538863	2604.590272
519.902152	2606.747886
520.265385	2605.835438
520.628560	2606.556322
520.991678	2606.130345
521.354739	2608.280397
521.717743	2602.341918
522.080690	2604.164295
522.443580	2603.640015
522.806413	2605.379213
523.169189	2604.219748
523.531908	2603.486260
523.894569	2602.208327
524.257174	2603.720673
524.619722	2602.727566
524.982213	2606.904162
525.344647	2604.176898
525.707025	2601.482401
526.069345	2603.448451
526.431608	2604.418873
526.793815	2604.529779
527.155964	2602.178080
527.518057	2603.113214
527.880093	2603.292175
528.242072	2605.366610
528.603995	2601.578183
528.965860	2603.839141
529.327669	2601.754623
529.689421	2603.534151
530.051117	2601.719335
530.412755	2602.462906
530.774337	2599.846547
531.135862	2599.460898
531.497331	2600.128851
531.858743	2593.527460
532.220098	2599.077771
532.581396	2596.383274
532.942638	2597.572986
533.303824	2600.622884
533.664953	2600.161619
534.026025	2601.116917
534.387040	2601.583224
534.747999	2599.135744
535.108902	2597.691453
535.469748	2598.760178
535.830537	2600.033069
536.191270	2599.508789
536.551947	2602.336877
536.912567	2598.979468
537.273131	2599.770929
537.633638	2600.716146
537.994089	2598.722369
538.354483	2596.983171
538.714821	2601.101794
539.075103	2601.104315
539.435328	2598.276227
539.795497	2599.246649
540.155609	2601.689088
540.515665	2600.776640
540.875665	2602.074737
541.235609	2599.216402
541.595496	2601.091712
541.955328	2600.338059
542.315102	2599.347472
542.674821	2598.903851
543.034483	2602.104984
543.394090	2600.887545
543.753640	2597.081474
544.113134	2600.632967
544.472571	2600.537185
544.831953	2599.733121
545.191278	2600.025508
545.550548	2601.253029
545.909761	2601.245467
546.268918	2598.009046
546.628019	2601.999119
546.987064	2600.965683
547.346053	2598.777822
547.704986	2599.597010
548.063863	2599.975096
548.422684	2600.106166
548.781449	2599.133223
549.140158	2599.876794
549.498811	2600.784201
549.857408	2596.534509
550.215949	2594.933942
550.574434	2596.632811
550.932864	2597.658686
551.291237	2596.509303
551.649555	2598.293871
552.007817	2599.344952
552.366022	2599.513831
552.724173	2597.530137
553.082267	2599.796135
553.440305	2599.213882
553.798288	2598.780343
554.156215	2598.079622
554.514086	2602.868718
554.871902	2598.384612
555.229661	2600.794284
555.587365	2599.367637
555.945014	2599.070209
556.302606	2597.179776
556.660143	2600.146495
557.017625	2600.310333
557.375050	2600.108687
557.732421	2598.969386
558.089735	2598.999633
558.446994	2599.866711
558.804197	2600.680858
559.161345	2600.406115
559.518437	2600.370827
559.875474	2602.830910
560.232455	2601.195055
560.589381	2599.866711
560.946251	2602.704881
561.303065	2600.118769
561.659825	2600.247318
562.016528	2598.349324
562.373177	2598.997112
562.729770	2599.271855
563.086307	2600.839654
563.442789	2597.910744
563.799216	2597.525095
564.155587	2597.278079
564.511904	2598.208172
564.868164	2597.177256
565.224370	2601.205138
565.580520	2597.885538
565.936615	2600.206989
566.292654	2598.205651
566.648638	2599.302102
567.004567	2599.808738
567.360441	2601.502566
567.716260	2598.213213
568.072023	2596.045517
568.427732	2595.120465
568.783385	2593.991247
569.138982	2592.138622
569.494525	2596.806731
569.850013	2592.841863
570.205445	2597.336052
570.560823	2595.299426
570.916145	2595.987543
571.271412	2596.262286
571.626625	2595.122986
571.981782	2596.065681
572.336884	2594.611308
572.691931	2593.850094
573.046923	2596.360589
573.401860	2596.416042
573.756743	2594.949066
574.111570	2596.264807
574.466342	2594.908737
574.821059	2600.201948
575.175722	2594.197934
575.530330	2596.259766
575.884882	2596.595002
576.239380	2596.179107
576.593823	2597.935949
576.948211	2593.749271
577.302544	2593.948397
577.656823	2589.716348
578.011047	2597.061309
578.365216	2595.196082
578.719330	2592.277254
579.073389	2594.858325
579.427394	2592.680547
579.781344	2594.180290
580.135239	2595.294385
580.489080	2595.435537
580.842866	2590.868252
581.196597	2594.298757
581.550273	2594.545773
581.903895	2593.557707
582.257463	2592.781370
582.610975	2591.737851
582.964434	2594.954107
583.317837	2592.937645
583.671186	2593.343458
584.024481	2591.400093
584.377721	2592.693149
584.730906	2590.979157
585.084037	2591.896647
585.437113	2590.258272
585.790135	2594.081987
586.143103	2588.876996
586.496016	2588.894640
586.848874	2585.370873
587.201679	2588.269537
587.554428	2588.377922
587.907124	2589.345823
588.259765	2585.640575
588.612352	2591.914291
588.964884	2589.355906
589.317362	2591.195927
589.669786	2589.224836
590.022155	2591.702563
590.374470	2590.593509
590.726731	2589.030751
591.078937	2589.963365
591.431090	2589.003025
591.783188	2587.654516
592.135232	2588.211564
592.487222	2589.277768
592.839157	2589.285329
593.191038	2589.731472
593.542866	2588.786255
593.894639	2587.089907
594.246358	2587.722572
594.598022	2586.298446
594.949633	2585.186871
595.301190	2586.250555
595.652692	2587.888930
596.004141	2589.552511
596.355535	2586.512695
596.706876	2587.856162
597.058162	2583.051943
597.409395	2587.616707
597.760573	2585.060842
598.111698	2584.581933
598.462768	2586.336254
598.813785	2586.530339
599.164748	2584.753332
599.515657	2586.600915
599.866511	2583.891295
600.217312	2586.099320
600.568060	2583.785431
600.918753	2586.966399
601.269392	2585.222159
601.619978	2585.025554
601.970510	2583.785431
602.320988	2585.791810
602.671412	2585.635534
603.021783	2585.713672
603.372100	2585.343147
603.722363	2585.481779
604.072572	2586.676532
604.422728	2585.307859
604.772830	2582.424319
605.122878	2580.647312
605.472872	2582.983887
605.822813	2581.400965
606.172701	2580.601942
606.522534	2580.594380
606.872314	2584.821388
607.222041	2583.956830
607.571714	2584.017324
607.921333	2582.749473
608.270899	2584.763414
608.620411	2588.955134
608.969870	2584.579412
609.319276	2584.599577
609.668627	2590.285998
610.017926	2591.324476
610.367171	2590.835484
610.716362	2593.086359
611.065500	2591.959662
611.414585	2589.300453
611.763616	2586.676532
612.112594	2587.594022
612.461518	2586.709300
612.810389	2587.180648
613.159207	2584.705441
613.507971	2586.711820
613.856682	2588.521595
614.205340	2589.217274
614.553945	2587.621749
614.902496	2584.939855
615.250994	2589.484455
615.599439	2587.790627
615.947830	2588.022520
616.296169	2585.741398
616.644454	2588.995463
616.992686	2586.270719
617.340864	2583.666963
617.688990	2584.881882
618.037063	2587.563775
618.385082	2583.966912
618.733048	2586.681573
619.080961	2585.811974
619.428821	2588.277099
619.776628	2584.438260
620.124382	2589.408838
620.472083	2585.501943
620.819731	2588.778693
621.167326	2584.581933
621.514868	2585.486820
621.862357	2584.125708
622.209793	2583.291397
622.557176	2583.765266
622.904506	2580.339802
623.251783	2577.680593
623.599007	2581.234607
623.946179	2578.013309
624.293297	2579.669328
624.640363	2578.209914
624.987376	2582.005903
625.334336	2579.664287
625.681243	2580.796026
626.028097	2578.719071
626.374899	2579.392065
626.721647	2578.189750
627.068343	2579.508012
627.414987	2580.420460
627.761577	2577.725964
628.108115	2580.150759
628.454600	2578.207394
628.801032	2580.271746
629.147412	2579.588670
629.493739	2578.872826
629.840014	2577.799060
630.186236	2578.472054
630.532405	2578.121694
630.878521	2575.591035
631.224585	2577.289904
631.570597	2576.138000
631.916556	2579.268557
632.262462	2578.484657
632.608316	2577.945254
632.954117	2574.663463
633.299866	2576.977352
633.645562	2578.126735
633.991206	2578.156982
634.336797	2571.795046
634.682336	2574.156827
635.027823	2575.717064
635.373257	2574.305541
635.718639	2572.488205
636.063968	2575.631364
636.409245	2572.435273
636.754470	2573.239337
637.099642	2570.539799
637.444762	2574.544996
637.789829	2571.308575
638.134845	2573.246898
638.479808	2573.685479
638.824719	2571.076682
639.169577	2569.705488
639.514383	2573.854357
639.859137	2573.751014
640.203839	2572.851168
640.548489	2573.042732
640.893086	2564.883624
641.237632	2564.656772
641.582125	2567.847823
641.926566	2564.011505
642.270955	2569.201373
642.615292	2570.600293
642.959576	2572.364697
643.303809	2569.491239
643.647990	2570.842268
643.992118	2573.463668
644.336195	2569.566856
644.680219	2569.828996
645.024192	2569.947463
645.368112	2571.719429
645.711981	2571.341342
646.055797	2571.646332
646.399562	2569.526527
646.743274	2572.281517
647.086935	2572.841086
647.430544	2573.168761
647.774101	2569.955025
648.117606	2571.134655
648.461059	2574.935685
648.804460	2574.751683
649.147810	2569.831517
649.491108	2572.334450
649.834354	2573.577094
650.177548	2570.015519
650.520690	2572.475602
650.863781	2568.470405
651.206820	2571.744635
651.549807	2569.551733
651.892742	2567.162226
652.235626	2568.543502
652.578458	2572.261353
652.921238	2568.553584
653.263967	2566.022925
653.606644	2568.150292
653.949269	2565.962431
654.291843	2567.865467
654.634365	2567.086608
654.976836	2567.835220
655.319255	2568.248594
655.661622	2565.964952
656.003938	2568.752710
656.346203	2569.423183
656.688416	2565.682647
657.030577	2568.276321
657.372687	2568.356979
657.714746	2565.793552
658.056753	2565.372616
658.398708	2559.771894
658.740612	2563.013356
659.082465	2562.040413
659.424266	2563.953531
659.766016	2561.425393
660.107715	2566.781619
660.449362	2566.068295
660.790958	2565.665003
661.132503	2567.426886
661.473996	2566.305230
661.815438	2564.795404
662.156829	2569.314798
662.498168	2564.936556
662.839456	2563.567883
663.180693	2567.260528
663.521879	2569.072823
663.863013	2567.535271
664.204097	2566.169118
664.545129	2566.337997
664.886110	2565.425548
665.227040	2565.695250
665.567918	2566.209448
665.908746	2566.199365
666.249522	2567.900755
666.590248	2564.611402
666.930922	2566.665672
667.271545	2566.269942
667.612118	2567.436969
667.952639	2567.885631
668.293109	2569.002247
668.633528	2568.588872
668.973896	2566.355641
669.314213	2564.886145
669.654480	2567.280693
669.994695	2566.695919
670.334859	2568.152812
670.674973	2565.218861
671.015035	2565.778429
671.355047	2567.278172
671.695008	2566.085939
672.034918	2565.934705
672.374777	2563.802297
672.714585	2565.796073
673.054342	2567.386557
673.394049	2565.788511
673.733705	2565.884293
674.073310	2567.620971
674.412864	2569.014850
674.752368	2565.682647
675.091820	2567.084088
675.431223	2566.103583
675.770574	2565.433110
676.109875	2559.779456
676.449125	2563.151988
676.788324	2561.533777
677.127473	2564.901268
677.466571	2560.495300
677.805619	2561.869014
678.144616	2563.900599
678.483562	2563.255332
678.822458	2564.099725
679.161303	2564.359344
679.500098	2561.072512
679.838842	2565.284396
680.177535	2563.661144
680.516179	2563.245249
680.854771	2562.302553
681.193314	2564.931515
681.531805	2563.797256
681.870247	2567.258008
682.208638	2569.158523
682.546978	2568.989644
682.885268	2566.610219
683.223508	2566.922771
683.561697	2564.429920
683.899836	2564.664334
684.237925	2567.547874
684.575963	2564.419838
684.913951	2563.638459
685.251889	2565.223902
685.589776	2565.909499
685.927614	2565.551577
686.265401	2565.823799
686.603137	2564.762637
686.940824	2569.239181
687.278460	2567.721794
687.616046	2566.529561
687.953582	2567.469736
688.291068	2565.833882
688.628504	2567.101732
688.965889	2567.401681
689.303224	2568.276321
689.640510	2566.045610
689.977745	2565.523851
690.314930	2564.558470
690.652065	2561.201061
690.989150	2564.215671
691.326185	2562.302553
691.663170	2562.065619
692.000105	2561.763150
692.336990	2561.432954
692.673825	2561.264076
693.010610	2562.219374
693.347345	2557.268961
693.684030	2556.338868
694.020665	2557.490772
694.357251	2554.113199
694.693786	2556.099414
695.030272	2557.147974
695.366707	2557.286605
695.703093	2559.991184
696.039429	2558.130999
696.375716	2555.852397
696.711952	2556.633776
697.048139	2555.746533
697.384276	2557.268961
697.720363	2557.949517
698.056400	2557.286605
698.392388	2555.741492
698.728326	2556.860628
699.064214	2557.505896
699.400053	2559.809703
699.735842	2553.614125
700.071581	2555.229815
700.407270	2553.029351
700.742910	2556.525391
701.078501	2557.115206
701.414042	2555.013045
701.749533	2553.394835
702.084974	2552.706717
702.420366	2555.522202
702.755709	2553.508261
703.091002	2553.727551
703.426246	2553.329300
703.761440	2551.123795
704.096584	2553.767880
704.431679	2553.530946
704.766725	2554.786193
705.101721	2552.260575
705.436668	2552.182437
705.771565	2554.629917
706.106413	2553.349464
706.441212	2555.343241
706.775961	2553.525905
707.110661	2553.596481
707.445311	2555.439023
707.779913	2552.840308
708.114465	2554.103117
708.448967	2553.369629
708.783421	2555.464228
709.117825	2555.849877
709.452180	2556.568241
709.786485	2554.791234
710.120742	2552.631100
710.454949	2556.573282
710.789107	2557.019424
711.123216	2552.769732
711.457275	2553.964485
711.791286	2554.887016
712.125247	2555.862479
712.459159	2559.126627
712.793023	2561.105279
713.126837	2556.621173
713.460602	2559.444219
713.794318	2559.439178
714.127985	2558.587223
714.461602	2556.036399
714.795171	2557.115206
715.128691	2554.932387
715.462162	2557.833571
715.795584	2554.980277
716.128957	2557.006821
716.462281	2554.914743
716.795556	2553.961964
717.128782	2554.259392
717.461960	2550.629762
717.795088	2553.727551
718.128167	2554.035061
718.461198	2554.168652
718.794180	2555.106306
719.127113	2552.825184
719.459997	2549.868547
719.792833	2551.766542
720.125619	2551.527087
720.458357	2551.275029
720.791046	2547.496685
721.123686	2551.038095
721.456278	2551.378373
721.788821	2551.464073
722.121315	2552.840308
722.453761	2550.672612
722.786158	2550.443239
723.118506	2550.271840
723.450805	2551.164124
723.783056	2550.415513
724.115259	2552.033723
724.447412	2549.533311
724.779518	2548.797302
725.111574	2549.661860
725.443582	2551.340564
725.775542	2549.901315
726.107453	2549.470296
726.439315	2551.716130
726.771129	2555.002963
727.102895	2553.987170
727.434612	2550.433157
727.766281	2552.104299
728.097901	2549.508105
728.429473	2548.172199
728.760996	2550.539021
729.092471	2547.869730
729.423897	2553.311656
729.755276	2553.092365
730.086606	2553.029351
730.417887	2552.096737
730.749120	2553.755277
731.080305	2552.590771
731.411442	2555.297870
731.742530	2551.577499
732.073570	2552.477345
732.404562	2554.859290
732.735506	2556.880792
733.066401	2555.507078
733.397249	2554.786193
733.728048	2551.789227
734.058798	2554.584547
734.389501	2553.783003
734.720156	2552.121943
735.050762	2548.716644
735.381320	2550.680173
735.711831	2548.099102
736.042293	2547.993238
736.372707	2552.114382
736.703073	2547.171530
737.033391	2551.138918
737.363661	2548.472148
737.693883	2549.896274
738.024056	2554.486244
738.354182	2549.089689
738.684260	2549.533311
739.014290	2550.052550
739.344272	2549.379556
739.674207	2548.877961
740.004093	2549.291335
740.333931	2549.109854
740.663722	2550.256716
740.993464	2549.119936
741.323159	2551.554813
741.652806	2550.596994
741.982405	2550.057591
742.311956	2551.398538
742.641460	2548.371325
742.970915	2548.666232
743.300323	2548.920811
743.629683	2550.982643
743.958996	2549.755122
744.288260	2550.163455
744.617477	2547.065666
744.946647	2545.407126
745.275768	2546.433001
745.604842	2543.491488
745.933869	2544.658515
746.262847	2541.278421
746.591778	2547.847045
746.920662	2546.690100
747.249498	2544.280428
747.578286	2545.477703
747.907027	2548.986346
748.235720	2549.397200
748.564365	2547.663043
748.892963	2545.255892
749.221514	2548.469627
749.550017	2547.738660
749.878473	2546.556509
750.206881	2548.883002
750.535242	2546.087682
750.863555	2547.123639
751.191821	2549.175389
751.520039	2547.055584
751.848210	2548.126829
752.176334	2547.786551
752.504411	2543.423432
752.832440	2544.734132
753.160421	2548.457024
753.488356	2545.775131
753.816243	2548.525080
754.144082	2546.619524
754.471875	2545.472661
754.799620	2547.315203
755.127318	2544.499719
755.454969	2545.984338
755.782572	2547.015254
756.110129	2547.668084
756.437638	2548.015923
756.765100	2544.129194
757.092515	2547.572302
757.419882	2545.147507
757.747203	2546.354863
758.074477	2546.793444
758.401703	2546.276725
758.728882	2546.140614
759.056014	2545.490305
759.383099	2545.906201
759.710138	2547.418547
760.037129	2548.363763
760.364073	2548.363763
760.690970	2542.745397
761.017820	2549.729916
761.344623	2545.669266
761.671379	2550.838970
761.998088	2543.509132
762.324751	2547.539534
762.651366	2551.703528
762.977935	2563.015877
763.304456	2561.523695
763.630931	2564.581155
763.957359	2562.965465
764.283740	2556.343910
764.610074	2554.181255
764.936362	2552.989022
765.262602	2550.720502
765.588796	2548.661191
765.914943	2545.775131
766.241044	2545.896118
766.567097	2548.668753
766.893104	2546.460728
767.219064	2544.673638
767.544978	2545.326468
767.870845	2542.052238
768.196665	2545.021478
768.522438	2543.264636
768.848165	2541.152393
769.173846	2544.078782
769.499479	2543.640202
769.825066	2543.355377
770.150607	2541.515356
770.476101	2540.212217
770.801548	2545.230686
771.126949	2545.066848
771.452303	2545.165151
771.777611	2544.739173
772.102872	2540.136600
772.428087	2544.877805
772.753256	2541.059131
773.078378	2542.016950
773.403453	2543.040305
773.728482	2541.197763
774.053465	2540.807073
774.378401	2542.342105
774.703291	2540.560057
775.028135	2540.567619
775.352932	2539.758513
775.677683	2540.575180
776.002388	2543.032743
776.327046	2538.699871
776.651658	2539.594676
776.976224	2540.267670
777.300743	2540.839841
777.625216	2539.950077
777.949643	2542.495860
778.274024	2542.216076
778.598359	2537.492515
778.922647	2535.158461
779.246889	2540.111394
779.571086	2534.525796
779.895236	2540.817156
780.219339	2538.568801
780.543397	2539.700540
780.867409	2537.109387
781.191374	2538.856147
781.515294	2540.416384
781.839167	2540.118956
782.162995	2538.808256
782.486776	2540.174409
782.810511	2540.928061
783.134201	2540.454193
783.457844	2540.212217
783.781441	2541.081816
784.104993	2540.950746
784.428498	2540.446631
784.751958	2540.043339
785.075372	2537.863040
785.398739	2539.067875
785.722061	2539.549306
786.045337	2540.547454
786.368568	2544.681200
786.691752	2537.668955
787.014891	2540.446631
787.337983	2540.272711
787.661030	2544.217414
787.984031	2542.009389
788.306987	2543.751107
788.629897	2544.063659
788.952760	2543.655325
789.275579	2544.353525
789.598351	2541.134748
789.921078	2541.691796
790.243759	2539.166178
790.566395	2539.418236
790.888984	2541.026364
791.211529	2540.809594
791.534027	2540.754141
791.856480	2538.861188
792.178888	2539.085519
792.501249	2539.327495
792.823566	2540.807073
793.145836	2538.122659
793.468062	2541.238092
793.790241	2538.362114
794.112375	2541.558205
794.434464	2538.843544
794.756507	2541.689275
795.078505	2542.178267
795.400457	2536.794315
795.722364	2535.899510
796.044226	2541.348998
796.366042	2537.265663
796.687812	2539.062834
797.009538	2541.172557
797.331218	2542.495860
797.652852	2539.645088
797.974442	2541.245654
798.295986	2539.728267
798.617484	2537.963863
798.938938	2540.507125
799.260346	2539.844213
799.581709	2537.394212
799.903026	2539.698020
800.224299	2539.965201
800.545526	2539.501415
800.866708	2536.713657
801.187845	2539.055273
801.508936	2536.582587
801.829983	2542.395037
802.150984	2539.183822
802.471940	2540.502084
802.792851	2538.097453
803.113717	2537.578214
803.434538	2537.784902
803.755314	2539.019984
804.076045	2537.636188
804.396731	2535.995292
804.717372	2539.246836
805.037967	2538.949408
805.358518	2538.921682
805.679024	2539.196425
805.999485	2540.063503
806.319901	2539.556867
806.640272	2535.196269
806.960598	2540.265149
807.280879	2537.792463
807.601115	2539.440921
807.921306	2537.449665
808.241453	2536.312885
808.561554	2540.600386
808.881611	2541.472506
809.201623	2539.750952
809.521590	2539.120807
809.841513	2536.297761
810.161390	2538.939326
810.481223	2537.520241
810.801011	2537.454706
811.120755	2541.071734
811.440453	2539.173740
811.760107	2539.652649
812.079716	2537.633667
812.399281	2534.830786
812.718801	2537.610982
813.038276	2535.725590
813.357707	2537.167360
813.677093	2538.672145
813.996434	2539.415715
814.315731	2539.617361
814.634983	2537.610982
814.954191	2538.314223
815.273354	2537.139634
815.592473	2537.278266
815.911547	2539.909748
816.230577	2538.341949
816.549562	2540.401261
816.868502	2537.794984
817.187399	2541.417053
817.506250	2539.090561
817.825058	2536.585107
818.143821	2540.358411
818.462539	2539.970242
818.781213	2542.158103
819.099843	2541.200283
819.418429	2542.422763
819.736970	2544.950902
820.055466	2546.697662
820.373919	2550.740667
820.692327	2549.571119
821.010691	2555.759136
821.329011	2567.056362
821.647286	2594.407142
821.965517	2617.500667
822.283704	2633.763430
822.601847	2637.355252
822.919945	2627.865280
823.237999	2610.841303
823.556010	2597.724221
823.873976	2582.817529
824.191897	2575.671693
824.509775	2564.939077
824.827609	2562.761298
825.145398	2561.369940
825.463144	2558.831719
825.780845	2558.776266
826.098502	2560.563355
826.416116	2569.161043
826.733685	2579.583629
827.051210	2579.656726
827.368692	2574.628175
827.686129	2566.272462
828.003522	2560.797769
828.320872	2550.791079
828.638177	2549.397200
828.955439	2545.099616
829.272656	2541.822866
829.589830	2540.275232
829.906960	2544.618186
830.224046	2540.978473
830.541088	2543.360418
830.858086	2542.304296
831.175041	2543.627599
831.491952	2539.952598
831.808819	2542.891591
832.125642	2540.071065
832.442421	2542.059800
832.759157	2545.976777
833.075849	2548.741850
833.392497	2553.672098
833.709101	2558.867007
834.025662	2559.890361
834.342179	2558.438509
834.658653	2551.511964
834.975083	2549.684545
835.291469	2552.631100
835.607811	2542.528628
835.924110	2542.021992
836.240366	2537.520241
836.556578	2537.300951
836.872746	2540.239944
837.188871	2539.438400
837.504952	2539.874460
837.820990	2534.934129
838.136984	2534.946732
838.452935	2538.891435
838.768842	2539.947557
839.084706	2536.388502
839.400526	2538.407484
839.716303	2541.805222
840.032037	2546.654812
840.347727	2544.393854
840.663373	2543.262115
840.978977	2543.930068
841.294537	2539.851775
841.610054	2536.869932
841.925527	2537.114428
842.240957	2535.448327
842.556344	2537.066537
842.871687	2533.900693
843.186987	2534.966897
843.502244	2536.653163
843.817458	2536.721218
844.132629	2531.599406
844.447756	2535.350024
844.762840	2531.221319
845.077881	2532.232071
845.392879	2529.666123
845.707833	2532.693336
846.022745	2530.850795
846.337613	2535.644932
846.652438	2535.173584
846.967221	2534.422452
847.281960	2533.338604
847.596656	2534.601413
847.911309	2537.759696
848.225919	2535.665097
848.540485	2534.903882
848.855009	2533.840199
849.169490	2532.411032
849.483928	2534.989582
849.798323	2534.276259
850.112675	2535.556712
850.426984	2534.359438
850.741251	2535.682741
851.055474	2533.235260
851.369654	2534.906403
851.683792	2533.905734
851.997887	2532.970600
852.311938	2533.061341
852.625947	2533.260466
852.939914	2533.109232
853.253837	2536.209541
853.567718	2535.896990
853.881555	2534.608975
854.195350	2535.002185
854.509103	2532.158974
854.822812	2536.118800
855.136479	2534.104859
855.450103	2534.006557
855.763685	2532.471526
856.077224	2532.738707
856.390720	2534.329191
856.704173	2532.325332
857.017584	2534.823224
857.330953	2531.652338
857.644278	2534.293903
857.957561	2534.614016
858.270802	2536.393543
858.584000	2535.506300
858.897155	2533.958666
859.210268	2534.485467
859.523339	2533.971269
859.836367	2535.183666
860.149352	2534.614016
860.462295	2532.282482
860.775195	2529.472039
861.088054	2531.135620
861.400869	2530.979344
861.713642	2532.330373
862.026373	2532.600075
862.339062	2531.629653
862.651708	2535.944881
862.964312	2533.003367
863.276873	2534.157792
863.589392	2531.969931
863.901869	2532.295085
864.214303	2529.111597
864.526696	2534.377082
864.839045	2534.135106
865.151353	2534.896321
865.463619	2536.191897
865.775842	2536.320447
866.088023	2536.408667
866.400162	2535.097967
866.712258	2535.342463
867.024313	2533.701567
867.336325	2535.660055
867.648296	2534.913965
867.960224	2535.937319
868.272110	2536.605272
868.583954	2533.472195
868.895755	2533.560415
869.207515	2536.970755
869.519233	2534.833306
869.830909	2532.675692
870.142542	2537.840354
870.454134	2535.632329
870.765684	2537.048893
871.077191	2535.876825
871.388657	2537.729449
871.700081	2535.387833
872.011463	2532.995806
872.322803	2534.535878
872.634101	2535.234078
872.945357	2536.234747
873.256571	2533.613347
873.567744	2536.396064
873.878874	2534.949253
874.189963	2535.486136
874.501010	2537.263142
874.812015	2535.712988
875.122979	2535.622247
875.433900	2534.021680
875.744780	2538.299099
876.055618	2536.665766
876.366415	2538.140303
876.677169	2536.267514
876.987882	2533.706608
877.298554	2531.715352
877.609183	2533.227699
877.919771	2531.977492
878.230317	2532.267359
878.540822	2541.354039
878.851285	2540.844882
879.161707	2539.483771
879.472087	2541.066693
879.782425	2542.508463
880.092722	2550.723023
880.402977	2554.395504
880.713191	2566.728687
881.023363	2583.563620
881.333494	2593.119127
881.643583	2591.609301
881.953631	2591.516040
882.263637	2590.089393
882.573602	2582.870461
882.883526	2575.833010
883.193408	2571.316137
883.503248	2564.681978
883.813048	2561.042265
884.122806	2556.800134
884.432522	2552.961295
884.742197	2549.558517
885.051831	2547.030378
885.361424	2543.942671
885.670975	2544.164482
885.980485	2541.369162
886.289954	2541.064172
886.599382	2541.064172
886.908768	2540.345808
887.218113	2538.664583
887.527417	2536.156609
887.836680	2536.953111
888.145901	2536.761547
888.455082	2539.030067
888.764221	2538.036959
889.073319	2535.881866
889.382376	2538.586445
889.691392	2536.733821
890.000366	2536.103677
890.309300	2537.691640
890.618193	2538.583925
890.927044	2534.614016
891.235855	2537.374048
891.544625	2537.812628
891.853353	2537.036290
892.162041	2538.493184
892.470687	2539.511497
892.779293	2536.466640
893.087858	2536.204500
893.396381	2538.231044
893.704864	2541.991745
894.013306	2541.855633
894.321707	2548.497354
894.630068	2551.070863
894.938387	2554.894578
895.246665	2554.902140
895.554903	2549.568599
895.863100	2549.349309
896.171256	2547.289997
896.479371	2544.968546
896.787446	2543.841848
897.095480	2539.650129
897.403473	2539.456044
897.711425	2538.536034
898.019336	2538.553678
898.327207	2537.152237
898.635038	2539.821528
898.942827	2535.604603
899.250576	2537.046373
899.558284	2536.809438
899.865952	2535.322298
900.173579	2536.028060
900.481165	2540.882691
900.788711	2535.826413
901.096216	2535.032432
901.403681	2536.648122
901.711105	2535.460930
902.018489	2535.813811
902.325832	2538.397402
902.633135	2539.758513
902.940397	2535.629808
903.247619	2538.173071
903.554800	2541.873278
903.861941	2548.154555
904.169041	2554.617314
904.476101	2563.570404
904.783121	2563.550239
905.090100	2558.118396
905.397039	2555.209650
905.703938	2548.414175
906.010796	2544.809750
906.317614	2543.904862
906.624391	2541.023843
906.931129	2542.198432
907.237826	2539.022505
907.544483	2535.060158
907.851099	2536.937988
908.157675	2535.896990
908.464211	2534.084695
908.770707	2529.116638
909.077163	2533.124355
909.383578	2530.152595
909.689954	2532.854653
909.996289	2530.016484
910.302584	2533.847761
910.608839	2533.636032
910.915054	2534.843388
911.221229	2534.424973
911.527363	2533.547812
911.833458	2533.686444
912.139513	2534.941691
912.445527	2530.374406
912.751502	2534.117462
913.057436	2533.797349
913.363331	2536.668286
913.669186	2532.247194
913.975000	2536.685930
914.280775	2536.738862
914.586510	2541.454862
914.892205	2540.620551
915.197859	2546.884184
915.503475	2551.597663
915.809050	2554.070349
916.114585	2559.660989
916.420081	2562.128634
916.725536	2559.925649
917.030952	2555.723848
917.336328	2550.964998
917.641665	2549.026675
917.946961	2545.981818
918.252218	2546.717826
918.557435	2545.195398
918.862612	2542.523586
919.167750	2540.900335
919.472848	2539.559388
919.777906	2536.380940
920.082925	2537.573173
920.387904	2534.263656
920.692843	2536.481763
920.997743	2535.725590
921.302603	2537.084181
921.607423	2535.123172
921.912204	2534.805580
922.216946	2533.184849
922.521647	2533.769623
922.826310	2534.795497
923.130932	2533.880528
923.435516	2534.114942
923.740059	2531.566638
924.044564	2533.061341
924.349028	2536.391023
924.653454	2528.952800
924.957840	2531.755682
925.262186	2528.471370
925.566493	2530.220650
925.870761	2526.228057
926.174989	2532.781557
926.479178	2531.004550
926.783328	2533.023532
927.087438	2531.458254
927.391509	2534.092257
927.695541	2528.514220
927.999533	2530.303829
928.303486	2530.117307
928.607400	2531.347348
928.911275	2532.824406
929.215110	2529.124199
929.518906	2528.662934
929.822663	2530.155115
930.126381	2531.317101
930.430060	2531.649817
930.733699	2529.986237
931.037299	2529.169570
931.340861	2531.397760
931.644383	2532.927750
931.947866	2530.205527
932.251309	2532.365661
932.554714	2530.288706
932.858080	2531.894313
933.161407	2529.698891
933.464694	2530.961700
933.767943	2529.719056
934.071153	2528.257121
934.374323	2528.751154
934.677455	2531.682585
934.980548	2529.033459
935.283602	2530.502955
935.586617	2529.237625
935.889593	2527.972296
936.192530	2527.576565
936.495428	2529.966072
936.798287	2529.368695
937.101108	2531.301978
937.403890	2528.892306
937.706632	2531.879190
938.009336	2531.919519
938.312002	2530.823068
938.614628	2531.049920
938.917216	2533.497400
939.219765	2533.126876
939.522275	2532.176618
939.824747	2531.344828
940.127179	2531.523789
940.429573	2528.529343
940.731929	2532.010260
941.034246	2527.536236
941.336524	2530.384488
941.638763	2531.218799
941.940964	2531.191073
942.243126	2532.353058
942.545250	2533.933460
942.847335	2530.823068
943.149381	2530.964221
943.451389	2530.210568
943.753359	2531.359951
944.055290	2529.933305
944.357182	2530.407173
944.659036	2530.979344
944.960851	2528.325177
945.262628	2530.540764
945.564367	2530.593696
945.866067	2530.538243
946.167729	2529.739220
946.469352	2530.886083
946.770937	2530.119827
947.072484	2531.029756
947.373992	2531.576721
947.675462	2531.254087
947.976893	2529.252749
948.278286	2533.532688
948.579641	2531.375075
948.880958	2529.068747
949.182236	2531.891793
949.483476	2528.804086
949.784678	2528.806607
950.085841	2527.954652
950.386967	2530.752492
950.688054	2529.603109
950.989103	2527.931967
951.290114	2531.221319
951.591087	2531.284334
951.892021	2529.456916
952.192917	2531.574200
952.493776	2529.041020
952.794596	2530.669313
953.095378	2531.143182
953.396122	2527.654703
953.696828	2531.879190
953.997496	2531.193593
954.298126	2530.180321
954.598718	2529.446833
954.899272	2533.008408
955.199788	2531.203675
955.500266	2530.268541
955.800706	2529.774508
956.101108	2526.575896
956.401472	2525.875176
956.701798	2525.734023
957.002087	2526.028931
957.302337	2528.693181
957.602550	2528.121010
957.902724	2527.029600
958.202861	2531.266690
958.502960	2527.420289
958.803022	2530.860877
959.103045	2527.291740
959.403031	2527.944569
959.702979	2528.448685
960.002889	2529.842564
960.302762	2530.235774
960.602596	2529.555218
960.902393	2529.625794
961.202153	2528.554549
961.501875	2528.284847
961.801559	2526.414579
962.101205	2526.727131
962.400814	2529.950949
962.700385	2525.572707
962.999918	2526.255783
963.299414	2527.011956
963.598873	2528.972965
963.898293	2530.266021
964.197677	2530.344159
964.497022	2527.087573
964.796331	2526.749816
965.095601	2528.017666
965.394835	2529.146885
965.694030	2526.069260
965.993189	2529.716535
966.292309	2526.482635
966.591393	2528.592358
966.890439	2526.371729
967.189447	2529.492204
967.488419	2526.127233
967.787353	2529.779549
968.086249	2527.700073
968.385108	2530.780218
968.683930	2527.596730
968.982714	2524.733354
969.281462	2529.792152
969.580172	2529.340969
969.878844	2528.103366
970.177480	2528.584796
970.476078	2524.980371
970.774639	2529.025897
971.073162	2529.393901
971.371649	2526.346524
971.670098	2522.641276
971.968510	2526.215454
972.266885	2523.203364
972.565223	2528.093283
972.863524	2527.107738
973.161788	2530.439941
973.460014	2530.344159
973.758204	2527.316946
974.056356	2525.522295
974.354471	2527.508510
974.652550	2526.936339
974.950591	2526.142357
975.248595	2527.377440
975.546563	2530.228212
975.844493	2527.866432
976.142386	2528.930115
976.440243	2527.904240
976.738062	2526.694363
977.035845	2528.859539
977.333590	2528.027748
977.631299	2529.028418
977.928971	2528.819210
978.226606	2527.223684
978.524204	2528.085722
978.821765	2529.093953
979.119290	2528.564631
979.416777	2526.817872
979.714228	2529.194776
980.011642	2526.583458
980.309020	2531.851464
980.606360	2528.640249
980.903664	2528.599919
981.200931	2526.563293
981.498162	2528.935156
981.795356	2528.219312
982.092513	2527.634538
982.389633	2527.926925
982.686717	2529.504807
982.983764	2527.931967
983.280775	2528.136133
983.577749	2527.175793
983.874686	2529.875331
984.171587	2526.601102
984.468451	2527.276617
984.765279	2530.263500
985.062070	2527.019518
985.358824	2527.621936
985.655543	2527.705115
985.952224	2523.977181
986.248869	2526.873324
986.545478	2521.312932
986.842050	2524.566996
987.138586	2523.581451
987.435086	2525.446678
987.731549	2522.311080
988.027975	2530.097142
988.324366	2527.904240
988.620719	2525.998684
988.917037	2527.669827
989.213318	2526.132275
989.509563	2527.150588
989.805772	2524.758560
990.101944	2528.541946
990.398080	2527.410207
990.694180	2526.754857
990.990244	2528.123530
991.286271	2526.626308
991.582262	2528.925074
991.878217	2529.159487
992.174136	2528.121010
992.470019	2524.909795
992.765865	2526.790145
993.061676	2524.503982
993.357450	2528.607481
993.653188	2526.953983
993.948890	2527.352234
994.244556	2526.558252
994.540186	2526.916174
994.835780	2528.040351
995.131337	2527.732841
995.426859	2527.642100
995.722345	2527.173273
996.017795	2526.875845
996.313208	2529.305681
996.608586	2526.701925
996.903928	2525.912984
997.199234	2528.168901
997.494504	2527.387522
997.789738	2526.865763
998.084936	2528.604961
998.380099	2529.900537
998.675225	2528.509179
998.970316	2524.435926
999.265371	2528.370547
999.560390	2525.192099
999.855373	2527.783252
1000.150320	2528.826771
1000.445232	2526.913653
1000.740108	2526.996833
1001.034948	2528.282327
1001.329752	2529.658562
1001.624521	2526.928777
1001.919254	2521.912829
1002.213951	2524.110772
1002.508613	2526.142357
1002.803239	2526.384332
1003.097829	2522.863086
1003.392384	2525.542460
1003.686903	2524.415762
1003.981386	2527.533715
1004.275834	2526.762419
1004.570246	2528.005063
1004.864623	2527.274096
1005.158964	2529.933305
1005.453270	2525.426513
1005.747540	2528.020187
1006.041775	2527.629497
1006.335974	2525.930628
1006.630138	2526.553211
1006.924266	2526.522964
1007.218359	2526.656555
1007.512416	2526.359127
1007.806438	2526.477594
1008.100425	2528.060516
1008.394376	2523.120185
1008.688292	2527.460619
1008.982172	2525.930628
1009.276017	2526.838036
1009.569827	2524.440967
1009.863602	2523.601615
1010.157341	2529.038500
1010.451045	2527.521112
1010.744714	2527.069929
1011.038347	2529.257790
1011.331945	2527.032121
1011.625508	2526.953983
1011.919036	2524.385515
1012.212528	2527.241328
1012.505986	2526.575896
1012.799408	2525.698735
1013.092795	2525.290402
1013.386147	2526.220495
1013.679464	2527.095135
1013.972745	2525.867614
1014.265992	2526.938859
1014.559204	2527.369878
1014.852380	2529.028417
1015.145521	2526.464991
1015.438628	2524.844260
1015.731699	2526.583458
1016.024736	2524.060360
1016.317737	2524.055319
1016.610703	2526.568334
1016.903635	2523.137829
1017.196531	2520.733199
1017.489393	2524.229239
1017.782219	2520.985257
1018.075011	2526.349044
1018.367768	2526.956503
1018.660490	2526.578417
1018.953177	2526.578417
1019.245829	2526.578417
