Dividing Wavelength (nm)	Counts (n)	Blue Motor Position (mm): 0.000000	Red Motor Position (mm): 18.600000	
326.493990	2129.539660
326.888308	2129.539660
327.282561	2129.539660
327.676750	2095.978179
328.070874	2095.952973
328.464933	2097.243508
328.858929	2105.064858
329.252859	2114.958123
329.646726	2129.020422
330.040528	2138.107101
330.434265	2155.264668
330.827938	2172.994407
331.221547	2188.758095
331.615091	2209.754500
332.008571	2227.650597
332.401986	2247.240520
332.795338	2268.176432
333.188625	2287.194185
333.581847	2303.363686
333.975006	2322.598209
334.368100	2342.001610
334.761129	2363.381143
335.154095	2376.397403
335.546996	2392.972716
335.939833	2411.478792
336.332606	2424.111924
336.725315	2437.002154
337.117960	2447.097065
337.510540	2453.063270
337.903056	2465.003243
338.295508	2471.705457
338.687896	2480.734164
339.080220	2489.057109
339.472480	2494.861997
339.864676	2500.429952
340.256807	2505.261898
340.648875	2506.925478
341.040879	2507.923627
341.432818	2514.114164
341.824694	2511.792713
342.216506	2513.005110
342.608253	2515.719771
342.999937	2511.654081
343.391557	2514.595594
343.783113	2510.620644
344.174605	2512.707682
344.566033	2511.321365
344.957397	2509.985459
345.348697	2506.597803
345.739934	2506.726353
346.131106	2504.152844
346.522215	2502.184273
346.913260	2501.145796
347.304241	2498.416011
347.695159	2496.054230
348.086012	2495.353510
348.476802	2492.568272
348.867528	2493.861328
349.258191	2494.080618
349.648789	2491.592809
350.039324	2486.876810
350.429796	2485.024186
350.820203	2487.486789
351.210548	2487.282622
351.600828	2487.554845
351.991045	2486.153404
352.381198	2484.227683
352.771288	2483.932776
353.161314	2482.498567
353.551276	2484.583085
353.941175	2482.223825
354.331010	2483.400934
354.720782	2483.045533
355.110490	2481.500419
355.500135	2480.766931
355.889717	2480.146869
356.279235	2482.959833
356.668689	2482.284318
357.058080	2483.474031
357.447408	2482.667446
357.836672	2478.894143
358.225873	2481.898670
358.615010	2481.339102
359.004084	2487.761532
359.393095	2486.516367
359.782043	2489.309166
360.170927	2486.866727
360.559748	2488.991574
360.948505	2488.721872
361.337199	2489.092397
361.725830	2488.318580
362.114398	2487.050729
362.502903	2490.783704
362.891344	2491.025679
363.279722	2491.333190
363.668037	2495.066164
364.056289	2494.415855
364.444478	2496.717142
364.832603	2494.819148
365.220665	2496.722183
365.608665	2494.796462
365.996601	2497.674961
366.384474	2496.356699
366.772284	2497.783346
367.160031	2499.376351
367.547715	2503.043790
367.935336	2504.581342
368.322893	2507.333812
368.710388	2509.095695
369.097820	2518.741943
369.485189	2522.318642
369.872495	2527.374919
370.259738	2534.735004
370.646918	2541.555685
371.034035	2548.860317
371.421090	2557.674774
371.808081	2568.687175
372.195010	2577.478947
372.581875	2591.110227
372.968678	2606.896600
373.355418	2615.154010
373.742096	2634.927936
374.128710	2650.593322
374.515262	2663.470949
374.901751	2677.354287
375.288177	2688.071780
375.674540	2710.005841
376.060841	2730.619119
376.447079	2751.560072
376.833254	2769.919954
377.219367	2780.647529
377.605417	2818.418375
377.991404	2832.122751
378.377329	2850.545648
378.763191	2868.655993
379.148991	2905.947929
379.534727	2932.953390
379.920402	2961.151084
380.306013	2971.810604
380.691563	3022.822040
381.077049	3042.278373
381.462474	3059.181362
381.847835	3100.614605
382.233134	3124.108903
382.618371	3123.473717
383.003545	3190.992411
383.388657	3197.256045
383.773706	3232.954976
384.158693	3245.399064
384.543618	3274.506687
384.928480	3309.421718
385.313280	3355.649099
385.698017	3353.713296
386.082692	3406.476533
386.467305	3410.784198
386.851856	3442.656894
387.236344	3465.412662
387.620770	3494.621107
388.005133	3523.035571
388.389435	3549.163872
388.773674	3563.435378
389.157851	3605.070268
389.541965	3619.366980
389.926018	3586.007144
390.310008	3654.430726
390.693936	3670.270031
391.077802	3715.322823
391.461606	3704.854867
391.845348	3766.714866
392.229027	3763.788476
392.612645	3778.004530
392.996200	3856.790203
393.379694	3894.868558
393.763125	3956.010193
394.146494	3926.000204
394.529801	3987.403978
394.913047	4034.778222
395.296230	4001.564579
395.679351	4057.498702
396.062410	4079.415118
396.445408	4061.135894
396.828343	4092.663271
397.211217	4120.066983
397.594028	4034.309394
397.976778	4105.182976
398.359466	4131.127274
398.742092	4156.438908
399.124656	4078.981579
399.507158	4159.516532
399.889598	4180.369265
400.271977	4244.255808
400.654294	4219.375193
401.036549	4227.383066
401.418742	4196.503478
401.800874	4297.810506
402.182944	4316.329184
402.564952	4381.236561
402.946898	4367.978326
403.328783	4363.169065
403.710606	4280.053041
404.092367	4466.227894
404.474067	4429.301442
404.855705	4434.178758
405.237282	4365.969426
405.618797	4467.268892
406.000250	4493.193026
406.381642	4572.898709
406.762972	4524.410371
407.144240	4533.360940
407.525447	4529.514539
407.906593	4574.375768
408.287677	4608.154019
408.668700	4530.495044
409.049661	4566.796393
409.430560	4599.579016
409.811399	4512.949308
410.192176	4651.744876
410.572891	4577.866767
410.953545	4658.505063
411.334138	4531.750291
411.714669	4575.121858
412.095139	4462.557934
412.475547	4565.624324
412.855894	4530.421947
413.236180	4516.039535
413.616405	4454.938230
413.996568	4505.957228
414.376670	4429.326648
414.756711	4364.963716
415.136691	4366.818861
415.516609	4395.704672
415.896466	4402.979057
416.276262	4393.015217
416.655997	4347.866643
417.035670	4449.839103
417.415283	4486.261439
417.794834	4405.363523
418.174324	4339.720138
418.553753	4234.080239
418.933121	4319.174916
419.312428	4327.016431
419.691674	4241.243718
420.070859	4277.865181
420.449983	4176.875746
420.829045	4201.521947
421.208047	4103.504272
421.586988	4093.124536
421.965867	4052.722209
422.344686	4073.247267
422.723444	3951.921817
423.102141	3819.596570
423.480777	3919.691200
423.859352	3759.185903
424.237866	3829.194927
424.616319	3776.961011
424.994712	3778.528810
425.373044	3680.266639
425.751314	3685.159079
426.129524	3563.090059
426.507673	3583.988162
426.885762	3571.942325
427.263789	3495.858711
427.641756	3420.785848
428.019662	3410.290165
428.397508	3369.519834
428.775292	3308.020277
429.153016	3291.351702
429.530679	3239.977303
429.908282	3218.128942
430.285824	3155.792555
430.663305	3168.450892
431.040726	3082.272367
431.418086	3052.905125
431.795385	3033.335366
432.172624	3010.453569
432.549802	2975.853609
432.926920	2946.539300
433.303977	2923.556679
433.680974	2900.813514
434.057910	2874.780995
434.434786	2849.991121
434.811601	2821.581699
435.188355	2822.226966
435.565050	2792.403500
435.941683	2768.596651
436.318257	2761.833943
436.694770	2738.473236
437.071222	2725.580485
437.447614	2705.544419
437.823946	2685.352078
438.200218	2681.014165
438.576429	2664.514468
438.952580	2654.175062
439.328670	2648.609628
439.704700	2632.205713
440.080670	2624.981740
440.456580	2622.244393
440.832429	2609.550768
441.208218	2600.718666
441.583947	2595.052409
441.959616	2590.051585
442.335224	2583.427509
442.710773	2582.447004
443.086261	2577.814184
443.461689	2572.631878
443.837057	2568.157854
444.212365	2570.149109
444.587612	2567.212637
444.962800	2563.053685
445.337927	2561.143088
445.712995	2556.696790
446.088002	2559.391287
446.462949	2555.807027
446.837837	2554.680329
447.212664	2554.471121
447.587431	2556.641338
447.962139	2560.286092
448.336786	2564.303892
448.711374	2561.430434
449.085901	2554.030020
449.460369	2552.865513
449.834776	2549.941644
450.209124	2553.490617
450.583412	2555.280226
450.957640	2552.051367
451.331808	2554.193858
451.705917	2549.223280
452.079965	2547.075748
452.453954	2547.655481
452.827883	2548.106664
453.201752	2549.687066
453.575562	2545.976777
453.949311	2548.212528
454.323001	2546.914431
454.696632	2549.379556
455.070202	2549.971891
455.443713	2551.070863
455.817164	2546.410316
456.190556	2545.157589
456.563888	2546.531304
456.937160	2545.641540
457.310373	2548.746891
457.683526	2547.436191
458.056619	2548.565409
458.429653	2547.189174
458.802628	2548.000800
459.175542	2549.293856
459.548398	2548.976263
459.921194	2550.917108
460.293930	2549.634134
460.666607	2549.714792
461.039224	2554.990360
461.411782	2556.444733
461.784280	2557.236194
462.156719	2553.399876
462.529099	2554.095555
462.901419	2555.633107
463.273680	2551.499361
463.645882	2552.101779
464.018024	2553.530946
464.390106	2554.640000
464.762130	2555.958261
465.134094	2557.339537
465.505999	2561.465722
465.877845	2567.820096
466.249631	2571.633729
466.621358	2569.723132
466.993026	2569.834037
467.364634	2569.433266
467.736184	2565.561659
468.107674	2560.333983
468.479105	2562.451267
468.850477	2561.876576
469.221790	2563.618295
469.593043	2557.629404
469.964238	2559.993705
470.335373	2560.964127
470.706449	2559.887841
471.077467	2559.116544
471.448425	2565.917061
471.819324	2572.190777
472.190164	2574.557598
472.560945	2564.283727
472.931667	2563.537636
473.302330	2562.158881
473.672934	2559.353478
474.043479	2563.643500
474.413965	2563.066288
474.784393	2559.736606
475.154761	2561.977399
475.525070	2560.051678
475.895321	2560.051678
476.265513	2561.503531
476.635645	2564.808007
477.005719	2563.114179
477.375734	2567.683985
477.745691	2568.213306
478.115588	2566.821948
478.485427	2570.018039
478.855207	2573.009964
479.224928	2575.848134
479.594591	2575.306210
479.964194	2576.606827
480.333739	2578.262847
480.703226	2576.442990
481.072653	2575.447362
481.442022	2577.413412
481.811333	2579.901222
482.180584	2574.194635
482.549777	2577.415933
482.918912	2575.243195
483.287988	2577.972980
483.657005	2578.474575
484.025964	2576.606827
484.394864	2574.683627
484.763706	2578.724112
485.132489	2574.928123
485.501213	2574.275294
485.869879	2574.383679
486.238487	2571.626167
486.607036	2574.280335
486.975527	2572.972156
487.343959	2573.173802
487.712333	2573.987948
488.080648	2570.320509
488.448905	2572.485684
488.817104	2574.292938
489.185244	2575.147413
489.553326	2569.811352
489.921350	2575.959039
490.289315	2581.365677
490.657222	2581.990780
491.025070	2578.182188
491.392861	2578.860223
491.760593	2577.436097
492.128267	2579.565985
492.495883	2574.963411
492.863440	2574.635736
493.230939	2570.096177
493.598380	2571.260684
493.965763	2566.819427
494.333088	2567.111814
494.700354	2566.184242
495.067563	2572.556260
495.434713	2563.663665
495.801805	2569.445868
496.168839	2568.593913
496.535815	2572.059707
496.902733	2570.789336
497.269593	2572.372258
497.636395	2567.452092
498.003139	2570.108780
498.369825	2572.200859
498.736453	2569.511403
499.103023	2570.524675
499.469535	2572.531055
499.835989	2571.041394
500.202385	2570.809501
500.568723	2570.670869
500.935003	2569.529048
501.301226	2566.106104
501.667390	2570.471743
502.033497	2570.622978
502.399546	2569.566856
502.765537	2569.370251
503.131470	2569.581980
503.497345	2571.548030
503.863163	2571.432083
504.228923	2569.183728
504.594625	2571.953842
504.960269	2571.555591
505.325856	2573.098184
505.691385	2569.072823
506.056856	2569.345045
506.422270	2571.719429
506.787625	2569.700447
507.152924	2572.195818
507.518164	2574.943247
507.883347	2572.009295
508.248472	2570.512072
508.613540	2573.156158
508.978550	2572.117680
509.343503	2569.304716
509.708398	2573.713205
510.073236	2569.576938
510.438016	2574.035839
510.802738	2572.387382
511.167403	2571.409398
511.532010	2568.946794
511.896561	2574.371076
512.261053	2575.404512
512.625488	2571.243040
512.989866	2570.043245
513.354186	2571.626167
513.718449	2565.269272
514.082655	2574.635736
514.446803	2574.272773
514.810894	2570.996023
515.174927	2570.103739
515.538904	2574.353432
515.902822	2575.459965
516.266684	2575.787640
516.630488	2573.047773
516.994235	2573.204049
517.357925	2572.548699
517.721558	2577.100861
518.085133	2574.905438
518.448651	2575.578432
518.812112	2574.043401
519.175516	2572.251271
519.538863	2576.415264
519.902152	2574.292938
520.265385	2575.331416
520.628560	2575.840572
520.991678	2574.660942
521.354739	2577.287383
521.717743	2572.198338
522.080690	2577.597414
522.443580	2574.688668
522.806413	2578.686303
523.169189	2576.241344
523.531908	2575.016343
523.894569	2573.420818
524.257174	2576.793350
524.619722	2577.667990
524.982213	2574.418967
525.344647	2576.138000
525.707025	2575.848134
526.069345	2574.933164
526.431608	2573.715726
526.793815	2575.699420
527.155964	2576.742939
527.518057	2577.415933
527.880093	2577.967939
528.242072	2575.404512
528.603995	2579.109760
528.965860	2573.009964
529.327669	2576.195973
529.689421	2574.086251
530.051117	2575.366704
530.412755	2572.916703
530.774337	2575.742270
531.135862	2575.122208
531.497331	2573.292269
531.858743	2568.470405
532.220098	2572.457958
532.581396	2570.796898
532.942638	2573.912331
533.303824	2574.391240
533.664953	2575.449883
534.026025	2576.316961
534.387040	2576.279152
534.747999	2577.650346
535.108902	2575.071796
535.469748	2575.122208
535.830537	2576.256467
536.191270	2576.062383
536.551947	2576.876529
536.912567	2573.461147
537.273131	2578.620768
537.633638	2577.514235
537.994089	2575.966601
538.354483	2575.830490
538.714821	2575.795202
539.075103	2575.099523
539.435328	2576.022054
539.795497	2574.242526
540.155609	2574.328226
540.515665	2574.189594
540.875665	2575.422156
541.235609	2573.531724
541.595496	2573.655232
541.955328	2576.508525
542.315102	2571.409398
542.674821	2574.565160
543.034483	2573.534244
543.394090	2576.097671
543.753640	2575.336457
544.113134	2574.761765
544.472571	2573.120870
544.831953	2573.284707
545.191278	2572.316806
545.550548	2576.102712
545.909761	2572.702454
546.268918	2574.000551
546.628019	2572.929306
546.987064	2573.065417
547.346053	2575.505335
547.704986	2572.979717
548.063863	2573.892166
548.422684	2574.504666
548.781449	2574.441652
549.140158	2574.461817
549.498811	2575.838052
549.857408	2572.931826
550.215949	2570.297823
550.574434	2571.323698
550.932864	2570.151630
551.291237	2570.625498
551.649555	2574.088771
552.007817	2573.456106
552.366022	2575.109605
552.724173	2574.159347
553.082267	2573.156158
553.440305	2570.607854
553.798288	2574.958370
554.156215	2575.021385
554.514086	2574.660942
554.871902	2572.964594
555.229661	2572.286559
555.587365	2572.329408
555.945014	2575.006261
556.302606	2573.652711
556.660143	2575.167578
557.017625	2571.910993
557.375050	2573.319995
557.732421	2574.292938
558.089735	2573.564491
558.446994	2574.726477
558.804197	2574.736559
559.161345	2574.466858
559.518437	2574.676066
559.875474	2571.137176
560.232455	2571.691702
560.589381	2570.822103
560.946251	2577.458782
561.303065	2575.550706
561.659825	2575.457444
562.016528	2571.154820
562.373177	2572.707495
562.729770	2572.689851
563.086307	2573.642629
563.442789	2573.133472
563.799216	2570.741445
564.155587	2574.542475
564.511904	2574.310582
564.868164	2573.740932
565.224370	2572.616754
565.580520	2572.145406
565.936615	2575.979204
566.292654	2569.778585
566.648638	2572.344532
567.004567	2571.260684
567.360441	2573.453586
567.716260	2572.374779
568.072023	2570.769171
568.427732	2569.060220
568.783385	2566.809345
569.138982	2569.055179
569.494525	2571.490056
569.850013	2566.781619
570.205445	2571.341342
570.560823	2573.201528
570.916145	2571.021229
571.271412	2571.202711
571.626625	2568.777916
571.981782	2571.353945
572.336884	2572.558781
572.691931	2570.378482
573.046923	2569.279510
573.401860	2572.543658
573.756743	2571.074161
574.111570	2570.973338
574.466342	2572.896538
574.821059	2572.097515
575.175722	2570.857392
575.530330	2570.847309
575.884882	2570.305385
576.239380	2568.228430
576.593823	2571.704305
576.948211	2569.224058
577.302544	2569.355128
577.656823	2571.580797
578.011047	2570.774212
578.365216	2569.639953
578.719330	2568.417473
579.073389	2570.370920
579.427394	2566.907648
579.781344	2566.728687
580.135239	2567.368913
580.489080	2569.352607
580.842866	2568.898903
581.196597	2571.946281
581.550273	2569.329922
581.903895	2567.424366
582.257463	2569.662638
582.610975	2567.696588
582.964434	2566.305230
583.317837	2568.702298
583.671186	2569.221537
584.024481	2568.435117
584.377721	2568.735066
584.730906	2567.447051
585.084037	2565.833882
585.437113	2569.917216
585.790135	2568.273800
586.143103	2566.660631
586.496016	2567.910837
586.848874	2562.584858
587.201679	2565.387740
587.554428	2561.697615
587.907124	2563.585527
588.259765	2562.635270
588.612352	2565.430589
588.964884	2567.797411
589.317362	2563.862791
589.669786	2566.075857
590.022155	2562.983109
590.374470	2567.046279
590.726731	2566.360682
591.078937	2567.421845
591.431090	2568.994685
591.783188	2565.687688
592.135232	2567.542833
592.487222	2567.207596
592.839157	2565.191135
593.191038	2563.782132
593.542866	2564.964283
593.894639	2565.448233
594.246358	2563.275496
594.598022	2564.452606
594.949633	2560.822975
595.301190	2565.486042
595.652692	2564.739951
596.004141	2564.122410
596.355535	2566.585014
596.706876	2562.935218
597.058162	2563.751885
597.409395	2562.761298
597.760573	2562.216854
598.111698	2564.099725
598.462768	2560.253324
598.813785	2561.317008
599.164748	2561.725341
599.515657	2564.941597
599.866511	2559.645865
600.217312	2562.234498
600.568060	2561.226267
600.918753	2562.383212
601.269392	2562.267265
601.619978	2561.818603
601.970510	2561.952193
602.320988	2562.012687
602.671412	2560.263407
603.021783	2562.370609
603.372100	2561.480845
603.722363	2561.765671
604.072572	2561.521175
604.422728	2563.421690
604.772830	2560.732234
605.122878	2557.606719
605.472872	2561.145609
605.822813	2557.019424
606.172701	2559.088818
606.522534	2560.465053
606.872314	2564.545867
607.222041	2560.059240
607.571714	2562.889848
607.921333	2563.693912
608.270899	2561.833726
608.620411	2563.295661
608.969870	2562.572255
609.319276	2564.129972
609.668627	2565.788511
610.017926	2568.777916
610.367171	2569.428224
610.716362	2571.991651
611.065500	2566.786660
611.414585	2566.769016
611.763616	2569.942422
612.112594	2563.401525
612.461518	2563.885476
612.810389	2567.366392
613.159207	2562.073181
613.507971	2562.980589
613.856682	2564.263562
614.205340	2563.779612
614.553945	2563.749365
614.902496	2565.375137
615.250994	2564.651731
615.599439	2561.919426
615.947830	2563.512430
616.296169	2563.217523
616.644454	2564.462688
616.992686	2562.123592
617.340864	2561.932029
617.688990	2562.831875
618.037063	2560.936401
618.385082	2564.634087
618.733048	2561.969837
619.080961	2562.652914
619.428821	2563.867832
619.776628	2562.597461
620.124382	2565.629715
620.472083	2563.426731
620.819731	2562.652914
621.167326	2564.160219
621.514868	2561.372461
621.862357	2559.482028
622.209793	2560.207954
622.557176	2559.587892
622.904506	2560.386915
623.251783	2556.540515
623.599007	2559.885320
623.946179	2556.341389
624.293297	2556.759805
624.640363	2560.172666
624.987376	2560.956565
625.334336	2561.019580
625.681243	2560.676781
626.028097	2558.985474
626.374899	2562.368088
626.721647	2560.616288
627.068343	2557.629404
627.414987	2554.692932
627.761577	2556.729558
628.108115	2557.722665
628.454600	2556.848025
628.801032	2557.021945
629.147412	2559.078736
629.493739	2559.605536
629.840014	2560.316339
630.186236	2558.743499
630.532405	2559.189641
630.878521	2559.315670
631.224585	2555.940617
631.570597	2556.119578
631.916556	2557.934394
632.262462	2557.997408
632.608316	2560.460012
632.954117	2560.316339
633.299866	2556.580844
633.645562	2555.849877
633.991206	2557.294167
634.336797	2555.224773
634.682336	2556.807696
635.027823	2553.977088
635.373257	2557.125288
635.718639	2555.565051
636.063968	2554.138405
636.409245	2553.878785
636.754470	2555.275185
637.099642	2554.725699
637.444762	2557.778118
637.789829	2555.756615
638.134845	2556.674105
638.479808	2554.007335
638.824719	2555.144115
639.169577	2554.065308
639.514383	2552.966337
639.859137	2551.317879
640.203839	2553.490617
640.548489	2555.096224
640.893086	2552.336192
641.237632	2548.693959
641.582125	2551.325441
641.926566	2546.559030
642.270955	2552.376522
642.615292	2553.692263
642.959576	2551.358208
643.303809	2550.866696
643.647990	2553.288970
643.992118	2554.927345
644.336195	2552.676470
644.680219	2551.663198
645.024192	2552.525236
645.368112	2554.093034
645.711981	2552.852911
646.055797	2554.035061
646.399562	2553.961964
646.743274	2555.333158
647.086935	2553.639331
647.430544	2554.448436
647.774101	2552.926007
648.117606	2556.159907
648.461059	2552.724361
648.804460	2557.087480
649.147810	2554.231666
649.491108	2553.813250
649.834354	2552.983981
650.177548	2554.098076
650.520690	2554.917263
650.863781	2552.933569
651.206820	2556.495144
651.549807	2552.613456
651.892742	2551.701007
652.235626	2555.358364
652.578458	2554.813919
652.921238	2552.830225
653.263967	2551.806871
653.606644	2550.155893
653.949269	2553.535987
654.291843	2550.057591
654.634365	2552.414330
654.976836	2552.469783
655.319255	2550.297046
655.661622	2551.600184
656.003938	2551.791748
656.346203	2550.165976
656.688416	2554.239228
657.030577	2550.596994
657.372687	2552.910884
657.714746	2551.451470
658.056753	2554.715617
658.398708	2549.114895
658.740612	2549.687066
659.082465	2549.785368
659.424266	2549.782848
659.766016	2545.286139
660.107715	2551.002807
660.449362	2552.290822
660.790958	2551.249824
661.132503	2552.220246
661.473996	2550.506253
661.815438	2552.568085
662.156829	2552.240410
662.498168	2549.520708
662.839456	2551.738816
663.180693	2552.167314
663.521879	2552.157231
663.863013	2552.295863
664.204097	2553.452808
664.545129	2551.262427
664.886110	2551.663198
665.227040	2553.021789
665.567918	2555.179403
665.908746	2550.435677
666.249522	2551.660678
666.590248	2553.813250
666.930922	2549.878630
667.271545	2552.689073
667.612118	2548.366284
667.952639	2550.090358
668.293109	2552.189999
668.633528	2551.229659
668.973896	2549.049360
669.314213	2550.619679
669.654480	2549.427447
669.994695	2550.856614
670.334859	2551.370811
670.674973	2551.567416
671.015035	2552.890719
671.355047	2551.194371
671.695008	2553.480534
672.034918	2552.232849
672.374777	2548.451983
672.714585	2553.457849
673.054342	2549.311500
673.394049	2552.575647
673.733705	2553.122612
674.073310	2550.526418
674.412864	2550.639844
674.752368	2551.585060
675.091820	2551.345606
675.431223	2550.854093
675.770574	2549.755122
676.109875	2546.508618
676.449125	2547.383259
676.788324	2546.445604
677.127473	2547.499205
677.466571	2545.265974
677.805619	2547.768907
678.144616	2550.286963
678.483562	2549.566078
678.822458	2551.171686
679.161303	2551.048177
679.500098	2550.392827
679.838842	2549.689587
680.177535	2550.498692
680.516179	2547.741181
680.854771	2551.030533
681.193314	2550.917108
681.531805	2550.476007
681.870247	2550.118085
682.208638	2551.005328
682.546978	2549.651778
682.885268	2549.833259
683.223508	2552.956254
683.561697	2551.481717
683.899836	2552.696635
684.237925	2548.930893
684.575963	2547.932744
684.913951	2548.696479
685.251889	2550.075235
685.589776	2550.546583
685.927614	2551.998435
686.265401	2550.279402
686.603137	2548.489792
686.940824	2549.634134
687.278460	2552.028682
687.616046	2550.430636
687.953582	2550.995245
688.291068	2551.736295
688.628504	2553.339382
688.965889	2550.770914
689.303224	2549.281253
689.640510	2551.895091
689.977745	2550.690256
690.314930	2551.885009
690.652065	2549.472817
690.989150	2547.174051
691.326185	2547.421067
691.663170	2548.986346
692.000105	2549.976932
692.336990	2549.450132
692.673825	2549.230842
693.010610	2548.522559
693.347345	2547.773948
693.684030	2541.772454
694.020665	2545.258412
694.357251	2544.623227
694.693786	2546.503577
695.030272	2544.119112
695.366707	2548.192364
695.703093	2546.831252
696.039429	2548.015923
696.375716	2545.754966
696.711952	2545.878474
697.048139	2547.630275
697.384276	2548.041129
697.720363	2547.983156
698.056400	2547.161448
698.392388	2546.556509
698.728326	2547.736139
699.064214	2547.952909
699.400053	2547.017775
699.735842	2542.952084
700.071581	2545.795295
700.407270	2547.847045
700.742910	2545.144986
701.078501	2546.985007
701.414042	2545.220604
701.749533	2542.929399
702.084974	2547.232024
702.420366	2547.612631
702.755709	2544.663556
703.091002	2543.831766
703.426246	2546.201108
703.761440	2543.536858
704.096584	2548.141952
704.431679	2541.913607
704.766725	2546.213711
705.101721	2543.425953
705.436668	2543.488967
705.771565	2543.108360
706.106413	2544.073741
706.441212	2543.680531
706.775961	2545.049204
707.110661	2546.080120
707.445311	2548.580533
707.779913	2546.793444
708.114465	2546.301931
708.448967	2547.289997
708.783421	2544.986190
709.117825	2545.432332
709.452180	2549.538352
709.786485	2546.642209
710.120742	2547.310162
710.454949	2545.175233
710.789107	2544.855120
711.123216	2541.107022
711.457275	2545.031560
711.791286	2541.802701
712.125247	2547.143804
712.459159	2546.128011
712.793023	2545.961653
713.126837	2547.678166
713.460602	2548.336037
713.794318	2546.367466
714.127985	2545.112219
714.461602	2545.439894
714.795171	2545.873433
715.128691	2546.735470
715.462162	2547.118598
715.795584	2542.591642
716.128957	2546.445604
716.462281	2546.359904
716.795556	2544.774462
717.128782	2546.107847
717.461960	2546.284287
717.795088	2544.272867
718.128167	2543.088196
718.461198	2542.669780
718.794180	2543.234389
719.127113	2542.579039
719.459997	2545.644061
719.792833	2544.272867
720.125619	2545.530635
720.458357	2542.248843
720.791046	2542.395037
721.123686	2542.584080
721.456278	2546.120450
721.788821	2542.876467
722.121315	2546.392672
722.453761	2541.845551
722.786158	2544.209852
723.118506	2541.432177
723.450805	2541.107022
723.783056	2542.483257
724.115259	2541.724563
724.447412	2541.820345
724.779518	2544.114070
725.111574	2542.120294
725.443582	2544.497198
725.775542	2543.297403
726.107453	2542.339584
726.439315	2545.213042
726.771129	2544.668597
727.102895	2541.901004
727.434612	2543.052908
727.766281	2544.363608
728.097901	2542.644574
728.429473	2540.199614
728.760996	2541.875798
729.092471	2540.905376
729.423897	2544.262784
729.755276	2545.944009
730.086606	2544.696324
730.417887	2543.675490
730.749120	2545.240768
731.080305	2544.847558
731.411442	2544.865202
731.742530	2543.804039
732.073570	2543.884698
732.404562	2545.180274
732.735506	2543.952753
733.066401	2546.427960
733.397249	2546.349822
733.728048	2542.606765
734.058798	2542.223638
734.389501	2543.967877
734.720156	2544.862682
735.050762	2542.074924
735.381320	2540.285314
735.711831	2543.932589
736.042293	2542.639533
736.372707	2541.885880
736.703073	2542.158103
737.033391	2543.660367
737.363661	2541.764893
737.693883	2542.528627
738.024056	2545.502908
738.354182	2542.828576
738.684260	2540.625592
739.014290	2543.614996
739.344272	2541.769934
739.674207	2543.062990
740.004093	2543.481406
740.333931	2539.876981
740.663722	2542.808412
740.993464	2542.213555
741.323159	2544.043494
741.652806	2541.812784
741.982405	2542.694986
742.311956	2541.107022
742.641460	2543.199101
742.970915	2541.172557
743.300323	2542.642053
743.629683	2539.831610
743.958996	2541.684234
744.288260	2541.414532
744.617477	2540.202135
744.946647	2537.588297
745.275768	2538.420087
745.604842	2536.965714
745.933869	2537.900848
746.262847	2533.893131
746.591778	2537.439583
746.920662	2541.409491
747.249498	2543.879657
747.578286	2539.534182
747.907027	2540.754141
748.235720	2540.320602
748.564365	2544.691283
748.892963	2540.189532
749.221514	2543.103319
749.550017	2542.664739
749.878473	2541.200283
750.206881	2542.137938
750.535242	2543.209183
750.863555	2540.474357
751.191821	2540.683565
751.520039	2540.814635
751.848210	2543.360418
752.176334	2537.381609
752.504411	2543.942671
752.832440	2540.796991
753.160421	2542.374872
753.488356	2545.555840
753.816243	2542.450490
754.144082	2538.886394
754.471875	2540.575180
754.799620	2539.781199
755.127318	2537.903369
755.454969	2540.474357
755.782572	2543.781354
756.110129	2542.778165
756.437638	2541.679193
756.765100	2538.417567
757.092515	2542.614327
757.419882	2539.781199
757.747203	2539.390509
758.074477	2538.720036
758.401703	2537.931095
758.728882	2542.838658
759.056014	2538.480581
759.383099	2539.602238
759.710138	2542.417722
760.037129	2541.217927
760.364073	2541.958977
760.690970	2541.215407
761.017820	2540.071065
761.344623	2543.141128
761.671379	2540.958308
761.998088	2539.140972
762.324751	2540.015612
762.651366	2541.734646
762.977935	2544.393854
763.304456	2546.886705
763.630931	2551.937941
763.957359	2550.007179
764.283740	2549.979453
764.610074	2544.035933
764.936362	2543.862013
765.262602	2541.711961
765.588796	2541.709440
765.914943	2539.970242
766.241044	2541.787578
766.567097	2539.962680
766.893104	2542.871426
767.219064	2538.493184
767.544978	2539.781199
767.870845	2536.504449
768.196665	2539.508976
768.522438	2538.515869
768.848165	2540.292876
769.173846	2540.355890
769.499479	2538.039480
769.825066	2538.785571
770.150607	2538.699871
770.476101	2536.995961
770.801548	2542.148020
771.126949	2538.898997
771.452303	2540.144162
771.777611	2538.999820
772.102872	2539.597197
772.428087	2539.768596
772.753256	2540.008051
773.078378	2537.379089
773.403453	2535.261804
773.728482	2537.099305
774.053465	2535.798687
774.378401	2537.956301
774.703291	2537.444624
775.028135	2534.596372
775.352932	2535.234078
775.677683	2538.215920
776.002388	2539.463606
776.327046	2537.369007
776.651658	2537.684079
776.976224	2534.969417
777.300743	2541.500232
777.625216	2537.379089
777.949643	2536.985879
778.274024	2541.137269
778.598359	2534.815662
778.922647	2534.649304
779.246889	2533.857843
779.571086	2530.555887
779.895236	2535.135775
780.219339	2536.522093
780.543397	2537.424459
780.867409	2536.254912
781.191374	2538.445293
781.515294	2536.837165
781.839167	2537.442103
782.162995	2535.627288
782.486776	2536.910262
782.810511	2538.099974
783.134201	2537.230375
783.457844	2537.573173
783.781441	2535.138296
784.104993	2537.638708
784.428498	2537.477391
784.751958	2537.547967
785.075372	2538.906558
785.398739	2534.172915
785.722061	2536.156609
786.045337	2538.722556
786.368568	2534.687113
786.691752	2535.886907
787.014891	2537.764737
787.337983	2534.941691
787.661030	2536.867412
787.984031	2536.194418
788.306987	2537.774819
788.629897	2537.558050
788.952760	2540.123997
789.275579	2537.051414
789.598351	2539.352701
789.921078	2535.294572
790.243759	2535.912113
790.566395	2536.943029
790.888984	2535.344983
791.211529	2534.606454
791.534027	2536.023018
791.856480	2536.678368
792.178888	2536.121321
792.501249	2537.759696
792.823566	2535.902031
793.145836	2535.844057
793.468062	2536.133924
793.790241	2534.341794
794.112375	2537.424459
794.434464	2538.162988
794.756507	2531.992616
795.078505	2537.845396
795.400457	2534.833306
795.722364	2533.431865
796.044226	2534.830786
796.366042	2535.682741
796.687812	2534.273738
797.009538	2538.513348
797.331218	2536.017977
797.652852	2533.073943
797.974442	2536.980838
798.295986	2536.335570
798.617484	2537.563091
798.938938	2536.494366
799.260346	2540.819676
799.581709	2534.336753
799.903026	2536.895138
800.224299	2537.963863
800.545526	2534.669469
800.866708	2537.114428
801.187845	2536.111239
801.508936	2535.153419
801.829983	2535.569315
802.150984	2535.314736
802.471940	2534.961856
802.792851	2535.334901
803.113717	2536.194418
803.434538	2535.561753
803.755314	2536.330529
804.076045	2537.437062
804.396731	2532.259797
804.717372	2535.075282
805.037967	2535.271887
805.358518	2534.077133
805.679024	2539.065355
805.999485	2535.037473
806.319901	2536.469161
806.640272	2535.327339
806.960598	2535.108049
807.280879	2534.336753
807.601115	2534.021680
807.921306	2534.961856
808.241453	2535.954963
808.561554	2538.185673
808.881611	2535.889428
809.201623	2534.324150
809.521590	2538.205838
809.841513	2537.220292
810.161390	2535.970086
810.481223	2534.162833
810.801011	2535.390354
811.120755	2534.029242
811.440453	2534.475384
811.760107	2535.796167
812.079716	2533.757020
812.399281	2533.378933
812.718801	2535.072761
813.038276	2532.718542
813.357707	2533.570497
813.677093	2536.191897
813.996434	2534.283820
814.315731	2535.660055
814.634983	2534.394726
814.954191	2533.789787
815.273354	2535.791125
815.592473	2534.747607
815.911547	2535.347504
816.230577	2535.148378
816.549562	2534.450178
816.868502	2535.236598
817.187399	2534.261135
817.506250	2538.367155
817.825058	2535.342463
818.143821	2536.874973
818.462539	2535.287010
818.781213	2536.222144
819.099843	2537.187525
819.418429	2539.700540
819.736970	2539.846734
820.055466	2540.141641
820.373919	2540.655839
820.692327	2543.972918
821.010691	2546.969884
821.329011	2549.954247
821.647286	2566.973182
821.965517	2581.181675
822.283704	2590.109558
822.601847	2593.572831
822.919945	2587.195771
823.237999	2576.223700
823.556010	2569.687844
823.873976	2561.601833
824.191897	2554.685370
824.509775	2553.278888
824.827609	2549.472817
825.145398	2549.576161
825.463144	2548.096582
825.780845	2548.386448
826.098502	2547.108516
826.416116	2551.280071
826.733685	2557.941955
827.051210	2558.924980
827.368692	2557.248797
827.686129	2553.417520
828.003522	2548.638506
828.320872	2540.285314
828.638177	2541.863195
828.955439	2538.168029
829.272656	2538.747762
829.589830	2534.387164
829.906960	2538.765406
830.224046	2534.326670
830.541088	2539.405633
830.858086	2537.777340
831.175041	2537.321116
831.491952	2536.476722
831.808819	2536.617875
832.125642	2540.492001
832.442421	2538.180632
832.759157	2540.441590
833.075849	2542.130376
833.392497	2542.110212
833.709101	2545.654143
834.025662	2546.795964
834.342179	2544.033412
834.658653	2541.202804
834.975083	2542.246323
835.291469	2540.428987
835.607811	2537.661393
835.924110	2536.375899
836.240366	2537.585776
836.556578	2535.418080
836.872746	2539.498894
837.188871	2537.263142
837.504952	2533.847761
837.820990	2531.853984
838.136984	2533.976310
838.452935	2533.794828
838.768842	2535.080323
839.084706	2532.196783
839.400526	2537.369007
839.716303	2538.359593
840.032037	2540.590304
840.347727	2539.413194
840.663373	2539.193904
840.978977	2535.647453
841.294537	2534.266176
841.610054	2532.690816
841.925527	2535.072761
842.240957	2536.164171
842.556344	2535.279448
842.871687	2531.518748
843.186987	2534.878677
843.502244	2535.544109
843.817458	2534.417411
844.132629	2534.566125
844.447756	2531.624612
844.762840	2528.453726
845.077881	2531.218799
845.392879	2529.542615
845.707833	2531.430527
846.022745	2528.652852
846.337613	2533.265507
846.652438	2531.982534
846.967221	2532.605116
847.281960	2535.087884
847.596656	2536.317926
847.911309	2532.340456
848.225919	2532.262318
848.540485	2529.827440
848.855009	2533.502442
849.169490	2531.140661
849.483928	2532.169056
849.798323	2532.937832
850.112675	2532.952956
850.426984	2531.352389
850.741251	2533.517565
851.055474	2533.386495
851.369654	2533.131917
851.683792	2530.467667
851.997887	2533.174767
852.311938	2530.533202
852.625947	2535.198790
852.939914	2530.064375
853.253837	2534.518234
853.567718	2533.973789
853.881555	2530.533202
854.195350	2530.752492
854.509103	2532.408511
854.822812	2530.263500
855.136479	2533.560415
855.450103	2529.930784
855.763685	2533.958666
856.077224	2532.960518
856.390720	2531.382636
856.704173	2531.990095
857.017584	2531.105373
857.330953	2531.818696
857.644278	2532.595034
857.957561	2533.709129
858.270802	2532.484128
858.584000	2531.672503
858.897155	2532.952956
859.210268	2530.752492
859.523339	2534.044366
859.836367	2531.859025
860.149352	2534.210724
860.462295	2533.446989
860.775195	2529.262831
861.088054	2529.096473
861.400869	2530.248377
861.713642	2525.192099
862.026373	2529.696370
862.339062	2535.380271
862.651708	2530.019004
862.964312	2533.467153
863.276873	2532.463964
863.589392	2530.843233
863.901869	2531.344828
864.214303	2533.711649
864.526696	2534.167874
864.839045	2532.234591
865.151353	2531.516227
865.463619	2532.131248
865.775842	2533.421783
866.088023	2533.227699
866.400162	2534.795498
866.712258	2532.998326
867.024313	2534.374561
867.336325	2533.464633
867.648296	2533.613347
867.960224	2531.765764
868.272110	2534.498069
868.583954	2532.602596
868.895755	2534.394726
869.207515	2531.667462
869.519233	2532.900024
869.830909	2531.924560
870.142542	2533.262987
870.454134	2533.746937
870.765684	2531.314581
871.077191	2532.123686
871.388657	2534.654345
871.700081	2531.246525
872.011463	2535.324819
872.322803	2530.976823
872.634101	2532.597554
872.945357	2530.455064
873.256571	2535.481094
873.567744	2534.873635
873.878874	2535.113090
874.189963	2532.993285
874.501010	2535.110570
874.812015	2532.370702
875.122979	2531.591844
875.433900	2531.836340
875.744780	2531.473377
876.055618	2533.666279
876.366415	2532.645445
876.677169	2535.690302
876.987882	2531.060003
877.298554	2530.664272
877.609183	2531.485980
877.919771	2530.613860
878.230317	2534.072092
878.540822	2535.072761
878.851285	2533.996475
879.161707	2537.316074
879.472087	2533.477236
879.782425	2538.583925
880.092722	2542.009389
880.402977	2545.371838
880.713191	2551.776624
881.023363	2559.038406
881.333494	2567.217678
881.643583	2568.195662
881.953631	2567.016032
882.263637	2565.440672
882.573602	2560.215516
882.883526	2554.561862
883.193408	2552.550441
883.503248	2548.537683
883.813048	2546.271684
884.122806	2543.428473
884.432522	2542.878988
884.742197	2540.986034
885.051831	2541.301107
885.361424	2538.576363
885.670975	2539.007382
885.980485	2535.052596
886.289954	2537.512679
886.599382	2537.091743
886.908768	2536.133924
887.218113	2537.064017
887.527417	2533.804911
887.836680	2530.074457
888.145901	2536.060827
888.455082	2532.988244
888.764221	2534.775333
889.073319	2534.729962
889.382376	2534.339273
889.691392	2533.177287
890.000366	2537.172402
890.309300	2533.262987
890.618193	2534.094777
890.927044	2534.392205
891.235855	2532.990764
891.544625	2531.453213
891.853353	2533.663758
892.162041	2533.610826
892.470687	2533.595703
892.779293	2535.370189
893.087858	2531.828778
893.396381	2531.097811
893.704864	2536.131403
894.013306	2531.319622
894.321707	2540.151723
894.630068	2543.196580
894.938387	2544.093906
895.246665	2543.186498
895.554903	2541.001158
895.863100	2540.272711
896.171256	2541.109543
896.479371	2538.266332
896.787446	2535.148378
897.095480	2537.749614
897.403473	2534.394726
897.711425	2534.044366
898.019336	2533.573018
898.327207	2535.155940
898.635038	2534.639222
898.942827	2531.551515
899.250576	2532.726104
899.558284	2531.957328
899.865952	2534.230888
900.173579	2532.859694
900.481165	2535.660055
900.788711	2532.090918
901.096216	2532.700898
901.403681	2531.922040
901.711105	2534.752648
902.018489	2531.617050
902.325832	2534.997144
902.633135	2533.482277
902.940397	2533.633512
903.247619	2533.061341
903.554800	2535.420601
903.861941	2539.816487
904.169041	2544.925696
904.476101	2545.535676
904.783121	2550.604556
905.090100	2545.621375
905.397039	2544.754297
905.703938	2541.008720
906.010796	2540.408822
906.317614	2536.456558
906.624391	2535.067720
906.931129	2537.048893
907.237826	2536.368338
907.544483	2534.165353
907.851099	2533.847761
908.157675	2531.710311
908.464211	2532.398429
908.770707	2528.970444
909.077163	2530.029087
909.383578	2526.979188
909.689954	2527.140505
909.996289	2527.357275
910.302584	2531.685106
910.608839	2529.386339
910.915054	2531.468336
911.221229	2530.651669
911.527363	2532.383305
911.833458	2531.763243
912.139513	2531.032276
912.445527	2531.246525
912.751502	2530.613860
913.057436	2532.509334
913.363331	2535.148378
913.669186	2532.426155
913.975000	2533.399098
914.280775	2532.272400
914.586510	2536.098636
914.892205	2537.162319
915.197859	2539.599717
915.503475	2538.168029
915.809050	2545.593649
916.114585	2546.473330
916.420081	2549.760163
916.725536	2544.754297
917.030952	2547.695810
917.336328	2541.994265
917.641665	2541.837989
917.946961	2538.800694
918.252218	2536.953111
918.557435	2537.794984
918.862612	2539.040149
919.167750	2536.988399
919.472848	2535.881866
919.777906	2533.028573
920.082925	2535.100487
920.387904	2532.446320
920.692843	2530.656710
920.997743	2534.296423
921.302603	2531.317101
921.607423	2532.572349
921.912204	2533.938501
922.216946	2532.264838
922.521647	2533.671320
922.826310	2530.923891
923.130932	2534.855991
923.435516	2531.982534
923.740059	2530.893644
924.044564	2531.246525
924.349028	2529.265352
924.653454	2525.413910
924.957840	2528.562111
925.262186	2526.429703
925.566493	2532.763913
925.870761	2526.832995
926.174989	2530.606299
926.479178	2530.359282
926.783328	2528.640249
927.087438	2530.848274
927.391509	2531.548994
927.695541	2529.139323
927.999533	2531.158305
928.303486	2529.761905
928.607400	2531.022194
928.911275	2528.819210
929.215110	2528.899868
929.518906	2529.651000
929.822663	2530.835671
930.126381	2529.222502
930.430060	2526.636390
930.733699	2529.988757
931.037299	2528.173942
931.340861	2530.790301
931.644383	2530.152595
931.947866	2530.213089
932.251309	2529.615712
932.554714	2530.492873
932.858080	2531.362472
933.161407	2528.108407
933.464694	2531.312060
933.767943	2532.625281
934.071153	2528.163860
934.374323	2529.101514
934.677455	2529.088911
934.980548	2530.399611
935.283602	2530.571011
935.586617	2529.449354
935.889593	2530.074457
936.192530	2528.824251
936.495428	2533.547812
936.798287	2529.172090
937.101108	2528.098325
937.403890	2529.998840
937.706632	2529.857687
938.009336	2531.425486
938.312002	2529.769467
938.614628	2531.150743
938.917216	2528.657893
939.219765	2532.027904
939.522275	2529.943387
939.824747	2531.420445
940.127179	2527.843746
940.429573	2523.578930
940.731929	2527.558921
941.034246	2528.902389
941.336524	2529.240146
941.638763	2534.044366
941.940964	2530.112266
942.243126	2530.591175
942.545250	2529.764426
942.847335	2528.907430
943.149381	2531.385157
943.451389	2527.180835
943.753359	2529.701412
944.055290	2530.442461
944.357182	2530.830630
944.659036	2531.022194
944.960851	2530.016484
945.262628	2529.098994
945.564367	2529.676206
945.866067	2530.881042
946.167729	2533.152081
946.469352	2530.180321
946.770937	2530.518078
947.072484	2528.035310
947.373992	2531.314581
947.675462	2525.769312
947.976893	2531.944725
948.278286	2529.008253
948.579641	2530.986906
948.880958	2531.082688
949.182236	2531.027235
949.483476	2528.521782
949.784678	2528.156298
950.085841	2528.514220
950.386967	2530.288706
950.688054	2528.325177
950.989103	2529.832482
951.290114	2530.160157
951.591087	2527.359796
951.892021	2526.744775
952.192917	2529.131761
952.493776	2529.976154
952.794596	2529.993798
953.095378	2528.385670
953.396122	2529.444313
953.696828	2528.153777
953.997496	2528.647810
954.298126	2529.419107
954.598718	2531.352389
954.899272	2527.788294
955.199788	2527.931967
955.500266	2528.022707
955.800706	2526.805269
956.101108	2525.355937
956.401472	2525.817203
956.701798	2524.955165
957.002087	2525.882738
957.302337	2525.797038
957.602550	2527.747964
957.902724	2529.048582
958.202861	2528.993129
958.502960	2531.639735
958.803022	2526.606143
959.103045	2526.278468
959.403031	2528.483973
959.702979	2528.965403
960.002889	2529.461957
960.302762	2529.051103
960.602596	2529.782070
960.902393	2526.389373
961.202153	2528.453726
961.501875	2528.998171
961.801559	2527.886596
962.101205	2528.226874
962.400814	2527.437933
962.700385	2529.545136
962.999918	2528.509179
963.299414	2526.706966
963.598873	2528.186545
963.898293	2529.782070
964.197677	2529.938346
964.497022	2529.439272
964.796331	2530.981865
965.095601	2529.086391
965.394835	2528.625125
965.694030	2529.870290
965.993189	2529.383819
966.292309	2528.839374
966.591393	2527.284178
966.890439	2527.465660
967.189447	2528.153777
967.488419	2531.831299
967.787353	2528.544467
968.086249	2525.933149
968.385108	2527.679909
968.683930	2529.202337
968.982714	2526.724610
969.281462	2528.325177
969.580172	2525.149250
969.878844	2528.446164
970.177480	2527.611853
970.476078	2530.137471
970.774639	2529.918181
971.073162	2527.037162
971.371649	2524.544311
971.670098	2527.629497
971.968510	2523.271420
972.266885	2524.839219
972.565223	2527.473222
972.863524	2527.541277
973.161788	2528.466329
973.460014	2528.599919
973.758204	2527.412728
974.056356	2526.696884
974.354471	2526.228057
974.652550	2527.258973
974.950591	2528.257121
975.248595	2528.604961
975.546563	2528.788963
975.844493	2528.385670
976.142386	2526.283509
976.440243	2528.398273
976.738062	2528.000022
977.035845	2528.015146
977.333590	2527.967255
977.631299	2529.812317
977.928971	2528.262162
978.226606	2525.577748
978.524204	2529.671165
978.821765	2524.249404
979.119290	2527.629497
979.416777	2527.437933
979.714228	2528.262162
980.011642	2527.732841
980.309020	2528.887265
980.606360	2527.206040
980.903664	2525.746626
981.200931	2529.098994
981.498162	2527.813499
981.795356	2529.003212
982.092513	2527.153108
982.389633	2527.168232
982.686717	2527.571524
982.983764	2527.163191
983.280775	2527.566483
983.577749	2531.004550
983.874686	2526.835516
984.171587	2527.879034
984.468451	2529.232584
984.765279	2529.101514
985.062070	2525.502130
985.358824	2526.953983
985.655543	2528.264683
985.952224	2526.525485
986.248869	2527.145547
986.545478	2522.893333
986.842050	2523.261338
987.138586	2524.526667
987.435086	2525.245032
987.731549	2523.082377
988.027975	2531.221319
988.324366	2527.836185
988.620719	2527.689991
988.917037	2526.585978
989.213318	2526.601102
989.509563	2529.736700
989.805772	2530.104704
990.101944	2525.088756
990.398080	2527.831143
990.694180	2526.555732
990.990244	2527.294261
991.286271	2526.250742
991.582262	2527.737882
991.878217	2527.851308
992.174136	2525.965917
992.470019	2525.784435
992.765865	2529.444313
993.061676	2526.467511
993.357450	2528.584796
993.653188	2526.986750
993.948890	2528.357944
994.244556	2526.517923
994.540186	2529.162008
994.835780	2525.577748
995.131337	2525.779394
995.426859	2524.526667
995.722345	2524.377953
996.017795	2525.945752
996.313208	2528.441123
996.608586	2525.280320
996.903928	2529.736700
997.199234	2531.123017
997.494504	2528.287368
997.789738	2526.437264
998.084936	2526.679240
998.380099	2528.781401
998.675225	2526.316277
998.970316	2524.410721
999.265371	2527.972296
999.560390	2526.553211
999.855373	2526.593540
1000.150320	2525.741585
1000.445232	2528.047913
1000.740108	2525.885258
1001.034948	2525.066071
1001.329752	2525.610515
1001.624521	2528.438603
1001.919254	2523.679753
1002.213951	2523.077335
1002.508613	2522.623632
1002.803239	2524.198992
1003.097829	2521.146573
1003.392384	2526.596061
1003.686903	2526.883407
1003.981386	2529.678726
1004.275834	2527.430372
1004.570246	2529.593027
1004.864623	2526.026410
1005.158964	2524.750998
1005.453270	2524.574558
1005.747540	2527.763088
1006.041775	2525.507172
1006.335974	2526.006246
1006.630138	2527.430372
1006.924266	2528.236956
1007.218359	2527.309384
1007.512416	2529.020856
1007.806438	2527.974816
1008.100425	2525.781914
1008.394376	2526.414579
1008.688292	2527.198479
1008.982172	2526.401976
1009.276017	2527.553880
1009.569827	2526.243180
1009.863602	2526.233098
1010.157341	2528.494055
1010.451045	2526.850639
1010.744714	2529.033459
1011.038347	2528.141174
1011.331945	2526.165042
1011.625508	2529.280475
1011.919036	2524.002387
1012.212528	2525.514733
1012.505986	2522.537932
1012.799408	2526.893489
1013.092795	2527.231246
1013.386147	2525.993643
1013.679464	2526.981709
1013.972745	2527.989940
1014.265992	2525.648324
1014.559204	2526.974147
1014.852380	2526.147398
1015.145521	2528.093283
1015.438628	2525.502130
1015.731699	2525.345855
1016.024736	2524.687984
1016.317737	2524.410721
1016.610703	2525.403828
1016.903635	2523.720082
1017.196531	2523.558766
1017.489393	2524.146060
1017.782219	2522.583302
1018.075011	2523.954496
1018.367768	2524.196472
1018.660490	2527.306863
1018.953177	2527.306863
1019.245829	2527.306863
