Dividing Wavelength (nm)	Counts (n)	Blue Motor Position (mm): 0.000000	Red Motor Position (mm): 18.900000	
326.493990	2130.784825
326.888308	2130.784825
327.282561	2130.784825
327.676750	2094.571697
328.070874	2094.032293
328.464933	2095.852150
328.858929	2103.063520
329.252859	2111.426795
329.646726	2123.578496
330.040528	2136.423356
330.434265	2153.467497
330.827938	2173.712771
331.221547	2186.676098
331.615091	2207.226362
332.008571	2228.626060
332.401986	2249.088103
332.795338	2266.104518
333.188625	2284.570265
333.581847	2304.439973
333.975006	2322.106696
334.368100	2343.556806
334.761129	2357.639269
335.154095	2375.555530
335.546996	2394.061606
335.939833	2409.807650
336.332606	2423.985895
336.725315	2436.346804
337.117960	2443.996755
337.510540	2453.789196
337.903056	2468.373254
338.295508	2471.123204
338.687896	2480.204843
339.080220	2488.542911
339.472480	2495.295537
339.864676	2500.051865
340.256807	2505.251815
340.648875	2507.848010
341.040879	2508.994872
341.432818	2510.476971
341.824694	2510.280366
342.216506	2512.667353
342.608253	2512.359842
342.999937	2512.143073
343.391557	2510.756755
343.783113	2513.587363
344.174605	2514.514936
344.566033	2508.601662
344.957397	2507.787516
345.348697	2509.113339
345.739934	2504.898935
346.131106	2502.756444
346.522215	2503.406753
346.913260	2500.276197
347.304241	2500.442555
347.695159	2495.129178
348.086012	2491.938128
348.476802	2494.660351
348.867528	2491.159270
349.258191	2489.019300
349.648789	2488.782366
350.039324	2485.714824
350.429796	2488.235401
350.820203	2486.047540
351.210548	2486.254227
351.600828	2483.859679
351.991045	2485.268682
352.381198	2483.995790
352.771288	2483.234576
353.161314	2482.367497
353.551276	2482.972436
353.941175	2482.301963
354.331010	2483.950420
354.720782	2483.474031
355.110490	2483.010245
355.500135	2479.279791
355.889717	2484.799854
356.279235	2484.169710
356.668689	2483.584936
357.058080	2483.973105
357.447408	2480.446818
357.836672	2479.446149
358.225873	2481.543269
358.615010	2481.447487
359.004084	2483.123671
359.393095	2486.218939
359.782043	2487.275061
360.170927	2490.299753
360.559748	2485.563589
360.948505	2488.978971
361.337199	2488.222798
361.725830	2490.025010
362.114398	2491.035762
362.502903	2489.402428
362.891344	2490.188848
363.279722	2489.157932
363.668037	2493.725217
364.056289	2494.642707
364.444478	2492.270844
364.832603	2494.211688
365.220665	2497.715290
365.608665	2495.693788
365.996601	2496.845691
366.384474	2498.668068
366.772284	2502.010353
367.160031	2500.193018
367.547715	2499.073881
367.935336	2502.007833
368.322893	2508.528565
368.710388	2511.550737
369.097820	2516.796058
369.485189	2518.651202
369.872495	2527.241328
370.259738	2531.521268
370.646918	2540.434028
371.034035	2546.392672
371.421090	2555.832233
371.808081	2568.309088
372.195010	2576.072465
372.581875	2592.683067
372.968678	2605.139758
373.355418	2614.158383
373.742096	2632.190590
374.128710	2647.180461
374.515262	2661.414159
374.901751	2678.813701
375.288177	2688.472552
375.674540	2713.300235
376.060841	2730.987123
376.447079	2747.461614
376.833254	2772.077568
377.219367	2785.645833
377.605417	2819.706389
377.991404	2830.123934
378.377329	2850.336440
378.763191	2867.211703
379.148991	2907.661921
379.534727	2930.745365
379.920402	2959.260651
380.306013	2974.167343
380.691563	3019.870444
381.077049	3043.510935
381.462474	3062.374933
381.847835	3102.759616
382.233134	3121.774848
382.618371	3119.569344
383.003545	3188.106351
383.388657	3194.163297
383.773706	3228.606981
384.158693	3244.680700
384.543618	3273.228754
384.928480	3306.137406
385.313280	3354.063656
385.698017	3352.465610
386.082692	3405.082653
386.467305	3409.743200
386.851856	3441.744445
387.236344	3465.392498
387.620770	3498.253259
388.005133	3522.155890
388.389435	3549.559602
388.773674	3559.450346
389.157851	3605.128241
389.541965	3616.682566
389.926018	3581.132349
390.310008	3653.437618
390.693936	3669.385308
391.077802	3715.327864
391.461606	3699.843960
391.845348	3765.426851
392.229027	3766.132612
392.612645	3775.398253
392.996200	3853.074872
393.379694	3897.222777
393.763125	3956.988177
394.146494	3926.569854
394.529801	3987.282991
394.913047	4033.280999
395.296230	4001.647758
395.679351	4055.751942
396.062410	4077.247422
396.445408	4061.713107
396.828343	4092.847273
397.211217	4117.243937
397.594028	4033.573386
397.976778	4101.008901
398.359466	4127.742140
398.742092	4158.034433
399.124656	4080.514090
399.507158	4162.016945
399.889598	4184.220707
400.271977	4247.386364
400.654294	4216.713464
401.036549	4224.675966
401.418742	4194.434084
401.800874	4295.133653
402.182944	4318.471675
402.564952	4381.730594
402.946898	4367.575034
403.328783	4364.862893
403.710606	4278.255870
404.092367	4471.962207
404.474067	4430.889406
404.855705	4437.909212
405.237282	4366.206361
405.618797	4474.941528
406.000250	4504.885982
406.381642	4582.963373
406.762972	4539.274213
407.144240	4550.765523
407.525447	4541.930901
407.906593	4597.108851
408.287677	4633.478255
408.668700	4550.558836
409.049661	4598.177575
409.430560	4627.290239
409.811399	4546.883835
410.192176	4687.411040
410.572891	4621.296307
410.953545	4704.563566
411.334138	4578.088577
411.714669	4624.681442
412.095139	4515.648846
412.475547	4627.360815
412.855894	4592.413016
413.236180	4584.395061
413.616405	4522.472048
413.996568	4579.038835
414.376670	4505.606867
414.756711	4447.565542
415.136691	4454.209783
415.516609	4489.994414
415.896466	4497.427595
416.276262	4498.506402
416.655997	4454.819763
417.035670	4571.023400
417.415283	4608.708546
417.794834	4531.682236
418.174324	4466.235456
418.553753	4359.660422
418.933121	4458.915700
419.312428	4473.361127
419.691674	4387.578332
420.070859	4433.374694
420.449983	4331.840815
420.829045	4365.856000
421.208047	4266.817492
421.586988	4260.490844
421.965867	4224.096234
422.344686	4252.828290
422.723444	4123.568064
423.102141	3979.219665
423.480777	4098.216102
423.859352	3925.425512
424.237866	4010.162267
424.616319	3961.066470
424.994712	3967.037717
425.373044	3858.902446
425.751314	3866.265051
426.129524	3736.251173
426.507673	3764.912653
426.885762	3756.148607
427.263789	3676.667255
427.641756	3590.730706
428.019662	3580.494643
428.397508	3539.376471
428.775292	3471.933395
429.153016	3457.878658
429.530679	3393.062022
429.908282	3374.833210
430.285824	3300.934936
430.663305	3326.632217
431.040726	3222.648337
431.418086	3187.826567
431.795385	3172.025070
432.172624	3137.089874
432.549802	3102.326077
432.926920	3068.268042
433.303977	3038.789894
433.680974	3013.778210
434.057910	2982.011379
434.434786	2954.305197
434.811601	2924.103644
435.188355	2925.162287
435.565050	2884.404558
435.941683	2857.487317
436.318257	2850.485154
436.694770	2823.605722
437.071222	2804.482105
437.447614	2773.138731
437.823946	2754.652820
438.200218	2747.552354
438.576429	2722.719631
438.952580	2710.247816
439.328670	2695.688964
439.704700	2681.384690
440.080670	2667.375323
440.456580	2663.750733
440.832429	2649.607776
441.208218	2631.870477
441.583947	2629.468367
441.959616	2621.294136
442.335224	2608.814759
442.710773	2606.135386
443.086261	2598.218254
443.461689	2588.304825
443.837057	2589.746595
444.212365	2583.452714
444.587612	2579.888619
444.962800	2576.490881
445.337927	2572.599110
445.712995	2565.896896
446.088002	2571.487536
446.462949	2564.429920
446.837837	2564.860939
447.212664	2562.098387
447.587431	2558.864487
447.962139	2562.466391
448.336786	2570.527196
448.711374	2566.156516
449.085901	2560.197872
449.460369	2556.051523
449.834776	2556.487582
450.209124	2556.285936
450.583412	2557.974723
450.957640	2557.369784
451.331808	2556.119578
451.705917	2552.666388
452.079965	2550.773435
452.453954	2552.658826
452.827883	2552.288301
453.201752	2551.406099
453.575562	2550.118085
453.949311	2549.329144
454.323001	2552.016079
454.696632	2547.272353
455.070202	2551.028013
455.443713	2548.537683
455.817164	2550.975081
456.190556	2545.686910
456.563888	2546.347302
456.937160	2545.956612
457.310373	2548.716644
457.683526	2550.024823
458.056619	2549.114895
458.429653	2548.227652
458.802628	2548.446942
459.175542	2549.603887
459.548398	2550.037426
459.921194	2550.349978
460.293930	2550.927190
460.666607	2553.790565
461.039224	2557.135371
461.411782	2552.313507
461.784280	2554.589588
462.156719	2553.752757
462.529099	2556.807696
462.901419	2552.101779
463.273680	2554.367777
463.645882	2554.014897
464.018024	2551.658157
464.390106	2553.498178
464.762130	2553.593960
465.134094	2558.050340
465.505999	2561.808520
465.877845	2569.206414
466.249631	2572.009295
466.621358	2569.229099
466.993026	2568.760272
467.364634	2568.276321
467.736184	2567.363872
468.107674	2563.711556
468.479105	2566.821948
468.850477	2563.555280
469.221790	2564.419838
469.593043	2560.956565
469.964238	2561.256514
470.335373	2560.820454
470.706449	2561.609395
471.077467	2563.056206
471.448425	2567.978893
471.819324	2572.415108
472.190164	2572.929306
472.560945	2566.635425
472.931667	2564.180383
473.302330	2564.253480
473.672934	2560.545711
474.043479	2562.110990
474.413965	2564.470250
474.784393	2557.301729
475.154761	2562.531926
475.525070	2561.679971
475.895321	2560.008828
476.265513	2558.887172
476.635645	2564.477811
477.005719	2563.474622
477.375734	2568.152812
477.745691	2568.238512
478.115588	2570.282700
478.485427	2567.268090
478.855207	2571.772361
479.224928	2577.602455
479.594591	2578.434246
479.964194	2577.932651
480.333739	2577.100861
480.703226	2576.586663
481.072653	2576.107753
481.442022	2579.563464
481.811333	2579.981880
482.180584	2580.226376
482.549777	2578.580439
482.918912	2577.065572
483.287988	2578.759400
483.657005	2576.924420
484.025964	2578.328382
484.394864	2577.814184
484.763706	2575.061714
485.132489	2573.859399
485.501213	2571.114490
485.869879	2576.740418
486.238487	2574.151786
486.607036	2574.489543
486.975527	2573.393092
487.343959	2574.174471
487.712333	2570.655745
488.080648	2571.285890
488.448905	2575.190263
488.817104	2573.854358
489.185244	2573.745973
489.553326	2575.931313
489.921350	2577.761252
490.289315	2581.121181
490.657222	2584.201326
491.025070	2580.019689
491.392861	2581.106057
491.760593	2581.461459
492.128267	2577.226889
492.495883	2576.697568
492.863440	2576.258988
493.230939	2572.856209
493.598380	2569.012329
493.965763	2566.844633
494.333088	2566.053172
494.700354	2566.912689
495.067563	2571.840417
495.434713	2566.161557
495.801805	2573.012485
496.168839	2569.541650
496.535815	2569.539130
496.902733	2569.524006
497.269593	2572.450396
497.636395	2569.027453
498.003139	2568.382185
498.369825	2569.415622
498.736453	2568.833368
499.103023	2567.898234
499.469535	2569.400498
499.835989	2566.227092
500.202385	2568.825807
500.568723	2564.946639
500.935003	2569.965107
501.301226	2568.745148
501.667390	2568.777916
502.033497	2572.165571
502.399546	2572.750345
502.765537	2570.033163
503.131470	2571.482495
503.497345	2570.673389
503.863163	2569.985272
504.228923	2571.200190
504.594625	2570.680951
504.960269	2571.376630
505.325856	2571.739593
505.691385	2570.617937
506.056856	2571.782443
506.422270	2571.815211
506.787625	2571.454768
507.152924	2570.776733
507.518164	2571.507700
507.883347	2570.050807
508.248472	2570.307906
508.613540	2568.404870
508.978550	2572.316806
509.343503	2573.161199
509.708398	2574.391240
510.073236	2572.503328
510.438016	2573.451065
510.802738	2571.381672
511.167403	2571.364027
511.532010	2572.828483
511.896561	2573.526682
512.261053	2574.562640
512.625488	2570.794377
512.989866	2568.735066
513.354186	2569.072823
513.718449	2567.215158
514.082655	2573.617423
514.446803	2572.747824
514.810894	2574.940726
515.174927	2572.604151
515.538904	2574.113977
515.902822	2573.929975
516.266684	2573.035170
516.630488	2573.657753
516.994235	2574.388720
517.357925	2574.557598
517.721558	2574.595407
518.085133	2577.103381
518.448651	2576.385017
518.812112	2572.672207
519.175516	2574.708833
519.538863	2575.739749
519.902152	2578.976170
520.265385	2574.091292
520.628560	2576.667321
520.991678	2576.052301
521.354739	2576.453072
521.717743	2576.266550
522.080690	2575.890984
522.443580	2575.107084
522.806413	2576.138000
523.169189	2575.727146
523.531908	2574.814697
523.894569	2577.806622
524.257174	2575.548185
524.619722	2575.931313
524.982213	2575.364183
525.344647	2573.745973
525.707025	2574.875191
526.069345	2576.062383
526.431608	2573.032649
526.793815	2575.633885
527.155964	2578.262847
527.518057	2576.135480
527.880093	2578.371231
528.242072	2575.613720
528.603995	2577.824266
528.965860	2574.643298
529.327669	2572.523493
529.689421	2575.845613
530.051117	2578.086406
530.412755	2577.597414
530.774337	2577.675552
531.135862	2573.561971
531.497331	2571.795046
531.858743	2573.151117
532.220098	2572.387382
532.581396	2573.501477
532.942638	2569.261866
533.303824	2573.829152
533.664953	2575.593556
534.026025	2573.622464
534.387040	2574.534913
534.747999	2576.687486
535.108902	2578.799729
535.469748	2572.936868
535.830537	2573.221693
536.191270	2576.863926
536.551947	2576.448031
536.912567	2575.694379
537.273131	2574.113977
537.633638	2575.855696
537.994089	2574.547516
538.354483	2572.614234
538.714821	2576.069945
539.075103	2573.546847
539.435328	2575.903587
539.795497	2574.237485
540.155609	2574.360993
540.515665	2573.319995
540.875665	2575.850654
541.235609	2574.814697
541.595496	2576.654718
541.955328	2572.475602
542.315102	2574.209759
542.674821	2576.105233
543.034483	2575.948957
543.394090	2575.671693
543.753640	2574.262691
544.113134	2574.406364
544.472571	2573.672876
544.831953	2575.694379
545.191278	2575.981724
545.550548	2573.980386
545.909761	2574.771847
546.268918	2573.859399
546.628019	2574.378637
546.987064	2575.719584
547.346053	2574.726477
547.704986	2572.891497
548.063863	2578.658577
548.422684	2575.281004
548.781449	2575.525500
549.140158	2574.940726
549.498811	2576.017012
549.857408	2573.163719
550.215949	2571.885787
550.574434	2569.859243
550.932864	2573.826631
551.291237	2567.358831
551.649555	2574.343349
552.007817	2576.332085
552.366022	2575.976683
552.724173	2574.628175
553.082267	2572.513411
553.440305	2575.359142
553.798288	2576.609348
554.156215	2574.608010
554.514086	2575.066755
554.871902	2577.284863
555.229661	2576.246385
555.587365	2573.559450
555.945014	2574.759245
556.302606	2572.717577
556.660143	2573.526683
557.017625	2575.739749
557.375050	2574.073648
557.732421	2572.594069
558.089735	2574.910479
558.446994	2573.687999
558.804197	2576.027095
559.161345	2572.284038
559.518437	2573.219172
559.875474	2577.320151
560.232455	2572.936867
560.589381	2577.635223
560.946251	2575.054152
561.303065	2574.504666
561.659825	2575.641447
562.016528	2572.397464
562.373177	2573.952660
562.729770	2576.291755
563.086307	2573.685479
563.442789	2572.193297
563.799216	2572.909141
564.155587	2572.747824
564.511904	2569.871846
564.868164	2574.111456
565.224370	2576.684965
565.580520	2572.515931
565.936615	2572.931826
566.292654	2572.221024
566.648638	2570.922927
567.004567	2573.937537
567.360441	2571.840417
567.716260	2573.829152
568.072023	2573.335119
568.427732	2569.541650
568.783385	2569.902093
569.138982	2568.583831
569.494525	2569.912175
569.850013	2568.649366
570.205445	2571.636250
570.560823	2571.205231
570.916145	2571.142217
571.271412	2570.166753
571.626625	2572.470561
571.981782	2567.857905
572.336884	2573.350242
572.691931	2568.974521
573.046923	2570.917885
573.401860	2571.984089
573.756743	2569.486198
574.111570	2568.843451
574.466342	2570.207083
574.821059	2571.444686
575.175722	2569.176167
575.530330	2571.474933
575.884882	2570.098698
576.239380	2568.977041
576.593823	2572.541137
576.948211	2570.018039
577.302544	2569.347566
577.656823	2567.477298
578.011047	2567.326063
578.365216	2569.282031
578.719330	2569.387895
579.073389	2568.112483
579.427394	2569.844120
579.781344	2570.451579
580.135239	2570.285221
580.489080	2568.787998
580.842866	2569.682803
581.196597	2568.472926
581.550273	2569.362689
581.903895	2567.890673
582.257463	2569.055179
582.610975	2569.735735
582.964434	2567.994016
583.317837	2566.897565
583.671186	2566.300188
584.024481	2567.134499
584.377721	2569.806311
584.730906	2567.736917
585.084037	2566.942936
585.437113	2567.941084
585.790135	2567.817576
586.143103	2566.542164
586.496016	2568.709860
586.848874	2564.939077
587.201679	2565.763306
587.554428	2561.274158
587.907124	2565.387740
588.259765	2563.066288
588.612352	2564.286247
588.964884	2565.652400
589.317362	2567.323543
589.669786	2565.047462
590.022155	2565.244067
590.374470	2566.280024
590.726731	2566.842112
591.078937	2566.900086
591.431090	2566.529561
591.783188	2567.245405
592.135232	2564.802966
592.487222	2565.690209
592.839157	2568.160374
593.191038	2565.296999
593.542866	2564.051834
593.894639	2561.916905
594.246358	2563.177194
594.598022	2564.656772
594.949633	2566.116186
595.301190	2567.091650
595.652692	2563.850188
596.004141	2564.324056
596.355535	2565.596947
596.706876	2562.143757
597.058162	2561.826164
597.409395	2561.621998
597.760573	2563.966134
598.111698	2563.976217
598.462768	2561.445557
598.813785	2563.429251
599.164748	2560.097049
599.515657	2561.672409
599.866511	2562.826833
600.217312	2561.543860
600.568060	2563.217523
600.918753	2563.653583
601.269392	2561.415310
601.619978	2562.930177
601.970510	2564.921433
602.320988	2562.347924
602.671412	2562.816751
603.021783	2564.024108
603.372100	2564.949159
603.722363	2562.814231
604.072572	2563.368757
604.422728	2567.023594
604.772830	2558.206616
605.122878	2558.020093
605.472872	2561.634601
605.822813	2557.389949
606.172701	2561.289282
606.522534	2560.228119
606.872314	2564.755075
607.222041	2563.456978
607.571714	2563.257852
607.921333	2562.191648
608.270899	2561.674930
608.620411	2565.181052
608.969870	2562.259704
609.319276	2564.016546
609.668627	2566.363203
610.017926	2567.671382
610.367171	2568.067113
610.716362	2570.630540
611.065500	2566.103583
611.414585	2567.210117
611.763616	2566.048131
612.112594	2565.057544
612.461518	2564.460167
612.810389	2563.996381
613.159207	2563.940928
613.507971	2564.404715
613.856682	2564.014025
614.205340	2562.892368
614.553945	2562.146278
614.902496	2563.754406
615.250994	2563.174673
615.599439	2565.082750
615.947830	2563.585527
616.296169	2564.094684
616.644454	2564.976886
616.992686	2561.498489
617.340864	2560.908674
617.688990	2563.686350
618.037063	2561.362378
618.385082	2562.219374
618.733048	2562.312636
619.080961	2562.277348
619.428821	2561.248952
619.776628	2560.434806
620.124382	2564.366906
620.472083	2561.445557
620.819731	2562.713407
621.167326	2560.810372
621.514868	2559.693756
621.862357	2562.534447
622.209793	2563.769529
622.557176	2562.773901
622.904506	2558.642676
623.251783	2556.437171
623.599007	2560.192831
623.946179	2553.649413
624.293297	2558.067984
624.640363	2560.734755
624.987376	2562.579817
625.334336	2559.071174
625.681243	2558.914898
626.028097	2556.832902
626.374899	2559.562686
626.721647	2559.119065
627.068343	2560.354147
627.414987	2559.587892
627.761577	2561.816082
628.108115	2556.263251
628.454600	2557.815927
628.801032	2559.083777
629.147412	2559.986143
629.493739	2558.352809
629.840014	2557.936914
630.186236	2562.332800
630.532405	2558.985474
630.878521	2556.961451
631.224585	2557.699980
631.570597	2557.541184
631.916556	2558.367933
632.262462	2558.030176
632.608316	2559.487069
632.954117	2556.313663
633.299866	2556.595967
633.645562	2554.070349
633.991206	2556.865669
634.336797	2557.178221
634.682336	2555.222253
635.027823	2554.292160
635.373257	2557.004301
635.718639	2557.006821
636.063968	2558.594785
636.409245	2557.604198
636.754470	2555.005483
637.099642	2553.911553
637.444762	2554.551779
637.789829	2555.852397
638.134845	2555.282747
638.479808	2556.356512
638.824719	2555.270144
639.169577	2554.385421
639.514383	2554.579506
639.859137	2554.138405
640.203839	2554.584547
640.548489	2554.627397
640.893086	2553.538507
641.237632	2550.029864
641.582125	2551.824515
641.926566	2547.902497
642.270955	2553.982129
642.615292	2553.346944
642.959576	2554.027499
643.303809	2556.026317
643.647990	2555.373488
643.992118	2552.810061
644.336195	2555.557490
644.680219	2554.760987
645.024192	2555.192006
645.368112	2550.405430
645.711981	2551.953065
646.055797	2552.532797
646.399562	2555.242417
646.743274	2552.119423
647.086935	2552.696635
647.430544	2553.357026
647.774101	2554.637479
648.117606	2555.146636
648.461059	2556.429609
648.804460	2555.670916
649.147810	2554.317366
649.491108	2552.139587
649.834354	2551.796789
650.177548	2553.919115
650.520690	2552.986501
650.863781	2552.837787
651.206820	2554.781152
651.549807	2552.520194
651.892742	2553.137736
652.235626	2551.804351
652.578458	2550.584391
652.921238	2551.464073
653.263967	2550.748229
653.606644	2553.422561
653.949269	2552.626059
654.291843	2549.533311
654.634365	2553.351985
654.976836	2551.806871
655.319255	2551.643034
655.661622	2550.954916
656.003938	2550.539021
656.346203	2548.202446
656.688416	2550.201264
657.030577	2549.397200
657.372687	2549.823177
657.714746	2550.138249
658.056753	2550.783517
658.398708	2546.128011
658.740612	2550.581871
659.082465	2547.620193
659.424266	2548.089020
659.766016	2546.566592
660.107715	2551.600184
660.449362	2551.549772
660.790958	2553.160421
661.132503	2554.065308
661.473996	2551.043136
661.815438	2552.084135
662.156829	2551.055739
662.498168	2551.421223
662.839456	2550.387786
663.180693	2549.913918
663.521879	2551.073383
663.863013	2551.401058
664.204097	2551.169165
664.545129	2550.503733
664.886110	2551.456511
665.227040	2550.680173
665.567918	2551.902653
665.908746	2550.521377
666.249522	2550.450801
666.590248	2550.256716
666.930922	2551.242262
667.271545	2549.530790
667.612118	2552.489948
667.952639	2549.918959
668.293109	2553.238559
668.633528	2549.266130
668.973896	2549.898794
669.314213	2550.468445
669.654480	2551.746377
669.994695	2551.050698
670.334859	2551.950544
670.674973	2550.150852
671.015035	2552.356357
671.355047	2549.992056
671.695008	2553.601522
672.034918	2552.936090
672.374777	2551.171686
672.714585	2551.534649
673.054342	2550.307128
673.394049	2550.594474
673.733705	2551.159083
674.073310	2550.765873
674.412864	2551.433826
674.752368	2550.513815
675.091820	2551.746377
675.431223	2552.263096
675.770574	2550.236552
676.109875	2544.212373
676.449125	2546.352343
676.788324	2547.594987
677.127473	2547.647919
677.466571	2545.749925
677.805619	2549.351829
678.144616	2548.426777
678.483562	2549.518187
678.822458	2549.077086
679.161303	2551.708569
679.500098	2551.010369
679.838842	2548.973743
680.177535	2548.066335
680.516179	2550.458363
680.854771	2549.535831
681.193314	2549.530790
681.531805	2548.157076
681.870247	2552.394166
682.208638	2551.771583
682.546978	2552.409289
682.885268	2550.932231
683.223508	2547.597508
683.561697	2550.312169
683.899836	2551.204453
684.237925	2551.731254
684.575963	2548.860317
684.913951	2553.624207
685.251889	2551.280071
685.589776	2550.271840
685.927614	2550.206305
686.265401	2551.138918
686.603137	2553.082283
686.940824	2549.074566
687.278460	2551.259906
687.616046	2552.605894
687.953582	2550.362581
688.291068	2549.717313
688.628504	2554.077911
688.965889	2552.747046
689.303224	2552.154711
689.640510	2549.026675
689.977745	2552.323589
690.314930	2549.548434
690.652065	2550.838970
690.989150	2548.207487
691.326185	2550.299566
691.663170	2547.789072
692.000105	2549.850903
692.336990	2547.436191
692.673825	2548.744370
693.010610	2548.439380
693.347345	2546.760676
693.684030	2542.435366
694.020665	2543.199101
694.357251	2544.454348
694.693786	2544.003165
695.030272	2545.432332
695.366707	2546.299411
695.703093	2547.068187
696.039429	2549.044319
696.375716	2546.508618
696.711952	2545.996941
697.048139	2544.623227
697.384276	2548.041129
697.720363	2546.185985
698.056400	2546.057435
698.392388	2545.689431
698.728326	2545.833104
699.064214	2544.860161
699.400053	2546.024668
699.735842	2543.589790
700.071581	2545.623896
700.407270	2549.659340
700.742910	2542.546272
701.078501	2545.381921
701.414042	2546.017106
701.749533	2541.238092
702.084974	2544.461910
702.420366	2544.103988
702.755709	2541.598535
703.091002	2546.372507
703.426246	2541.843031
703.761440	2543.330171
704.096584	2545.361756
704.431679	2544.562733
704.766725	2544.708927
705.101721	2542.584080
705.436668	2544.187167
705.771565	2543.531817
706.106413	2543.917465
706.441212	2541.646426
706.775961	2546.959802
707.110661	2545.031560
707.445311	2544.030891
707.779913	2543.176416
708.114465	2545.979297
708.448967	2544.371169
708.783421	2543.587270
709.117825	2544.998793
709.452180	2546.294369
709.786485	2546.082641
710.120742	2546.627086
710.454949	2545.853268
710.789107	2543.390665
711.123216	2541.827907
711.457275	2545.054246
711.791286	2541.767413
712.125247	2542.876467
712.459159	2543.514173
712.793023	2549.843342
713.126837	2546.914431
713.460602	2548.426777
713.794318	2546.145655
714.127985	2549.039278
714.461602	2545.752445
714.795171	2545.172713
715.128691	2547.509288
715.462162	2545.001313
715.795584	2543.995603
716.128957	2544.918134
716.462281	2543.935109
716.795556	2544.812270
717.128782	2540.978473
717.461960	2541.689275
717.795088	2544.277908
718.128167	2544.930737
718.461198	2544.860161
718.794180	2544.000644
719.127113	2542.692465
719.459997	2543.126004
719.792833	2542.604245
720.125619	2543.337733
720.458357	2540.847403
720.791046	2540.396219
721.123686	2544.842517
721.456278	2540.839841
721.788821	2544.061138
722.121315	2539.153575
722.453761	2542.296734
722.786158	2542.697506
723.118506	2540.809594
723.450805	2542.324461
723.783056	2543.224307
724.115259	2542.763041
724.447412	2541.096940
724.779518	2542.836138
725.111574	2541.694317
725.443582	2542.793288
725.775542	2542.077444
726.107453	2544.794626
726.439315	2543.388144
726.771129	2545.359235
727.102895	2543.993083
727.434612	2546.604400
727.766281	2543.186498
728.097901	2538.594007
728.429473	2540.229861
728.760996	2542.044677
729.092471	2540.469316
729.423897	2544.459389
729.755276	2541.109543
730.086606	2542.967208
730.417887	2545.875954
730.749120	2542.306817
731.080305	2545.845707
731.411442	2545.235727
731.742530	2543.798998
732.073570	2546.347302
732.404562	2545.268495
732.735506	2542.432846
733.066401	2544.973587
733.397249	2543.519214
733.728048	2542.868905
734.058798	2540.645757
734.389501	2543.630120
734.720156	2544.240099
735.050762	2540.192053
735.381320	2541.946374
735.711831	2540.628112
736.042293	2542.059800
736.372707	2542.773123
736.703073	2542.954605
737.033391	2542.039636
737.363661	2540.708771
737.693883	2541.573329
738.024056	2542.518545
738.354182	2542.379913
738.684260	2541.326312
739.014290	2542.304296
739.344272	2540.905376
739.674207	2542.311858
740.004093	2541.376724
740.333931	2539.619882
740.663722	2544.194729
740.993464	2542.498381
741.323159	2545.099616
741.652806	2541.860675
741.982405	2542.662218
742.311956	2541.971580
742.641460	2537.616023
742.970915	2542.901673
743.300323	2541.752290
743.629683	2541.311189
743.958996	2544.787064
744.288260	2540.514687
744.617477	2540.108874
744.946647	2536.804397
745.275768	2539.718184
745.604842	2535.889428
745.933869	2537.323636
746.262847	2535.521424
746.591778	2540.386137
746.920662	2540.174409
747.249498	2541.230530
747.578286	2541.477547
747.907027	2542.291693
748.235720	2540.562577
748.564365	2541.815304
748.892963	2541.885880
749.221514	2541.026364
749.550017	2539.130890
749.878473	2541.774975
750.206881	2540.421425
750.535242	2542.115253
750.863555	2540.136600
751.191821	2541.235572
751.520039	2540.996117
751.848210	2539.408153
752.176334	2539.907228
752.504411	2539.007382
752.832440	2538.029398
753.160421	2539.566950
753.488356	2540.915458
753.816243	2541.396888
754.144082	2543.380582
754.471875	2539.171219
754.799620	2543.365459
755.127318	2539.516538
755.454969	2539.226672
755.782572	2538.745242
756.110129	2540.436549
756.437638	2537.782381
756.765100	2539.796322
757.092515	2537.782381
757.419882	2543.115922
757.747203	2538.896476
758.074477	2537.510159
758.401703	2538.914120
758.728882	2538.861188
759.056014	2539.720705
759.383099	2538.646939
759.710138	2540.038298
760.037129	2539.226672
760.364073	2536.751465
760.690970	2540.008051
761.017820	2541.351518
761.344623	2539.927392
761.671379	2541.038967
761.998088	2535.995292
762.324751	2538.450334
762.651366	2542.238761
762.977935	2546.485933
763.304456	2545.003834
763.630931	2551.723692
763.957359	2546.243958
764.283740	2546.460727
764.610074	2543.665408
764.936362	2540.023174
765.262602	2540.781868
765.588796	2541.485109
765.914943	2543.378062
766.241044	2541.565767
766.567097	2539.425797
766.893104	2541.182639
767.219064	2540.494522
767.544978	2537.772299
767.870845	2541.240613
768.196665	2538.213400
768.522438	2537.747093
768.848165	2538.016795
769.173846	2539.080478
769.499479	2539.929913
769.825066	2540.524769
770.150607	2538.185673
770.476101	2540.575180
770.801548	2540.779347
771.126949	2537.873122
771.452303	2540.454193
771.777611	2538.657021
772.102872	2538.846065
772.428087	2534.931609
772.753256	2539.277083
773.078378	2535.365148
773.403453	2536.277597
773.728482	2537.578214
774.053465	2539.433359
774.378401	2536.877494
774.703291	2539.758513
775.028135	2536.459078
775.352932	2538.546116
775.677683	2537.127031
776.002388	2536.146527
776.327046	2539.234233
776.651658	2536.905220
776.976224	2534.422452
777.300743	2538.939326
777.625216	2535.292051
777.949643	2535.647453
778.274024	2534.722401
778.598359	2535.362627
778.922647	2532.161495
779.246889	2533.028573
779.571086	2532.511855
779.895236	2533.623429
780.219339	2536.459078
780.543397	2537.671476
780.867409	2535.055117
781.191374	2534.364479
781.515294	2539.435880
781.839167	2535.723070
782.162995	2533.769623
782.486776	2536.426311
782.810511	2535.191228
783.134201	2538.891435
783.457844	2536.106197
783.781441	2535.796167
784.104993	2537.968904
784.428498	2536.796836
784.751958	2535.473533
785.075372	2535.609644
785.398739	2534.760209
785.722061	2533.850281
786.045337	2535.889428
786.368568	2535.387833
786.691752	2534.251053
787.014891	2535.967566
787.337983	2537.542926
787.661030	2539.040149
787.984031	2537.227854
788.306987	2538.611651
788.629897	2536.935467
788.952760	2538.818338
789.275579	2536.164171
789.598351	2539.007382
789.921078	2535.007226
790.243759	2535.473533
790.566395	2535.057637
790.888984	2536.688451
791.211529	2537.510159
791.534027	2537.374048
791.856480	2533.905734
792.178888	2535.518903
792.501249	2536.814480
792.823566	2539.002340
793.145836	2534.114942
793.468062	2536.675848
793.790241	2533.111752
794.112375	2534.104859
794.434464	2535.052596
794.756507	2537.943698
795.078505	2535.120652
795.400457	2532.831968
795.722364	2531.145702
796.044226	2533.489839
796.366042	2532.153933
796.687812	2530.825589
797.009538	2537.202648
797.331218	2536.184335
797.652852	2538.052083
797.974442	2538.369676
798.295986	2535.428162
798.617484	2536.701054
798.938938	2534.404808
799.260346	2534.853471
799.581709	2535.176105
799.903026	2535.352545
800.224299	2533.378933
800.545526	2539.186343
800.866708	2536.610313
801.187845	2533.784746
801.508936	2534.934129
801.829983	2533.086546
802.150984	2534.926567
802.471940	2536.317926
802.792851	2537.169881
803.113717	2538.349511
803.434538	2536.534696
803.755314	2538.001671
804.076045	2534.699716
804.396731	2533.545291
804.717372	2536.580066
805.037967	2535.355066
805.358518	2538.024357
805.679024	2535.886907
805.999485	2533.021011
806.319901	2536.779192
806.640272	2533.797349
806.960598	2534.485467
807.280879	2534.165353
807.601115	2535.627288
807.921306	2532.889941
808.241453	2536.766589
808.561554	2534.215765
808.881611	2536.486805
809.201623	2534.931609
809.521590	2535.748276
809.841513	2535.826413
810.161390	2536.441434
810.481223	2534.404808
810.801011	2536.764068
811.120755	2534.601413
811.440453	2535.503780
811.760107	2535.569315
812.079716	2531.934643
812.399281	2530.480270
812.718801	2534.639222
813.038276	2530.013963
813.357707	2534.515713
813.677093	2533.247863
813.996434	2534.735004
814.315731	2535.450847
814.634983	2533.048738
814.954191	2532.375744
815.273354	2534.772812
815.592473	2534.152750
815.911547	2535.072761
816.230577	2535.730632
816.549562	2536.103677
816.868502	2536.945550
817.187399	2536.428831
817.506250	2536.348173
817.825058	2533.537730
818.143821	2537.631147
818.462539	2537.363965
818.781213	2536.017977
819.099843	2535.382792
819.418429	2538.974614
819.736970	2539.604758
820.055466	2539.677855
820.373919	2541.989224
820.692327	2543.705737
821.010691	2547.685728
821.329011	2554.622356
821.647286	2567.225240
821.965517	2583.172930
822.283704	2592.360433
822.601847	2593.840012
822.919945	2587.180648
823.237999	2580.349884
823.556010	2570.691033
823.873976	2559.179559
824.191897	2558.897254
824.509775	2551.280071
824.827609	2552.215205
825.145398	2545.941489
825.463144	2545.492826
825.780845	2545.898639
826.098502	2546.957281
826.416116	2551.758980
826.733685	2555.751574
827.051210	2558.914898
827.368692	2557.276523
827.686129	2552.676470
828.003522	2549.470296
828.320872	2540.333205
828.638177	2540.648277
828.955439	2536.948070
829.272656	2538.760365
829.589830	2531.911958
829.906960	2539.113246
830.224046	2535.712987
830.541088	2536.103677
830.858086	2536.469161
831.175041	2535.234078
831.491952	2535.027391
831.808819	2537.114428
832.125642	2537.197607
832.442421	2535.866743
832.759157	2539.330015
833.075849	2540.532331
833.392497	2541.250695
833.709101	2547.993238
834.025662	2547.975594
834.342179	2545.719678
834.658653	2544.330840
834.975083	2542.710109
835.291469	2542.198432
835.607811	2537.505118
835.924110	2534.440096
836.240366	2535.755837
836.556578	2533.789787
836.872746	2536.721218
837.188871	2534.069571
837.504952	2533.822555
837.820990	2536.731301
838.136984	2535.160981
838.452935	2532.945394
838.768842	2534.470343
839.084706	2535.385312
839.400526	2535.954963
839.716303	2536.529654
840.032037	2538.999820
840.347727	2537.056455
840.663373	2538.062165
840.978977	2536.227185
841.294537	2536.645601
841.610054	2534.568646
841.925527	2534.513193
842.240957	2534.608975
842.556344	2531.480939
842.871687	2535.707946
843.186987	2534.712318
843.502244	2530.991947
843.817458	2532.859694
844.132629	2533.782226
844.447756	2531.266690
844.762840	2527.674868
845.077881	2527.112779
845.392879	2530.548325
845.707833	2528.897347
846.022745	2529.053623
846.337613	2531.344828
846.652438	2534.145189
846.967221	2534.162833
847.281960	2532.779036
847.596656	2533.346166
847.911309	2531.354910
848.225919	2531.160826
848.540485	2532.111083
848.855009	2529.645959
849.169490	2528.940197
849.483928	2530.399611
849.798323	2531.299457
850.112675	2531.826258
850.426984	2529.797193
850.741251	2532.776515
851.055474	2531.407842
851.369654	2531.110414
851.683792	2529.814837
851.997887	2532.040507
852.311938	2532.012781
852.625947	2532.995806
852.939914	2530.593696
853.253837	2534.243491
853.567718	2532.438758
853.881555	2531.624612
854.195350	2531.569159
854.509103	2532.794159
854.822812	2531.899355
855.136479	2531.717873
855.450103	2531.143182
855.763685	2530.936494
856.077224	2530.349200
856.390720	2533.131917
856.704173	2528.521782
857.017584	2532.466484
857.330953	2530.515558
857.644278	2533.205013
857.957561	2533.421783
858.270802	2533.031094
858.584000	2531.659900
858.897155	2529.315763
859.210268	2532.544622
859.523339	2533.502442
859.836367	2531.717873
860.149352	2534.598892
860.462295	2533.046217
860.775195	2530.878521
861.088054	2526.714528
861.400869	2528.967924
861.713642	2525.373581
862.026373	2528.509179
862.339062	2532.758871
862.651708	2531.521268
862.964312	2532.179139
863.276873	2531.816176
863.589392	2533.235260
863.901869	2529.565300
864.214303	2535.644932
864.526696	2531.959848
864.839045	2532.290044
865.151353	2530.598737
865.463619	2530.828109
865.775842	2533.318439
866.088023	2532.138809
866.400162	2533.157123
866.712258	2529.260311
867.024313	2533.217616
867.336325	2530.823068
867.648296	2533.051258
867.960224	2531.707791
868.272110	2532.131248
868.583954	2531.032276
868.895755	2532.549663
869.207515	2529.958510
869.519233	2532.562266
869.830909	2528.753675
870.142542	2533.220137
870.454134	2531.445651
870.765684	2530.671834
871.077191	2529.285516
871.388657	2533.320960
871.700081	2530.419776
872.011463	2531.682585
872.322803	2527.662265
872.634101	2534.162833
872.945357	2530.707122
873.256571	2530.528161
873.567744	2532.332894
873.878874	2532.080836
874.189963	2534.858512
874.501010	2533.189890
874.812015	2534.971938
875.122979	2533.948584
875.433900	2531.675023
875.744780	2534.757689
876.055618	2531.047400
876.366415	2531.695188
876.677169	2530.558408
876.987882	2533.023532
877.298554	2529.714014
877.609183	2532.617719
877.919771	2530.223171
878.230317	2532.373223
878.540822	2535.866743
878.851285	2533.726773
879.161707	2534.689633
879.472087	2537.865560
879.782425	2534.745086
880.092722	2539.952598
880.402977	2544.396375
880.713191	2552.368960
881.023363	2560.190310
881.333494	2570.323029
881.643583	2567.633574
881.953631	2565.743141
882.263637	2565.975034
882.573602	2564.815569
882.883526	2558.236863
883.193408	2553.465411
883.503248	2545.117260
883.813048	2547.426108
884.122806	2542.737835
884.432522	2542.725232
884.742197	2540.391178
885.051831	2539.398071
885.361424	2540.809594
885.670975	2538.099974
885.980485	2534.493028
886.289954	2536.842206
886.599382	2534.495549
886.908768	2533.628470
887.218113	2534.442617
887.527417	2538.694830
887.836680	2532.063192
888.145901	2535.922195
888.455082	2533.426824
888.764221	2531.891793
889.073319	2534.750127
889.382376	2532.317770
889.691392	2530.392050
890.000366	2532.728624
890.309300	2534.180477
890.618193	2532.718542
890.927044	2532.126207
891.235855	2533.812472
891.544625	2533.373892
891.853353	2532.078316
892.162041	2534.581248
892.470687	2531.770805
892.779293	2534.515713
893.087858	2532.670651
893.396381	2531.601927
893.704864	2532.799201
894.013306	2534.737524
894.321707	2539.143493
894.630068	2544.277908
894.938387	2543.647764
895.246665	2543.171375
895.554903	2538.946888
895.863100	2539.231713
896.171256	2540.328164
896.479371	2537.805066
896.787446	2535.680220
897.095480	2538.162988
897.403473	2536.116280
897.711425	2533.746938
898.019336	2534.137627
898.327207	2531.798532
898.635038	2533.439427
898.942827	2534.982020
899.250576	2533.194931
899.558284	2529.482121
899.865952	2533.411701
900.173579	2533.510003
900.481165	2533.182328
900.788711	2533.966228
901.096216	2532.957997
901.403681	2533.900693
901.711105	2530.197965
902.018489	2532.922709
902.325832	2534.946732
902.633135	2532.731145
902.940397	2533.578059
903.247619	2535.148378
903.554800	2537.542926
903.861941	2539.231713
904.169041	2543.549461
904.476101	2548.704041
904.783121	2548.971222
905.090100	2542.760521
905.397039	2544.290511
905.703938	2540.980993
906.010796	2542.077444
906.317614	2535.372710
906.624391	2534.946732
906.931129	2534.240971
907.237826	2534.309026
907.544483	2530.608819
907.851099	2533.131917
908.157675	2529.613191
908.464211	2531.130579
908.770707	2527.569003
909.077163	2528.115969
909.383578	2525.318128
909.689954	2526.626308
909.996289	2525.063550
910.302584	2530.616381
910.608839	2530.707122
910.915054	2531.296937
911.221229	2531.309540
911.527363	2530.513037
911.833458	2530.873480
912.139513	2532.526978
912.445527	2530.477749
912.751502	2531.201155
913.057436	2533.769623
913.363331	2530.205527
913.669186	2533.242822
913.975000	2536.280117
914.280775	2533.636032
914.586510	2533.971269
914.892205	2538.944367
915.197859	2539.040149
915.503475	2538.646939
915.809050	2542.400078
916.114585	2546.049873
916.420081	2547.567261
916.725536	2543.919986
917.030952	2547.693290
917.336328	2542.881508
917.641665	2541.086858
917.946961	2539.433359
918.252218	2539.529141
918.557435	2538.205838
918.862612	2535.632329
919.167750	2535.770961
919.472848	2533.094108
919.777906	2533.620909
920.082925	2532.791639
920.387904	2530.765095
920.692843	2532.524458
920.997743	2530.772657
921.302603	2533.394057
921.607423	2533.474715
921.912204	2529.293078
922.216946	2531.009591
922.521647	2534.810621
922.826310	2530.565969
923.130932	2529.587986
923.435516	2530.913809
923.740059	2532.146371
924.044564	2529.305681
924.349028	2527.841226
924.653454	2525.912984
924.957840	2527.407687
925.262186	2524.945083
925.566493	2528.904909
925.870761	2524.955165
926.174989	2528.148736
926.479178	2530.523120
926.783328	2529.787111
927.087438	2528.995650
927.391509	2530.182842
927.695541	2528.554549
927.999533	2531.054961
928.303486	2527.400125
928.607400	2529.517409
928.911275	2531.102852
929.215110	2531.662420
929.518906	2528.489014
929.822663	2528.415917
930.126381	2529.812317
930.430060	2526.664116
930.733699	2528.365506
931.037299	2530.510517
931.340861	2529.613191
931.644383	2529.330887
931.947866	2527.294261
932.251309	2530.334076
932.554714	2529.194776
932.858080	2530.389529
933.161407	2529.635877
933.464694	2528.015146
933.767943	2528.607481
934.071153	2526.961544
934.374323	2530.177801
934.677455	2529.472039
934.980548	2527.977337
935.283602	2528.920033
935.586617	2529.285516
935.889593	2527.042203
936.192530	2529.933305
936.495428	2530.235774
936.798287	2529.151926
937.101108	2529.227543
937.403890	2531.420445
937.706632	2529.033459
938.009336	2528.794004
938.312002	2528.100845
938.614628	2527.503468
938.917216	2531.496062
939.219765	2527.140505
939.522275	2529.681247
939.824747	2528.559590
940.127179	2527.458098
940.429573	2525.968437
940.731929	2527.914322
941.034246	2524.171266
941.336524	2530.061854
941.638763	2529.885414
941.940964	2529.366175
942.243126	2531.117976
942.545250	2527.047244
942.847335	2529.207378
943.149381	2528.589837
943.451389	2526.477594
943.753359	2527.473222
944.055290	2528.662934
944.357182	2530.994467
944.659036	2530.044210
944.960851	2529.391381
945.262628	2528.277286
945.564367	2529.358613
945.866067	2529.028417
946.167729	2524.821575
946.469352	2528.741072
946.770937	2530.255938
947.072484	2530.752492
947.373992	2528.597399
947.675462	2528.063037
947.976893	2527.493386
948.278286	2529.449354
948.579641	2527.208561
948.880958	2529.018335
949.182236	2526.883407
949.483476	2527.536236
949.784678	2528.483973
950.085841	2528.834333
950.386967	2531.354910
950.688054	2526.270906
950.989103	2529.242667
951.290114	2527.125382
951.591087	2526.734693
951.892021	2528.315094
952.192917	2529.474560
952.493776	2531.183511
952.794596	2527.299302
953.095378	2530.132430
953.396122	2532.279962
953.696828	2527.702594
953.997496	2529.038500
954.298126	2530.452543
954.598718	2529.996319
954.899272	2531.586803
955.199788	2530.082019
955.500266	2527.480783
955.800706	2524.085566
956.101108	2521.615401
956.401472	2525.935670
956.701798	2524.630011
957.002087	2526.351565
957.302337	2533.225178
957.602550	2527.100176
957.902724	2526.676719
958.202861	2527.125382
958.502960	2527.357275
958.803022	2527.740403
959.103045	2526.089425
959.403031	2529.643438
959.702979	2528.902389
960.002889	2528.710825
960.302762	2527.730320
960.602596	2528.234436
960.902393	2527.289219
961.202153	2529.741741
961.501875	2526.603622
961.801559	2524.682943
962.101205	2527.125382
962.400814	2527.942049
962.700385	2528.952800
962.999918	2526.815351
963.299414	2529.600588
963.598873	2525.182017
963.898293	2528.330218
964.197677	2526.666637
964.497022	2526.346524
964.796331	2529.842564
965.095601	2526.112110
965.394835	2529.403983
965.694030	2527.132944
965.993189	2526.951462
966.292309	2526.699404
966.591393	2528.627646
966.890439	2528.972965
967.189447	2526.775022
967.488419	2524.352747
967.787353	2526.555732
968.086249	2526.119672
968.385108	2528.451205
968.683930	2525.532377
968.982714	2527.243849
969.281462	2526.863242
969.580172	2526.361647
969.878844	2527.392563
970.177480	2527.937008
970.476078	2526.507841
970.774639	2528.269724
971.073162	2527.528674
971.371649	2524.836698
971.670098	2524.463653
971.968510	2524.733354
972.266885	2522.001049
972.565223	2524.698066
972.863524	2526.064219
973.161788	2528.297450
973.460014	2524.539270
973.758204	2525.809641
974.056356	2526.273427
974.354471	2526.901051
974.652550	2525.965917
974.950591	2528.148736
975.248595	2526.243180
975.546563	2525.955834
975.844493	2525.315608
976.142386	2529.280475
976.440243	2524.214116
976.738062	2526.404497
977.035845	2525.577748
977.333590	2525.870135
977.631299	2528.592358
977.928971	2527.233767
978.226606	2526.459950
978.524204	2525.555063
978.821765	2525.539939
979.119290	2527.284178
979.416777	2526.147398
979.714228	2526.454908
980.011642	2525.852491
980.309020	2530.500434
980.606360	2526.044054
980.903664	2527.218643
981.200931	2526.384332
981.498162	2526.868283
981.795356	2527.465660
982.092513	2526.333921
982.389633	2530.306350
982.686717	2527.914323
982.983764	2529.401463
983.280775	2526.706966
983.577749	2527.143026
983.874686	2529.708973
984.171587	2527.145547
984.468451	2525.444157
984.765279	2524.750998
985.062070	2528.791483
985.358824	2527.790814
985.655543	2527.052285
985.952224	2527.304343
986.248869	2526.255783
986.545478	2522.784948
986.842050	2524.451050
987.138586	2520.403003
987.435086	2524.796369
987.731549	2520.871831
988.027975	2526.482635
988.324366	2526.475073
988.620719	2527.639580
988.917037	2523.989784
989.213318	2524.498941
989.509563	2524.561955
989.805772	2526.843077
990.101944	2525.960875
990.398080	2525.895340
990.694180	2526.394415
990.990244	2526.096987
991.286271	2525.081194
991.582262	2526.336441
991.878217	2527.329549
992.174136	2526.341483
992.470019	2524.297295
992.765865	2528.988088
993.061676	2525.237470
993.357450	2526.127233
993.653188	2530.250897
993.948890	2527.387522
994.244556	2525.345855
994.540186	2525.461801
994.835780	2528.189065
995.131337	2524.536749
995.426859	2527.753006
995.722345	2524.352747
996.017795	2523.059691
996.313208	2526.333921
996.608586	2526.434744
996.903928	2528.630166
997.199234	2524.584640
997.494504	2526.994312
997.789738	2528.781401
998.084936	2524.909795
998.380099	2525.363499
998.675225	2525.134126
998.970316	2527.642100
999.265371	2529.625794
999.560390	2528.471370
999.855373	2526.258303
1000.150320	2524.662778
1000.445232	2528.438603
1000.740108	2528.894827
1001.034948	2526.389373
1001.329752	2524.458612
1001.624521	2525.807120
1001.919254	2520.725637
1002.213951	2523.359640
1002.508613	2524.045237
1002.803239	2525.529857
1003.097829	2518.691532
1003.392384	2527.538757
1003.686903	2524.030113
1003.981386	2526.495238
1004.275834	2526.288550
1004.570246	2527.621936
1004.864623	2523.896523
1005.158964	2526.185207
1005.453270	2524.826616
1005.747540	2526.563293
1006.041775	2524.811492
1006.335974	2525.852491
1006.630138	2525.308046
1006.924266	2526.961544
1007.218359	2527.180835
1007.512416	2526.230577
1007.806438	2527.158149
1008.100425	2526.311236
1008.394376	2525.474404
1008.688292	2528.783922
1008.982172	2527.102697
1009.276017	2527.669827
1009.569827	2526.626308
1009.863602	2525.708818
1010.157341	2525.192099
1010.451045	2526.948942
1010.744714	2527.538757
1011.038347	2524.143539
1011.331945	2523.372243
1011.625508	2526.825433
1011.919036	2524.516585
1012.212528	2524.251924
1012.505986	2524.546832
1012.799408	2526.074301
1013.092795	2525.930628
1013.386147	2526.099507
1013.679464	2524.430885
1013.972745	2526.031452
1014.265992	2524.211595
1014.559204	2525.751668
1014.852380	2526.207892
1015.145521	2524.960206
1015.438628	2526.671678
1015.731699	2527.687471
1016.024736	2522.900895
1016.317737	2524.960206
1016.610703	2526.699404
1016.903635	2523.520957
1017.196531	2524.418282
1017.489393	2522.013652
1017.782219	2522.374094
1018.075011	2524.128416
1018.367768	2523.309228
1018.660490	2524.587161
1018.953177	2524.587161
1019.245829	2524.587161
