Dividing Wavelength (nm)	Counts (n)	Blue Motor Position (mm): 0.000000	Red Motor Position (mm): 35.300000	
326.493990	2127.752571
326.888308	2127.752571
327.282561	2127.752571
327.676750	2097.074630
328.070874	2093.465163
328.464933	2095.484146
328.858929	2102.471185
329.252859	2113.299583
329.646726	2124.362395
330.040528	2134.835393
330.434265	2156.041006
330.827938	2171.295538
331.221547	2188.649710
331.615091	2209.210056
332.008571	2226.546584
332.401986	2247.784965
332.795338	2266.459919
333.188625	2283.738474
333.581847	2305.365024
333.975006	2326.883189
334.368100	2341.777278
334.761129	2358.818899
335.154095	2378.597866
335.546996	2394.530433
335.939833	2411.992990
336.332606	2428.306164
336.725315	2444.571447
337.117960	2451.795420
337.510540	2460.882100
337.903056	2469.668831
338.295508	2478.621920
338.687896	2484.608290
339.080220	2496.916268
339.472480	2500.266114
339.864676	2508.039573
340.256807	2507.979080
340.648875	2512.798423
341.040879	2514.933351
341.432818	2518.416789
341.824694	2518.857890
342.216506	2520.309742
342.608253	2521.388549
342.999937	2518.817560
343.391557	2518.890657
343.783113	2519.001563
344.174605	2517.252282
344.566033	2515.233300
344.957397	2514.600635
345.348697	2514.187261
345.739934	2510.749194
346.131106	2512.127949
346.522215	2508.702485
346.913260	2508.647033
347.304241	2507.401868
347.695159	2501.944818
348.086012	2502.688389
348.476802	2501.561691
348.867528	2497.501041
349.258191	2494.917450
349.648789	2494.496514
350.039324	2493.463077
350.429796	2493.833602
350.820203	2491.028200
351.210548	2493.296719
351.600828	2491.111379
351.991045	2489.329331
352.381198	2488.069043
352.771288	2487.297746
353.161314	2485.750112
353.551276	2489.851090
353.941175	2489.336893
354.331010	2490.352685
354.720782	2485.906387
355.110490	2487.446460
355.500135	2485.001500
355.889717	2487.852273
356.279235	2491.063488
356.668689	2488.379073
357.058080	2490.453508
357.447408	2488.487458
357.836672	2486.909577
358.225873	2490.090545
358.615010	2486.917139
359.004084	2489.246152
359.393095	2492.230515
359.782043	2491.529795
360.170927	2495.991216
360.559748	2493.697491
360.948505	2497.730414
361.337199	2497.208654
361.725830	2496.076915
362.114398	2498.489108
362.502903	2499.961124
362.891344	2500.432472
363.279722	2498.746206
363.668037	2499.333501
364.056289	2496.366782
364.444478	2502.428769
364.832603	2498.549601
365.220665	2500.755106
365.608665	2501.314674
365.996601	2504.173008
366.384474	2503.474809
366.772284	2506.864985
367.160031	2507.437156
367.547715	2510.875223
367.935336	2507.890859
368.322893	2516.755728
368.710388	2516.700276
369.097820	2524.105731
369.485189	2525.270237
369.872495	2532.496731
370.259738	2539.713143
370.646918	2547.060625
371.034035	2551.655637
371.421090	2564.712225
371.808081	2573.998030
372.195010	2583.351891
372.581875	2597.764550
372.968678	2608.663525
373.355418	2621.669702
373.742096	2637.821559
374.128710	2653.365957
374.515262	2670.054696
374.901751	2684.573219
375.288177	2698.771629
375.674540	2723.531256
376.060841	2739.604975
376.447079	2756.288674
376.833254	2776.740635
377.219367	2792.927780
377.605417	2829.803821
377.991404	2834.620643
378.377329	2859.113089
378.763191	2875.670759
379.148991	2914.016296
379.534727	2940.129473
379.920402	2967.707105
380.306013	2977.771768
380.691563	3032.362423
381.077049	3049.184754
381.462474	3072.021181
381.847835	3107.891511
382.233134	3132.043679
382.618371	3129.031589
383.003545	3199.343083
383.388657	3207.308106
383.773706	3240.912437
384.158693	3255.930035
384.543618	3280.528345
384.928480	3314.833397
385.313280	3359.656816
385.698017	3362.200078
386.082692	3412.906524
386.467305	3418.766866
386.851856	3451.819191
387.236344	3477.531596
387.620770	3507.455885
388.005133	3528.671581
388.389435	3558.903381
388.773674	3569.661203
389.157851	3613.569653
389.541965	3628.458701
389.926018	3593.606684
390.310008	3664.951614
390.693936	3684.118081
391.077802	3726.410841
391.461606	3711.025239
391.845348	3777.326495
392.229027	3776.734159
392.612645	3790.569606
392.996200	3868.679764
393.379694	3906.755599
393.763125	3972.489725
394.146494	3936.511010
394.529801	3998.912932
394.913047	4048.613668
395.296230	4018.094523
395.679351	4070.739292
396.062410	4091.713013
396.445408	4075.339345
396.828343	4112.394347
397.211217	4134.061226
397.594028	4052.185326
397.976778	4114.022639
398.359466	4145.829800
398.742092	4175.161753
399.124656	4095.922377
399.507158	4176.086805
399.889598	4199.979354
400.271977	4265.297584
400.654294	4234.551587
401.036549	4244.989296
401.418742	4212.022670
401.800874	4316.503104
402.182944	4335.074715
402.564952	4400.788676
402.946898	4390.103950
403.328783	4384.904000
403.710606	4297.712203
404.092367	4492.610773
404.474067	4452.460503
404.855705	4459.639106
405.237282	4387.633785
405.618797	4500.296012
406.000250	4536.095766
406.381642	4614.934371
406.762972	4574.234615
407.144240	4587.840689
407.525447	4588.087706
407.906593	4647.228002
408.287677	4690.702913
408.668700	4620.507366
409.049661	4669.078884
409.430560	4709.947518
409.811399	4637.831292
410.192176	4799.559069
410.572891	4738.412393
410.953545	4840.974668
411.334138	4719.724836
411.714669	4791.921721
412.095139	4683.121018
412.475547	4828.780117
412.855894	4805.177435
413.236180	4817.361903
413.616405	4768.639152
413.996568	4854.167368
414.376670	4801.580571
414.756711	4753.994600
415.136691	4782.986275
415.516609	4866.228328
415.896466	4902.504471
416.276262	4934.142753
416.655997	4915.389661
417.035670	5097.544193
417.415283	5190.137586
417.794834	5132.058453
418.174324	5089.319551
418.553753	4997.406713
418.933121	5182.081823
419.312428	5246.666565
419.691674	5184.446124
420.070859	5311.266431
420.449983	5224.177978
420.829045	5335.083362
421.208047	5244.939970
421.586988	5316.940250
421.965867	5326.422660
422.344686	5459.226817
422.723444	5314.235671
423.102141	5135.383094
423.480777	5431.439977
423.859352	5203.907498
424.237866	5462.682528
424.616319	5454.314212
424.994712	5565.665739
425.373044	5442.427172
425.751314	5580.884983
426.129524	5386.684613
426.507673	5581.623512
426.885762	5664.610986
427.263789	5594.596921
427.641756	5476.076874
428.019662	5596.520121
428.397508	5606.635197
428.775292	5547.431886
429.153016	5653.626312
429.530679	5576.962965
429.908282	5658.806098
430.285824	5530.846490
430.663305	5807.194982
431.040726	5543.366195
431.418086	5541.861411
431.795385	5646.046937
432.172624	5659.428680
432.549802	5654.528679
432.926920	5669.959651
433.303977	5672.860835
433.680974	5715.458585
434.057910	5728.931068
434.434786	5733.329475
434.811601	5702.286050
435.188355	5937.024858
435.565050	5811.164890
435.941683	5801.037212
436.318257	6009.821640
436.694770	5993.402602
437.071222	6028.728488
437.447614	5961.497139
437.823946	5872.707297
438.200218	6028.363004
438.576429	5889.461571
438.952580	5991.237426
439.328670	6036.935486
439.704700	5947.724707
440.080670	5933.541421
440.456580	6203.240631
440.832429	6082.613381
441.208218	5928.026398
441.583947	6084.695378
441.959616	6087.044555
442.335224	6014.303226
442.710773	6152.667775
443.086261	6180.137023
443.461689	5974.120188
443.837057	6125.526203
444.212365	6276.503720
444.587612	6173.414644
444.962800	6325.221430
445.337927	6301.994314
445.712995	5914.039717
446.088002	6492.275187
446.462949	6322.708415
446.837837	6256.588641
447.212664	6428.386123
447.587431	6568.343677
447.962139	7111.422140
448.336786	8036.032770
448.711374	7780.277391
449.085901	6851.434713
449.460369	6772.316324
449.834776	6702.972732
450.209124	7102.738753
450.583412	7251.278871
450.957640	7393.399081
451.331808	7164.460120
451.705917	6713.970009
452.079965	6636.986549
452.453954	6851.371698
452.827883	6723.752368
453.201752	6817.117058
453.575562	6616.552232
453.949311	6818.904147
454.323001	6708.828032
454.696632	6785.690505
455.070202	6921.849550
455.443713	7078.402583
455.817164	7176.027047
456.190556	7263.239009
456.563888	7330.177970
456.937160	7385.088738
457.310373	7037.783485
457.683526	7056.269397
458.056619	6949.139836
458.429653	6935.117867
458.802628	6874.825667
459.175542	6985.441185
459.548398	7334.084864
459.921194	7497.398084
460.293930	7496.273907
460.666607	8031.488170
461.039224	8343.127259
461.411782	8470.378585
461.784280	8488.962799
462.156719	8375.499029
462.529099	8258.236749
462.901419	7849.714244
463.273680	7739.325578
463.645882	7748.382011
464.018024	7614.627597
464.390106	7783.216384
464.762130	8170.656783
465.134094	8636.847568
465.505999	9660.292539
465.877845	10880.763447
466.249631	11541.656196
466.621358	11151.866619
466.993026	10528.094406
467.364634	10260.472152
467.736184	9899.480166
468.107674	9570.686030
468.479105	9603.219116
468.850477	9371.283189
469.221790	9139.632088
469.593043	8811.596645
469.964238	8670.663628
470.335373	8687.196092
470.706449	8740.765913
471.077467	8716.139877
471.448425	10035.495538
471.819324	11110.992943
472.190164	11130.038422
472.560945	9878.148523
472.931667	9093.316487
473.302330	8959.990570
473.672934	8601.743493
474.043479	8958.566444
474.413965	8902.365141
474.784393	8777.720091
475.154761	8940.844268
475.525070	9023.630097
475.895321	8847.857665
476.265513	9032.479842
476.635645	9196.629894
477.005719	9199.808341
477.375734	9315.941402
477.745691	9546.659890
478.115588	9680.673924
478.485427	9926.110061
478.855207	10461.465476
479.224928	11279.279262
479.594591	11905.100703
479.964194	11717.816796
480.333739	11663.352170
480.703226	11571.744323
481.072653	11671.460866
481.442022	11909.083214
481.811333	12091.026018
482.180584	11901.261864
482.549777	11609.258069
482.918912	11439.572830
483.287988	11454.229985
483.657005	11466.517798
484.025964	11145.688685
484.394864	11281.857812
484.763706	11249.070147
485.132489	11005.547128
485.501213	10966.140429
485.869879	11048.270907
486.238487	10884.340146
486.607036	10998.847435
486.975527	10780.711667
487.343959	10965.805192
487.712333	11011.130206
488.080648	10947.016812
488.448905	10980.916051
488.817104	10919.451782
489.185244	11194.479492
489.553326	11349.805004
489.921350	11876.587937
490.289315	12939.966408
490.657222	13285.529943
491.025070	13191.197352
491.392861	13066.209504
491.760593	12693.322915
492.128267	12343.592867
492.495883	12009.893688
492.863440	11674.331803
493.230939	11343.606905
493.598380	11279.778336
493.965763	11145.310598
494.333088	11034.523681
494.700354	10964.242434
495.067563	11025.144614
495.434713	10850.876967
495.801805	10978.904630
496.168839	10904.713969
496.535815	10841.442447
496.902733	10834.810809
497.269593	10766.132650
497.636395	10865.156035
498.003139	10859.772083
498.369825	10726.201670
498.736453	10880.178673
499.103023	10807.137395
499.469535	10837.591006
499.835989	10820.536782
500.202385	10786.269539
500.568723	10636.766560
500.935003	10853.410146
501.301226	10665.475931
501.667390	10914.193859
502.033497	11015.896617
502.399546	10874.096521
502.765537	10783.275093
503.131470	10857.455672
503.497345	11026.810715
503.863163	10642.669751
504.228923	10953.865219
504.594625	11013.945691
504.960269	10749.844682
505.325856	10975.413631
505.691385	10768.912846
506.056856	10922.912534
506.422270	10941.748806
506.787625	10834.901550
507.152924	10942.620925
507.518164	10920.822976
507.883347	10844.479742
508.248472	10760.531928
508.613540	10987.048614
508.978550	10872.684998
509.343503	10841.502941
509.708398	10949.101329
510.073236	11062.106354
510.438016	11062.597866
510.802738	11006.623415
511.167403	11056.286342
511.532010	10946.409353
511.896561	11177.757985
512.261053	11243.872717
512.625488	11100.227559
512.989866	11078.233005
513.354186	11060.440253
513.718449	10953.008223
514.082655	11139.109979
514.446803	11034.435460
514.810894	11138.963785
515.174927	11008.576862
515.538904	11019.921978
515.902822	11159.350212
516.266684	11044.807634
516.630488	10971.446243
516.994235	11019.720332
517.357925	11074.426934
517.721558	11147.188428
518.085133	11155.211424
518.448651	11152.862247
518.812112	11035.194154
519.175516	11031.267095
519.538863	11128.190840
519.902152	11041.767819
520.265385	11181.148161
520.628560	11082.651576
520.991678	11042.458457
521.354739	11095.660274
521.717743	11020.746207
522.080690	10983.822276
522.443580	11095.042732
522.806413	11026.362052
523.169189	11034.654751
523.531908	11077.174363
523.894569	10887.742925
524.257174	10880.902079
524.619722	10966.894081
524.982213	10899.740871
525.344647	10918.178891
525.707025	10850.103149
526.069345	10920.903635
526.431608	10824.728502
526.793815	10900.391180
527.155964	10676.405152
527.518057	10710.047293
527.880093	10632.685746
528.242072	10674.731489
528.603995	10558.880733
528.965860	10463.822215
529.327669	10478.547426
529.689421	10410.940512
530.051117	10357.461431
530.412755	10411.356407
530.774337	10290.144383
531.135862	10243.344831
531.497331	10238.480118
531.858743	10065.906298
532.220098	10185.885760
532.581396	10035.853460
532.942638	9994.057253
533.303824	9923.065204
533.664953	9896.705011
534.026025	9794.004104
534.387040	9835.994395
534.747999	9812.028749
535.108902	9818.410850
535.469748	9578.061238
535.830537	9629.647365
536.191270	9570.655783
536.551947	9551.375890
536.912567	9511.422225
537.273131	9410.067306
537.633638	9357.805664
537.994089	9298.461201
538.354483	9218.367349
538.714821	9301.614443
539.075103	9263.820913
539.435328	9201.658445
539.795497	9018.974591
540.155609	9102.932488
540.515665	9132.198906
540.875665	8882.959219
541.235609	8883.702789
541.595496	8840.835337
541.955328	8908.787571
542.315102	8787.356257
542.674821	8697.820323
543.034483	8663.215323
543.394090	8617.260164
543.753640	8518.730813
544.113134	8624.564796
544.472571	8478.487281
544.831953	8530.191876
545.191278	8346.802261
545.550548	8325.057243
545.909761	8377.099595
546.268918	8301.177298
546.628019	8313.823032
546.987064	8167.311978
547.346053	8076.732526
547.704986	8088.594361
548.063863	8036.002523
548.422684	7986.964699
548.781449	7874.120991
549.140158	7891.371819
549.498811	7760.367354
549.857408	7625.755944
550.215949	7707.440280
550.574434	7571.855927
550.932864	7569.204280
551.291237	7571.528252
551.649555	7471.209290
552.007817	7436.306862
552.366022	7372.117850
552.724173	7304.145452
553.082267	7258.212978
553.440305	7269.653877
553.798288	7123.283975
554.156215	7144.981101
554.514086	7081.346616
554.871902	6959.448996
555.229661	6921.436175
555.587365	6869.928186
555.945014	6770.897239
556.302606	6768.853051
556.660143	6679.591861
557.017625	6699.385951
557.375050	6599.659325
557.732421	6619.264373
558.089735	6518.514392
558.446994	6471.160314
558.804197	6448.013856
559.161345	6393.869343
559.518437	6289.958559
559.875474	6270.532473
560.232455	6238.546352
560.589381	6176.502351
560.946251	6110.906857
561.303065	6129.128108
561.659825	6039.937493
562.016528	5964.151307
562.373177	5882.603082
562.729770	5866.368046
563.086307	5794.695441
563.442789	5791.486746
563.799216	5680.994736
564.155587	5661.233413
564.511904	5591.912507
564.868164	5553.216610
565.224370	5514.087174
565.580520	5425.909831
565.936615	5405.311677
566.292654	5303.868538
566.648638	5313.298016
567.004567	5250.903655
567.360441	5203.975554
567.716260	5125.762052
568.072023	5123.909428
568.427732	5055.601793
568.783385	5000.882589
569.138982	4968.762877
569.494525	4938.324390
569.850013	4859.397565
570.205445	4838.461653
570.560823	4784.748159
570.916145	4717.287438
571.271412	4699.542576
571.626625	4649.698168
571.981782	4608.660655
572.336884	4557.001431
572.691931	4535.808420
573.046923	4473.474553
573.401860	4432.134571
573.756743	4381.667579
574.111570	4357.969115
574.466342	4324.193384
574.821059	4297.666833
575.175722	4245.274121
575.530330	4208.037638
575.884882	4179.890356
576.239380	4130.270278
576.593823	4091.284515
576.948211	4068.322059
577.302544	4019.080068
577.656823	3982.062876
578.011047	3961.058908
578.365216	3926.421140
578.719330	3887.722723
579.073389	3859.709031
579.427394	3827.811130
579.781344	3800.661996
580.135239	3764.877365
580.489080	3746.948502
580.842866	3701.822613
581.196597	3679.374355
581.550273	3667.336079
581.903895	3634.618991
582.257463	3631.511120
582.610975	3580.595466
582.964434	3569.489804
583.317837	3531.628218
583.671186	3515.998120
584.024481	3492.324862
584.377721	3462.698001
584.730906	3439.869136
585.084037	3421.010179
585.437113	3397.404976
585.790135	3378.724981
586.143103	3346.103674
586.496016	3326.228925
586.848874	3312.892553
587.201679	3300.594658
587.554428	3268.064092
587.907124	3252.670929
588.259765	3240.541912
588.612352	3225.761249
588.964884	3203.718804
589.317362	3188.038295
589.669786	3172.211593
590.022155	3164.975016
590.374470	3149.392810
590.726731	3133.372023
591.078937	3102.505038
591.431090	3096.120417
591.783188	3073.868763
592.135232	3056.408727
592.487222	3050.243396
592.839157	3042.091850
593.191038	3027.076773
593.542866	3010.153620
593.894639	2989.172338
594.246358	2983.758138
594.598022	2975.263794
594.949633	2956.911474
595.301190	2945.883950
595.652692	2938.796087
596.004141	2933.807866
596.355535	2911.389854
596.706876	2899.407032
597.058162	2884.195350
597.409395	2883.129146
597.760573	2878.551778
598.111698	2865.729603
598.462768	2857.827595
598.813785	2849.113960
599.164748	2837.804132
599.515657	2831.427072
599.866511	2817.929383
600.217312	2819.827377
600.568060	2805.107208
600.918753	2802.752989
601.269392	2798.911630
601.619978	2785.850000
601.970510	2780.468568
602.320988	2776.647374
602.671412	2773.080757
603.021783	2768.218565
603.372100	2761.700353
603.722363	2754.597367
604.072572	2751.595360
604.422728	2748.227869
604.772830	2736.824779
605.122878	2730.571228
605.472872	2726.180383
605.822813	2723.221225
606.172701	2721.179558
606.522534	2719.407592
606.872314	2717.486913
607.222041	2712.150852
607.571714	2710.310830
607.921333	2704.589121
608.270899	2703.308668
608.620411	2701.667772
608.969870	2697.970086
609.319276	2691.497244
609.668627	2693.571679
610.017926	2693.828778
610.367171	2691.340968
610.716362	2689.354754
611.065500	2684.706810
611.414585	2680.943589
611.763616	2680.615914
612.112594	2676.814884
612.461518	2674.722805
612.810389	2671.955211
613.159207	2670.231137
613.507971	2667.125786
613.856682	2665.288285
614.205340	2664.474139
614.553945	2664.196876
614.902496	2657.328303
615.250994	2658.278561
615.599439	2656.398211
615.947830	2654.217912
616.296169	2651.699855
616.644454	2649.126346
616.992686	2650.759680
617.340864	2646.625934
617.688990	2648.745739
618.037063	2646.963691
618.385082	2643.966725
618.733048	2645.398413
619.080961	2642.782054
619.428821	2644.526293
619.776628	2642.136786
620.124382	2642.431694
620.472083	2638.746610
620.819731	2639.472537
621.167326	2635.348873
621.514868	2632.104890
621.862357	2631.320991
622.209793	2631.426855
622.557176	2629.223871
622.904506	2623.890330
623.251783	2620.054012
623.599007	2622.226749
623.946179	2620.472428
624.293297	2617.944289
624.640363	2617.785493
624.987376	2618.952520
625.334336	2620.737088
625.681243	2616.792385
626.028097	2616.436984
626.374899	2614.291973
626.721647	2611.375666
627.068343	2614.085286
627.414987	2611.171499
627.761577	2611.058073
628.108115	2611.158896
628.454600	2606.803339
628.801032	2608.741663
629.147412	2607.897269
629.493739	2607.254522
629.840014	2606.639502
630.186236	2605.996754
630.532405	2606.382403
630.878521	2604.905345
631.224585	2603.377875
631.570597	2602.077257
631.916556	2602.341918
632.262462	2605.565736
632.608316	2604.499532
632.954117	2601.709253
633.299866	2602.934253
633.645562	2600.615323
633.991206	2601.726897
634.336797	2597.688933
634.682336	2597.653645
635.027823	2596.688264
635.373257	2596.400918
635.718639	2593.706421
636.063968	2593.489652
636.409245	2594.729776
636.754470	2592.342789
637.099642	2593.212388
637.444762	2593.920670
637.789829	2588.788776
638.134845	2592.988057
638.479808	2587.977150
638.824719	2592.178952
639.169577	2588.052767
639.514383	2588.892119
639.859137	2586.600915
640.203839	2589.068560
640.548489	2590.162490
640.893086	2587.462952
641.237632	2583.926583
641.582125	2583.614031
641.926566	2581.274936
642.270955	2587.651996
642.615292	2585.726275
642.959576	2586.215267
643.303809	2584.428178
643.647990	2588.861872
643.992118	2585.025554
644.336195	2585.312900
644.680219	2584.710482
645.024192	2586.401789
645.368112	2587.105030
645.711981	2587.747777
646.055797	2585.774166
646.399562	2588.453539
646.743274	2588.128385
647.086935	2587.334403
647.430544	2588.135946
647.774101	2587.531008
648.117606	2588.894640
648.461059	2589.529825
648.804460	2589.998653
649.147810	2586.041347
649.491108	2587.152921
649.834354	2588.340113
650.177548	2585.280133
650.520690	2584.332396
650.863781	2584.319793
651.206820	2586.994125
651.549807	2583.273753
651.892742	2580.004565
652.235626	2579.918866
652.578458	2580.304514
652.921238	2580.543969
653.263967	2582.046232
653.606644	2581.945409
653.949269	2581.456417
654.291843	2579.026581
654.634365	2580.443146
654.976836	2578.832497
655.319255	2582.353743
655.661622	2578.925758
656.003938	2577.720922
656.346203	2579.066911
656.688416	2579.502970
657.030577	2579.107240
657.372687	2582.215111
657.714746	2578.656057
658.056753	2576.339646
658.398708	2572.856209
658.740612	2578.126735
659.082465	2575.132290
659.424266	2576.901735
659.766016	2575.936354
660.107715	2578.071283
660.449362	2578.172106
660.790958	2576.654718
661.132503	2579.944071
661.473996	2581.070769
661.815438	2581.504308
662.156829	2580.657395
662.498168	2578.658577
662.839456	2575.414595
663.180693	2577.254616
663.521879	2578.209914
663.863013	2577.037846
664.204097	2579.056828
664.545129	2579.452559
664.886110	2580.932138
665.227040	2578.741756
665.567918	2578.051118
665.908746	2576.460634
666.249522	2578.847620
666.590248	2575.366704
666.930922	2580.145717
667.271545	2580.095306
667.612118	2579.906263
667.952639	2576.639595
668.293109	2580.029771
668.633528	2578.225038
668.973896	2578.247723
669.314213	2579.024061
669.654480	2581.002714
669.994695	2577.262177
670.334859	2577.748649
670.674973	2578.232600
671.015035	2580.158320
671.355047	2575.107084
671.695008	2575.361662
672.034918	2577.821746
672.374777	2577.196642
672.714585	2575.316292
673.054342	2578.882908
673.394049	2577.592373
673.733705	2579.583629
674.073310	2578.920717
674.412864	2578.378793
674.752368	2576.677404
675.091820	2578.643454
675.431223	2575.885943
675.770574	2577.365521
676.109875	2570.658266
676.449125	2574.910479
676.788324	2572.120201
677.127473	2575.434759
677.466571	2571.066599
677.805619	2576.422825
678.144616	2575.649008
678.483562	2576.546334
678.822458	2573.186405
679.161303	2576.017012
679.500098	2573.627506
679.838842	2573.118349
680.177535	2574.456775
680.516179	2576.279152
680.854771	2575.613720
681.193314	2575.780078
681.531805	2574.847465
681.870247	2577.577250
682.208638	2577.655387
682.546978	2578.182188
682.885268	2577.554564
683.223508	2578.759400
683.561697	2577.078175
683.899836	2576.087589
684.237925	2577.766293
684.575963	2577.625141
684.913951	2577.574729
685.251889	2575.976683
685.589776	2575.875860
685.927614	2574.487022
686.265401	2574.708833
686.603137	2576.316961
686.940824	2577.279822
687.278460	2578.230079
687.616046	2579.006417
687.953582	2576.185891
688.291068	2576.201015
688.628504	2579.444997
688.965889	2578.383834
689.303224	2576.969791
689.640510	2575.303689
689.977745	2576.364852
690.314930	2576.707651
690.652065	2574.497105
690.989150	2575.797722
691.326185	2572.636919
691.663170	2569.884449
692.000105	2571.429562
692.336990	2570.363358
692.673825	2572.737742
693.010610	2568.533420
693.347345	2566.716084
693.684030	2566.968141
694.020665	2567.759603
694.357251	2563.668706
694.693786	2565.259190
695.030272	2568.062072
695.366707	2566.572411
695.703093	2564.956721
696.039429	2565.705332
696.375716	2567.777247
696.711952	2563.111659
697.048139	2564.503017
697.384276	2565.828841
697.720363	2566.315312
698.056400	2566.330435
698.392388	2566.549726
698.728326	2565.612071
699.064214	2565.231464
699.400053	2566.499314
699.735842	2565.846485
700.071581	2565.780950
700.407270	2561.327090
700.742910	2564.402194
701.078501	2562.985630
701.414042	2562.884807
701.749533	2559.345917
702.084974	2562.998233
702.420366	2562.947821
702.755709	2562.110990
703.091002	2562.201730
703.426246	2560.696946
703.761440	2562.216854
704.096584	2563.683830
704.431679	2561.443037
704.766725	2562.123592
705.101721	2563.575445
705.436668	2561.140568
705.771565	2560.759960
706.106413	2560.843139
706.441212	2562.206772
706.775961	2563.295661
707.110661	2559.476987
707.445311	2562.317677
707.779913	2562.065619
708.114465	2562.758778
708.448967	2561.488407
708.783421	2563.749365
709.117825	2560.028993
709.452180	2566.312791
709.786485	2562.562173
710.120742	2566.358162
710.454949	2566.290106
710.789107	2564.583676
711.123216	2563.275496
711.457275	2565.070147
711.791286	2563.577965
712.125247	2567.018553
712.459159	2566.348079
712.793023	2569.652556
713.126837	2566.620302
713.460602	2567.429407
713.794318	2565.178532
714.127985	2566.769016
714.461602	2565.639797
714.795171	2566.506876
715.128691	2565.463357
715.462162	2562.952862
715.795584	2561.322049
716.128957	2561.208623
716.462281	2563.328428
716.795556	2559.252655
717.128782	2559.562686
717.461960	2558.342727
717.795088	2561.170814
718.128167	2560.316339
718.461198	2561.019580
718.794180	2559.489590
719.127113	2557.364743
719.459997	2557.768036
719.792833	2559.608057
720.125619	2560.175187
720.458357	2556.727037
720.791046	2558.468756
721.123686	2554.360216
721.456278	2559.426575
721.788821	2555.134033
722.121315	2557.863817
722.453761	2557.629404
722.786158	2557.231153
723.118506	2558.534291
723.450805	2561.763150
723.783056	2556.543035
724.115259	2556.926163
724.447412	2556.104455
724.779518	2556.298539
725.111574	2557.883982
725.443582	2557.994888
725.775542	2558.183931
726.107453	2559.229970
726.439315	2557.309291
726.771129	2564.429920
727.102895	2558.483879
727.434612	2559.557645
727.766281	2559.850032
728.097901	2557.684857
728.429473	2556.487582
728.760996	2558.095711
729.092471	2556.301060
729.423897	2558.899775
729.755276	2558.751061
730.086606	2561.415310
730.417887	2561.924467
730.749120	2562.156360
731.080305	2561.392625
731.411442	2560.502862
731.742530	2562.839436
732.073570	2563.177194
732.404562	2563.598130
732.735506	2562.484035
733.066401	2561.097718
733.397249	2562.589899
733.728048	2558.173848
734.058798	2559.403890
734.389501	2558.143602
734.720156	2559.504713
735.050762	2560.686864
735.381320	2557.153015
735.711831	2558.662840
736.042293	2556.485062
736.372707	2555.560010
736.703073	2555.897767
737.033391	2556.923642
737.363661	2559.018242
737.693883	2555.134033
738.024056	2559.179559
738.354182	2558.050340
738.684260	2559.842470
739.014290	2559.371122
739.344272	2558.067984
739.674207	2557.876420
740.004093	2560.233160
740.333931	2556.855587
740.663722	2559.615618
740.993464	2557.372305
741.323159	2556.187634
741.652806	2554.690411
741.982405	2560.099569
742.311956	2556.613611
742.641460	2555.650751
742.970915	2555.466749
743.300323	2557.415155
743.629683	2555.481872
743.958996	2556.049002
744.288260	2554.554300
744.617477	2556.858107
744.946647	2550.569268
745.275768	2549.661860
745.604842	2550.914587
745.933869	2550.339895
746.262847	2549.447611
746.591778	2554.687891
746.920662	2552.961295
747.249498	2554.392983
747.578286	2551.264947
747.907027	2552.996583
748.235720	2553.931717
748.564365	2554.919784
748.892963	2551.756460
749.221514	2554.498847
749.550017	2554.461039
749.878473	2553.679660
750.206881	2554.579506
750.535242	2553.561193
750.863555	2552.772252
751.191821	2553.583878
751.520039	2554.203940
751.848210	2555.592778
752.176334	2553.379711
752.504411	2551.275029
752.832440	2552.689073
753.160421	2552.494989
753.488356	2553.225956
753.816243	2555.464228
754.144082	2553.162942
754.471875	2554.130843
754.799620	2550.551624
755.127318	2549.069525
755.454969	2550.312169
755.782572	2550.138249
756.110129	2553.162942
756.437638	2548.376366
756.765100	2553.374670
757.092515	2553.442726
757.419882	2552.099258
757.747203	2551.653116
758.074477	2551.781665
758.401703	2554.360216
758.728882	2554.491286
759.056014	2551.622869
759.383099	2553.714948
759.710138	2553.909032
760.037129	2551.438867
760.364073	2554.652602
760.690970	2553.480534
761.017820	2551.390976
761.344623	2554.410627
761.671379	2554.980277
761.998088	2548.830070
762.324751	2558.360371
762.651366	2559.073694
762.977935	2568.321691
763.304456	2574.502146
763.630931	2580.309555
763.957359	2573.544327
764.283740	2569.443348
764.610074	2562.133675
764.936362	2561.175856
765.262602	2559.915567
765.588796	2556.714434
765.914943	2553.278888
766.241044	2552.893240
766.567097	2550.541542
766.893104	2551.658157
767.219064	2551.446429
767.544978	2551.806871
767.870845	2550.269319
768.196665	2550.624721
768.522438	2546.649771
768.848165	2549.051881
769.173846	2547.380738
769.499479	2548.396531
769.825066	2546.448125
770.150607	2548.018444
770.476101	2548.051212
770.801548	2549.077086
771.126949	2547.421067
771.452303	2548.351160
771.777611	2548.441901
772.102872	2546.485933
772.428087	2544.688762
772.753256	2548.656150
773.078378	2545.215562
773.403453	2545.364277
773.728482	2542.135418
774.053465	2544.267826
774.378401	2544.562733
774.703291	2547.542055
775.028135	2544.514842
775.352932	2543.937630
775.677683	2545.676828
776.002388	2543.723381
776.327046	2545.150027
776.651658	2546.269164
776.976224	2544.333361
777.300743	2545.008875
777.625216	2542.821014
777.949643	2545.220604
778.274024	2544.353525
778.598359	2542.720191
778.922647	2540.570139
779.246889	2541.903524
779.571086	2541.701878
779.895236	2543.763710
780.219339	2540.988555
780.543397	2544.834955
780.867409	2542.332022
781.191374	2547.431150
781.515294	2540.807073
781.839167	2545.064328
782.162995	2545.177754
782.486776	2540.928061
782.810511	2544.275387
783.134201	2541.749769
783.457844	2542.039636
783.781441	2543.037784
784.104993	2544.149358
784.428498	2544.300593
784.751958	2546.080120
785.075372	2546.261602
785.398739	2544.371169
785.722061	2545.923845
786.045337	2541.449821
786.368568	2543.801519
786.691752	2545.273536
787.014891	2543.804039
787.337983	2544.938299
787.661030	2544.101467
787.984031	2547.925183
788.306987	2545.656663
788.629897	2547.416026
788.952760	2547.521890
789.275579	2547.063145
789.598351	2546.453166
789.921078	2543.098278
790.243759	2544.421581
790.566395	2544.928217
790.888984	2544.247661
791.211529	2543.932589
791.534027	2544.106509
791.856480	2541.837989
792.178888	2545.460058
792.501249	2545.419729
792.823566	2544.577857
793.145836	2541.641384
793.468062	2541.401930
793.790241	2544.048535
794.112375	2543.267157
794.434464	2544.212373
794.756507	2544.121632
795.078505	2543.723381
795.400457	2539.473688
795.722364	2539.408153
796.044226	2542.914276
796.366042	2542.818494
796.687812	2543.267157
797.009538	2543.753628
797.331218	2544.492157
797.652852	2542.725233
797.974442	2544.487116
798.295986	2541.890922
798.617484	2542.510983
798.938938	2542.808412
799.260346	2543.085675
799.581709	2542.105171
799.903026	2547.539534
800.224299	2540.980993
800.545526	2539.536703
800.866708	2541.598535
801.187845	2541.590973
801.508936	2543.088196
801.829983	2542.780685
802.150984	2539.972762
802.471940	2541.195242
802.792851	2542.082485
803.113717	2541.888401
803.434538	2544.978628
803.755314	2540.789429
804.076045	2541.686755
804.396731	2542.697506
804.717372	2541.923689
805.037967	2542.851261
805.358518	2541.961498
805.679024	2542.145500
805.999485	2545.792775
806.319901	2544.749256
806.640272	2541.369162
806.960598	2543.062990
807.280879	2542.826056
807.601115	2544.908052
807.921306	2540.340767
808.241453	2544.290511
808.561554	2542.684903
808.881611	2544.509801
809.201623	2542.263967
809.521590	2544.560212
809.841513	2542.145500
810.161390	2540.973432
810.481223	2542.079965
810.801011	2542.644574
811.120755	2538.906558
811.440453	2542.387475
811.760107	2540.474357
812.079716	2540.076106
812.399281	2538.432690
812.718801	2541.412012
813.038276	2537.729449
813.357707	2540.247505
813.677093	2542.717671
813.996434	2539.594676
814.315731	2540.224820
814.634983	2540.615510
814.954191	2541.901004
815.273354	2545.351674
815.592473	2541.018802
815.911547	2543.146169
816.230577	2540.207176
816.549562	2543.715819
816.868502	2542.611807
817.187399	2545.208001
817.506250	2542.495860
817.825058	2543.831766
818.143821	2544.356046
818.462539	2545.666746
818.781213	2547.342929
819.099843	2547.320244
819.418429	2548.139432
819.736970	2551.862324
820.055466	2554.723179
820.373919	2557.185782
820.692327	2560.991853
821.010691	2569.360169
821.329011	2584.455904
821.647286	2618.203908
821.965517	2657.250166
822.283704	2680.880574
822.601847	2687.353416
822.919945	2668.953204
823.237999	2648.932262
823.556010	2628.371916
823.873976	2610.400202
824.191897	2592.846905
824.509775	2583.440112
824.827609	2578.358628
825.145398	2571.648853
825.463144	2572.425190
825.780845	2573.093143
826.098502	2574.849985
826.416116	2584.496233
826.733685	2598.082143
827.051210	2603.889552
827.368692	2599.952411
827.686129	2583.858527
828.003522	2577.705799
828.320872	2564.150136
828.638177	2560.442368
828.955439	2553.911553
829.272656	2552.706717
829.589830	2546.417878
829.906960	2547.635316
830.224046	2547.892415
830.541088	2549.175389
830.858086	2544.376210
831.175041	2546.576674
831.491952	2544.073741
831.808819	2547.476520
832.125642	2546.649771
832.442421	2548.338557
832.759157	2552.111861
833.075849	2560.260886
833.392497	2566.771536
833.709101	2572.692372
834.025662	2572.054666
834.342179	2570.479305
834.658653	2562.017728
834.975083	2556.928683
835.291469	2558.052861
835.607811	2550.591953
835.924110	2546.801005
836.240366	2545.374359
836.556578	2543.110881
836.872746	2546.609442
837.188871	2543.584749
837.504952	2539.884542
837.820990	2541.943854
838.136984	2540.055942
838.452935	2539.849254
838.768842	2539.778678
839.084706	2543.370500
839.400526	2546.276725
839.716303	2547.776469
840.032037	2553.551110
840.347727	2550.997766
840.663373	2552.661347
840.978977	2547.347971
841.294537	2544.736653
841.610054	2541.086858
841.925527	2541.651467
842.240957	2539.098122
842.556344	2541.863195
842.871687	2538.115097
843.186987	2539.521579
843.502244	2535.513862
843.817458	2536.759027
844.132629	2536.829603
844.447756	2536.184335
844.762840	2533.257946
845.077881	2534.974458
845.392879	2533.441948
845.707833	2533.696526
846.022745	2531.392719
846.337613	2535.367668
846.652438	2533.797349
846.967221	2538.858668
847.281960	2536.393543
847.596656	2535.735673
847.911309	2536.897659
848.225919	2536.144006
848.540485	2534.535878
848.855009	2537.237937
849.169490	2535.874304
849.483928	2537.031249
849.798323	2535.576876
850.112675	2534.419932
850.426984	2534.966897
850.741251	2537.535365
851.055474	2535.150899
851.369654	2534.919006
851.683792	2533.661238
851.997887	2537.555529
852.311938	2534.258615
852.625947	2533.089067
852.939914	2536.433873
853.253837	2534.848430
853.567718	2532.781557
853.881555	2539.405633
854.195350	2531.024714
854.509103	2535.213913
854.822812	2534.314067
855.136479	2535.914634
855.450103	2534.147709
855.763685	2536.191897
856.077224	2535.017308
856.390720	2535.307175
856.704173	2532.037986
857.017584	2535.712987
857.330953	2536.726259
857.644278	2535.087884
857.957561	2538.266332
858.270802	2535.561753
858.584000	2538.742721
858.897155	2537.167360
859.210268	2534.697195
859.523339	2535.833975
859.836367	2532.274921
860.149352	2534.490508
860.462295	2536.002854
860.775195	2535.188708
861.088054	2532.461443
861.400869	2533.242822
861.713642	2530.674354
862.026373	2535.478574
862.339062	2535.934798
862.651708	2534.906403
862.964312	2537.505118
863.276873	2536.144006
863.589392	2535.917154
863.901869	2534.208203
864.214303	2536.459078
864.526696	2538.447813
864.839045	2534.210724
865.151353	2535.508821
865.463619	2539.647608
865.775842	2535.821372
866.088023	2535.355066
866.400162	2536.940508
866.712258	2535.203831
867.024313	2537.777340
867.336325	2535.476053
867.648296	2536.537216
867.960224	2535.082843
868.272110	2538.082330
868.583954	2536.091074
868.895755	2538.742721
869.207515	2534.989582
869.519233	2539.307330
869.830909	2536.567463
870.142542	2536.917823
870.454134	2538.294058
870.765684	2538.856147
871.077191	2538.581404
871.388657	2537.217772
871.700081	2538.636857
872.011463	2535.783564
872.322803	2538.810777
872.634101	2537.684079
872.945357	2535.546629
873.256571	2540.232382
873.567744	2536.408667
873.878874	2537.825231
874.189963	2535.793646
874.501010	2539.070396
874.812015	2538.349511
875.122979	2536.461599
875.433900	2537.326157
875.744780	2539.052752
876.055618	2538.248688
876.366415	2539.672814
876.677169	2538.465457
876.987882	2537.512679
877.298554	2535.740714
877.609183	2539.012423
877.919771	2535.433203
878.230317	2537.880684
878.540822	2543.758669
878.851285	2541.880839
879.161707	2546.826211
879.472087	2550.062632
879.782425	2552.547921
880.092722	2557.805844
880.402977	2569.813873
880.713191	2589.398755
881.023363	2607.831734
881.333494	2620.714403
881.643583	2625.064919
881.953631	2622.773714
882.263637	2618.612242
882.573602	2610.417846
882.883526	2599.029880
883.193408	2591.326997
883.503248	2582.535224
883.813048	2573.766137
884.122806	2570.822103
884.432522	2565.496124
884.742197	2560.656617
885.051831	2553.614125
885.361424	2553.180586
885.670975	2551.257385
885.980485	2550.891902
886.289954	2543.783875
886.599382	2545.157589
886.908768	2546.367466
887.218113	2543.005017
887.527417	2543.735984
887.836680	2543.582229
888.145901	2541.296065
888.455082	2542.344625
888.764221	2539.667773
889.073319	2543.665408
889.382376	2537.129552
889.691392	2539.491332
890.000366	2539.619882
890.309300	2538.901517
890.618193	2541.832948
890.927044	2540.154244
891.235855	2540.272711
891.544625	2540.492001
891.853353	2540.189532
892.162041	2542.591642
892.470687	2541.475026
892.779293	2544.900490
893.087858	2542.400078
893.396381	2541.870757
893.704864	2546.400234
894.013306	2547.852086
894.321707	2560.049158
894.630068	2566.464026
894.938387	2570.272618
895.246665	2568.795560
895.554903	2564.094684
895.863100	2555.728889
896.171256	2556.411965
896.479371	2553.450287
896.787446	2551.174206
897.095480	2549.228321
897.403473	2544.177085
897.711425	2543.630120
898.019336	2544.834955
898.327207	2541.341436
898.635038	2543.141128
898.942827	2542.853782
899.250576	2541.926210
899.558284	2540.320602
899.865952	2540.605427
900.173579	2541.122146
900.481165	2540.320602
900.788711	2537.976466
901.096216	2540.005530
901.403681	2537.056455
901.711105	2540.244985
902.018489	2539.864378
902.325832	2541.976621
902.633135	2541.089378
902.940397	2541.717002
903.247619	2542.281611
903.554800	2548.109185
903.861941	2561.344734
904.169041	2573.541806
904.476101	2579.061869
904.783121	2579.187898
905.090100	2573.410736
905.397039	2565.170970
905.703938	2558.239383
906.010796	2553.697304
906.317614	2549.833259
906.624391	2546.009544
906.931129	2543.879657
907.237826	2541.391847
907.544483	2539.665252
907.851099	2537.542926
908.157675	2539.045190
908.464211	2537.747093
908.770707	2533.235260
909.077163	2534.369520
909.383578	2533.520086
909.689954	2531.816176
909.996289	2531.246525
910.302584	2536.191897
910.608839	2531.518748
910.915054	2535.256763
911.221229	2535.307175
911.527363	2534.230888
911.833458	2534.934129
912.139513	2535.244160
912.445527	2535.188708
912.751502	2535.743234
913.057436	2535.208872
913.363331	2538.533513
913.669186	2538.470499
913.975000	2539.856816
914.280775	2542.367311
914.586510	2544.774462
914.892205	2549.354350
915.197859	2554.733261
915.503475	2560.439847
915.809050	2569.544171
916.114585	2574.938206
916.420081	2576.722774
916.725536	2574.287897
917.030952	2565.599468
917.336328	2562.877245
917.641665	2560.792728
917.946961	2559.824826
918.252218	2551.101110
918.557435	2549.835780
918.862612	2547.973074
919.167750	2546.080120
919.472848	2543.441076
919.777906	2543.811601
920.082925	2542.815973
920.387904	2539.183822
920.692843	2540.272711
920.997743	2539.398071
921.302603	2538.052083
921.607423	2538.861188
921.912204	2537.888245
922.216946	2535.440765
922.521647	2539.088040
922.826310	2535.261804
923.130932	2539.032587
923.435516	2535.534027
923.740059	2533.706608
924.044564	2532.799201
924.349028	2534.263656
924.653454	2530.999509
924.957840	2530.376926
925.262186	2531.473377
925.566493	2532.595034
925.870761	2526.066740
926.174989	2532.935312
926.479178	2533.540250
926.783328	2534.523275
927.087438	2531.891793
927.391509	2530.901206
927.695541	2531.279293
927.999533	2534.235929
928.303486	2529.751823
928.607400	2531.543953
928.911275	2534.258615
929.215110	2531.818696
929.518906	2532.232071
929.822663	2531.543953
930.126381	2530.003881
930.430060	2532.179139
930.733699	2532.879859
931.037299	2532.796680
931.340861	2536.461599
931.644383	2529.900537
931.947866	2532.315250
932.251309	2531.755682
932.554714	2530.936494
932.858080	2532.726104
933.161407	2530.757533
933.464694	2534.321629
933.767943	2530.291227
934.071153	2532.451361
934.374323	2528.655372
934.677455	2530.089580
934.980548	2530.578572
935.283602	2530.666792
935.586617	2530.147554
935.889593	2531.465815
936.192530	2532.249715
936.495428	2534.508152
936.798287	2529.020856
937.101108	2531.322142
937.403890	2532.690816
937.706632	2534.142668
938.009336	2531.498583
938.312002	2537.469830
938.614628	2531.503624
938.917216	2533.746937
939.219765	2532.274921
939.522275	2536.585107
939.824747	2532.065713
940.127179	2532.290044
940.429573	2528.799045
940.731929	2530.664272
941.034246	2528.809127
941.336524	2532.423635
941.638763	2532.915147
941.940964	2534.989582
942.243126	2534.397246
942.545250	2533.235260
942.847335	2532.327853
943.149381	2530.921371
943.451389	2531.606968
943.753359	2530.729807
944.055290	2533.585621
944.357182	2530.150074
944.659036	2531.339787
944.960851	2529.061185
945.262628	2531.049920
945.564367	2531.889272
945.866067	2533.565456
946.167729	2531.531350
946.469352	2531.801052
946.770937	2530.830630
947.072484	2532.350538
947.373992	2531.617050
947.675462	2532.083357
947.976893	2531.304498
948.278286	2532.345497
948.579641	2529.766947
948.880958	2531.317101
949.182236	2532.642925
949.483476	2531.632173
949.784678	2530.893644
950.085841	2529.645959
950.386967	2532.282482
950.688054	2531.690147
950.989103	2530.099663
951.290114	2529.051103
951.591087	2531.160826
951.892021	2531.851464
952.192917	2532.040507
952.493776	2530.636546
952.794596	2531.513706
953.095378	2533.862884
953.396122	2530.898686
953.696828	2531.720394
953.997496	2529.144364
954.298126	2531.498583
954.598718	2528.978006
954.899272	2531.775846
955.199788	2530.818027
955.500266	2529.850126
955.800706	2528.420958
956.101108	2526.959024
956.401472	2528.078160
956.701798	2525.741585
957.002087	2526.364168
957.302337	2529.454395
957.602550	2529.091432
957.902724	2527.342152
958.202861	2532.025383
958.502960	2530.203006
958.803022	2530.084539
959.103045	2529.328366
959.403031	2529.162008
959.702979	2529.744261
960.002889	2528.925074
960.302762	2530.381967
960.602596	2528.723428
960.902393	2527.624456
961.202153	2528.567152
961.501875	2526.177645
961.801559	2528.325177
962.101205	2529.247708
962.400814	2528.292409
962.700385	2527.536236
962.999918	2527.057326
963.299414	2529.093953
963.598873	2528.980527
963.898293	2526.197810
964.197677	2529.310722
964.497022	2528.204189
964.796331	2529.988757
965.095601	2524.884589
965.394835	2528.380629
965.694030	2529.787111
965.993189	2526.301153
966.292309	2527.047244
966.591393	2527.695032
966.890439	2527.886596
967.189447	2527.127902
967.488419	2529.630835
967.787353	2527.962213
968.086249	2528.657893
968.385108	2529.101514
968.683930	2527.009435
968.982714	2530.127389
969.281462	2527.022038
969.580172	2529.058664
969.878844	2527.881555
970.177480	2528.297450
970.476078	2527.022038
970.774639	2531.087729
971.073162	2525.925587
971.371649	2527.105217
971.670098	2522.245545
971.968510	2525.028262
972.266885	2523.672192
972.565223	2528.708304
972.863524	2530.233253
973.161788	2527.876514
973.460014	2527.057326
973.758204	2529.358613
974.056356	2526.570855
974.354471	2526.565814
974.652550	2530.298788
974.950591	2528.284847
975.248595	2528.420958
975.546563	2528.252080
975.844493	2527.354754
976.142386	2526.659075
976.440243	2528.262162
976.738062	2528.012625
977.035845	2526.404497
977.333590	2531.586803
977.631299	2526.659075
977.928971	2528.211751
978.226606	2527.911802
978.524204	2531.259128
978.821765	2525.008097
979.119290	2527.569003
979.416777	2526.079342
979.714228	2529.988757
980.011642	2525.313087
980.309020	2530.218130
980.606360	2526.797707
980.903664	2526.250742
981.200931	2527.193437
981.498162	2525.068591
981.795356	2529.136802
982.092513	2528.108407
982.389633	2528.811648
982.686717	2531.180990
982.983764	2532.731145
983.280775	2530.505476
983.577749	2529.401463
983.874686	2529.971113
984.171587	2527.541277
984.468451	2530.762574
984.765279	2530.734848
985.062070	2529.517409
985.358824	2526.386853
985.655543	2527.745444
985.952224	2527.521112
986.248869	2525.144208
986.545478	2523.523477
986.842050	2526.182686
987.138586	2523.263858
987.435086	2528.859539
987.731549	2523.843591
988.027975	2525.396266
988.324366	2526.462470
988.620719	2526.311236
988.917037	2526.306194
989.213318	2524.980371
989.509563	2523.929290
989.805772	2526.570855
990.101944	2527.659744
990.398080	2527.430372
990.694180	2526.601102
990.990244	2526.006246
991.286271	2527.712676
991.582262	2525.895340
991.878217	2526.349044
992.174136	2525.355937
992.470019	2527.599250
992.765865	2527.188396
993.061676	2526.694363
993.357450	2525.252593
993.653188	2528.446164
993.948890	2526.180166
994.244556	2528.748633
994.540186	2526.585978
994.835780	2525.222346
995.131337	2527.253931
995.426859	2527.016997
995.722345	2526.122192
996.017795	2531.211237
996.313208	2528.146216
996.608586	2525.676050
996.903928	2530.016484
997.199234	2524.992974
997.494504	2523.561286
997.789738	2525.416431
998.084936	2527.594209
998.380099	2527.947090
998.675225	2528.267203
998.970316	2525.557583
999.265371	2526.054137
999.560390	2525.791997
999.855373	2526.245701
1000.150320	2526.180166
1000.445232	2527.362316
1000.740108	2528.226874
1001.034948	2525.698735
1001.329752	2525.849970
1001.624521	2525.534898
1001.919254	2523.679753
1002.213951	2526.427182
1002.508613	2521.227232
1002.803239	2522.805113
1003.097829	2519.944258
1003.392384	2527.599250
1003.686903	2523.800741
1003.981386	2526.023890
1004.275834	2526.346524
1004.570246	2528.259642
1004.864623	2526.051616
1005.158964	2529.416586
1005.453270	2523.238652
1005.747540	2523.563807
1006.041775	2524.740916
1006.335974	2527.667306
1006.630138	2525.305525
1006.924266	2528.126051
1007.218359	2525.698735
1007.512416	2525.499610
1007.806438	2527.140505
1008.100425	2524.725793
1008.394376	2526.154960
1008.688292	2525.973478
1008.982172	2524.894671
1009.276017	2526.643952
1009.569827	2526.076822
1009.863602	2526.470032
1010.157341	2527.122861
1010.451045	2524.952645
1010.744714	2526.149919
1011.038347	2524.647655
1011.331945	2524.708149
1011.625508	2529.131761
1011.919036	2526.046575
1012.212528	2525.106400
1012.505986	2524.577079
1012.799408	2528.216792
1013.092795	2524.209074
1013.386147	2526.003725
1013.679464	2525.958355
1013.972745	2524.425844
1014.265992	2527.889117
1014.559204	2528.783922
1014.852380	2524.438447
1015.145521	2524.471214
1015.438628	2524.022552
1015.731699	2527.987419
1016.024736	2527.097656
1016.317737	2523.946934
1016.610703	2526.984230
1016.903635	2522.679084
1017.196531	2519.102386
1017.489393	2526.187727
1017.782219	2520.957530
1018.075011	2525.373581
1018.367768	2527.168232
1018.660490	2527.937008
1018.953177	2527.937008
1019.245829	2527.937008
