Dividing Wavelength (nm)	Counts (n)	Blue Motor Position (mm): 0.000000	Red Motor Position (mm): 17.100000	
326.493990	2128.765843
326.888308	2128.765843
327.282561	2128.765843
327.676750	2095.549681
328.070874	2093.303847
328.464933	2098.718046
328.858929	2104.752307
329.252859	2112.951744
329.646726	2122.156891
330.040528	2137.310599
330.434265	2156.255255
330.827938	2168.701864
331.221547	2192.493590
331.615091	2207.223841
332.008571	2228.951214
332.401986	2248.717578
332.795338	2267.190887
333.188625	2283.330141
333.581847	2305.987607
333.975006	2325.741368
334.368100	2342.072186
334.761129	2361.026924
335.154095	2376.941847
335.546996	2393.738972
335.939833	2409.953843
336.332606	2425.339445
336.725315	2438.890066
337.117960	2444.712599
337.510540	2454.994032
337.903056	2464.547019
338.295508	2471.458441
338.687896	2481.838176
339.080220	2488.374032
339.472480	2496.883500
339.864676	2500.026659
340.256807	2504.089829
340.648875	2506.186949
341.040879	2512.188443
341.432818	2509.524193
341.824694	2512.269102
342.216506	2513.456293
342.608253	2512.695079
342.999937	2513.824298
343.391557	2517.022910
343.783113	2512.427898
344.174605	2511.039060
344.566033	2507.815242
344.957397	2511.162568
345.348697	2505.829028
345.739934	2506.255005
346.131106	2503.661331
346.522215	2501.730569
346.913260	2501.241578
347.304241	2496.207985
347.695159	2495.948366
348.086012	2493.392501
348.476802	2495.038438
348.867528	2491.537356
349.258191	2489.268837
349.648789	2489.273878
350.039324	2487.234732
350.429796	2488.704228
350.820203	2487.403610
351.210548	2484.835142
351.600828	2486.375215
351.991045	2482.715337
352.381198	2484.935965
352.771288	2482.700214
353.161314	2481.374390
353.551276	2482.496047
353.941175	2482.075111
354.331010	2482.251551
354.720782	2480.605614
355.110490	2483.272385
355.500135	2482.906901
355.889717	2483.310193
356.279235	2479.541931
356.668689	2483.877323
357.058080	2482.727940
357.447408	2480.338433
357.836672	2482.299442
358.225873	2480.653505
358.615010	2478.183340
359.004084	2485.803044
359.393095	2486.589464
359.782043	2490.239259
360.170927	2487.980822
360.559748	2489.573827
360.948505	2488.681543
361.337199	2489.805720
361.725830	2488.217757
362.114398	2490.859321
362.502903	2491.060967
362.891344	2490.546770
363.279722	2492.043992
363.668037	2492.217912
364.056289	2492.255721
364.444478	2493.200937
364.832603	2495.522388
365.220665	2494.128509
365.608665	2494.380567
365.996601	2497.614467
366.384474	2497.009529
366.772284	2501.120590
367.160031	2502.280055
367.547715	2503.205107
367.935336	2502.466578
368.322893	2507.870695
368.710388	2508.866323
369.097820	2519.175482
369.485189	2522.084228
369.872495	2527.246370
370.259738	2534.298944
370.646918	2542.052238
371.034035	2546.150697
371.421090	2559.141750
371.808081	2568.946794
372.195010	2578.698906
372.581875	2588.819023
372.968678	2603.037597
373.355418	2612.852724
373.742096	2631.676392
374.128710	2645.496715
374.515262	2661.845177
374.901751	2675.287414
375.288177	2688.381811
375.674540	2710.590614
376.060841	2731.302195
376.447079	2747.302817
376.833254	2772.196035
377.219367	2779.314144
377.605417	2819.232521
377.991404	2830.801969
378.377329	2849.078672
378.763191	2867.892258
379.148991	2908.382806
379.534727	2936.295675
379.920402	2960.982205
380.306013	2969.965542
380.691563	3020.505629
381.077049	3042.215358
381.462474	3056.141546
381.847835	3099.024121
382.233134	3122.276443
382.618371	3119.090434
383.003545	3187.201464
383.388657	3194.927032
383.773706	3228.178483
384.158693	3244.141296
384.543618	3272.301182
384.928480	3304.436017
385.313280	3351.417050
385.698017	3351.459900
386.082692	3402.932601
386.467305	3410.383427
386.851856	3439.105401
387.236344	3461.893937
387.620770	3493.496930
388.005133	3518.478368
388.389435	3549.047925
388.773674	3555.959347
389.157851	3602.975668
389.541965	3613.005044
389.926018	3579.912389
390.310008	3649.792864
390.693936	3668.596368
391.077802	3709.044066
391.461606	3701.726831
391.845348	3763.299484
392.229027	3760.032816
392.612645	3774.206020
392.996200	3852.815253
393.379694	3889.618197
393.763125	3953.696303
394.146494	3921.213628
394.529801	3985.306858
394.913047	4035.211761
395.296230	3996.455370
395.679351	4053.475861
396.062410	4071.981937
396.445408	4056.041808
396.828343	4090.394751
397.211217	4110.428297
397.594028	4032.436606
397.976778	4098.407665
398.359466	4124.336840
398.742092	4151.828773
399.124656	4074.449582
399.507158	4149.285511
399.889598	4173.651928
400.271977	4231.221905
400.654294	4197.070608
401.036549	4201.370712
401.418742	4165.444929
401.800874	4263.029065
402.182944	4273.345786
402.564952	4326.726564
402.946898	4307.839881
403.328783	4295.058036
403.710606	4202.696536
404.092367	4374.206672
404.474067	4323.162468
404.855705	4316.044359
405.237282	4236.139550
405.618797	4317.866736
406.000250	4330.484744
406.381642	4379.903176
406.762972	4331.787883
407.144240	4317.065193
407.525447	4292.842449
407.906593	4321.261953
408.287677	4331.500537
408.668700	4247.431735
409.049661	4258.539917
409.430560	4265.589971
409.811399	4175.602854
410.192176	4271.364613
410.572891	4193.355278
410.953545	4237.543512
411.334138	4113.213534
411.714669	4129.083087
412.095139	4020.388248
412.475547	4080.355293
412.855894	4028.819578
413.236180	3994.043178
413.616405	3927.320986
413.996568	3945.511990
414.376670	3864.319166
414.756711	3797.218888
415.136691	3776.870270
415.516609	3775.279786
415.896466	3754.353957
416.276262	3727.797158
416.655997	3676.510979
417.035670	3717.780385
417.415283	3713.515569
417.794834	3641.353972
418.174324	3585.054366
418.553753	3504.272397
418.933121	3531.318187
419.312428	3507.796163
419.691674	3440.285031
420.070859	3436.834361
420.449983	3366.117055
420.829045	3358.159593
421.208047	3292.105355
421.586988	3269.067282
421.965867	3233.562435
422.344686	3220.316803
422.723444	3150.373314
423.102141	3076.873291
423.480777	3103.687188
423.859352	3024.775487
424.237866	3037.259904
424.616319	3005.372086
424.994712	2992.542349
425.373044	2945.601645
425.751314	2931.017587
426.129524	2876.270656
426.507673	2873.006509
426.885762	2856.700897
427.263789	2826.466577
427.641756	2792.842081
428.019662	2780.670215
428.397508	2761.087852
428.775292	2739.597414
429.153016	2724.476473
429.530679	2704.959646
429.908282	2695.588141
430.285824	2673.959070
430.663305	2672.171981
431.040726	2646.015954
431.418086	2634.507000
431.795385	2629.342338
432.172624	2622.526698
432.549802	2611.544544
432.926920	2603.208996
433.303977	2596.300095
433.680974	2591.758015
434.057910	2585.711151
434.434786	2580.664956
434.811601	2575.412074
435.188355	2574.219841
435.565050	2566.595096
435.941683	2562.816751
436.318257	2561.979920
436.694770	2556.737120
437.071222	2552.371480
437.447614	2553.031872
437.823946	2547.441232
438.200218	2550.047508
438.576429	2548.217570
438.952580	2550.647406
439.328670	2546.727909
439.704700	2547.647919
440.080670	2543.115922
440.456580	2548.557847
440.832429	2540.817156
441.208218	2543.912424
441.583947	2546.248999
441.959616	2541.593493
442.335224	2543.070552
442.710773	2539.851775
443.086261	2544.131714
443.461689	2540.547454
443.837057	2542.223638
444.212365	2544.076262
444.587612	2541.714481
444.962800	2540.844882
445.337927	2538.099974
445.712995	2538.185673
446.088002	2543.367980
446.462949	2541.003678
446.837837	2539.854295
447.212664	2540.439069
447.587431	2541.152393
447.962139	2541.235572
448.336786	2548.419216
448.711374	2545.213042
449.085901	2542.314378
449.460369	2541.316230
449.834776	2541.875798
450.209124	2541.865716
450.583412	2544.829914
450.957640	2543.962836
451.331808	2544.822352
451.705917	2542.291693
452.079965	2543.209183
452.453954	2543.947712
452.827883	2542.059800
453.201752	2543.859492
453.575562	2542.629451
453.949311	2544.628268
454.323001	2542.447969
454.696632	2545.898639
455.070202	2545.520552
455.443713	2541.769934
455.817164	2543.798998
456.190556	2542.526107
456.563888	2541.548123
456.937160	2539.690458
457.310373	2544.482075
457.683526	2543.988042
458.056619	2542.001827
458.429653	2543.670449
458.802628	2543.494008
459.175542	2544.905532
459.548398	2545.528114
459.921194	2547.418547
460.293930	2545.371838
460.666607	2545.044163
461.039224	2548.772097
461.411782	2550.450801
461.784280	2552.701676
462.156719	2550.745708
462.529099	2549.089689
462.901419	2549.984494
463.273680	2549.997097
463.645882	2548.099102
464.018024	2551.713610
464.390106	2551.302756
464.762130	2552.568085
465.134094	2551.690925
465.505999	2556.369115
465.877845	2563.446895
466.249631	2563.731721
466.621358	2562.680640
466.993026	2564.288768
467.364634	2564.359344
467.736184	2560.943962
468.107674	2556.326266
468.479105	2556.921122
468.850477	2557.478169
469.221790	2559.774415
469.593043	2554.970195
469.964238	2558.935063
470.335373	2554.687891
470.706449	2559.232491
471.077467	2556.994218
471.448425	2564.361865
471.819324	2566.277503
472.190164	2567.061403
472.560945	2561.647203
472.931667	2558.352809
473.302330	2560.384394
473.672934	2557.568910
474.043479	2559.615618
474.413965	2556.467418
474.784393	2553.566234
475.154761	2559.197203
475.525070	2558.993036
475.895321	2556.830381
476.265513	2554.854249
476.635645	2561.992522
477.005719	2560.248283
477.375734	2559.051009
477.745691	2563.184755
478.115588	2563.996381
478.485427	2564.692060
478.855207	2569.448389
479.224928	2568.790518
479.594591	2572.500808
479.964194	2572.795715
480.333739	2571.331260
480.703226	2569.211455
481.072653	2572.601631
481.442022	2573.229254
481.811333	2575.066755
482.180584	2569.720611
482.549777	2571.537947
482.918912	2571.850499
483.287988	2569.793708
483.657005	2570.867474
484.025964	2570.028122
484.394864	2572.946950
484.763706	2570.640622
485.132489	2565.115517
485.501213	2570.340673
485.869879	2566.615261
486.238487	2566.030487
486.607036	2568.120045
486.975527	2569.428224
487.343959	2567.343707
487.712333	2567.242884
488.080648	2563.744323
488.448905	2568.175498
488.817104	2565.980075
489.185244	2567.517627
489.553326	2564.150136
489.921350	2568.974521
490.289315	2572.846127
490.657222	2574.131621
491.025070	2573.675397
491.392861	2572.079871
491.760593	2572.072310
492.128267	2569.438307
492.495883	2570.491908
492.863440	2569.723132
493.230939	2565.859087
493.598380	2569.042576
493.965763	2562.602502
494.333088	2563.348593
494.700354	2562.345403
495.067563	2564.797925
495.434713	2561.745506
495.801805	2566.471588
496.168839	2566.252298
496.535815	2565.261711
496.902733	2564.417317
497.269593	2566.716084
497.636395	2567.779767
498.003139	2566.965621
498.369825	2564.954200
498.736453	2566.738769
499.103023	2565.702812
499.469535	2567.399160
499.835989	2567.678944
500.202385	2564.482852
500.568723	2567.081567
500.935003	2566.078378
501.301226	2565.856567
501.667390	2568.430076
502.033497	2569.201372
502.399546	2566.123748
502.765537	2567.265569
503.131470	2565.370096
503.497345	2567.313460
503.863163	2567.709191
504.228923	2565.632236
504.594625	2566.267421
504.960269	2565.299519
505.325856	2567.893193
505.691385	2565.879252
506.056856	2566.680796
506.422270	2568.193142
506.787625	2565.405384
507.152924	2564.911351
507.518164	2567.772205
507.883347	2565.808676
508.248472	2569.894531
508.613540	2569.859243
508.978550	2568.419994
509.343503	2566.343038
509.708398	2568.742628
510.073236	2567.275652
510.438016	2570.610375
510.802738	2566.829510
511.167403	2570.081054
511.532010	2567.595765
511.896561	2568.901424
512.261053	2570.408729
512.625488	2566.433779
512.989866	2565.145764
513.354186	2565.092832
513.718449	2563.678788
514.082655	2567.469736
514.446803	2567.603327
514.810894	2570.867474
515.174927	2570.731363
515.538904	2568.147771
515.902822	2570.106260
516.266684	2569.589541
516.630488	2569.193811
516.994235	2569.667679
517.357925	2568.354459
517.721558	2570.582649
518.085133	2568.679613
518.448651	2566.922771
518.812112	2568.591393
519.175516	2568.490570
519.538863	2570.388564
519.902152	2569.692885
520.265385	2572.309244
520.628560	2568.258677
520.991678	2568.931671
521.354739	2570.602813
521.717743	2570.542319
522.080690	2570.766651
522.443580	2569.839078
522.806413	2571.578277
523.169189	2567.212637
523.531908	2570.958215
523.894569	2568.775395
524.257174	2569.413101
524.619722	2569.841599
524.982213	2573.539285
525.344647	2569.521486
525.707025	2568.293965
526.069345	2570.988462
526.431608	2570.428893
526.793815	2569.879408
527.155964	2570.990982
527.518057	2571.071641
527.880093	2569.261866
528.242072	2572.447876
528.603995	2569.473595
528.965860	2568.336815
529.327669	2571.565674
529.689421	2568.866136
530.051117	2567.968810
530.412755	2569.927299
530.774337	2569.090467
531.135862	2568.730025
531.497331	2565.901937
531.858743	2567.918399
532.220098	2567.255487
532.581396	2565.949828
532.942638	2566.965621
533.303824	2568.525858
533.664953	2569.682803
534.026025	2568.432597
534.387040	2569.647515
534.747999	2568.661969
535.108902	2568.389747
535.469748	2568.586352
535.830537	2568.334294
536.191270	2569.092988
536.551947	2569.032494
536.912567	2567.522668
537.273131	2567.449572
537.633638	2570.204562
537.994089	2568.553584
538.354483	2567.172308
538.714821	2565.581824
539.075103	2567.394119
539.435328	2567.694068
539.795497	2565.778429
540.155609	2567.986454
540.515665	2570.239850
540.875665	2567.963769
541.235609	2569.314798
541.595496	2569.201372
541.955328	2568.089798
542.315102	2571.994172
542.674821	2568.556105
543.034483	2571.661456
543.394090	2566.816907
543.753640	2566.552246
544.113134	2567.008471
544.472571	2567.240364
544.831953	2567.777247
545.191278	2568.392267
545.550548	2569.065261
545.909761	2568.339335
546.268918	2568.946794
546.628019	2568.341856
546.987064	2570.055848
547.346053	2565.939746
547.704986	2567.691547
548.063863	2570.018039
548.422684	2569.138358
548.781449	2569.483677
549.140158	2569.413101
549.498811	2568.966959
549.857408	2563.875393
550.215949	2564.911351
550.574434	2566.269942
550.932864	2565.894376
551.291237	2562.342883
551.649555	2566.635425
552.007817	2567.615930
552.366022	2569.208934
552.724173	2567.494942
553.082267	2566.826989
553.440305	2567.726835
553.798288	2568.097360
554.156215	2569.022412
554.514086	2570.103739
554.871902	2563.560321
555.229661	2567.351269
555.587365	2565.619633
555.945014	2569.206414
556.302606	2568.767833
556.660143	2566.821948
557.017625	2565.760785
557.375050	2569.269428
557.732421	2566.756413
558.089735	2566.950497
558.446994	2567.101732
558.804197	2567.068964
559.161345	2565.521330
559.518437	2566.519479
559.875474	2566.645507
560.232455	2568.911506
560.589381	2566.232133
560.946251	2569.125755
561.303065	2570.444017
561.659825	2568.218347
562.016528	2565.556618
562.373177	2568.112483
562.729770	2569.904613
563.086307	2568.465364
563.442789	2566.559808
563.799216	2566.290106
564.155587	2566.824468
564.511904	2568.253636
564.868164	2566.716084
565.224370	2570.501990
565.580520	2566.567370
565.936615	2566.088460
566.292654	2565.856567
566.648638	2567.414283
567.004567	2565.178532
567.360441	2567.830179
567.716260	2566.774057
568.072023	2568.510734
568.427732	2564.399673
568.783385	2565.589386
569.138982	2563.880435
569.494525	2563.215002
569.850013	2562.993192
570.205445	2567.966290
570.560823	2567.063923
570.916145	2568.241033
571.271412	2564.984447
571.626625	2566.748851
571.981782	2564.694581
572.336884	2566.370765
572.691931	2566.590055
573.046923	2564.175342
573.401860	2568.480487
573.756743	2564.825651
574.111570	2564.911351
574.466342	2567.399160
574.821059	2563.308264
575.175722	2563.802297
575.530330	2567.414283
575.884882	2565.110476
576.239380	2564.049313
576.593823	2564.782801
576.948211	2565.118038
577.302544	2563.507389
577.656823	2565.871690
578.011047	2565.571742
578.365216	2564.276165
578.719330	2565.559139
579.073389	2562.844478
579.427394	2561.765671
579.781344	2561.468242
580.135239	2562.937739
580.489080	2566.882442
580.842866	2562.373130
581.196597	2565.002091
581.550273	2565.231464
581.903895	2560.598643
582.257463	2565.289437
582.610975	2564.666855
582.964434	2563.487225
583.317837	2565.700291
583.671186	2563.746844
584.024481	2561.803479
584.377721	2562.040413
584.730906	2563.358675
585.084037	2563.424210
585.437113	2561.954714
585.790135	2563.467060
586.143103	2563.036041
586.496016	2564.928995
586.848874	2560.190310
587.201679	2562.317677
587.554428	2563.726679
587.907124	2563.630897
588.259765	2556.369115
588.612352	2561.004456
588.964884	2563.872873
589.317362	2560.969168
589.669786	2562.206772
590.022155	2562.473953
590.374470	2562.206772
590.726731	2561.440516
591.078937	2557.606719
591.431090	2560.656617
591.783188	2562.620146
592.135232	2559.882800
592.487222	2560.215516
592.839157	2559.557645
593.191038	2562.171483
593.542866	2562.415979
593.894639	2560.926318
594.246358	2561.823644
594.598022	2559.393808
594.949633	2558.045299
595.301190	2559.991184
595.652692	2560.424724
596.004141	2560.941442
596.355535	2559.857594
596.706876	2559.731565
597.058162	2558.176369
597.409395	2559.003118
597.760573	2558.251986
598.111698	2558.766184
598.462768	2558.778787
598.813785	2559.910526
599.164748	2559.542522
599.515657	2557.755433
599.866511	2560.228119
600.217312	2558.977912
600.568060	2559.502192
600.918753	2558.864487
601.269392	2557.742830
601.619978	2559.119065
601.970510	2559.192162
602.320988	2557.253838
602.671412	2558.680484
603.021783	2558.287274
603.372100	2561.120403
603.722363	2559.446740
604.072572	2559.814744
604.422728	2560.182748
604.772830	2555.872562
605.122878	2556.543035
605.472872	2554.521532
605.822813	2555.154197
606.172701	2556.689229
606.522534	2558.919939
606.872314	2560.840619
607.222041	2557.090000
607.571714	2562.675599
607.921333	2560.855742
608.270899	2557.042109
608.620411	2557.894064
608.969870	2561.193500
609.319276	2561.954714
609.668627	2563.542677
610.017926	2566.572411
610.367171	2566.617781
610.716362	2566.590055
611.065500	2562.398335
611.414585	2562.519323
611.763616	2563.411607
612.112594	2564.273645
612.461518	2562.035372
612.810389	2560.286092
613.159207	2560.744837
613.507971	2559.512275
613.856682	2561.899261
614.205340	2559.033365
614.553945	2559.696277
614.902496	2559.930691
615.250994	2560.528067
615.599439	2560.659137
615.947830	2562.027811
616.296169	2562.673078
616.644454	2559.792059
616.992686	2561.281720
617.340864	2558.836760
617.688990	2557.458005
618.037063	2557.866338
618.385082	2561.493448
618.733048	2560.034034
619.080961	2557.528581
619.428821	2557.737789
619.776628	2558.007490
620.124382	2559.383725
620.472083	2560.371792
620.819731	2561.213664
621.167326	2557.097562
621.514868	2559.035886
621.862357	2558.655279
622.209793	2558.609908
622.557176	2558.872048
622.904506	2553.523384
623.251783	2552.421892
623.599007	2556.530432
623.946179	2554.229146
624.293297	2553.631769
624.640363	2557.402552
624.987376	2558.022614
625.334336	2557.720145
625.681243	2557.112686
626.028097	2555.033210
626.374899	2556.757284
626.721647	2557.508416
627.068343	2557.160577
627.414987	2555.083621
627.761577	2554.670247
628.108115	2558.332645
628.454600	2557.442881
628.801032	2556.028838
629.147412	2556.268292
629.493739	2557.379867
629.840014	2556.127140
630.186236	2557.470607
630.532405	2555.567572
630.878521	2554.637479
631.224585	2555.731409
631.570597	2553.087324
631.916556	2553.450287
632.262462	2556.152346
632.608316	2552.827705
632.954117	2553.722510
633.299866	2553.205791
633.645562	2553.530946
633.991206	2557.135371
634.336797	2553.336861
634.682336	2554.529094
635.027823	2552.522715
635.373257	2552.265616
635.718639	2550.922149
636.063968	2554.786193
636.409245	2554.355174
636.754470	2554.219063
637.099642	2553.684701
637.444762	2554.350133
637.789829	2551.743857
638.134845	2553.004145
638.479808	2552.938610
638.824719	2552.774773
639.169577	2552.573127
639.514383	2550.952396
639.859137	2549.843342
640.203839	2553.094886
640.548489	2553.374670
640.893086	2549.142621
641.237632	2547.438711
641.582125	2547.516849
641.926566	2547.501726
642.270955	2550.476007
642.615292	2552.588250
642.959576	2551.975750
643.303809	2553.593960
643.647990	2548.842673
643.992118	2551.965667
644.336195	2552.053888
644.680219	2551.194371
645.024192	2553.117571
645.368112	2551.156562
645.711981	2551.423743
646.055797	2552.865513
646.399562	2553.508261
646.743274	2550.347457
647.086935	2554.458518
647.430544	2551.179248
647.774101	2551.315359
648.117606	2552.091696
648.461059	2551.242262
648.804460	2552.114382
649.147810	2553.969526
649.491108	2550.801161
649.834354	2552.167314
650.177548	2551.716130
650.520690	2549.515667
650.863781	2552.570606
651.206820	2551.857283
651.549807	2551.181768
651.892742	2551.678322
652.235626	2551.522046
652.578458	2549.334185
652.921238	2549.492982
653.263967	2551.935421
653.606644	2550.123126
653.949269	2546.773279
654.291843	2549.808054
654.634365	2553.167983
654.976836	2550.763352
655.319255	2549.714792
655.661622	2546.919472
656.003938	2547.221942
656.346203	2550.100441
656.688416	2548.855276
657.030577	2549.460214
657.372687	2550.483568
657.714746	2551.574978
658.056753	2545.923845
658.398708	2548.267981
658.740612	2548.696479
659.082465	2545.245809
659.424266	2546.548948
659.766016	2545.659184
660.107715	2550.755791
660.449362	2548.033567
660.790958	2549.397200
661.132503	2546.460728
661.473996	2549.041798
661.815438	2546.841335
662.156829	2548.278063
662.498168	2547.408464
662.839456	2552.595812
663.180693	2550.402910
663.521879	2548.401572
663.863013	2549.848383
664.204097	2549.160265
664.545129	2549.770245
664.886110	2549.664381
665.227040	2549.359391
665.567918	2551.461552
665.908746	2547.181613
666.249522	2552.749567
666.590248	2548.648588
666.930922	2550.405430
667.271545	2551.259906
667.612118	2549.810574
667.952639	2550.760832
668.293109	2550.342416
668.633528	2550.289484
668.973896	2548.888043
669.314213	2546.221273
669.654480	2548.043650
669.994695	2547.360573
670.334859	2545.770089
670.674973	2549.520708
671.015035	2549.034237
671.355047	2547.935265
671.695008	2549.374514
672.034918	2548.769576
672.374777	2550.236552
672.714585	2549.127498
673.054342	2549.596325
673.394049	2549.061963
673.733705	2548.290666
674.073310	2549.351829
674.412864	2549.006510
674.752368	2546.279246
675.091820	2549.308979
675.431223	2550.735626
675.770574	2548.635985
676.109875	2542.495860
676.449125	2546.541386
676.788324	2542.488298
677.127473	2547.892415
677.466571	2544.088865
677.805619	2547.519370
678.144616	2546.891746
678.483562	2550.037426
678.822458	2546.057435
679.161303	2550.213867
679.500098	2548.507436
679.838842	2548.446942
680.177535	2547.017775
680.516179	2548.908208
680.854771	2548.338557
681.193314	2548.988866
681.531805	2551.259906
681.870247	2551.166645
682.208638	2551.302756
682.546978	2547.710934
682.885268	2548.943496
683.223508	2551.073383
683.561697	2549.697148
683.899836	2549.306459
684.237925	2546.511139
684.575963	2551.784186
684.913951	2547.887374
685.251889	2551.842159
685.589776	2549.752601
685.927614	2550.813764
686.265401	2546.443083
686.603137	2552.920966
686.940824	2550.397869
687.278460	2549.719833
687.616046	2548.706562
687.953582	2550.115564
688.291068	2548.678835
688.628504	2549.523228
688.965889	2547.947868
689.303224	2548.993907
689.640510	2549.054401
689.977745	2549.029195
690.314930	2549.064483
690.652065	2548.431819
690.989150	2544.532486
691.326185	2550.037426
691.663170	2546.493495
692.000105	2547.567261
692.336990	2546.808567
692.673825	2548.295708
693.010610	2547.587425
693.347345	2542.780685
693.684030	2544.648433
694.020665	2544.535007
694.357251	2540.658359
694.693786	2544.719009
695.030272	2547.869730
695.366707	2547.244627
695.703093	2544.383772
696.039429	2542.889070
696.375716	2548.288146
696.711952	2545.855789
697.048139	2545.843186
697.384276	2542.926879
697.720363	2542.571477
698.056400	2545.603731
698.392388	2545.449976
698.728326	2545.132383
699.064214	2545.119781
699.400053	2547.179092
699.735842	2542.674821
700.071581	2546.712785
700.407270	2545.021478
700.742910	2544.653474
701.078501	2545.518032
701.414042	2544.111550
701.749533	2541.396888
702.084974	2545.868392
702.420366	2542.987372
702.755709	2541.298586
703.091002	2544.696324
703.426246	2543.756148
703.761440	2541.119625
704.096584	2546.780841
704.431679	2542.637012
704.766725	2543.546941
705.101721	2541.197763
705.436668	2543.481406
705.771565	2542.508463
706.106413	2544.527445
706.441212	2542.455531
706.775961	2542.480737
707.110661	2543.320089
707.445311	2544.960984
707.779913	2542.808412
708.114465	2545.351674
708.448967	2543.897301
708.783421	2542.553833
709.117825	2544.295552
709.452180	2543.531817
709.786485	2546.387631
710.120742	2544.076262
710.454949	2546.753114
710.789107	2542.861344
711.123216	2539.151054
711.457275	2541.863195
711.791286	2542.027033
712.125247	2539.982845
712.459159	2547.635316
712.793023	2543.672969
713.126837	2545.076931
713.460602	2545.447456
713.794318	2547.534493
714.127985	2544.126673
714.461602	2541.812784
714.795171	2547.829401
715.128691	2542.611807
715.462162	2545.359235
715.795584	2544.698844
716.128957	2542.931920
716.462281	2541.953936
716.795556	2543.824204
717.128782	2542.281611
717.461960	2542.876467
717.795088	2544.043494
718.128167	2542.684903
718.461198	2543.614996
718.794180	2546.619524
719.127113	2541.525438
719.459997	2542.904193
719.792833	2541.810263
720.125619	2542.337064
720.458357	2541.837989
720.791046	2541.588452
721.123686	2543.413350
721.456278	2542.821014
721.788821	2541.376724
722.121315	2545.326468
722.453761	2541.565767
722.786158	2541.565767
723.118506	2540.731456
723.450805	2538.314223
723.783056	2542.735315
724.115259	2541.364121
724.447412	2541.906045
724.779518	2543.267157
725.111574	2540.875129
725.443582	2544.633309
725.775542	2541.041487
726.107453	2541.255736
726.439315	2542.213555
726.771129	2547.385779
727.102895	2542.944523
727.434612	2543.902342
727.766281	2541.515356
728.097901	2538.004192
728.429473	2539.866898
728.760996	2543.161292
729.092471	2538.099974
729.423897	2540.683565
729.755276	2540.917979
730.086606	2542.881508
730.417887	2545.563402
730.749120	2543.110881
731.080305	2542.132897
731.411442	2542.145500
731.742530	2545.160110
732.073570	2544.106509
732.404562	2542.455531
732.735506	2544.673638
733.066401	2541.575849
733.397249	2544.025850
733.728048	2542.606765
734.058798	2541.096940
734.389501	2543.867054
734.720156	2542.238761
735.050762	2541.994265
735.381320	2541.275901
735.711831	2540.073586
736.042293	2540.683565
736.372707	2542.999975
736.703073	2541.059131
737.033391	2538.478060
737.363661	2543.209183
737.693883	2541.427135
738.024056	2543.609955
738.354182	2541.888401
738.684260	2543.735984
739.014290	2540.718853
739.344272	2541.933771
739.674207	2540.476878
740.004093	2544.535007
740.333931	2542.848741
740.663722	2541.323792
740.993464	2544.713968
741.323159	2542.682383
741.652806	2543.708258
741.982405	2540.570139
742.311956	2540.741538
742.641460	2541.069213
742.970915	2543.078113
743.300323	2543.146169
743.629683	2541.785057
743.958996	2541.318751
744.288260	2539.196425
744.617477	2540.325643
744.946647	2537.379089
745.275768	2539.188863
745.604842	2540.333205
745.933869	2538.105015
746.262847	2537.608461
746.591778	2539.148534
746.920662	2542.155582
747.249498	2543.277239
747.578286	2540.270191
747.907027	2539.244316
748.235720	2538.793133
748.564365	2538.765406
748.892963	2539.708102
749.221514	2542.868905
749.550017	2541.225489
749.878473	2538.404964
750.206881	2541.293545
750.535242	2539.254398
750.863555	2540.660880
751.191821	2539.839172
751.520039	2539.347659
751.848210	2542.110212
752.176334	2540.623071
752.504411	2541.656508
752.832440	2540.774306
753.160421	2540.736497
753.488356	2539.140972
753.816243	2541.986703
754.144082	2542.150541
754.471875	2538.944367
754.799620	2541.631302
755.127318	2538.062165
755.454969	2540.602907
755.782572	2541.787578
756.110129	2540.590304
756.437638	2538.994779
756.765100	2538.054603
757.092515	2539.997968
757.419882	2542.301776
757.747203	2537.338760
758.074477	2541.843031
758.401703	2540.643236
758.728882	2538.626774
759.056014	2541.101981
759.383099	2540.214738
759.710138	2539.793802
760.037129	2539.546785
760.364073	2541.152392
760.690970	2541.971580
761.017820	2541.016281
761.344623	2538.485622
761.671379	2539.047711
761.998088	2535.476053
762.324751	2538.437731
762.651366	2540.691127
762.977935	2544.265305
763.304456	2542.815973
763.630931	2548.590615
763.957359	2545.649102
764.283740	2545.175233
764.610074	2541.709440
764.936362	2543.030222
765.262602	2540.141641
765.588796	2542.455531
765.914943	2540.209697
766.241044	2538.866229
766.567097	2539.783719
766.893104	2536.580066
767.219064	2540.638195
767.544978	2542.606765
767.870845	2536.723739
768.196665	2539.534182
768.522438	2538.044521
768.848165	2537.863040
769.173846	2538.362114
769.499479	2538.662063
769.825066	2538.659542
770.150607	2539.695499
770.476101	2535.627288
770.801548	2537.273225
771.126949	2538.904038
771.452303	2535.755837
771.777611	2538.407484
772.102872	2539.231713
772.428087	2538.168029
772.753256	2538.604089
773.078378	2535.052596
773.403453	2534.737524
773.728482	2537.742052
774.053465	2536.728780
774.378401	2535.390354
774.703291	2536.809438
775.028135	2536.166691
775.352932	2540.630633
775.677683	2537.449665
776.002388	2537.651311
776.327046	2538.510828
776.651658	2540.784388
776.976224	2534.293903
777.300743	2538.500746
777.625216	2536.607792
777.949643	2537.918492
778.274024	2538.573842
778.598359	2534.906403
778.922647	2532.831968
779.246889	2536.683410
779.571086	2532.174098
779.895236	2534.268697
780.219339	2535.902031
780.543397	2537.058976
780.867409	2533.951104
781.191374	2538.505787
781.515294	2534.261135
781.839167	2537.474871
782.162995	2537.588297
782.486776	2537.376568
782.810511	2539.193904
783.134201	2537.779861
783.457844	2536.307844
783.781441	2537.225334
784.104993	2539.909748
784.428498	2539.269522
784.751958	2534.432534
785.075372	2535.846578
785.398739	2533.681403
785.722061	2534.946732
786.045337	2535.907072
786.368568	2537.827752
786.691752	2532.181659
787.014891	2536.436393
787.337983	2535.942360
787.661030	2536.259953
787.984031	2536.174253
788.306987	2536.393543
788.629897	2539.834131
788.952760	2540.025695
789.275579	2537.621064
789.598351	2539.909748
789.921078	2538.689789
790.243759	2533.688964
790.566395	2534.732483
790.888984	2534.649304
791.211529	2535.934798
791.534027	2538.354552
791.856480	2536.471681
792.178888	2536.885056
792.501249	2535.849099
792.823566	2534.888759
793.145836	2534.823224
793.468062	2537.810107
793.790241	2535.607123
794.112375	2536.118800
794.434464	2535.105528
794.756507	2535.140817
795.078505	2535.191228
795.400457	2535.375230
795.722364	2534.208203
796.044226	2533.683923
796.366042	2534.361958
796.687812	2533.462112
797.009538	2535.750796
797.331218	2537.726928
797.652852	2535.902031
797.974442	2537.139634
798.295986	2537.255581
798.617484	2535.027391
798.938938	2533.862884
799.260346	2536.650642
799.581709	2535.881866
799.903026	2534.631660
800.224299	2534.475384
800.545526	2533.290713
800.866708	2534.372041
801.187845	2536.189377
801.508936	2534.089736
801.829983	2535.586959
802.150984	2532.862215
802.471940	2537.563091
802.792851	2535.776002
803.113717	2535.483615
803.434538	2536.194418
803.755314	2534.697195
804.076045	2533.462112
804.396731	2535.561753
804.717372	2534.823224
805.037967	2534.593851
805.358518	2532.879859
805.679024	2535.778522
805.999485	2532.766433
806.319901	2536.567463
806.640272	2535.445806
806.960598	2536.086033
807.280879	2534.891279
807.601115	2534.339273
807.921306	2533.424304
808.241453	2534.898841
808.561554	2534.402287
808.881611	2534.994623
809.201623	2534.515713
809.521590	2535.629808
809.841513	2534.462781
810.161390	2534.989582
810.481223	2535.460930
810.801011	2536.547298
811.120755	2533.134437
811.440453	2536.897659
811.760107	2533.250384
812.079716	2531.024714
812.399281	2531.904396
812.718801	2531.841381
813.038276	2530.460105
813.357707	2533.157123
813.677093	2534.934129
813.996434	2534.714839
814.315731	2535.012267
814.634983	2535.344983
814.954191	2536.839685
815.273354	2534.674510
815.592473	2534.160312
815.911547	2535.057638
816.230577	2535.912113
816.549562	2533.636032
816.868502	2536.796836
817.187399	2535.745755
817.506250	2531.861546
817.825058	2534.861032
818.143821	2535.029911
818.462539	2536.028060
818.781213	2537.711805
819.099843	2535.889428
819.418429	2537.185004
819.736970	2539.312371
820.055466	2539.224151
820.373919	2539.019984
820.692327	2542.357228
821.010691	2542.858823
821.329011	2548.555327
821.647286	2561.841288
821.965517	2577.458782
822.283704	2584.710482
822.601847	2585.048240
822.919945	2579.777713
823.237999	2569.841599
823.556010	2564.192986
823.873976	2558.546894
824.191897	2553.389793
824.509775	2549.523228
824.827609	2548.983825
825.145398	2547.758825
825.463144	2543.158772
825.780845	2543.824204
826.098502	2548.759494
826.416116	2548.557847
826.733685	2553.614125
827.051210	2553.689742
827.368692	2552.729402
827.686129	2552.023641
828.003522	2546.609442
828.320872	2540.547454
828.638177	2540.348328
828.955439	2536.065868
829.272656	2536.053265
829.589830	2533.434386
829.906960	2535.962525
830.224046	2535.919675
830.541088	2532.932791
830.858086	2538.551157
831.175041	2537.653832
831.491952	2535.478574
831.808819	2537.011085
832.125642	2537.162319
832.442421	2537.028729
832.759157	2539.090561
833.075849	2539.377906
833.392497	2542.712630
833.709101	2545.923845
834.025662	2546.710265
834.342179	2541.974101
834.658653	2542.654656
834.975083	2538.369676
835.291469	2541.142310
835.607811	2539.299768
835.924110	2535.859181
836.240366	2534.987061
836.556578	2536.635519
836.872746	2536.257432
837.188871	2533.444468
837.504952	2534.845909
837.820990	2535.460930
838.136984	2536.103677
838.452935	2533.910775
838.768842	2532.703419
839.084706	2536.867412
839.400526	2534.180477
839.716303	2535.839016
840.032037	2538.893956
840.347727	2539.761034
840.663373	2540.955787
840.978977	2536.015457
841.294537	2537.638708
841.610054	2534.896321
841.925527	2538.112577
842.240957	2532.942873
842.556344	2534.921526
842.871687	2532.847092
843.186987	2537.762217
843.502244	2535.702905
843.817458	2533.462112
844.132629	2532.332894
844.447756	2535.312216
844.762840	2529.106555
845.077881	2531.811134
845.392879	2529.749303
845.707833	2531.586803
846.022745	2528.141174
846.337613	2532.683254
846.652438	2531.647297
846.967221	2532.862215
847.281960	2532.433717
847.596656	2532.826927
847.911309	2532.136289
848.225919	2531.032276
848.540485	2530.734848
848.855009	2532.040507
849.169490	2531.715353
849.483928	2535.579397
849.798323	2532.229550
850.112675	2531.324663
850.426984	2535.332380
850.741251	2529.590506
851.055474	2534.984541
851.369654	2530.313912
851.683792	2533.114273
851.997887	2532.123686
852.311938	2528.715866
852.625947	2530.865918
852.939914	2532.882380
853.253837	2531.914478
853.567718	2533.850281
853.881555	2534.820703
854.195350	2531.765764
854.509103	2535.710467
854.822812	2533.628470
855.136479	2528.894827
855.450103	2533.119314
855.763685	2531.642256
856.077224	2531.856505
856.390720	2530.457585
856.704173	2535.234078
857.017584	2532.955476
857.330953	2532.262318
857.644278	2532.416073
857.957561	2533.855322
858.270802	2530.303829
858.584000	2531.874149
858.897155	2531.433048
859.210268	2532.348017
859.523339	2534.359438
859.836367	2528.756195
860.149352	2532.713501
860.462295	2534.223327
860.775195	2529.532533
861.088054	2525.807120
861.400869	2530.079498
861.713642	2528.559590
862.026373	2531.407842
862.339062	2533.391536
862.651708	2533.573018
862.964312	2532.607637
863.276873	2531.707791
863.589392	2534.523275
863.901869	2529.877852
864.214303	2531.012112
864.526696	2530.402132
864.839045	2532.456402
865.151353	2530.828109
865.463619	2533.857843
865.775842	2530.918850
866.088023	2533.313398
866.400162	2531.879190
866.712258	2533.033614
867.024313	2531.952287
867.336325	2532.282482
867.648296	2533.346166
867.960224	2531.299457
868.272110	2533.361289
868.583954	2531.899355
868.895755	2532.852133
869.207515	2532.095960
869.519233	2532.844571
869.830909	2533.648635
870.142542	2533.154602
870.454134	2531.725435
870.765684	2530.737369
871.077191	2534.949253
871.388657	2533.242822
871.700081	2532.441279
872.011463	2531.866587
872.322803	2531.569159
872.634101	2531.561597
872.945357	2531.460774
873.256571	2535.450847
873.567744	2530.828109
873.878874	2533.371372
874.189963	2532.685775
874.501010	2534.782895
874.812015	2535.753317
875.122979	2533.194931
875.433900	2534.006557
875.744780	2535.327339
876.055618	2533.275590
876.366415	2531.387677
876.677169	2533.799870
876.987882	2532.569828
877.298554	2529.968593
877.609183	2531.841381
877.919771	2528.975485
878.230317	2532.670651
878.540822	2534.823224
878.851285	2534.886238
879.161707	2533.719211
879.472087	2538.067206
879.782425	2536.610313
880.092722	2540.353370
880.402977	2542.901673
880.713191	2551.484237
881.023363	2555.060936
881.333494	2562.662996
881.643583	2562.199210
881.953631	2565.644838
882.263637	2561.042265
882.573602	2558.977912
882.883526	2554.755946
883.193408	2553.190668
883.503248	2548.575492
883.813048	2544.976108
884.122806	2544.237579
884.432522	2543.708258
884.742197	2536.517052
885.051831	2537.827752
885.361424	2537.366486
885.670975	2535.576876
885.980485	2536.043183
886.289954	2536.731301
886.599382	2534.198121
886.908768	2537.338760
887.218113	2535.362627
887.527417	2534.886238
887.836680	2535.042514
888.145901	2533.578059
888.455082	2531.054961
888.764221	2534.553522
889.073319	2531.765764
889.382376	2531.511186
889.691392	2531.944725
890.000366	2534.114942
890.309300	2535.662576
890.618193	2533.361289
890.927044	2531.501103
891.235855	2532.441279
891.544625	2531.536392
891.853353	2532.214427
892.162041	2534.470343
892.470687	2535.284489
892.779293	2531.904396
893.087858	2534.329191
893.396381	2532.975641
893.704864	2535.034952
894.013306	2533.313398
894.321707	2540.723894
894.630068	2542.573998
894.938387	2544.719009
895.246665	2542.450490
895.554903	2541.704399
895.863100	2538.818338
896.171256	2536.212062
896.479371	2539.004861
896.787446	2535.705426
897.095480	2535.556712
897.403473	2534.062010
897.711425	2534.699716
898.019336	2537.207690
898.327207	2533.754499
898.635038	2534.412370
898.942827	2535.355066
899.250576	2534.180477
899.558284	2533.933460
899.865952	2533.946063
900.173579	2529.686288
900.481165	2535.962525
900.788711	2535.108049
901.096216	2532.433717
901.403681	2529.935825
901.711105	2532.763913
902.018489	2533.464633
902.325832	2533.530168
902.633135	2532.148892
902.940397	2531.312060
903.247619	2532.421114
903.554800	2534.906403
903.861941	2541.396888
904.169041	2543.753628
904.476101	2546.909390
904.783121	2547.605069
905.090100	2544.421581
905.397039	2542.289173
905.703938	2539.695499
906.010796	2533.696526
906.317614	2533.835158
906.624391	2536.060827
906.931129	2534.316588
907.237826	2533.308357
907.544483	2532.784077
907.851099	2531.193593
908.157675	2533.706608
908.464211	2532.660569
908.770707	2526.170083
909.077163	2529.348531
909.383578	2527.810979
909.689954	2527.327028
909.996289	2527.599250
910.302584	2533.588141
910.608839	2532.627801
910.915054	2531.470857
911.221229	2530.810465
911.527363	2530.883562
911.833458	2530.228212
912.139513	2530.550846
912.445527	2529.661082
912.751502	2532.521937
913.057436	2533.033614
913.363331	2531.279293
913.669186	2532.136289
913.975000	2531.740558
914.280775	2534.455220
914.586510	2532.975641
914.892205	2534.707277
915.197859	2538.818338
915.503475	2539.685417
915.809050	2544.192208
916.114585	2543.917465
916.420081	2542.926879
916.725536	2544.925696
917.030952	2543.120963
917.336328	2539.655170
917.641665	2544.230017
917.946961	2537.429500
918.252218	2536.295241
918.557435	2536.771630
918.862612	2534.009078
919.167750	2536.539737
919.472848	2532.317770
919.777906	2534.311547
920.082925	2532.332894
920.387904	2530.626463
920.692843	2535.828934
920.997743	2526.999353
921.302603	2531.705270
921.607423	2528.993129
921.912204	2532.582431
922.216946	2532.852133
922.521647	2532.678213
922.826310	2530.092101
923.130932	2529.817358
923.435516	2530.656710
923.740059	2531.395239
924.044564	2528.894827
924.349028	2529.116638
924.653454	2526.212933
924.957840	2528.277286
925.262186	2522.560617
925.566493	2528.993129
925.870761	2523.155473
926.174989	2529.663603
926.479178	2530.472708
926.783328	2528.846936
927.087438	2528.539426
927.391509	2531.022194
927.695541	2531.133099
927.999533	2531.299457
928.303486	2529.308202
928.607400	2531.312060
928.911275	2528.141174
929.215110	2528.350382
929.518906	2528.965403
929.822663	2528.859539
930.126381	2530.568490
930.430060	2530.601258
930.733699	2529.777029
931.037299	2528.962882
931.340861	2529.761905
931.644383	2530.742410
931.947866	2531.916999
932.251309	2531.438089
932.554714	2530.835671
932.858080	2532.534540
933.161407	2526.417100
933.464694	2529.570342
933.767943	2531.445651
934.071153	2532.065713
934.374323	2530.097142
934.677455	2529.119158
934.980548	2530.225692
935.283602	2530.303829
935.586617	2528.514220
935.889593	2531.435568
936.192530	2528.872142
936.495428	2529.930784
936.798287	2531.511186
937.101108	2529.391381
937.403890	2529.993798
937.706632	2531.367513
938.009336	2529.225022
938.312002	2532.794159
938.614628	2530.760054
938.917216	2531.770805
939.219765	2531.402801
939.522275	2529.658562
939.824747	2533.250384
940.127179	2526.404497
940.429573	2524.236801
940.731929	2525.429034
941.034246	2526.240659
941.336524	2529.361134
941.638763	2530.805424
941.940964	2528.874662
942.243126	2530.694519
942.545250	2526.948942
942.847335	2530.351720
943.149381	2527.695032
943.451389	2530.513037
943.753359	2530.311391
944.055290	2532.547143
944.357182	2527.163191
944.659036	2529.721576
944.960851	2531.221319
945.262628	2528.010104
945.564367	2530.860877
945.866067	2530.402132
946.167729	2529.532533
946.469352	2528.695701
946.770937	2527.889117
947.072484	2530.762574
947.373992	2528.816689
947.675462	2529.351051
947.976893	2529.955990
948.278286	2530.283665
948.579641	2527.773170
948.880958	2530.071936
949.182236	2531.354910
949.483476	2531.138140
949.784678	2529.898017
950.085841	2528.758716
950.386967	2530.523120
950.688054	2530.480270
950.989103	2526.699404
951.290114	2529.383819
951.591087	2528.667975
951.892021	2525.683612
952.192917	2528.829292
952.493776	2528.509179
952.794596	2529.156967
953.095378	2529.557739
953.396122	2530.490352
953.696828	2528.940197
953.997496	2529.464477
954.298126	2528.214271
954.598718	2529.348531
954.899272	2529.787111
955.199788	2530.891124
955.500266	2528.098325
955.800706	2526.144877
956.101108	2523.825947
956.401472	2523.619259
956.701798	2523.924249
957.002087	2527.972296
957.302337	2529.008253
957.602550	2528.665454
957.902724	2528.184024
958.202861	2529.129241
958.502960	2526.543129
958.803022	2530.981865
959.103045	2526.931298
959.403031	2532.312729
959.702979	2528.090763
960.002889	2528.879703
960.302762	2531.218799
960.602596	2530.848274
960.902393	2527.238808
961.202153	2528.945238
961.501875	2527.523633
961.801559	2528.224353
962.101205	2528.526823
962.400814	2525.650844
962.700385	2528.352903
962.999918	2528.655372
963.299414	2528.534384
963.598873	2528.589837
963.898293	2529.489683
964.197677	2527.425331
964.497022	2526.611184
964.796331	2527.634538
965.095601	2528.108407
965.394835	2527.579086
965.694030	2525.623118
965.993189	2528.998171
966.292309	2529.386339
966.591393	2528.342821
966.890439	2526.076822
967.189447	2523.843591
967.488419	2528.841895
967.787353	2529.015815
968.086249	2527.299302
968.385108	2526.855680
968.683930	2528.678057
968.982714	2529.643438
969.281462	2524.501461
969.580172	2529.043541
969.878844	2531.687626
970.177480	2527.311905
970.476078	2530.323994
970.774639	2529.721576
971.073162	2528.751154
971.371649	2524.302336
971.670098	2525.807120
971.968510	2523.974661
972.266885	2526.187727
972.565223	2525.786956
972.863524	2526.704446
973.161788	2528.121010
973.460014	2526.679240
973.758204	2528.670496
974.056356	2527.992460
974.354471	2527.891637
974.652550	2527.677388
974.950591	2527.770650
975.248595	2527.745444
975.546563	2527.039682
975.844493	2527.624456
976.142386	2528.993129
976.440243	2527.490866
976.738062	2528.136133
977.035845	2526.263345
977.333590	2528.103366
977.631299	2529.154446
977.928971	2529.774508
978.226606	2528.403314
978.524204	2529.517409
978.821765	2528.274765
979.119290	2527.609333
979.416777	2525.303005
979.714228	2527.223684
980.011642	2526.263345
980.309020	2530.538243
980.606360	2527.445495
980.903664	2525.691174
981.200931	2525.668488
981.498162	2526.001205
981.795356	2525.562624
982.092513	2528.277286
982.389633	2527.261493
982.686717	2528.776360
982.983764	2527.485824
983.280775	2527.304343
983.577749	2528.438603
983.874686	2528.398273
984.171587	2528.189065
984.468451	2528.826771
984.765279	2528.010104
985.062070	2526.152439
985.358824	2526.583458
985.655543	2527.511030
985.952224	2525.688653
986.248869	2529.754344
986.545478	2521.827129
986.842050	2525.640762
987.138586	2522.719413
987.435086	2524.118334
987.731549	2525.471883
988.027975	2526.386853
988.324366	2528.509179
988.620719	2525.418951
988.917037	2528.315094
989.213318	2526.437264
989.509563	2527.931967
989.805772	2527.132944
990.101944	2526.530526
990.398080	2526.943900
990.694180	2526.477594
990.990244	2527.251411
991.286271	2526.046575
991.582262	2527.190917
991.878217	2524.382994
992.174136	2525.602953
992.470019	2527.730320
992.765865	2527.044723
993.061676	2528.121010
993.357450	2529.174611
993.653188	2526.749816
993.948890	2525.781914
994.244556	2526.598581
994.540186	2527.712676
994.835780	2529.862728
995.131337	2529.169570
995.426859	2526.996832
995.722345	2527.291740
996.017795	2527.274096
996.313208	2529.013294
996.608586	2524.481297
996.903928	2525.497089
997.199234	2526.787625
997.494504	2525.991122
997.789738	2525.728982
998.084936	2526.593540
998.380099	2526.535567
998.675225	2528.552028
998.970316	2528.662934
999.265371	2528.128572
999.560390	2525.418951
999.855373	2528.413397
1000.150320	2524.728313
1000.445232	2526.333921
1000.740108	2526.979188
1001.034948	2526.535567
1001.329752	2529.441792
1001.624521	2525.784435
1001.919254	2521.428878
1002.213951	2522.769825
1002.508613	2522.230422
1002.803239	2525.043385
1003.097829	2520.816378
1003.392384	2526.326359
1003.686903	2526.976668
1003.981386	2524.980371
1004.275834	2523.747809
1004.570246	2529.643438
1004.864623	2525.184538
1005.158964	2527.049765
1005.453270	2529.421628
1005.747540	2524.050278
1006.041775	2526.906092
1006.335974	2527.405166
1006.630138	2526.457429
1006.924266	2526.719569
1007.218359	2526.477594
1007.512416	2527.541277
1007.806438	2527.586648
1008.100425	2526.318797
1008.394376	2528.355423
1008.688292	2526.104548
1008.982172	2526.611184
1009.276017	2525.567665
1009.569827	2527.011956
1009.863602	2528.307532
1010.157341	2524.188910
1010.451045	2527.735362
1010.744714	2525.368540
1011.038347	2527.246370
1011.331945	2527.072450
1011.625508	2526.243180
1011.919036	2526.016328
1012.212528	2527.710156
1012.505986	2526.492717
1012.799408	2526.540608
1013.092795	2528.559590
1013.386147	2523.636903
1013.679464	2525.033303
1013.972745	2525.028262
1014.265992	2528.330218
1014.559204	2525.771832
1014.852380	2525.045906
1015.145521	2527.548839
1015.438628	2524.589682
1015.731699	2529.398942
1016.024736	2526.182686
1016.317737	2525.721421
1016.610703	2528.902389
1016.903635	2523.473066
1017.196531	2521.675895
1017.489393	2523.997346
1017.782219	2520.705472
1018.075011	2525.096317
1018.367768	2524.393077
1018.660490	2527.707635
1018.953177	2527.707635
1019.245829	2527.707635
