Dividing Wavelength (nm)	Counts (n)	Blue Motor Position (mm): 0.000000	Red Motor Position (mm): 16.400000	
326.493990	2130.477315
326.888308	2130.477315
327.282561	2130.477315
327.676750	2096.363827
328.070874	2097.127562
328.464933	2098.493714
328.858929	2105.319437
329.252859	2115.033740
329.646726	2125.136213
330.040528	2137.446710
330.434265	2154.410193
330.827938	2174.040446
331.221547	2190.492252
331.615091	2209.540251
332.008571	2228.789897
332.401986	2248.601632
332.795338	2269.376227
333.188625	2287.388270
333.581847	2305.501135
333.975006	2322.877993
334.368100	2342.820797
334.761129	2360.739579
335.154095	2376.712475
335.546996	2392.060267
335.939833	2412.242527
336.332606	2422.586975
336.725315	2434.375713
337.117960	2445.115891
337.510540	2454.343723
337.903056	2467.730507
338.295508	2469.847792
338.687896	2483.927735
339.080220	2490.425782
339.472480	2497.523727
339.864676	2499.693943
340.256807	2506.310458
340.648875	2508.838596
341.040879	2509.294821
341.432818	2513.279853
341.824694	2514.522497
342.216506	2514.124246
342.608253	2513.635254
342.999937	2514.214987
343.391557	2515.689524
343.783113	2516.221366
344.174605	2510.824811
344.566033	2510.537465
344.957397	2511.160048
345.348697	2505.019922
345.739934	2507.238030
346.131106	2503.318533
346.522215	2503.303409
346.913260	2498.688233
347.304241	2499.683861
347.695159	2497.226298
348.086012	2496.213027
348.476802	2494.395691
348.867528	2493.919302
349.258191	2490.680360
349.648789	2492.046513
350.039324	2486.148363
350.429796	2488.260606
350.820203	2485.722385
351.210548	2486.375215
351.600828	2486.604587
351.991045	2484.721716
352.381198	2483.983187
352.771288	2481.656695
353.161314	2483.499237
353.551276	2485.792962
353.941175	2481.913794
354.331010	2479.443628
354.720782	2482.947230
355.110490	2482.997642
355.500135	2482.601911
355.889717	2481.679380
356.279235	2480.134266
356.668689	2481.986890
357.058080	2484.013434
357.447408	2482.284318
357.836672	2480.255254
358.225873	2483.791623
358.615010	2480.058649
359.004084	2489.614156
359.393095	2488.179948
359.782043	2487.088538
360.170927	2488.507623
360.559748	2488.316059
360.948505	2489.702376
361.337199	2489.107520
361.725830	2489.092397
362.114398	2493.042141
362.502903	2491.691112
362.891344	2492.112048
363.279722	2493.957110
363.668037	2493.616832
364.056289	2496.134889
364.444478	2492.308653
364.832603	2492.810248
365.220665	2498.975579
365.608665	2495.124137
365.996601	2499.537668
366.384474	2497.052379
366.772284	2501.138234
367.160031	2497.279231
367.547715	2502.713594
367.935336	2505.960098
368.322893	2509.090654
368.710388	2511.848165
369.097820	2518.263033
369.485189	2522.394259
369.872495	2526.449867
370.259738	2536.028060
370.646918	2541.046528
371.034035	2548.255378
371.421090	2558.229301
371.808081	2569.579459
372.195010	2574.935685
372.581875	2591.919332
372.968678	2604.996085
373.355418	2614.256685
373.742096	2629.876700
374.128710	2646.976294
374.515262	2663.828871
374.901751	2674.062414
375.288177	2689.369877
375.674540	2714.328630
376.060841	2729.356310
376.447079	2747.874988
376.833254	2770.673607
377.219367	2782.212808
377.605417	2820.512974
377.991404	2828.389777
378.377329	2851.894157
378.763191	2869.384440
379.148991	2907.087230
379.534727	2931.186466
379.920402	2959.374077
380.306013	2971.855974
380.691563	3019.678880
381.077049	3041.953218
381.462474	3058.949469
381.847835	3099.871035
382.233134	3122.760394
382.618371	3120.355764
383.003545	3188.975950
383.388657	3193.480221
383.773706	3228.110427
384.158693	3243.364959
384.543618	3268.732045
384.928480	3304.710760
385.313280	3352.634489
385.698017	3351.101978
386.082692	3402.254566
386.467305	3408.465268
386.851856	3440.887449
387.236344	3464.157415
387.620770	3494.190089
388.005133	3521.331661
388.389435	3546.769323
388.773674	3558.308525
389.157851	3602.872325
389.541965	3617.068214
389.926018	3582.942123
390.310008	3650.554078
390.693936	3670.048220
391.077802	3710.319478
391.461606	3700.239691
391.845348	3763.848970
392.229027	3759.183382
392.612645	3774.352214
392.996200	3852.336343
393.379694	3892.960482
393.763125	3953.229996
394.146494	3925.438115
394.529801	3985.165706
394.913047	4032.847460
395.296230	3998.121471
395.679351	4052.671797
396.062410	4073.907658
396.445408	4053.836304
396.828343	4084.380655
397.211217	4109.634315
397.594028	4026.253630
397.976778	4087.836366
398.359466	4111.335704
398.742092	4135.008963
399.124656	4052.384451
399.507158	4129.831698
399.889598	4141.479284
400.271977	4197.184034
400.654294	4158.649454
401.036549	4155.158455
401.418742	4113.384933
401.800874	4200.344837
402.182944	4203.336762
402.564952	4248.155140
402.946898	4221.273188
403.328783	4196.334599
403.710606	4103.504272
404.092367	4250.282507
404.474067	4198.005742
404.855705	4184.908824
405.237282	4099.098303
405.618797	4167.869724
406.000250	4169.389632
406.381642	4210.984193
406.762972	4143.014315
407.144240	4122.965646
407.525447	4096.282819
407.906593	4106.896968
408.287677	4105.351855
408.668700	4023.176006
409.049661	4020.579812
409.430560	4010.522710
409.811399	3927.875513
410.192176	3995.129547
410.572891	3917.213473
410.953545	3940.715332
411.334138	3830.009073
411.714669	3829.401614
412.095139	3729.566603
412.475547	3760.552055
412.855894	3712.242678
413.236180	3670.927902
413.616405	3607.258128
413.996568	3608.543623
414.376670	3540.576266
414.756711	3482.698779
415.136691	3452.517391
415.516609	3442.246040
415.896466	3419.979263
416.276262	3390.349881
416.655997	3338.231912
417.035670	3358.341075
417.415283	3348.215918
417.794834	3289.483955
418.174324	3241.701378
418.553753	3175.788291
418.933121	3185.658871
419.312428	3163.006446
419.691674	3111.014506
420.070859	3099.382043
420.449983	3048.562171
420.829045	3035.555994
421.208047	2990.490599
421.586988	2967.394553
421.965867	2940.744493
422.344686	2927.450971
422.723444	2882.146121
423.102141	2832.979747
423.480777	2842.401664
423.859352	2796.597740
424.237866	2799.506486
424.616319	2777.222065
424.994712	2765.950045
425.373044	2735.299830
425.751314	2728.292626
426.129524	2695.595702
426.507673	2690.310052
426.885762	2681.576253
427.263789	2664.096052
427.641756	2648.186171
428.019662	2642.018319
428.397508	2630.587503
428.775292	2616.499998
429.153016	2610.387599
429.530679	2600.365786
429.908282	2594.742378
430.285824	2585.171748
430.663305	2584.876840
431.040726	2575.391909
431.418086	2571.865622
431.795385	2567.363872
432.172624	2563.356155
432.549802	2562.141237
432.926920	2558.796431
433.303977	2555.832232
433.680974	2550.760832
434.057910	2553.662016
434.434786	2549.961809
434.811601	2549.520708
435.188355	2548.242775
435.565050	2546.647250
435.941683	2545.989380
436.318257	2543.599873
436.694770	2539.415715
437.071222	2541.732125
437.447614	2534.598893
437.823946	2540.045859
438.200218	2541.422094
438.576429	2543.519214
438.952580	2538.389840
439.328670	2541.152393
439.704700	2538.178112
440.080670	2541.956457
440.456580	2541.021322
440.832429	2541.195242
441.208218	2539.761034
441.583947	2543.607434
441.959616	2543.506611
442.335224	2537.991589
442.710773	2537.769778
443.086261	2540.368493
443.461689	2538.467978
443.837057	2540.643236
444.212365	2539.312371
444.587612	2539.516538
444.962800	2539.503935
445.337927	2540.643236
445.712995	2537.472350
446.088002	2538.180632
446.462949	2541.127187
446.837837	2538.021836
447.212664	2541.046528
447.587431	2542.463093
447.962139	2540.537372
448.336786	2548.633465
448.711374	2543.388144
449.085901	2542.619368
449.460369	2540.749100
449.834776	2541.568288
450.209124	2540.497043
450.583412	2546.009544
450.957640	2544.335881
451.331808	2543.683052
451.705917	2541.046528
452.079965	2539.854295
452.453954	2542.125335
452.827883	2543.327650
453.201752	2540.817156
453.575562	2540.292876
453.949311	2543.108360
454.323001	2543.738504
454.696632	2544.275387
455.070202	2547.012734
455.443713	2541.742208
455.817164	2539.506456
456.190556	2540.050900
456.563888	2541.573329
456.937160	2541.323792
457.310373	2541.507794
457.683526	2541.674152
458.056619	2542.521066
458.429653	2544.224976
458.802628	2545.533155
459.175542	2541.906045
459.548398	2545.071890
459.921194	2547.564740
460.293930	2547.083310
460.666607	2548.772097
461.039224	2550.100441
461.411782	2551.590102
461.784280	2551.980791
462.156719	2548.799823
462.529099	2551.622869
462.901419	2549.926521
463.273680	2547.917621
463.645882	2550.521377
464.018024	2546.528783
464.390106	2548.530121
464.762130	2551.143959
465.134094	2551.189330
465.505999	2555.703683
465.877845	2561.198541
466.249631	2562.340362
466.621358	2560.391956
466.993026	2563.913202
467.364634	2562.216854
467.736184	2557.004301
468.107674	2555.955741
468.479105	2555.496996
468.850477	2557.150494
469.221790	2554.211502
469.593043	2554.589588
469.964238	2557.541184
470.335373	2554.448436
470.706449	2557.510937
471.077467	2555.106306
471.448425	2562.640311
471.819324	2562.915054
472.190164	2566.093501
472.560945	2559.945814
472.931667	2558.932542
473.302330	2555.428940
473.672934	2556.444733
474.043479	2557.944476
474.413965	2559.827347
474.784393	2553.984650
475.154761	2557.954558
475.525070	2554.153528
475.895321	2556.928683
476.265513	2556.759805
476.635645	2558.703170
477.005719	2556.873231
477.375734	2560.719631
477.745691	2560.517985
478.115588	2559.542522
478.485427	2562.090825
478.855207	2567.724314
479.224928	2567.988975
479.594591	2572.026939
479.964194	2569.990313
480.333739	2569.927299
480.703226	2568.586352
481.072653	2571.104408
481.442022	2572.074830
481.811333	2572.699933
482.180584	2571.563153
482.549777	2569.831517
482.918912	2568.261197
483.287988	2569.677762
483.657005	2569.029973
484.025964	2566.153995
484.394864	2564.818089
484.763706	2567.618450
485.132489	2562.731052
485.501213	2564.926474
485.869879	2564.344221
486.238487	2562.486556
486.607036	2566.395970
486.975527	2563.525033
487.343959	2563.373799
487.712333	2565.120558
488.080648	2562.693243
488.448905	2559.885320
488.817104	2562.662996
489.185244	2565.211299
489.553326	2564.656772
489.921350	2566.587534
490.289315	2570.801939
490.657222	2575.026426
491.025070	2571.429562
491.392861	2572.384861
491.760593	2568.649366
492.128267	2565.685168
492.495883	2569.546692
492.863440	2566.990827
493.230939	2564.601320
493.598380	2561.735424
493.965763	2560.535629
494.333088	2561.760629
494.700354	2561.140567
495.067563	2563.973696
495.434713	2558.708211
495.801805	2568.422514
496.168839	2563.235167
496.535815	2565.125600
496.902733	2563.051165
497.269593	2564.003943
497.636395	2564.351783
498.003139	2565.894376
498.369825	2563.431772
498.736453	2563.169632
499.103023	2563.237687
499.469535	2565.241546
499.835989	2566.204407
500.202385	2566.201886
500.568723	2561.168294
500.935003	2567.434448
501.301226	2564.808007
501.667390	2564.724828
502.033497	2568.757751
502.399546	2564.800445
502.765537	2565.417987
503.131470	2563.749365
503.497345	2567.129458
503.863163	2566.524520
504.228923	2564.326577
504.594625	2567.278172
504.960269	2565.768347
505.325856	2567.623491
505.691385	2564.079560
506.056856	2563.885476
506.422270	2564.029149
506.787625	2566.998388
507.152924	2563.552760
507.518164	2563.900599
507.883347	2566.310271
508.248472	2564.707184
508.613540	2565.932184
508.978550	2564.944118
509.343503	2566.736248
509.708398	2567.714232
510.073236	2566.700960
510.438016	2567.996537
510.802738	2569.135837
511.167403	2563.837585
511.532010	2567.101732
511.896561	2568.833368
512.261053	2568.505693
512.625488	2565.284396
512.989866	2564.026628
513.354186	2565.150805
513.718449	2562.461350
514.082655	2566.892524
514.446803	2564.490414
514.810894	2568.528378
515.174927	2566.995868
515.538904	2568.026784
515.902822	2566.927812
516.266684	2568.160374
516.630488	2567.273131
516.994235	2564.631567
517.357925	2567.598286
517.721558	2567.250446
518.085133	2568.999726
518.448651	2567.126938
518.812112	2568.341856
519.175516	2568.689695
519.538863	2567.512586
519.902152	2567.333625
520.265385	2564.082081
520.628560	2566.811866
520.991678	2568.818245
521.354739	2567.875549
521.717743	2564.752554
522.080690	2569.105591
522.443580	2569.531568
522.806413	2569.478636
523.169189	2566.287586
523.531908	2567.386557
523.894569	2565.516289
524.257174	2570.998544
524.619722	2568.979562
524.982213	2569.135838
525.344647	2569.720611
525.707025	2567.754561
526.069345	2567.724314
526.431608	2567.210117
526.793815	2569.019891
527.155964	2567.603327
527.518057	2566.232133
527.880093	2569.208934
528.242072	2567.656259
528.603995	2570.524675
528.965860	2567.124417
529.327669	2567.936043
529.689421	2564.860939
530.051117	2567.812535
530.412755	2564.049313
530.774337	2567.346228
531.135862	2567.812535
531.497331	2567.401681
531.858743	2562.534447
532.220098	2565.768347
532.581396	2563.628377
532.942638	2564.460167
533.303824	2566.418656
533.664953	2566.940415
534.026025	2568.074675
534.387040	2567.147102
534.747999	2568.230950
535.108902	2566.748851
535.469748	2566.133830
535.830537	2568.062072
536.191270	2567.270611
536.551947	2565.879252
536.912567	2566.665672
537.273131	2569.055179
537.633638	2565.425548
537.994089	2567.129458
538.354483	2565.498645
538.714821	2568.175498
539.075103	2566.562328
539.435328	2567.434448
539.795497	2567.820096
540.155609	2564.240877
540.515665	2565.536454
540.875665	2567.076526
541.235609	2566.164077
541.595496	2567.056362
541.955328	2566.169118
542.315102	2567.341187
542.674821	2567.600806
543.034483	2566.708522
543.394090	2567.807493
543.753640	2565.798594
544.113134	2566.237174
544.472571	2567.784808
544.831953	2567.973852
545.191278	2567.258008
545.550548	2567.394119
545.909761	2564.061916
546.268918	2565.702812
546.628019	2568.006619
546.987064	2565.536454
547.346053	2567.862946
547.704986	2563.343552
548.063863	2567.517627
548.422684	2568.238512
548.781449	2564.815569
549.140158	2564.392112
549.498811	2567.653738
549.857408	2567.313460
550.215949	2563.963614
550.574434	2563.880435
550.932864	2564.329097
551.291237	2563.827502
551.649555	2566.206927
552.007817	2566.383367
552.366022	2566.302709
552.724173	2565.354972
553.082267	2563.726679
553.440305	2565.329766
553.798288	2567.348748
554.156215	2568.475446
554.514086	2564.755075
554.871902	2565.239026
555.229661	2562.965465
555.587365	2563.346072
555.945014	2567.893193
556.302606	2565.838923
556.660143	2565.967472
557.017625	2565.256670
557.375050	2566.274983
557.732421	2563.187276
558.089735	2564.762637
558.446994	2566.973183
558.804197	2565.987637
559.161345	2566.068295
559.518437	2564.024107
559.875474	2567.401681
560.232455	2565.362534
560.589381	2565.523851
560.946251	2566.562328
561.303065	2566.693398
561.659825	2568.687175
562.016528	2564.676937
562.373177	2564.712225
562.729770	2564.755075
563.086307	2566.290106
563.442789	2564.104766
563.799216	2563.767009
564.155587	2567.207596
564.511904	2564.490414
564.868164	2566.219530
565.224370	2567.104252
565.580520	2564.946639
565.936615	2565.826320
566.292654	2563.827502
566.648638	2567.361351
567.004567	2563.497307
567.360441	2566.254818
567.716260	2566.983265
568.072023	2566.264900
568.427732	2555.696121
568.783385	2565.929664
569.138982	2562.211813
569.494525	2564.008984
569.850013	2560.346586
570.205445	2564.147616
570.560823	2564.964283
570.916145	2562.710887
571.271412	2562.819272
571.626625	2563.003274
571.981782	2563.522513
572.336884	2564.341700
572.691931	2563.983778
573.046923	2562.597461
573.401860	2562.118551
573.756743	2564.177863
574.111570	2562.166442
574.466342	2562.867163
574.821059	2565.801114
575.175722	2563.726679
575.530330	2563.472101
575.884882	2567.449572
576.239380	2565.576783
576.593823	2565.750703
576.948211	2562.196689
577.302544	2562.347924
577.656823	2562.748696
578.011047	2562.584858
578.365216	2563.131823
578.719330	2562.146278
579.073389	2563.162070
579.427394	2561.173335
579.781344	2561.526216
580.135239	2565.977555
580.489080	2562.375650
580.842866	2562.925136
581.196597	2564.268603
581.550273	2562.491597
581.903895	2562.637790
582.257463	2564.402194
582.610975	2560.638973
582.964434	2562.400856
583.317837	2563.320867
583.671186	2561.218705
584.024481	2562.075702
584.377721	2564.172822
584.730906	2562.156360
585.084037	2562.557132
585.437113	2562.708366
585.790135	2563.835064
586.143103	2563.051165
586.496016	2562.622667
586.848874	2557.546225
587.201679	2561.155691
587.554428	2556.636297
587.907124	2559.955896
588.259765	2556.638817
588.612352	2557.954558
588.964884	2560.699467
589.317362	2560.039075
589.669786	2560.109652
590.022155	2563.903120
590.374470	2562.985630
590.726731	2563.260373
591.078937	2561.382543
591.431090	2561.995043
591.783188	2560.727193
592.135232	2561.052347
592.487222	2560.023952
592.839157	2561.674930
593.191038	2559.537481
593.542866	2560.064281
593.894639	2559.716442
594.246358	2561.324570
594.598022	2561.458160
594.949633	2560.679302
595.301190	2559.209806
595.652692	2560.946483
596.004141	2559.822306
596.355535	2559.633262
596.706876	2560.853222
597.058162	2557.606719
597.409395	2558.962789
597.760573	2558.841801
598.111698	2557.455484
598.462768	2557.639486
598.813785	2559.983623
599.164748	2557.692418
599.515657	2560.298695
599.866511	2559.169476
600.217312	2559.106462
600.568060	2558.027655
600.918753	2560.520506
601.269392	2556.701832
601.619978	2558.267110
601.970510	2560.036555
602.320988	2557.979764
602.671412	2556.903478
603.021783	2557.531101
603.372100	2560.560835
603.722363	2557.982285
604.072572	2558.562017
604.422728	2560.490259
604.772830	2555.171841
605.122878	2554.382901
605.472872	2555.980947
605.822813	2552.799978
606.172701	2555.222253
606.522534	2558.751061
606.872314	2555.915412
607.222041	2555.121430
607.571714	2559.739127
607.921333	2558.645196
608.270899	2557.788200
608.620411	2559.106462
608.969870	2561.465722
609.319276	2560.817934
609.668627	2562.685681
610.017926	2566.378326
610.367171	2568.515776
610.716362	2562.418500
611.065500	2565.428069
611.414585	2561.616957
611.763616	2560.676781
612.112594	2560.820454
612.461518	2559.154353
612.810389	2560.376833
613.159207	2560.086966
613.507971	2559.834909
613.856682	2561.009498
614.205340	2557.813406
614.553945	2560.649055
614.902496	2558.864487
615.250994	2559.620660
615.599439	2559.618139
615.947830	2559.449260
616.296169	2559.280382
616.644454	2559.890361
616.992686	2559.358520
617.340864	2560.936401
617.688990	2557.747871
618.037063	2558.143602
618.385082	2558.365412
618.733048	2559.214847
619.080961	2558.357851
619.428821	2559.905485
619.776628	2558.476318
620.124382	2560.928839
620.472083	2560.112172
620.819731	2561.896741
621.167326	2557.377346
621.514868	2558.544373
621.862357	2558.955227
622.209793	2557.813406
622.557176	2558.196534
622.904506	2557.415155
623.251783	2552.862993
623.599007	2555.552448
623.946179	2553.538508
624.293297	2555.093703
624.640363	2556.747202
624.987376	2556.905998
625.334336	2555.481872
625.681243	2556.560679
626.028097	2555.854918
626.374899	2557.175700
626.721647	2554.960113
627.068343	2554.012376
627.414987	2555.691080
627.761577	2556.817778
628.108115	2556.359033
628.454600	2555.186965
628.801032	2554.950031
629.147412	2555.255020
629.493739	2554.617314
629.840014	2557.213509
630.186236	2553.914073
630.532405	2556.265772
630.878521	2555.975905
631.224585	2555.786862
631.570597	2553.268806
631.916556	2552.747046
632.262462	2557.009342
632.608316	2554.907181
632.954117	2556.172510
633.299866	2555.940617
633.645562	2553.856100
633.991206	2553.223435
634.336797	2554.032541
634.682336	2552.424413
635.027823	2551.688404
635.373257	2551.637992
635.718639	2549.868547
636.063968	2552.729402
636.409245	2555.524722
636.754470	2552.124464
637.099642	2549.437529
637.444762	2552.573127
637.789829	2551.821995
638.134845	2553.566234
638.479808	2551.723692
638.824719	2548.668753
639.169577	2550.256716
639.514383	2550.468445
639.859137	2551.123795
640.203839	2552.079093
640.548489	2550.831408
640.893086	2550.012220
641.237632	2546.017106
641.582125	2548.903167
641.926566	2548.270502
642.270955	2550.602035
642.615292	2549.969371
642.959576	2550.783517
643.303809	2550.183620
643.647990	2553.074721
643.992118	2552.331151
644.336195	2550.594474
644.680219	2550.188661
645.024192	2553.412479
645.368112	2549.845862
645.711981	2554.045143
646.055797	2551.254865
646.399562	2549.525749
646.743274	2550.972560
647.086935	2553.132695
647.430544	2549.477858
647.774101	2551.617828
648.117606	2550.990204
648.461059	2553.503219
648.804460	2552.459701
649.147810	2551.527087
649.491108	2549.772766
649.834354	2552.736964
650.177548	2551.985832
650.520690	2549.147663
650.863781	2550.173537
651.206820	2553.354505
651.549807	2550.148332
651.892742	2551.784186
652.235626	2549.888712
652.578458	2551.390976
652.921238	2549.974412
653.263967	2549.508105
653.606644	2547.289997
653.949269	2550.791079
654.291843	2550.226469
654.634365	2547.630275
654.976836	2549.460214
655.319255	2551.242262
655.661622	2548.273022
656.003938	2551.577499
656.346203	2547.753783
656.688416	2550.478527
657.030577	2549.291335
657.372687	2548.293187
657.714746	2548.751932
658.056753	2548.837632
658.398708	2545.003834
658.740612	2548.184802
659.082465	2547.781510
659.424266	2544.242620
659.766016	2546.758156
660.107715	2550.423074
660.449362	2550.788558
660.790958	2547.902497
661.132503	2550.619679
661.473996	2547.773948
661.815438	2552.051367
662.156829	2548.492312
662.498168	2549.256047
662.839456	2548.467107
663.180693	2548.996428
663.521879	2550.113043
663.863013	2550.284443
664.204097	2548.895605
664.545129	2548.487271
664.886110	2549.896274
665.227040	2548.658671
665.567918	2549.135060
665.908746	2547.524411
666.249522	2549.319062
666.590248	2547.544576
666.930922	2548.857796
667.271545	2548.293187
667.612118	2550.894422
667.952639	2549.646737
668.293109	2549.785368
668.633528	2546.755635
668.973896	2548.383928
669.314213	2548.731767
669.654480	2547.824360
669.994695	2547.274874
670.334859	2548.772097
670.674973	2547.340409
671.015035	2549.987015
671.355047	2546.798485
671.695008	2550.697817
672.034918	2549.198074
672.374777	2551.212015
672.714585	2548.373845
673.054342	2550.201264
673.394049	2549.127498
673.733705	2550.123126
674.073310	2549.359391
674.412864	2550.412992
674.752368	2548.401572
675.091820	2548.608259
675.431223	2547.322765
675.770574	2548.086500
676.109875	2542.692465
676.449125	2549.147662
676.788324	2544.623227
677.127473	2544.598021
677.466571	2544.023330
677.805619	2548.857796
678.144616	2549.281253
678.483562	2547.612631
678.822458	2548.855276
679.161303	2547.204298
679.500098	2545.875954
679.838842	2547.978115
680.177535	2547.350491
680.516179	2547.279915
680.854771	2546.329657
681.193314	2547.819318
681.531805	2546.790923
681.870247	2547.380738
682.208638	2546.032229
682.546978	2549.709751
682.885268	2551.257385
683.223508	2547.776469
683.561697	2551.557334
683.899836	2550.596994
684.237925	2548.787220
684.575963	2548.751932
684.913951	2547.952909
685.251889	2550.264278
685.589776	2547.103475
685.927614	2546.659853
686.265401	2549.606408
686.603137	2546.811088
686.940824	2549.092210
687.278460	2549.276212
687.616046	2549.261088
687.953582	2551.461552
688.291068	2547.768907
688.628504	2548.928372
688.965889	2547.456355
689.303224	2550.468445
689.640510	2548.411654
689.977745	2549.326623
690.314930	2547.037940
690.652065	2549.971891
690.989150	2546.007024
691.326185	2545.807898
691.663170	2549.187992
692.000105	2545.321427
692.336990	2546.496016
692.673825	2548.872920
693.010610	2549.286294
693.347345	2544.953422
693.684030	2540.144162
694.020665	2545.944009
694.357251	2543.541899
694.693786	2543.950233
695.030272	2544.335881
695.366707	2544.976108
695.703093	2544.885367
696.039429	2542.884029
696.375716	2546.168341
696.711952	2545.523073
697.048139	2545.512991
697.384276	2545.732281
697.720363	2545.281097
698.056400	2543.612476
698.392388	2544.106509
698.728326	2546.553989
699.064214	2543.894780
699.400053	2543.720860
699.735842	2544.398896
700.071581	2544.106509
700.407270	2543.899821
700.742910	2543.725902
701.078501	2542.266488
701.414042	2546.735470
701.749533	2541.795140
702.084974	2544.719009
702.420366	2544.930737
702.755709	2543.758669
703.091002	2543.536858
703.426246	2544.245140
703.761440	2544.449307
704.096584	2544.832435
704.431679	2543.345294
704.766725	2546.163299
705.101721	2544.618186
705.436668	2544.829914
705.771565	2544.867723
706.106413	2542.155582
706.441212	2542.934440
706.775961	2544.051056
707.110661	2544.237579
707.445311	2544.214893
707.779913	2543.370500
708.114465	2544.625748
708.448967	2543.720860
708.783421	2543.083154
709.117825	2542.914276
709.452180	2544.711447
709.786485	2541.391847
710.120742	2544.948381
710.454949	2545.568443
710.789107	2543.065510
711.123216	2539.834131
711.457275	2540.741538
711.791286	2540.895294
712.125247	2544.345963
712.459159	2546.581715
712.793023	2547.131201
713.126837	2544.068700
713.460602	2544.842517
713.794318	2544.280428
714.127985	2545.192877
714.461602	2544.391334
714.795171	2545.621375
715.128691	2541.432177
715.462162	2546.357384
715.795584	2544.340922
716.128957	2544.300593
716.462281	2541.459903
716.795556	2547.539534
717.128782	2546.823691
717.461960	2541.011240
717.795088	2542.959646
718.128167	2542.868905
718.461198	2542.437887
718.794180	2541.459903
719.127113	2543.748587
719.459997	2542.863864
719.792833	2542.110212
720.125619	2546.090203
720.458357	2544.003165
720.791046	2539.088040
721.123686	2538.909079
721.456278	2543.120963
721.788821	2541.621220
722.121315	2542.611807
722.453761	2542.541230
722.786158	2541.749769
723.118506	2542.294214
723.450805	2540.973432
723.783056	2540.325643
724.115259	2538.909079
724.447412	2542.584080
724.779518	2538.977135
725.111574	2543.491488
725.443582	2543.325130
725.775542	2542.374872
726.107453	2542.059800
726.439315	2543.269677
726.771129	2546.460727
727.102895	2542.122815
727.434612	2544.882846
727.766281	2542.480737
728.097901	2541.096940
728.429473	2539.332536
728.760996	2538.604089
729.092471	2538.949408
729.423897	2543.945192
729.755276	2542.873947
730.086606	2545.175233
730.417887	2541.880839
730.749120	2541.084337
731.080305	2542.871426
731.411442	2543.466282
731.742530	2544.015768
732.073570	2543.874616
732.404562	2546.785882
732.735506	2545.576005
733.066401	2542.924358
733.397249	2542.319420
733.728048	2541.936292
734.058798	2544.313196
734.389501	2542.473175
734.720156	2542.208514
735.050762	2543.683052
735.381320	2542.221117
735.711831	2544.315717
736.042293	2541.754810
736.372707	2540.555016
736.703073	2541.880839
737.033391	2546.049873
737.363661	2542.621889
737.693883	2542.090047
738.024056	2544.381252
738.354182	2540.691127
738.684260	2543.597352
739.014290	2539.650129
739.344272	2543.579708
739.674207	2543.909904
740.004093	2544.272867
740.333931	2542.135418
740.663722	2541.129707
740.993464	2541.704399
741.323159	2542.170706
741.652806	2542.130376
741.982405	2544.703885
742.311956	2539.536703
742.641460	2543.246992
742.970915	2540.676003
743.300323	2542.599204
743.629683	2541.207845
743.958996	2541.669111
744.288260	2540.000489
744.617477	2541.653987
744.946647	2534.054448
745.275768	2540.353370
745.604842	2536.869932
745.933869	2537.540406
746.262847	2536.267514
746.591778	2539.229192
746.920662	2539.597197
747.249498	2541.417053
747.578286	2541.701878
747.907027	2540.507125
748.235720	2539.256919
748.564365	2539.939995
748.892963	2540.461754
749.221514	2541.412012
749.550017	2540.406302
749.878473	2539.912269
750.206881	2539.813966
750.535242	2540.673483
750.863555	2539.907228
751.191821	2541.215407
751.520039	2541.127187
751.848210	2538.697351
752.176334	2539.801363
752.504411	2540.176929
752.832440	2538.094933
753.160421	2541.167516
753.488356	2540.547454
753.816243	2539.345139
754.144082	2541.422094
754.471875	2540.406302
754.799620	2537.694161
755.127318	2541.036446
755.454969	2538.057124
755.782572	2540.527289
756.110129	2539.677855
756.437638	2539.438400
756.765100	2539.372865
757.092515	2538.452855
757.419882	2541.845551
757.747203	2543.206663
758.074477	2540.252547
758.401703	2537.595858
758.728882	2541.492670
759.056014	2537.358924
759.383099	2541.722043
759.710138	2540.597866
760.037129	2543.274718
760.364073	2541.074255
760.690970	2539.992927
761.017820	2540.116435
761.344623	2538.813297
761.671379	2541.296065
761.998088	2534.674510
762.324751	2538.732639
762.651366	2539.203987
762.977935	2544.966025
763.304456	2541.475026
763.630931	2547.698331
763.957359	2545.525593
764.283740	2545.802857
764.610074	2541.192722
764.936362	2545.064328
765.262602	2542.652136
765.588796	2539.899666
765.914943	2540.116435
766.241044	2541.245654
766.567097	2540.159285
766.893104	2538.838503
767.219064	2538.767927
767.544978	2538.309182
767.870845	2539.839172
768.196665	2538.783050
768.522438	2538.596528
768.848165	2539.357742
769.173846	2536.917823
769.499479	2538.563760
769.825066	2541.144831
770.150607	2539.660211
770.476101	2535.750796
770.801548	2538.911600
771.126949	2538.195756
771.452303	2538.934285
771.777611	2538.052083
772.102872	2536.020498
772.428087	2534.868594
772.753256	2538.475540
773.078378	2535.753317
773.403453	2537.636188
773.728482	2535.188708
774.053465	2537.613503
774.378401	2537.946219
774.703291	2538.851106
775.028135	2536.398584
775.352932	2537.994110
775.677683	2536.421270
776.002388	2538.415046
776.327046	2536.466640
776.651658	2535.879346
776.976224	2535.773481
777.300743	2539.546785
777.625216	2534.656866
777.949643	2533.704088
778.274024	2538.964532
778.598359	2533.610826
778.922647	2532.158974
779.246889	2535.990251
779.571086	2530.359282
779.895236	2535.655014
780.219339	2539.486291
780.543397	2537.701723
780.867409	2535.947401
781.191374	2536.330529
781.515294	2537.598379
781.839167	2538.036959
782.162995	2535.967566
782.486776	2537.250539
782.810511	2537.646270
783.134201	2537.671476
783.457844	2538.765406
783.781441	2536.005374
784.104993	2537.938657
784.428498	2537.121990
784.751958	2536.766589
785.075372	2537.805066
785.398739	2538.294058
785.722061	2538.173071
786.045337	2538.137782
786.368568	2536.512010
786.691752	2537.101825
787.014891	2536.282638
787.337983	2534.281300
787.661030	2538.662062
787.984031	2536.738862
788.306987	2538.034439
788.629897	2539.206507
788.952760	2537.991589
789.275579	2537.369007
789.598351	2539.178781
789.921078	2537.154757
790.243759	2537.656352
790.566395	2538.651980
790.888984	2536.040663
791.211529	2536.275076
791.534027	2534.717360
791.856480	2537.056455
792.178888	2536.902700
792.501249	2538.566281
792.823566	2535.155940
793.145836	2537.550488
793.468062	2539.322454
793.790241	2538.314223
794.112375	2536.617875
794.434464	2534.155271
794.756507	2536.862371
795.078505	2536.650642
795.400457	2534.548481
795.722364	2533.739376
796.044226	2534.709798
796.366042	2530.956659
796.687812	2531.952287
797.009538	2537.742052
797.331218	2536.577545
797.652852	2536.348173
797.974442	2535.397915
798.295986	2536.542257
798.617484	2534.740045
798.938938	2535.153419
799.260346	2538.551157
799.581709	2534.251053
799.903026	2537.711805
800.224299	2534.140148
800.545526	2537.520241
800.866708	2537.346321
801.187845	2536.169212
801.508936	2538.543595
801.829983	2535.891948
802.150984	2534.291382
802.471940	2536.743903
802.792851	2534.891279
803.113717	2536.204500
803.434538	2533.031094
803.755314	2536.907741
804.076045	2535.329860
804.396731	2535.544109
804.717372	2533.396577
805.037967	2536.804397
805.358518	2534.782895
805.679024	2537.369007
805.999485	2536.000333
806.319901	2536.993441
806.640272	2533.502442
806.960598	2535.032432
807.280879	2534.762730
807.601115	2535.269366
807.921306	2534.372041
808.241453	2535.526465
808.561554	2535.619726
808.881611	2536.837165
809.201623	2538.097453
809.521590	2534.122503
809.841513	2535.092926
810.161390	2536.267514
810.481223	2536.796836
810.801011	2536.053265
811.120755	2534.866074
811.440453	2537.805066
811.760107	2534.770292
812.079716	2532.214427
812.399281	2531.002029
812.718801	2536.617875
813.038276	2529.945907
813.357707	2534.619057
813.677093	2536.688451
813.996434	2535.045035
814.315731	2537.820190
814.634983	2535.823893
814.954191	2535.599562
815.273354	2535.173584
815.592473	2535.022349
815.911547	2535.972607
816.230577	2535.503780
816.549562	2539.093081
816.868502	2534.551002
817.187399	2539.763555
817.506250	2536.544778
817.825058	2538.132741
818.143821	2535.302133
818.462539	2538.780530
818.781213	2537.225334
819.099843	2536.512010
819.418429	2538.324305
819.736970	2537.668955
820.055466	2536.587628
820.373919	2540.426466
820.692327	2542.279090
821.010691	2544.852599
821.329011	2549.462735
821.647286	2560.737275
821.965517	2572.173133
822.283704	2581.958012
822.601847	2584.055132
822.919945	2578.565316
823.237999	2564.250959
823.556010	2563.066288
823.873976	2556.016235
824.191897	2552.623538
824.509775	2548.341078
824.827609	2548.346119
825.145398	2544.633309
825.463144	2548.885522
825.780845	2546.881664
826.098502	2545.969215
826.416116	2548.875440
826.733685	2555.774259
827.051210	2555.854918
827.368692	2550.854093
827.686129	2550.685214
828.003522	2544.691283
828.320872	2538.873791
828.638177	2539.640046
828.955439	2536.166691
829.272656	2538.331867
829.589830	2533.026052
829.906960	2538.266332
830.224046	2537.563091
830.541088	2537.794984
830.858086	2537.394212
831.175041	2538.445293
831.491952	2539.198945
831.808819	2539.493853
832.125642	2537.973945
832.442421	2538.115097
832.759157	2538.551157
833.075849	2542.541230
833.392497	2545.626417
833.709101	2545.172713
834.025662	2544.396375
834.342179	2541.727084
834.658653	2541.913607
834.975083	2541.449821
835.291469	2538.369676
835.607811	2537.363965
835.924110	2536.270035
836.240366	2535.259284
836.556578	2535.483615
836.872746	2535.813811
837.188871	2536.529654
837.504952	2534.919006
837.820990	2536.557381
838.136984	2532.524458
838.452935	2535.879346
838.768842	2535.728111
839.084706	2533.469674
839.400526	2535.816331
839.716303	2539.082999
840.032037	2538.140303
840.347727	2539.410674
840.663373	2536.822041
840.978977	2538.830941
841.294537	2534.982020
841.610054	2536.141486
841.925527	2535.687782
842.240957	2533.189890
842.556344	2536.237268
842.871687	2534.044366
843.186987	2534.062010
843.502244	2532.927750
843.817458	2533.918337
844.132629	2530.780218
844.447756	2533.729293
844.762840	2530.097142
845.077881	2532.708460
845.392879	2532.985723
845.707833	2532.642925
846.022745	2528.569672
846.337613	2533.862884
846.652438	2533.802390
846.967221	2533.797349
847.281960	2532.131248
847.596656	2537.190046
847.911309	2533.699047
848.225919	2534.079654
848.540485	2534.762730
848.855009	2532.078316
849.169490	2532.567308
849.483928	2533.149561
849.798323	2532.504293
850.112675	2533.699047
850.426984	2531.705270
850.741251	2537.328677
851.055474	2532.595034
851.369654	2531.309540
851.683792	2532.388347
851.997887	2532.441279
852.311938	2532.385826
852.625947	2531.274252
852.939914	2530.286185
853.253837	2532.907585
853.567718	2532.942873
853.881555	2537.172402
854.195350	2534.422452
854.509103	2535.221475
854.822812	2531.407842
855.136479	2529.905578
855.450103	2530.480270
855.763685	2533.807431
856.077224	2533.013450
856.390720	2533.048738
856.704173	2533.444468
857.017584	2533.000847
857.330953	2533.182328
857.644278	2533.315919
857.957561	2534.132586
858.270802	2533.419262
858.584000	2533.104190
858.897155	2531.070085
859.210268	2532.234591
859.523339	2531.959848
859.836367	2530.399611
860.149352	2532.683254
860.462295	2535.776002
860.775195	2530.331556
861.088054	2532.290044
861.400869	2529.802235
861.713642	2525.429034
862.026373	2532.756351
862.339062	2530.752492
862.651708	2533.729293
862.964312	2535.738193
863.276873	2534.160312
863.589392	2532.287523
863.901869	2532.073274
864.214303	2530.944056
864.526696	2532.506814
864.839045	2532.794159
865.151353	2531.818696
865.463619	2533.371372
865.775842	2533.273069
866.088023	2530.432379
866.400162	2537.041332
866.712258	2533.956145
867.024313	2534.808100
867.336325	2531.677544
867.648296	2532.153933
867.960224	2534.001516
868.272110	2532.791639
868.583954	2532.799201
868.895755	2534.039324
869.207515	2533.691485
869.519233	2533.676361
869.830909	2533.792308
870.142542	2534.364479
870.454134	2531.682585
870.765684	2533.300795
871.077191	2533.951104
871.388657	2534.588810
871.700081	2534.031763
872.011463	2532.658048
872.322803	2533.802390
872.634101	2532.816845
872.945357	2534.949253
873.256571	2535.836496
873.567744	2532.305168
873.878874	2531.969931
874.189963	2531.002029
874.501010	2534.130065
874.812015	2533.598223
875.122979	2530.739889
875.433900	2533.724252
875.744780	2536.726259
876.055618	2533.348686
876.366415	2536.577545
876.677169	2533.814993
876.987882	2531.942204
877.298554	2526.850639
877.609183	2532.532019
877.919771	2529.267872
878.230317	2529.824920
878.540822	2533.845240
878.851285	2535.329860
879.161707	2534.500590
879.472087	2535.886907
879.782425	2539.226672
880.092722	2538.299099
880.402977	2541.767413
880.713191	2549.629093
881.023363	2555.260062
881.333494	2559.287943
881.643583	2560.114693
881.953631	2558.985474
882.263637	2559.759291
882.573602	2556.059084
882.883526	2554.899619
883.193408	2551.020451
883.503248	2548.709082
883.813048	2546.609442
884.122806	2542.957126
884.432522	2542.221117
884.742197	2540.149203
885.051831	2537.505118
885.361424	2539.725746
885.670975	2536.817000
885.980485	2535.692823
886.289954	2538.170550
886.599382	2537.399253
886.908768	2535.521424
887.218113	2534.820703
887.527417	2536.297761
887.836680	2534.321629
888.145901	2534.341794
888.455082	2532.252235
888.764221	2532.519417
889.073319	2532.199303
889.382376	2534.674510
889.691392	2534.301464
890.000366	2533.454551
890.309300	2533.512524
890.618193	2534.276259
890.927044	2535.047555
891.235855	2535.287010
891.544625	2534.064530
891.853353	2532.416073
892.162041	2536.895138
892.470687	2533.134437
892.779293	2534.175436
893.087858	2531.967410
893.396381	2530.389529
893.704864	2532.489170
894.013306	2532.537061
894.321707	2539.771116
894.630068	2543.060469
894.938387	2542.011909
895.246665	2537.931095
895.554903	2541.787578
895.863100	2542.763041
896.171256	2541.011240
896.479371	2538.389840
896.787446	2537.474871
897.095480	2533.928419
897.403473	2535.826413
897.711425	2537.056455
898.019336	2535.665097
898.327207	2533.986392
898.635038	2534.455220
898.942827	2537.333718
899.250576	2532.809283
899.558284	2532.010260
899.865952	2534.306506
900.173579	2533.625950
900.481165	2532.244674
900.788711	2534.677030
901.096216	2535.710467
901.403681	2533.467153
901.711105	2531.609488
902.018489	2532.942873
902.325832	2536.524613
902.633135	2532.131248
902.940397	2533.386495
903.247619	2534.470343
903.554800	2535.236598
903.861941	2541.190201
904.169041	2543.662887
904.476101	2542.813453
904.783121	2545.830583
905.090100	2545.349153
905.397039	2542.163144
905.703938	2539.274563
906.010796	2540.975952
906.317614	2535.972607
906.624391	2534.200641
906.931129	2534.303985
907.237826	2535.657535
907.544483	2533.192411
907.851099	2535.597041
908.157675	2533.162164
908.464211	2535.072761
908.770707	2528.541946
909.077163	2531.024714
909.383578	2527.243849
909.689954	2530.477749
909.996289	2525.514733
910.302584	2531.954807
910.608839	2529.696370
910.915054	2531.407842
911.221229	2532.161495
911.527363	2527.722759
911.833458	2532.436237
912.139513	2529.499765
912.445527	2530.550846
912.751502	2532.506814
913.057436	2534.097298
913.363331	2533.252904
913.669186	2533.429345
913.975000	2535.707946
914.280775	2534.031763
914.586510	2533.308357
914.892205	2535.755837
915.197859	2538.306661
915.503475	2540.244985
915.809050	2542.778165
916.114585	2543.035263
916.420081	2545.797816
916.725536	2544.648433
917.030952	2546.949719
917.336328	2540.479398
917.641665	2540.423946
917.946961	2539.808925
918.252218	2536.529654
918.557435	2538.548637
918.862612	2537.111908
919.167750	2535.241640
919.472848	2535.493697
919.777906	2536.078471
920.082925	2533.401618
920.387904	2530.986906
920.692843	2532.461443
920.997743	2532.184180
921.302603	2530.795342
921.607423	2531.543953
921.912204	2531.652338
922.216946	2533.981351
922.521647	2534.757689
922.826310	2529.222502
923.130932	2532.385826
923.435516	2532.085877
923.740059	2534.276259
924.044564	2531.218799
924.349028	2531.334745
924.653454	2527.758047
924.957840	2531.312060
925.262186	2526.802748
925.566493	2528.219312
925.870761	2525.842408
926.174989	2529.857687
926.479178	2531.652338
926.783328	2531.385157
927.087438	2528.950280
927.391509	2530.540764
927.695541	2532.637884
927.999533	2527.861390
928.303486	2530.492873
928.607400	2531.180990
928.911275	2528.012625
929.215110	2529.295599
929.518906	2532.252235
929.822663	2530.016484
930.126381	2527.417769
930.430060	2530.308871
930.733699	2528.862059
931.037299	2532.801721
931.340861	2529.051103
931.644383	2531.473377
931.947866	2530.704601
932.251309	2528.786442
932.554714	2533.441948
932.858080	2531.153264
933.161407	2530.800383
933.464694	2528.206709
933.767943	2529.202337
934.071153	2529.240146
934.374323	2529.895496
934.677455	2529.681247
934.980548	2527.193438
935.283602	2530.225692
935.586617	2530.815507
935.889593	2530.364323
936.192530	2531.105373
936.495428	2530.949097
936.798287	2526.648993
937.101108	2530.460105
937.403890	2529.172090
937.706632	2530.502955
938.009336	2530.147554
938.312002	2531.097811
938.614628	2531.969931
938.917216	2529.648479
939.219765	2529.915661
939.522275	2528.057995
939.824747	2531.433048
940.127179	2527.208561
940.429573	2527.543798
940.731929	2529.794673
941.034246	2524.982892
941.336524	2526.762419
941.638763	2530.255938
941.940964	2533.106711
942.243126	2532.368182
942.545250	2530.931453
942.847335	2529.199817
943.149381	2530.097142
943.451389	2530.387008
943.753359	2528.370547
944.055290	2529.461957
944.357182	2531.614529
944.659036	2528.299971
944.960851	2530.558408
945.262628	2532.539581
945.564367	2530.407173
945.866067	2529.850126
946.167729	2530.124868
946.469352	2527.558921
946.770937	2527.866432
947.072484	2529.892975
947.373992	2529.625794
947.675462	2529.799714
947.976893	2530.523120
948.278286	2530.298788
948.579641	2529.164529
948.880958	2530.734848
949.182236	2530.598737
949.483476	2528.073119
949.784678	2531.039838
950.085841	2528.909950
950.386967	2532.330373
950.688054	2530.810465
950.989103	2528.065557
951.290114	2528.683098
951.591087	2527.042203
951.892021	2530.016484
952.192917	2531.465815
952.493776	2531.246525
952.794596	2530.573531
953.095378	2531.455733
953.396122	2531.261649
953.696828	2531.022194
953.997496	2530.271062
954.298126	2529.542615
954.598718	2530.301309
954.899272	2528.776360
955.199788	2530.986906
955.500266	2526.444826
955.800706	2528.851977
956.101108	2525.111441
956.401472	2527.536236
956.701798	2523.546163
957.002087	2524.647655
957.302337	2528.594878
957.602550	2530.878521
957.902724	2528.700742
958.202861	2528.337779
958.502960	2529.676206
958.803022	2528.189065
959.103045	2528.345341
959.403031	2529.149405
959.702979	2526.843077
960.002889	2531.465815
960.302762	2528.022707
960.602596	2527.911802
960.902393	2530.961700
961.202153	2529.610671
961.501875	2528.297450
961.801559	2530.838192
962.101205	2526.318797
962.400814	2526.631349
962.700385	2528.610002
962.999918	2528.756195
963.299414	2529.356093
963.598873	2530.119827
963.898293	2528.410876
964.197677	2527.753006
964.497022	2528.627646
964.796331	2528.420958
965.095601	2525.630680
965.394835	2530.596216
965.694030	2526.976668
965.993189	2528.902389
966.292309	2526.591020
966.591393	2529.484642
966.890439	2531.009591
967.189447	2527.347193
967.488419	2530.815507
967.787353	2527.064888
968.086249	2528.025228
968.385108	2527.828623
968.683930	2529.015815
968.982714	2527.763088
969.281462	2528.194107
969.580172	2527.087573
969.878844	2528.957841
970.177480	2529.028418
970.476078	2528.907430
970.774639	2528.758716
971.073162	2528.395753
971.371649	2526.545649
971.670098	2524.367871
971.968510	2529.018335
972.266885	2522.444671
972.565223	2526.399456
972.863524	2526.260824
973.161788	2530.082019
973.460014	2526.591020
973.758204	2528.108407
974.056356	2527.755526
974.354471	2529.779549
974.652550	2528.902389
974.950591	2526.280989
975.248595	2529.943387
975.546563	2527.987419
975.844493	2528.423479
976.142386	2528.912471
976.440243	2528.173942
976.738062	2531.559077
977.035845	2527.049765
977.333590	2528.226874
977.631299	2526.190248
977.928971	2528.221833
978.226606	2529.696370
978.524204	2527.253931
978.821765	2528.388191
979.119290	2527.866432
979.416777	2528.622605
979.714228	2529.151926
980.011642	2527.306863
980.309020	2531.095291
980.606360	2526.064219
980.903664	2527.737882
981.200931	2526.467511
981.498162	2526.966586
981.795356	2529.250228
982.092513	2529.225023
982.389633	2525.638242
982.686717	2530.248377
982.983764	2529.761905
983.280775	2529.943387
983.577749	2529.421627
983.874686	2527.395084
984.171587	2527.750485
984.468451	2530.666792
984.765279	2525.892820
985.062070	2529.439272
985.358824	2527.664785
985.655543	2526.429703
985.952224	2529.038500
986.248869	2528.826771
986.545478	2522.905936
986.842050	2527.753006
987.138586	2523.009280
987.435086	2527.571524
987.731549	2523.510875
988.027975	2528.899868
988.324366	2525.991122
988.620719	2527.523633
988.917037	2525.983561
989.213318	2526.434744
989.509563	2526.785104
989.805772	2529.393901
990.101944	2527.221164
990.398080	2528.862059
990.694180	2529.469518
990.990244	2530.079498
991.286271	2526.152439
991.582262	2529.489683
991.878217	2524.506503
992.174136	2526.880886
992.470019	2527.309384
992.765865	2528.151257
993.061676	2528.546987
993.357450	2526.722090
993.653188	2528.708304
993.948890	2529.038500
994.244556	2526.472553
994.540186	2528.932636
994.835780	2528.025228
995.131337	2527.206040
995.426859	2526.245701
995.722345	2527.483304
996.017795	2527.873993
996.313208	2531.685106
996.608586	2526.530526
996.903928	2528.819210
997.199234	2528.481452
997.494504	2527.044723
997.789738	2526.805269
998.084936	2528.466329
998.380099	2526.386853
998.675225	2528.569673
998.970316	2529.169570
999.265371	2526.283509
999.560390	2529.371216
999.855373	2527.500948
1000.150320	2528.110927
1000.445232	2528.216792
1000.740108	2524.531708
1001.034948	2527.505989
1001.329752	2526.994312
1001.624521	2526.709487
1001.919254	2523.052130
1002.213951	2522.565658
1002.508613	2522.968951
1002.803239	2526.606143
1003.097829	2521.635565
1003.392384	2527.198479
1003.686903	2525.444157
1003.981386	2529.177132
1004.275834	2527.374919
1004.570246	2529.035979
1004.864623	2528.846936
1005.158964	2527.700073
1005.453270	2526.613705
1005.747540	2528.312574
1006.041775	2527.901720
1006.335974	2526.923736
1006.630138	2526.512882
1006.924266	2527.987419
1007.218359	2528.138654
1007.512416	2527.886596
1007.806438	2525.363499
1008.100425	2529.484642
1008.394376	2526.699404
1008.688292	2529.063706
1008.982172	2524.226718
1009.276017	2528.758716
1009.569827	2524.803931
1009.863602	2528.536905
1010.157341	2527.304343
1010.451045	2529.540095
1010.744714	2529.998840
1011.038347	2526.815351
1011.331945	2525.983561
1011.625508	2529.260311
1011.919036	2527.576565
1012.212528	2525.728982
1012.505986	2528.017666
1012.799408	2527.526154
1013.092795	2527.236287
1013.386147	2529.711494
1013.679464	2526.046575
1013.972745	2525.469363
1014.265992	2524.617408
1014.559204	2528.214271
1014.852380	2527.213602
1015.145521	2525.713859
1015.438628	2526.197810
1015.731699	2527.213602
1016.024736	2525.174455
1016.317737	2528.909950
1016.610703	2528.569672
1016.903635	2523.296626
1017.196531	2523.117665
1017.489393	2525.255114
1017.782219	2521.214629
1018.075011	2526.346524
1018.367768	2524.670340
1018.660490	2529.209899
1018.953177	2529.209899
1019.245829	2529.209899
