Dividing Wavelength (nm)	Counts (n)	Blue Motor Position (mm): 0.000000	Red Motor Position (mm): 36.700000	
326.493990	2128.304578
326.888308	2128.304578
327.282561	2128.304578
327.676750	2094.397777
328.070874	2094.765781
328.464933	2097.790473
328.858929	2106.665425
329.252859	2112.480396
329.646726	2125.012704
330.040528	2139.896711
330.434265	2153.384318
330.827938	2172.906186
331.221547	2189.637776
331.615091	2209.043698
332.008571	2230.161091
332.401986	2249.834194
332.795338	2266.301123
333.188625	2285.797786
333.581847	2305.599438
333.975006	2324.939825
334.368100	2341.651250
334.761129	2360.298478
335.154095	2376.306662
335.546996	2394.865670
335.939833	2416.608166
336.332606	2431.792122
336.725315	2444.581529
337.117960	2453.879937
337.510540	2461.416462
337.903056	2473.658904
338.295508	2479.209215
338.687896	2488.585761
339.080220	2497.019611
339.472480	2502.396002
339.864676	2505.655108
340.256807	2512.440501
340.648875	2512.664832
341.040879	2515.596263
341.432818	2521.262520
341.824694	2521.491893
342.216506	2520.980215
342.608253	2522.648837
342.999937	2522.726975
343.391557	2520.982736
343.783113	2518.996521
344.174605	2519.321676
344.566033	2517.839577
344.957397	2518.084072
345.348697	2514.204905
345.739934	2515.407220
346.131106	2510.507218
346.522215	2510.933196
346.913260	2506.292814
347.304241	2504.780468
347.695159	2503.810045
348.086012	2506.091168
348.476802	2500.679489
348.867528	2498.259735
349.258191	2499.459530
349.648789	2498.723521
350.039324	2495.068685
350.429796	2495.300578
350.820203	2493.642038
351.210548	2492.351503
351.600828	2490.335041
351.991045	2491.123982
352.381198	2490.125833
352.771288	2492.222953
353.161314	2491.224805
353.551276	2490.148518
353.941175	2490.612305
354.331010	2488.099289
354.720782	2492.235556
355.110490	2489.553662
355.500135	2489.835967
355.889717	2491.459218
356.279235	2491.358395
356.668689	2492.679178
357.058080	2490.357726
357.447408	2491.428972
357.836672	2487.388487
358.225873	2491.444095
358.615010	2488.999135
359.004084	2492.835453
359.393095	2490.960144
359.782043	2496.460043
360.170927	2493.405104
360.559748	2497.203613
360.948505	2499.724190
361.337199	2496.608757
361.725830	2497.155722
362.114398	2498.574807
362.502903	2499.018429
362.891344	2500.296361
363.279722	2497.937101
363.668037	2502.242247
364.056289	2499.416680
364.444478	2502.519510
364.832603	2502.907679
365.220665	2502.111177
365.608665	2502.406084
365.996601	2502.489263
366.384474	2508.692403
366.772284	2507.739625
367.160031	2508.901611
367.547715	2513.662981
367.935336	2514.421674
368.322893	2515.455111
368.710388	2519.543487
369.097820	2527.349713
369.485189	2528.141174
369.872495	2534.356917
370.259738	2542.110212
370.646918	2548.247817
371.034035	2554.887016
371.421090	2567.278172
371.808081	2578.799729
372.195010	2586.835329
372.581875	2601.510127
372.968678	2611.836931
373.355418	2620.800103
373.742096	2639.661580
374.128710	2654.129691
374.515262	2670.470592
374.901751	2682.516429
375.288177	2699.139633
375.674540	2721.880278
376.060841	2736.781929
376.447079	2758.305136
376.833254	2784.168775
377.219367	2790.573561
377.605417	2829.380364
377.991404	2838.772033
378.377329	2861.759695
378.763191	2876.926006
379.148991	2915.175761
379.534727	2940.058896
379.920402	2969.605099
380.306013	2980.786378
380.691563	3032.695139
381.077049	3052.380845
381.462474	3069.903896
381.847835	3110.182715
382.233134	3134.448309
382.618371	3130.019656
383.003545	3200.840305
383.388657	3208.180225
383.773706	3238.732138
384.158693	3254.241248
384.543618	3281.435753
384.928480	3317.979077
385.313280	3365.852394
385.698017	3362.406766
386.082692	3416.732760
386.467305	3423.072011
386.851856	3452.424129
387.236344	3474.315340
387.620770	3509.076616
388.005133	3532.906150
388.389435	3562.343968
388.773674	3573.079105
389.157851	3614.885394
389.541965	3629.726551
389.926018	3595.245059
390.310008	3667.091583
390.693936	3682.540199
391.077802	3727.025862
391.461606	3709.505331
391.845348	3775.022687
392.229027	3775.249539
392.612645	3790.907363
392.996200	3867.212788
393.379694	3904.706370
393.763125	3967.967810
394.146494	3937.937656
394.529801	4001.942666
394.913047	4048.855644
395.296230	4018.069317
395.679351	4069.660486
396.062410	4092.819546
396.445408	4077.229778
396.828343	4104.063840
397.211217	4133.151298
397.594028	4050.057959
397.976778	4119.043629
398.359466	4143.823420
398.742092	4172.941125
399.124656	4096.474383
399.507158	4177.735262
399.889598	4199.318963
400.271977	4262.358591
400.654294	4233.813058
401.036549	4239.063419
401.418742	4214.381930
401.800874	4315.010923
402.182944	4334.348789
402.564952	4399.835898
402.946898	4388.634454
403.328783	4383.129514
403.710606	4294.516112
404.092367	4492.353674
404.474067	4457.534424
404.855705	4464.604642
405.237282	4396.246596
405.618797	4497.725023
406.000250	4534.028893
406.381642	4620.981235
406.762972	4579.101849
407.144240	4589.521914
407.525447	4586.966049
407.906593	4646.290348
408.287677	4691.174261
408.668700	4616.482005
409.049661	4670.366898
409.430560	4710.822158
409.811399	4639.751971
410.192176	4803.902023
410.572891	4737.658741
410.953545	4841.241849
411.334138	4719.782809
411.714669	4788.236637
412.095139	4682.137993
412.475547	4827.250127
412.855894	4805.462260
413.236180	4816.434331
413.616405	4775.280872
413.996568	4860.113409
414.376670	4797.608142
414.756711	4755.149024
415.136691	4785.564826
415.516609	4866.427454
415.896466	4896.999531
416.276262	4938.021921
416.655997	4917.446451
417.035670	5096.566209
417.415283	5192.272515
417.794834	5135.708248
418.174324	5088.379375
418.553753	4988.362883
418.933121	5184.466288
419.312428	5246.147326
419.691674	5186.865878
420.070859	5310.013704
420.449983	5222.958018
420.829045	5335.779042
421.208047	5248.461216
421.586988	5315.296833
421.965867	5328.928113
422.344686	5459.005006
422.723444	5315.949663
423.102141	5132.754132
423.480777	5433.597591
423.859352	5204.212488
424.237866	5460.197239
424.616319	5448.819355
424.994712	5560.465789
425.373044	5437.249907
425.751314	5582.684675
426.129524	5381.391402
426.507673	5580.416155
426.885762	5660.605790
427.263789	5595.484164
427.641756	5472.837932
428.019662	5596.494916
428.397508	5601.899032
428.775292	5545.990116
429.153016	5653.238143
429.530679	5573.096400
429.908282	5662.460934
430.285824	5530.997724
430.663305	5807.626000
431.040726	5541.979878
431.418086	5545.191093
431.795385	5645.613398
432.172624	5657.903731
432.549802	5654.213607
432.926920	5672.399569
433.303977	5669.826060
433.680974	5713.699222
434.057910	5722.896807
434.434786	5737.526236
434.811601	5704.501637
435.188355	5943.933759
435.565050	5817.698226
435.941683	5796.011182
436.318257	6012.354820
436.694770	5993.233723
437.071222	6031.019692
437.447614	5954.777281
437.823946	5873.249221
438.200218	6024.637591
438.576429	5894.185133
438.952580	5993.775647
439.328670	6031.410381
439.704700	5942.812103
440.080670	5930.957829
440.456580	6204.321958
440.832429	6084.594554
441.208218	5927.451707
441.583947	6085.625470
441.959616	6086.749648
442.335224	6017.897568
442.710773	6153.512169
443.086261	6180.472259
443.461689	5976.280323
443.837057	6123.234999
444.212365	6282.157374
444.587612	6167.677811
444.962800	6326.832079
445.337927	6305.061856
445.712995	5914.112814
446.088002	6495.299879
446.462949	6321.274207
446.837837	6253.740389
447.212664	6426.208345
447.587431	6569.482978
447.962139	7111.752336
448.336786	8042.924027
448.711374	7776.614993
449.085901	6851.069229
449.460369	6776.684484
449.834776	6702.266971
450.209124	7101.944771
450.583412	7246.313335
450.957640	7398.621716
451.331808	7158.380488
451.705917	6712.253496
452.079965	6633.745087
452.453954	6849.572007
452.827883	6723.764971
453.201752	6815.609753
453.575562	6612.867148
453.949311	6822.052348
454.323001	6712.792900
454.696632	6784.591533
455.070202	6920.833757
455.443713	7078.493323
455.817164	7176.821029
456.190556	7258.170129
456.563888	7339.488981
456.937160	7380.886937
457.310373	7037.324740
457.683526	7062.830458
458.056619	6949.273427
458.429653	6937.255316
458.802628	6869.847527
459.175542	6985.355485
459.548398	7339.289856
459.921194	7499.351532
460.293930	7501.642736
460.666607	8032.531689
461.039224	8342.562650
461.411782	8464.591341
461.784280	8486.971543
462.156719	8378.357363
462.529099	8255.794310
462.901419	7846.205601
463.273680	7743.378666
463.645882	7747.981239
464.018024	7615.270344
464.390106	7782.142618
464.762130	8172.960591
465.134094	8638.813618
465.505999	9663.042489
465.877845	10881.249918
466.249631	11534.664115
466.621358	11152.138841
466.993026	10516.923209
467.364634	10265.057081
467.736184	9902.527543
468.107674	9565.710411
468.479105	9603.642573
468.850477	9367.893013
469.221790	9134.134709
469.593043	8808.763517
469.964238	8671.379472
470.335373	8679.306686
470.706449	8741.317919
471.077467	8718.620124
471.448425	10032.546463
471.819324	11108.210226
472.190164	11135.193002
472.560945	9883.477023
472.931667	9089.452442
473.302330	8959.685581
473.672934	8600.611754
474.043479	8959.632648
474.413965	8896.517402
474.784393	8778.972818
475.154761	8941.350904
475.525070	9024.620683
475.895321	8848.727264
476.265513	9024.615642
476.635645	9196.108134
477.005719	9190.446918
477.375734	9314.103902
477.745691	9551.625427
478.115588	9681.861116
478.485427	9926.919166
478.855207	10469.317073
479.224928	11278.644076
479.594591	11909.678071
479.964194	11715.727238
480.333739	11655.147692
480.703226	11574.900085
481.072653	11664.284784
481.442022	11905.761094
481.811333	12088.709608
482.180584	11897.203735
482.549777	11609.099273
482.918912	11430.614700
483.287988	11443.593151
483.657005	11462.174844
484.025964	11147.075002
484.394864	11275.059816
484.763706	11251.021074
485.132489	11000.775676
485.501213	10971.244597
485.869879	11043.282685
486.238487	10882.437110
486.607036	10997.229224
486.975527	10773.157498
487.343959	10962.999790
487.712333	11010.184990
488.080648	10942.862901
488.448905	10983.318160
488.817104	10923.827504
489.185244	11187.951198
489.553326	11346.671927
489.921350	11884.913402
490.289315	12939.283332
490.657222	13282.406948
491.025070	13199.064072
491.392861	13073.131008
491.760593	12693.438862
492.128267	12335.945437
492.495883	12013.087259
492.863440	11677.112000
493.230939	11338.411996
493.598380	11271.934300
493.965763	11140.599640
494.333088	11040.956193
494.700354	10955.554006
495.067563	11026.903977
495.434713	10849.193221
495.801805	10974.803652
496.168839	10910.004660
496.535815	10837.454894
496.902733	10841.316418
497.269593	10770.190779
497.636395	10870.539987
498.003139	10856.109684
498.369825	10723.794519
498.736453	10883.031966
499.103023	10808.372478
499.469535	10839.302477
499.835989	10823.110291
500.202385	10788.923706
500.568723	10635.468463
500.935003	10862.884995
501.301226	10664.757567
501.667390	10922.695765
502.033497	11020.786536
502.399546	10875.001408
502.765537	10789.019488
503.131470	10865.498833
503.497345	11041.712366
503.863163	10649.253498
504.228923	10963.062804
504.594625	11021.572956
504.960269	10773.245718
505.325856	10989.087761
505.691385	10782.014805
506.056856	10929.677763
506.422270	10962.132711
506.787625	10852.893428
507.152924	10967.214194
507.518164	10951.301792
507.883347	10868.226098
508.248472	10788.477564
508.613540	11015.884014
508.978550	10905.185317
509.343503	10877.088446
509.708398	10998.156797
510.073236	11106.319794
510.438016	11114.405804
510.802738	11059.621065
511.167403	11106.493713
511.532010	11009.648107
511.896561	11239.232335
512.261053	11311.338479
512.625488	11185.080261
512.989866	11161.291056
513.354186	11153.152113
513.718449	11052.132431
514.082655	11241.077398
514.446803	11137.552262
514.810894	11258.161868
515.174927	11126.935592
515.538904	11151.942236
515.902822	11305.374794
516.266684	11177.279075
516.630488	11130.439194
516.994235	11187.936074
517.357925	11245.233829
517.721558	11332.556696
518.085133	11346.863491
518.448651	11353.721980
518.812112	11238.564382
519.175516	11247.709036
519.538863	11369.664629
519.902152	11282.389653
520.265385	11443.053747
520.628560	11358.621982
520.991678	11327.694503
521.354739	11388.727753
521.717743	11324.561426
522.080690	11293.838114
522.443580	11424.744276
522.806413	11380.392205
523.169189	11406.931359
523.531908	11455.475150
523.894569	11278.888572
524.257174	11282.891248
524.619722	11393.171530
524.982213	11339.223622
525.344647	11389.332691
525.707025	11337.335710
526.069345	11424.227558
526.431608	11337.779331
526.793815	11443.807400
527.155964	11232.850235
527.518057	11273.408838
527.880093	11218.167874
528.242072	11273.325659
528.603995	11185.939777
528.965860	11099.904925
529.327669	11149.245219
529.689421	11088.821949
530.051117	11061.072917
530.412755	11147.722790
530.774337	11036.255317
531.135862	11007.440082
531.497331	11025.104285
531.858743	10871.465039
532.220098	11028.045798
532.581396	10891.851465
532.942638	10866.612928
533.303824	10824.247071
533.664953	10825.414098
534.026025	10729.662422
534.387040	10813.700978
534.747999	10809.526902
535.108902	10860.571105
535.469748	10610.045924
535.830537	10702.145284
536.191270	10667.010962
536.551947	10678.973620
536.912567	10662.970477
537.273131	10583.234547
537.633638	10551.775227
537.994089	10524.119457
538.354483	10461.120157
538.714821	10596.956568
539.075103	10583.312685
539.435328	10534.335355
539.795497	10359.999652
540.155609	10486.696451
540.515665	10552.874198
540.875665	10290.797212
541.235609	10336.235653
541.595496	10314.533485
541.955328	10447.758579
542.315102	10319.655298
542.674821	10255.120967
543.034483	10241.366178
543.394090	10220.755421
543.753640	10138.985385
544.113134	10323.415998
544.472571	10168.581999
544.831953	10278.549729
545.191278	10077.213606
545.550548	10079.605634
545.909761	10184.065903
546.268918	10137.556218
546.628019	10189.711996
546.987064	10044.695643
547.346053	9954.728691
547.704986	10009.783133
548.063863	9985.883022
548.422684	9947.187125
548.781449	9848.970325
549.140158	9909.257484
549.498811	9772.085167
549.857408	9623.295511
550.215949	9791.695255
550.574434	9635.729517
550.932864	9690.854534
551.291237	9720.123474
551.649555	9637.509044
552.007817	9621.405078
552.366022	9561.760667
552.724173	9523.384883
553.082267	9482.856527
553.440305	9548.474706
553.798288	9363.386222
554.156215	9451.619017
554.514086	9400.332838
554.871902	9247.585877
555.229661	9235.676151
555.587365	9189.282412
555.945014	9073.882839
556.302606	9132.019945
556.660143	9014.767748
557.017625	9094.518802
557.375050	8980.999579
557.732421	9053.067914
558.089735	8939.465512
558.446994	8908.734639
558.804197	8899.973113
559.161345	8855.847894
559.518437	8719.512408
559.875474	8742.855471
560.232455	8721.060043
560.589381	8655.063777
560.946251	8596.581351
561.303065	8650.511615
561.659825	8553.978560
562.016528	8466.978327
562.373177	8350.326027
562.729770	8375.609934
563.086307	8285.680791
563.442789	8316.474679
563.799216	8172.824480
564.155587	8174.583842
564.511904	8100.327646
564.868164	8053.649082
565.224370	8036.131072
565.580520	7924.257786
565.936615	7912.733709
566.292654	7764.042355
566.648638	7823.533012
567.004567	7742.904797
567.360441	7702.124383
567.716260	7589.482321
568.072023	7619.217567
568.427732	7534.259001
568.783385	7455.493493
569.138982	7441.274919
569.494525	7410.773417
569.850013	7295.199924
570.205445	7300.795605
570.560823	7208.857562
570.916145	7107.394258
571.271412	7110.023220
571.626625	7037.203753
571.981782	6988.314643
572.336884	6926.825169
572.691931	6903.388844
573.046923	6809.910729
573.401860	6753.469970
573.756743	6676.635224
574.111570	6661.882287
574.466342	6619.087932
574.821059	6593.342759
575.175722	6496.824828
575.530330	6451.880421
575.884882	6420.118631
576.239380	6334.119067
576.593823	6292.534589
576.948211	6253.299288
577.302544	6162.238406
577.656823	6121.906655
578.011047	6087.226037
578.365216	6036.648140
578.719330	5968.295135
579.073389	5926.491367
579.427394	5878.083687
579.781344	5831.130380
580.135239	5765.318117
580.489080	5740.016566
580.842866	5647.289582
581.196597	5622.081292
581.550273	5607.419096
581.903895	5549.765940
582.257463	5550.965735
582.610975	5452.519562
582.964434	5436.173620
583.317837	5358.224779
583.671186	5331.247044
584.024481	5294.313031
584.377721	5232.349688
584.730906	5189.507442
585.084037	5164.392414
585.437113	5120.824242
585.790135	5086.652780
586.143103	5018.776164
586.496016	4978.399043
586.848874	4962.302638
587.201679	4934.901447
587.554428	4853.406153
587.907124	4843.412066
588.259765	4806.432682
588.612352	4772.152836
588.964884	4702.426116
589.317362	4675.478628
589.669786	4645.254391
590.022155	4643.689112
590.374470	4610.941777
590.726731	4572.886107
591.078937	4489.659177
591.431090	4490.879136
591.783188	4430.355043
592.135232	4393.509250
592.487222	4380.049369
592.839157	4361.913818
593.191038	4314.622754
593.542866	4273.239922
593.894639	4220.305286
594.246358	4212.173905
594.598022	4188.039381
594.949633	4137.244715
595.301190	4104.615846
595.652692	4090.886264
596.004141	4087.634720
596.355535	4012.183770
596.706876	3985.228720
597.058162	3941.763892
597.409395	3944.302113
597.760573	3929.899536
598.111698	3890.102147
598.462768	3858.415975
598.813785	3836.285309
599.164748	3799.247952
599.515657	3784.517701
599.866511	3734.506934
600.217312	3748.410436
600.568060	3694.961603
600.918753	3700.718600
601.269392	3670.295237
601.619978	3632.718476
601.970510	3629.315697
602.320988	3611.119652
602.671412	3597.173300
603.021783	3569.152047
603.372100	3545.846792
603.722363	3523.917773
604.072572	3507.617202
604.422728	3493.010459
604.772830	3461.236066
605.122878	3445.232923
605.472872	3430.351437
605.822813	3417.468768
606.172701	3395.993453
606.522534	3389.550858
606.872314	3376.622819
607.222041	3353.340250
607.571714	3346.597707
607.921333	3329.362002
608.270899	3313.101760
608.620411	3310.780309
608.969870	3287.217956
609.319276	3272.097015
609.668627	3260.063781
610.017926	3255.675456
610.367171	3249.235382
610.716362	3233.529667
611.065500	3219.618603
611.414585	3207.013198
611.763616	3196.557845
612.112594	3182.072090
612.461518	3172.352745
612.810389	3165.723628
613.159207	3149.044970
613.507971	3133.359420
613.856682	3130.599388
614.205340	3119.670167
614.553945	3114.361832
614.902496	3096.579162
615.250994	3088.818305
615.599439	3080.200453
615.947830	3067.421128
616.296169	3061.346537
616.644454	3053.210115
616.992686	3041.297868
617.340864	3038.618495
617.688990	3022.433871
618.037063	3023.058974
618.385082	3010.448528
618.733048	3007.333094
619.080961	2995.471259
619.428821	2991.743326
619.776628	2979.694968
620.124382	2970.210038
620.472083	2961.438430
620.819731	2952.389559
621.167326	2934.062444
621.514868	2930.667227
621.862357	2909.174267
622.209793	2905.809297
622.557176	2891.613408
622.904506	2878.539175
623.251783	2866.019470
623.599007	2859.735672
623.946179	2849.287880
624.293297	2843.261181
624.640363	2831.293482
624.987376	2826.300219
625.334336	2820.349137
625.681243	2811.012920
626.028097	2801.701908
626.374899	2797.812658
626.721647	2790.442491
627.068343	2786.036523
627.414987	2776.609565
627.761577	2772.332146
628.108115	2767.827875
628.454600	2760.810589
628.801032	2758.743716
629.147412	2754.652820
629.493739	2748.318610
629.840014	2745.117477
630.186236	2743.839545
630.532405	2733.883266
630.878521	2733.716908
631.224585	2729.469736
631.570597	2725.386401
631.916556	2722.296174
632.262462	2719.682335
632.608316	2716.536655
632.954117	2710.683876
633.299866	2710.220090
633.645562	2705.226827
633.991206	2700.175591
634.336797	2692.084539
634.682336	2689.679908
635.027823	2688.094465
635.373257	2680.867971
635.718639	2674.856395
636.063968	2674.362362
636.409245	2668.991013
636.754470	2663.738131
637.099642	2662.994560
637.444762	2661.804848
637.789829	2659.506082
638.134845	2655.379897
638.479808	2652.420740
638.824719	2648.100471
639.169577	2648.453352
639.514383	2643.855820
639.859137	2642.121663
640.203839	2641.879687
640.548489	2636.349542
640.893086	2636.820890
641.237632	2632.896351
641.582125	2635.119500
641.926566	2626.746144
642.270955	2633.897020
642.615292	2629.397791
642.959576	2628.845784
643.303809	2627.840074
643.647990	2627.761936
643.992118	2626.602471
644.336195	2626.680609
644.680219	2622.695577
645.024192	2621.180710
645.368112	2624.583489
645.711981	2621.034516
646.055797	2622.622480
646.399562	2624.018879
646.743274	2620.941255
647.086935	2625.478293
647.430544	2624.107100
647.774101	2623.683643
648.117606	2620.976543
648.461059	2621.503344
648.804460	2621.450412
649.147810	2618.874382
649.491108	2618.292129
649.834354	2616.068980
650.177548	2612.981273
650.520690	2611.350460
650.863781	2609.802826
651.206820	2609.328957
651.549807	2607.531786
651.892742	2604.381065
652.235626	2607.844337
652.578458	2604.524737
652.921238	2604.370982
653.263967	2603.027515
653.606644	2603.236723
653.949269	2603.251846
654.291843	2602.094901
654.634365	2602.261259
654.976836	2599.801176
655.319255	2600.685899
655.661622	2596.199272
656.003938	2595.576689
656.346203	2595.332193
656.688416	2595.896803
657.030577	2594.258428
657.372687	2591.972264
657.714746	2593.199785
658.056753	2595.871597
658.398708	2587.437747
658.740612	2588.498909
659.082465	2590.807758
659.424266	2589.991091
659.766016	2585.131419
660.107715	2591.493355
660.449362	2591.299270
660.790958	2592.778849
661.132503	2590.974116
661.473996	2592.947728
661.815438	2590.341451
662.156829	2591.921853
662.498168	2590.883375
662.839456	2590.858169
663.180693	2590.127202
663.521879	2589.640731
663.863013	2590.522933
664.204097	2592.554518
664.545129	2591.800865
664.886110	2588.327510
665.227040	2590.855649
665.567918	2590.754826
665.908746	2589.492017
666.249522	2590.021338
666.590248	2589.048395
666.930922	2589.703745
667.271545	2590.447315
667.612118	2588.803899
667.952639	2587.858683
668.293109	2592.020155
668.633528	2587.846080
668.973896	2584.589495
669.314213	2589.774321
669.654480	2590.235587
669.994695	2586.215267
670.334859	2585.343147
670.674973	2587.256265
671.015035	2587.157963
671.355047	2588.181317
671.695008	2586.921028
672.034918	2584.128229
672.374777	2586.875658
672.714585	2586.449680
673.054342	2586.789958
673.394049	2585.295256
673.733705	2585.711151
674.073310	2586.558065
674.412864	2586.842890
674.752368	2583.049422
675.091820	2586.008579
675.431223	2585.789289
675.770574	2582.144535
676.109875	2580.748135
676.449125	2578.552713
676.788324	2578.850141
677.127473	2578.298135
677.466571	2575.623802
677.805619	2582.381469
678.144616	2580.047415
678.483562	2582.512539
678.822458	2578.847620
679.161303	2581.360636
679.500098	2578.262847
679.838842	2580.233938
680.177535	2582.338619
680.516179	2583.404823
680.854771	2578.088927
681.193314	2583.266192
681.531805	2582.608321
681.870247	2583.949268
682.208638	2584.735688
682.546978	2584.715523
682.885268	2585.784248
683.223508	2581.506829
683.561697	2582.913311
683.899836	2583.871130
684.237925	2582.182344
684.575963	2584.705441
684.913951	2580.294432
685.251889	2583.639237
685.589776	2579.684452
685.927614	2584.486151
686.265401	2581.005234
686.603137	2585.610328
686.940824	2579.966757
687.278460	2584.881882
687.616046	2585.138980
687.953582	2582.562951
688.291068	2583.674525
688.628504	2584.080338
688.965889	2582.457087
689.303224	2584.667632
689.640510	2582.842735
689.977745	2582.401634
690.314930	2580.677559
690.652065	2578.764441
690.989150	2576.702609
691.326185	2578.744277
691.663170	2576.004410
692.000105	2576.329564
692.336990	2574.010633
692.673825	2575.984245
693.010610	2574.764286
693.347345	2570.249932
693.684030	2568.540981
694.020665	2572.185736
694.357251	2567.915878
694.693786	2570.766651
695.030272	2569.332443
695.366707	2570.933009
695.703093	2573.027608
696.039429	2572.016857
696.375716	2568.956877
696.711952	2570.418811
697.048139	2568.268759
697.384276	2566.985785
697.720363	2569.524006
698.056400	2570.081054
698.392388	2567.905796
698.728326	2566.756413
699.064214	2569.035014
699.400053	2568.074675
699.735842	2567.862946
700.071581	2569.587021
700.407270	2567.905796
700.742910	2567.348748
701.078501	2565.138202
701.414042	2567.426886
701.749533	2565.513768
702.084974	2566.766495
702.420366	2564.324056
702.755709	2564.422359
703.091002	2561.992523
703.426246	2565.309602
703.761440	2568.064592
704.096584	2565.924622
704.431679	2564.447564
704.766725	2563.330949
705.101721	2564.760116
705.436668	2565.239026
705.771565	2564.140054
706.106413	2562.100907
706.441212	2565.722976
706.775961	2565.591906
707.110661	2566.141392
707.445311	2564.689540
707.779913	2564.951680
708.114465	2567.883111
708.448967	2564.160219
708.783421	2567.510065
709.117825	2565.755744
709.452180	2568.477967
709.786485	2568.616599
710.120742	2568.011660
710.454949	2568.977041
710.789107	2566.993347
711.123216	2565.012174
711.457275	2569.254305
711.791286	2566.632905
712.125247	2569.526527
712.459159	2571.568194
712.793023	2572.964594
713.126837	2568.677092
713.460602	2567.507545
713.794318	2570.791857
714.127985	2572.137845
714.461602	2566.776578
714.795171	2567.510065
715.128691	2565.977555
715.462162	2567.613409
715.795584	2566.491752
716.128957	2566.317832
716.462281	2565.372616
716.795556	2563.691391
717.128782	2565.344890
717.461960	2564.719787
717.795088	2561.521175
718.128167	2562.620146
718.461198	2562.524364
718.794180	2564.334138
719.127113	2559.592933
719.459997	2562.345403
719.792833	2560.840619
720.125619	2561.969837
720.458357	2560.666699
720.791046	2560.596123
721.123686	2561.979920
721.456278	2560.989333
721.788821	2559.066133
722.121315	2560.583520
722.453761	2558.783828
722.786158	2558.632593
723.118506	2558.239383
723.450805	2558.322562
723.783056	2560.298695
724.115259	2558.695608
724.447412	2558.118396
724.779518	2560.419682
725.111574	2557.621842
725.443582	2561.014539
725.775542	2558.740978
726.107453	2560.462532
726.439315	2559.643345
726.771129	2564.331618
727.102895	2559.877758
727.434612	2563.671227
727.766281	2560.714590
728.097901	2561.150650
728.429473	2559.166956
728.760996	2560.119734
729.092471	2556.991698
729.423897	2564.071998
729.755276	2560.218036
730.086606	2564.525702
730.417887	2563.840105
730.749120	2565.007132
731.080305	2565.470919
731.411442	2564.865980
731.742530	2564.442523
732.073570	2565.796073
732.404562	2565.055023
732.735506	2566.993347
733.066401	2565.513768
733.397249	2565.390260
733.728048	2562.499158
734.058798	2562.867163
734.389501	2561.576627
734.720156	2560.296174
735.050762	2559.789538
735.381320	2559.154353
735.711831	2559.164435
736.042293	2558.511606
736.372707	2558.965310
736.703073	2560.563355
737.033391	2556.260731
737.363661	2560.056719
737.693883	2557.276523
738.024056	2560.759960
738.354182	2559.421534
738.684260	2561.150650
739.014290	2559.096380
739.344272	2557.909188
739.674207	2560.359189
740.004093	2561.475804
740.333931	2561.299364
740.663722	2561.281720
740.993464	2562.491597
741.323159	2561.032183
741.652806	2561.821123
741.982405	2561.697615
742.311956	2557.667213
742.641460	2559.935732
742.970915	2558.186451
743.300323	2558.998077
743.629683	2557.233673
743.958996	2561.367419
744.288260	2556.008673
744.617477	2555.847356
744.946647	2552.089176
745.275768	2555.807027
745.604842	2551.146480
745.933869	2553.160421
746.262847	2549.961809
746.591778	2556.031358
746.920662	2556.878272
747.249498	2556.207798
747.578286	2555.035730
747.907027	2557.573951
748.235720	2553.755277
748.564365	2554.881975
748.892963	2554.892057
749.221514	2554.491286
749.550017	2556.462377
749.878473	2555.890206
750.206881	2554.390463
750.535242	2553.682180
750.863555	2557.110165
751.191821	2554.982798
751.520039	2555.985988
751.848210	2556.948848
752.176334	2554.082952
752.504411	2555.214691
752.832440	2555.665874
753.160421	2554.592109
753.488356	2554.158569
753.816243	2555.406255
754.144082	2554.778631
754.471875	2558.768705
754.799620	2552.313507
755.127318	2556.802655
755.454969	2555.035730
755.782572	2554.783672
756.110129	2551.892571
756.437638	2554.473642
756.765100	2554.390462
757.092515	2553.777962
757.419882	2553.238559
757.747203	2553.064639
758.074477	2555.083621
758.401703	2554.113199
758.728882	2554.720658
759.056014	2554.972716
759.383099	2554.244269
759.710138	2555.491955
760.037129	2557.203426
760.364073	2555.103786
760.690970	2555.524722
761.017820	2556.759805
761.344623	2555.381049
761.671379	2555.267623
761.998088	2553.856100
762.324751	2560.858263
762.651366	2560.001267
762.977935	2573.680438
763.304456	2578.237641
763.630931	2578.451890
763.957359	2577.869637
764.283740	2572.314285
764.610074	2566.965621
764.936362	2565.165929
765.262602	2560.180228
765.588796	2557.848694
765.914943	2557.848694
766.241044	2553.389793
766.567097	2553.117571
766.893104	2553.994732
767.219064	2551.436346
767.544978	2552.379042
767.870845	2554.345092
768.196665	2553.631769
768.522438	2554.050185
768.848165	2553.052036
769.173846	2551.020451
769.499479	2551.411141
769.825066	2551.141439
770.150607	2552.747046
770.476101	2548.421736
770.801548	2551.161603
771.126949	2550.405430
771.452303	2554.750905
771.777611	2548.154555
772.102872	2549.306459
772.428087	2549.089689
772.753256	2548.073897
773.078378	2546.107847
773.403453	2546.720347
773.728482	2546.682538
774.053465	2547.620193
774.378401	2549.273691
774.703291	2547.131201
775.028135	2548.164637
775.352932	2546.546427
775.677683	2548.134391
776.002388	2546.702703
776.327046	2546.649771
776.651658	2548.809905
776.976224	2547.778989
777.300743	2544.293031
777.625216	2543.751107
777.949643	2546.962322
778.274024	2547.010213
778.598359	2544.267826
778.922647	2541.943854
779.246889	2544.345963
779.571086	2540.912938
779.895236	2543.494008
780.219339	2546.576674
780.543397	2544.981149
780.867409	2544.759338
781.191374	2544.885367
781.515294	2545.770089
781.839167	2545.248330
782.162995	2546.090203
782.486776	2548.575492
782.810511	2543.640202
783.134201	2542.213555
783.457844	2546.848896
783.781441	2543.095757
784.104993	2545.684390
784.428498	2543.380583
784.751958	2544.227496
785.075372	2545.157589
785.398739	2544.708927
785.722061	2546.778320
786.045337	2548.900646
786.368568	2544.202291
786.691752	2543.672969
787.014891	2545.346632
787.337983	2546.526262
787.661030	2549.366953
787.984031	2549.457693
788.306987	2549.631613
788.629897	2549.787889
788.952760	2549.724875
789.275579	2549.200595
789.598351	2548.875440
789.921078	2545.414688
790.243759	2546.352343
790.566395	2548.058773
790.888984	2546.690100
791.211529	2545.311344
791.534027	2545.767569
791.856480	2546.501057
792.178888	2543.370500
792.501249	2544.595501
792.823566	2544.235058
793.145836	2546.107847
793.468062	2544.933258
793.790241	2543.539379
794.112375	2544.870243
794.434464	2543.635161
794.756507	2545.099616
795.078505	2546.838814
795.400457	2543.589790
795.722364	2541.772454
796.044226	2542.445448
796.366042	2543.693134
796.687812	2544.885367
797.009538	2548.197405
797.331218	2543.977959
797.652852	2548.358722
797.974442	2546.498536
798.295986	2546.138094
798.617484	2546.052394
798.938938	2543.672969
799.260346	2546.579195
799.581709	2544.303114
799.903026	2545.936447
800.224299	2544.819832
800.545526	2544.184647
800.866708	2546.498536
801.187845	2545.845707
801.508936	2543.304965
801.829983	2545.124822
802.150984	2542.352187
802.471940	2541.885880
802.792851	2544.829914
803.113717	2543.940151
803.434538	2544.005686
803.755314	2543.279759
804.076045	2545.787733
804.396731	2544.177085
804.717372	2543.998124
805.037967	2542.752959
805.358518	2542.624409
805.679024	2546.037271
805.999485	2539.493853
806.319901	2545.371838
806.640272	2541.906045
806.960598	2545.485264
807.280879	2544.290511
807.601115	2546.848896
807.921306	2545.926365
808.241453	2545.906201
808.561554	2545.185316
808.881611	2541.550644
809.201623	2544.008206
809.521590	2541.016281
809.841513	2539.710623
810.161390	2544.043494
810.481223	2542.760521
810.801011	2543.249512
811.120755	2541.807742
811.440453	2544.411498
811.760107	2542.609286
812.079716	2541.447300
812.399281	2542.510983
812.718801	2542.271529
813.038276	2538.157947
813.357707	2544.300593
813.677093	2542.921837
813.996434	2543.889739
814.315731	2544.721529
814.634983	2544.192208
814.954191	2544.731612
815.273354	2544.439225
815.592473	2541.986703
815.911547	2545.046684
816.230577	2543.476364
816.549562	2545.737322
816.868502	2544.829914
817.187399	2543.882177
817.506250	2543.972918
817.825058	2546.367466
818.143821	2543.582229
818.462539	2545.548279
818.781213	2546.246478
819.099843	2549.122457
819.418429	2548.585574
819.736970	2556.127140
820.055466	2553.286450
820.373919	2559.781977
820.692327	2562.171483
821.010691	2569.208934
821.329011	2587.132757
821.647286	2621.410082
821.965517	2663.261742
822.283704	2684.308559
822.601847	2692.533201
822.919945	2677.318999
823.237999	2653.381080
823.556010	2632.404839
823.873976	2611.841972
824.191897	2601.973914
824.509775	2587.306677
824.827609	2581.116140
825.145398	2575.447362
825.463144	2572.397464
825.780845	2578.882908
826.098502	2579.765110
826.416116	2592.587285
826.733685	2602.762854
827.051210	2607.350304
827.368692	2603.206476
827.686129	2590.442274
828.003522	2578.784606
828.320872	2569.801270
828.638177	2564.419838
828.955439	2555.633107
829.272656	2555.096224
829.589830	2547.700851
829.906960	2550.367622
830.224046	2549.719833
830.541088	2547.317724
830.858086	2547.161448
831.175041	2551.426264
831.491952	2547.123639
831.808819	2547.899977
832.125642	2547.728578
832.442421	2550.917107
832.759157	2554.897098
833.075849	2562.496638
833.392497	2568.871177
833.709101	2575.162537
834.025662	2575.490212
834.342179	2570.900241
834.658653	2564.404715
834.975083	2559.204764
835.291469	2561.937070
835.607811	2553.052036
835.924110	2551.481717
836.240366	2546.654812
836.556578	2545.316386
836.872746	2548.507436
837.188871	2546.198587
837.504952	2544.774462
837.820990	2541.033925
838.136984	2542.634492
838.452935	2539.856816
838.768842	2540.043339
839.084706	2542.942002
839.400526	2544.524924
839.716303	2550.712941
840.032037	2553.054557
840.347727	2554.430792
840.663373	2550.728064
840.978977	2547.121119
841.294537	2543.894780
841.610054	2541.653987
841.925527	2542.805891
842.240957	2541.729605
842.556344	2539.516538
842.871687	2539.627443
843.186987	2539.962680
843.502244	2538.495704
843.817458	2541.976621
844.132629	2537.613503
844.447756	2540.638195
844.762840	2532.713501
845.077881	2536.622916
845.392879	2534.356917
845.707833	2538.036959
846.022745	2532.317770
846.337613	2539.178781
846.652438	2537.220293
846.967221	2538.316743
847.281960	2538.226003
847.596656	2536.693492
847.911309	2535.786084
848.225919	2538.861188
848.540485	2537.913451
848.855009	2538.407484
849.169490	2536.418749
849.483928	2539.652649
849.798323	2536.287679
850.112675	2537.663914
850.426984	2539.932433
850.741251	2536.128883
851.055474	2537.676517
851.369654	2537.842875
851.683792	2534.467822
851.997887	2537.220293
852.311938	2537.283307
852.625947	2534.293903
852.939914	2538.331867
853.253837	2539.317413
853.567718	2536.073430
853.881555	2537.933616
854.195350	2536.925385
854.509103	2537.462268
854.822812	2536.774150
855.136479	2537.394212
855.450103	2535.352545
855.763685	2537.127031
856.077224	2536.862371
856.390720	2538.861188
856.704173	2534.629139
857.017584	2536.098636
857.330953	2537.830272
857.644278	2537.477391
857.957561	2537.719367
858.270802	2538.283976
858.584000	2536.610313
858.897155	2538.016795
859.210268	2537.066537
859.523339	2538.646939
859.836367	2537.164840
860.149352	2537.497556
860.462295	2539.597197
860.775195	2534.999664
861.088054	2533.021011
861.400869	2533.520086
861.713642	2533.784746
862.026373	2536.673327
862.339062	2536.413708
862.651708	2538.049562
862.964312	2534.331711
863.276873	2537.439583
863.589392	2537.038811
863.901869	2541.469985
864.214303	2538.440252
864.526696	2538.679707
864.839045	2537.255581
865.151353	2537.046373
865.463619	2537.767258
865.775842	2537.676517
866.088023	2537.855478
866.400162	2539.299768
866.712258	2538.064686
867.024313	2538.601569
867.336325	2538.228523
867.648296	2537.653832
867.960224	2537.711805
868.272110	2539.292207
868.583954	2540.242464
868.895755	2538.369676
869.207515	2539.854295
869.519233	2538.392361
869.830909	2539.302289
870.142542	2539.140972
870.454134	2540.406302
870.765684	2541.548123
871.077191	2538.092412
871.388657	2540.885211
871.700081	2536.567463
872.011463	2539.196425
872.322803	2540.197094
872.634101	2541.807742
872.945357	2538.803215
873.256571	2540.055942
873.567744	2540.388658
873.878874	2542.818494
874.189963	2542.069883
874.501010	2541.454862
874.812015	2540.930582
875.122979	2540.565098
875.433900	2542.745397
875.744780	2543.047866
876.055618	2538.067206
876.366415	2540.171888
876.677169	2541.129707
876.987882	2538.873791
877.298554	2536.307844
877.609183	2541.772454
877.919771	2536.975797
878.230317	2540.892773
878.540822	2545.359235
878.851285	2545.253371
879.161707	2547.418547
879.472087	2549.072045
879.782425	2553.828374
880.092722	2558.874569
880.402977	2574.237485
880.713191	2589.330700
881.023363	2612.207456
881.333494	2623.978550
881.643583	2630.108593
881.953631	2626.529374
882.263637	2625.211112
882.573602	2617.866151
882.883526	2604.922989
883.193408	2594.971751
883.503248	2583.896336
883.813048	2576.916858
884.122806	2573.945098
884.432522	2567.588203
884.742197	2562.274827
885.051831	2559.955896
885.361424	2554.521532
885.670975	2552.361398
885.980485	2549.324103
886.289954	2551.406099
886.599382	2548.010882
886.908768	2546.400234
887.218113	2544.789585
887.527417	2545.891077
887.836680	2544.792106
888.145901	2545.001313
888.455082	2541.396888
888.764221	2541.653987
889.073319	2543.516694
889.382376	2543.269677
889.691392	2541.124666
890.000366	2544.837476
890.309300	2540.527289
890.618193	2543.178936
890.927044	2541.991745
891.235855	2542.163144
891.544625	2540.557536
891.853353	2541.921168
892.162041	2542.999975
892.470687	2542.629451
892.779293	2546.649771
893.087858	2545.384441
893.396381	2544.154400
893.704864	2550.450801
894.013306	2551.743857
894.321707	2562.461350
894.630068	2566.693398
894.938387	2572.168092
895.246665	2570.713719
895.554903	2562.970506
895.863100	2560.011349
896.171256	2560.858263
896.479371	2553.737633
896.787446	2550.551624
897.095480	2543.771272
897.403473	2548.678835
897.711425	2547.131201
898.019336	2544.716488
898.327207	2543.816642
898.635038	2545.570964
898.942827	2544.129194
899.250576	2546.125491
899.558284	2544.164482
899.865952	2542.783206
900.173579	2543.088196
900.481165	2540.706250
900.788711	2543.420912
901.096216	2542.185829
901.403681	2541.346477
901.711105	2538.299099
902.018489	2539.753472
902.325832	2543.748587
902.633135	2540.673483
902.940397	2543.005017
903.247619	2545.316386
903.554800	2553.513302
903.861941	2562.995712
904.169041	2576.848803
904.476101	2581.920204
904.783121	2582.540266
905.090100	2574.963411
905.397039	2566.398491
905.703938	2561.367419
906.010796	2555.749053
906.317614	2552.754608
906.624391	2550.657488
906.931129	2544.736653
907.237826	2545.253371
907.544483	2543.330171
907.851099	2543.206663
908.157675	2541.774975
908.464211	2538.382278
908.770707	2534.573687
909.077163	2533.565456
909.383578	2534.152750
909.689954	2533.769623
909.996289	2533.880528
910.302584	2538.231044
910.608839	2536.892617
910.915054	2536.527134
911.221229	2539.173740
911.527363	2539.395550
911.833458	2537.086702
912.139513	2537.424459
912.445527	2537.298430
912.751502	2537.220292
913.057436	2537.926054
913.363331	2537.084181
913.669186	2538.767927
913.975000	2543.357897
914.280775	2543.577188
914.586510	2547.710934
914.892205	2551.912735
915.197859	2556.008673
915.503475	2562.728531
915.809050	2572.357135
916.114585	2575.863257
916.420081	2578.976170
916.725536	2576.576581
917.030952	2574.900397
917.336328	2568.253636
917.641665	2563.532595
917.946961	2560.432285
918.252218	2556.079249
918.557435	2554.161090
918.862612	2549.785368
919.167750	2549.049360
919.472848	2544.761859
919.777906	2544.923176
920.082925	2545.129863
920.387904	2541.124666
920.692843	2540.134079
920.997743	2541.210366
921.302603	2538.810777
921.607423	2537.348842
921.912204	2538.856147
922.216946	2538.150385
922.521647	2538.283976
922.826310	2537.502597
923.130932	2537.908410
923.435516	2535.604603
923.740059	2536.466640
924.044564	2536.753986
924.349028	2537.341280
924.653454	2532.796680
924.957840	2533.527647
925.262186	2530.437420
925.566493	2535.791125
925.870761	2529.865249
926.174989	2535.370189
926.479178	2535.465971
926.783328	2536.368338
927.087438	2534.321629
927.391509	2533.638553
927.695541	2532.224509
927.999533	2534.107380
928.303486	2533.862884
928.607400	2532.474046
928.911275	2531.501103
929.215110	2533.333563
929.518906	2531.327184
929.822663	2531.702750
930.126381	2535.339942
930.430060	2533.812473
930.733699	2535.397915
931.037299	2534.608975
931.340861	2532.811803
931.644383	2535.448327
931.947866	2529.925743
932.251309	2533.220137
932.554714	2534.971938
932.858080	2536.181815
933.161407	2530.853315
933.464694	2533.905734
933.767943	2532.952956
934.071153	2531.725435
934.374323	2533.305837
934.677455	2534.694674
934.980548	2533.252904
935.283602	2533.968748
935.586617	2530.346679
935.889593	2532.272400
936.192530	2530.339117
936.495428	2535.347504
936.798287	2534.087215
937.101108	2532.186700
937.403890	2532.766433
937.706632	2535.292051
938.009336	2534.311547
938.312002	2537.656352
938.614628	2533.583100
938.917216	2538.241126
939.219765	2536.247350
939.522275	2537.369007
939.824747	2538.651980
940.127179	2536.847247
940.429573	2532.950435
940.731929	2534.465302
941.034246	2531.062523
941.336524	2536.000333
941.638763	2535.135775
941.940964	2534.624098
942.243126	2536.161650
942.545250	2533.701567
942.847335	2533.517565
943.149381	2532.317770
943.451389	2534.727442
943.753359	2531.488501
944.055290	2533.169725
944.357182	2532.685775
944.659036	2534.195600
944.960851	2533.446989
945.262628	2534.636701
945.564367	2535.229037
945.866067	2532.552184
946.167729	2532.499252
946.469352	2532.637884
946.770937	2531.758202
947.072484	2531.856505
947.373992	2532.133768
947.675462	2532.521937
947.976893	2531.904396
948.278286	2530.739889
948.579641	2532.814324
948.880958	2533.825075
949.182236	2532.900024
949.483476	2528.030269
949.784678	2533.585621
950.085841	2532.466484
950.386967	2533.177287
950.688054	2533.326001
950.989103	2533.542771
951.290114	2534.198121
951.591087	2534.072092
951.892021	2532.726104
952.192917	2535.483615
952.493776	2533.026052
952.794596	2535.987730
953.095378	2531.566638
953.396122	2535.047555
953.696828	2532.809283
953.997496	2534.273738
954.298126	2533.071423
954.598718	2533.394057
954.899272	2535.334901
955.199788	2534.314067
955.500266	2533.467153
955.800706	2529.870290
956.101108	2527.861390
956.401472	2531.891793
956.701798	2526.409538
957.002087	2525.658406
957.302337	2533.217616
957.602550	2529.945907
957.902724	2530.228212
958.202861	2530.437420
958.502960	2530.024045
958.803022	2532.342976
959.103045	2532.577390
959.403031	2530.926412
959.702979	2532.554705
960.002889	2529.081350
960.302762	2527.732841
960.602596	2531.758202
960.902393	2529.282996
961.202153	2529.615712
961.501875	2526.180166
961.801559	2531.695188
962.101205	2529.557739
962.400814	2530.124868
962.700385	2529.741741
962.999918	2528.388191
963.299414	2528.080681
963.598873	2529.333407
963.898293	2527.594209
964.197677	2528.483973
964.497022	2528.630166
964.796331	2532.234591
965.095601	2527.324507
965.394835	2528.927594
965.694030	2530.061854
965.993189	2528.990609
966.292309	2527.695032
966.591393	2529.214940
966.890439	2529.189734
967.189447	2529.918181
967.488419	2530.674354
967.787353	2527.994981
968.086249	2531.019673
968.385108	2528.741072
968.683930	2528.872142
968.982714	2530.283665
969.281462	2528.791483
969.580172	2529.081350
969.878844	2527.974816
970.177480	2528.945238
970.476078	2528.443644
970.774639	2531.591844
971.073162	2525.701256
971.371649	2525.378622
971.670098	2526.873324
971.968510	2525.502130
972.266885	2523.808303
972.565223	2527.667306
972.863524	2529.976154
973.161788	2529.388860
973.460014	2530.404653
973.758204	2528.849457
974.056356	2529.487162
974.354471	2530.986906
974.652550	2529.255269
974.950591	2526.860721
975.248595	2528.194107
975.546563	2530.860877
975.844493	2526.802748
976.142386	2526.442306
976.440243	2529.056144
976.738062	2530.823068
977.035845	2527.989940
977.333590	2527.753006
977.631299	2527.168232
977.928971	2532.700898
978.226606	2529.277955
978.524204	2530.349200
978.821765	2528.877183
979.119290	2528.020187
979.416777	2531.009591
979.714228	2527.649662
980.011642	2527.992460
980.309020	2531.916999
980.606360	2530.732328
980.903664	2530.470188
981.200931	2527.768129
981.498162	2527.170752
981.795356	2528.733510
982.092513	2528.433561
982.389633	2529.285516
982.686717	2527.541277
982.983764	2531.763243
983.280775	2530.843233
983.577749	2530.946577
983.874686	2532.708460
984.171587	2532.932791
984.468451	2533.605785
984.765279	2528.791483
985.062070	2532.095960
985.358824	2528.640249
985.655543	2530.434899
985.952224	2529.792152
986.248869	2529.598068
986.545478	2527.274096
986.842050	2526.031452
987.138586	2521.764115
987.435086	2523.830988
987.731549	2524.141019
988.027975	2531.402801
988.324366	2528.357944
988.620719	2528.178983
988.917037	2527.586648
989.213318	2530.409694
989.509563	2527.818541
989.805772	2527.987419
990.101944	2527.173273
990.398080	2527.616894
990.694180	2528.786442
990.990244	2527.067409
991.286271	2527.664785
991.582262	2528.163860
991.878217	2529.318284
992.174136	2530.175280
992.470019	2528.299971
992.765865	2525.774353
993.061676	2528.925074
993.357450	2525.759229
993.653188	2525.774353
993.948890	2529.918181
994.244556	2526.036493
994.540186	2529.519930
994.835780	2525.255114
995.131337	2528.259642
995.426859	2528.632687
995.722345	2528.496576
996.017795	2529.214940
996.313208	2529.552698
996.608586	2530.150074
996.903928	2530.911288
997.199234	2527.707635
997.494504	2529.121679
997.789738	2524.788807
998.084936	2530.611340
998.380099	2525.121523
998.675225	2527.664785
998.970316	2528.985568
999.265371	2528.662934
999.560390	2526.626308
999.855373	2527.090094
1000.150320	2525.779394
1000.445232	2527.931967
1000.740108	2527.735362
1001.034948	2526.404497
1001.329752	2527.004394
1001.624521	2529.656041
1001.919254	2521.398631
1002.213951	2523.445340
1002.508613	2524.264527
1002.803239	2526.553211
1003.097829	2525.577748
1003.392384	2527.178314
1003.686903	2527.594209
1003.981386	2526.832995
1004.275834	2525.580268
1004.570246	2528.224353
1004.864623	2527.329549
1005.158964	2527.455578
1005.453270	2527.576565
1005.747540	2527.561442
1006.041775	2523.677233
1006.335974	2529.000691
1006.630138	2525.975999
1006.924266	2527.014477
1007.218359	2527.931967
1007.512416	2526.938859
1007.806438	2528.814168
1008.100425	2527.100176
1008.394376	2526.424662
1008.688292	2528.617563
1008.982172	2524.002387
1009.276017	2529.144364
1009.569827	2526.570855
1009.863602	2529.746782
1010.157341	2524.698066
1010.451045	2528.229395
1010.744714	2528.526823
1011.038347	2526.248221
1011.331945	2525.741585
1011.625508	2528.083201
1011.919036	2525.696215
1012.212528	2527.755526
1012.505986	2525.706297
1012.799408	2527.863911
1013.092795	2526.633869
1013.386147	2528.420958
1013.679464	2525.250073
1013.972745	2528.703263
1014.265992	2526.374250
1014.559204	2527.816020
1014.852380	2527.962213
1015.145521	2526.661596
1015.438628	2526.588499
1015.731699	2528.327697
1016.024736	2528.441123
1016.317737	2526.921215
1016.610703	2527.518592
1016.903635	2521.247397
1017.196531	2523.188241
1017.489393	2524.970289
1017.782219	2523.135309
1018.075011	2524.025072
1018.367768	2526.160001
1018.660490	2528.151257
1018.953177	2528.151257
1019.245829	2528.151257
