Dividing Wavelength (nm)	Counts (n)	Blue Motor Position (mm): 0.000000	Red Motor Position (mm): 7.900000	
326.493990	2129.174177
326.888308	2129.174177
327.282561	2129.174177
327.676750	2096.018508
328.070874	2095.310226
328.464933	2097.165370
328.858929	2101.964549
329.252859	2114.131374
329.646726	2125.993209
330.040528	2138.835548
330.434265	2152.744092
330.827938	2173.014571
331.221547	2189.368074
331.615091	2208.942875
332.008571	2228.769733
332.401986	2247.903432
332.795338	2267.780702
333.188625	2286.710234
333.581847	2306.237144
333.975006	2323.525781
334.368100	2341.615962
334.761129	2359.469208
335.154095	2377.561909
335.546996	2393.756616
335.939833	2406.989645
336.332606	2422.097983
336.725315	2437.223965
337.117960	2443.906014
337.510540	2453.511933
337.903056	2464.093315
338.295508	2472.784264
338.687896	2481.492857
339.080220	2485.845894
339.472480	2494.446102
339.864676	2498.874756
340.256807	2503.310971
340.648875	2506.880108
341.040879	2512.266581
341.432818	2510.048473
341.824694	2510.960922
342.216506	2510.678617
342.608253	2512.450583
342.999937	2511.611231
343.391557	2512.367404
343.783113	2510.953360
344.174605	2509.763648
344.566033	2510.678617
344.957397	2508.576456
345.348697	2504.810714
345.739934	2503.920951
346.131106	2504.019253
346.522215	2503.492453
346.913260	2498.847029
347.304241	2496.069354
347.695159	2493.006853
348.086012	2492.391832
348.476802	2491.353354
348.867528	2492.787562
349.258191	2488.149701
349.648789	2488.038796
350.039324	2484.716675
350.429796	2488.638693
350.820203	2483.726088
351.210548	2483.537045
351.600828	2483.957982
351.991045	2480.751808
352.381198	2476.391210
352.771288	2481.182826
353.161314	2477.091930
353.551276	2482.609473
353.941175	2480.482106
354.331010	2480.204842
354.720782	2480.787096
355.110490	2480.981180
355.500135	2482.180975
355.889717	2480.121663
356.279235	2481.165182
356.668689	2481.828094
357.058080	2479.473875
357.447408	2480.018320
357.836672	2477.739718
358.225873	2481.792806
358.615010	2479.189050
359.004084	2482.007055
359.393095	2482.639720
359.782043	2484.976295
360.170927	2483.476551
360.559748	2486.614670
360.948505	2482.816160
361.337199	2489.873776
361.725830	2486.120637
362.114398	2488.426964
362.502903	2487.053250
362.891344	2489.319249
363.279722	2486.571820
363.668037	2487.900164
364.056289	2489.553662
364.444478	2491.701194
364.832603	2490.892089
365.220665	2489.825885
365.608665	2489.258755
365.996601	2492.389311
366.384474	2491.756647
366.772284	2494.993067
367.160031	2496.235712
367.547715	2496.699498
367.935336	2500.467760
368.322893	2502.272493
368.710388	2505.062772
369.097820	2512.518639
369.485189	2513.491581
369.872495	2519.256141
370.259738	2528.536905
370.646918	2534.177956
371.034035	2541.394368
371.421090	2549.238403
371.808081	2559.897923
372.195010	2570.358317
372.581875	2581.774010
372.968678	2595.057451
373.355418	2604.625561
373.742096	2623.976030
374.128710	2636.072278
374.515262	2651.525935
374.901751	2661.895589
375.288177	2669.469922
375.674540	2693.811134
376.060841	2704.178267
376.447079	2716.561861
376.833254	2732.317987
377.219367	2736.958370
377.605417	2766.154212
377.991404	2768.442896
378.377329	2776.695265
378.763191	2781.499484
379.148991	2806.392702
379.534727	2817.251347
379.920402	2829.334993
380.306013	2828.389777
380.691563	2856.133767
381.077049	2856.983202
381.462474	2860.156608
381.847835	2866.926878
382.233134	2867.239429
382.618371	2855.092769
383.003545	2877.896428
383.388657	2869.591127
383.773706	2867.620036
384.158693	2861.968903
384.543618	2854.762573
384.928480	2854.969261
385.313280	2857.504961
385.698017	2839.084585
386.082692	2843.656911
386.467305	2823.837615
386.851856	2813.263795
387.236344	2805.119811
387.620770	2793.893161
388.005133	2782.686676
388.389435	2771.066817
388.773674	2754.383118
389.157851	2744.429360
389.541965	2732.267576
389.926018	2708.543906
390.310008	2702.602906
390.693936	2690.834332
391.077802	2679.874864
391.461606	2663.307112
391.845348	2655.238745
392.229027	2643.565953
392.612645	2630.895013
392.996200	2626.428551
393.379694	2616.714247
393.763125	2610.553957
394.146494	2596.340424
394.529801	2591.516040
394.913047	2583.906418
395.296230	2570.398647
395.679351	2569.599624
396.062410	2556.853066
396.445408	2549.460214
396.828343	2545.414688
397.211217	2533.681402
397.594028	2531.848943
397.976778	2527.697553
398.359466	2530.260980
398.742092	2524.509023
399.124656	2519.760256
399.507158	2523.389887
399.889598	2523.783097
400.271977	2520.395442
400.654294	2521.154135
401.036549	2516.365039
401.418742	2518.520132
401.800874	2516.395286
402.182944	2516.105420
402.564952	2514.766993
402.946898	2518.154649
403.328783	2515.228259
403.710606	2516.871675
404.092367	2516.047446
404.474067	2517.176665
404.855705	2514.046108
405.237282	2516.183557
405.618797	2514.656088
406.000250	2515.442508
406.381642	2516.410409
406.762972	2514.348577
407.144240	2515.606345
407.525447	2519.243538
407.906593	2517.763959
408.287677	2517.758918
408.668700	2516.307066
409.049661	2518.341171
409.430560	2517.262364
409.811399	2517.108609
410.192176	2516.130625
410.572891	2519.752694
410.953545	2514.585512
411.334138	2514.940913
411.714669	2516.337313
412.095139	2514.852693
412.475547	2517.930317
412.855894	2519.006604
413.236180	2516.793537
413.616405	2518.172293
413.996568	2520.208919
414.376670	2519.966943
414.756711	2519.815709
415.136691	2516.896881
415.516609	2517.711027
415.896466	2517.133815
416.276262	2518.683970
416.655997	2514.764473
417.035670	2515.548372
417.415283	2519.319155
417.794834	2517.403517
418.174324	2517.839577
418.553753	2522.782428
418.933121	2519.356964
419.312428	2519.067098
419.691674	2522.376615
420.070859	2520.085411
420.449983	2518.943589
420.829045	2525.119003
421.208047	2518.820081
421.586988	2520.808816
421.965867	2522.159845
422.344686	2521.597757
422.723444	2523.951976
423.102141	2523.989784
423.480777	2521.680936
423.859352	2524.516585
424.237866	2521.948117
424.616319	2520.650020
424.994712	2522.701769
425.373044	2523.498272
425.751314	2521.151615
426.129524	2521.043230
426.507673	2525.817203
426.885762	2524.262007
427.263789	2525.348375
427.641756	2523.513395
428.019662	2522.979033
428.397508	2521.915349
428.775292	2522.807634
429.153016	2522.290915
429.530679	2525.058509
429.908282	2524.559435
430.285824	2526.268386
430.663305	2524.554393
431.040726	2521.396111
431.418086	2524.398118
431.795385	2524.808972
432.172624	2525.794517
432.549802	2524.564476
432.926920	2524.929959
433.303977	2522.880730
433.680974	2526.089425
434.057910	2523.462984
434.434786	2524.418282
434.811601	2526.207892
435.188355	2524.624970
435.565050	2523.677233
435.941683	2525.224867
436.318257	2524.289733
436.694770	2521.015503
437.071222	2525.471883
437.447614	2521.960720
437.823946	2523.185720
438.200218	2524.083046
438.576429	2526.510361
438.952580	2526.737213
439.328670	2527.697553
439.704700	2525.108920
440.080670	2527.329549
440.456580	2525.706297
440.832429	2528.909950
441.208218	2527.054806
441.583947	2526.984230
441.959616	2527.793335
442.335224	2528.133613
442.710773	2528.471370
443.086261	2527.586647
443.461689	2527.904240
443.837057	2525.431554
444.212365	2529.076308
444.587612	2527.601771
444.962800	2530.810465
445.337927	2531.138140
445.712995	2528.889786
446.088002	2530.944056
446.462949	2529.673685
446.837837	2528.524302
447.212664	2528.468849
447.587431	2527.362316
447.962139	2528.995650
448.336786	2532.990764
448.711374	2532.640404
449.085901	2531.279293
449.460369	2530.510517
449.834776	2533.005888
450.209124	2529.698891
450.583412	2530.321473
450.957640	2531.929602
451.331808	2531.551515
451.705917	2532.063192
452.079965	2529.121679
452.453954	2529.789632
452.827883	2528.773839
453.201752	2530.694519
453.575562	2529.378778
453.949311	2529.502286
454.323001	2528.932636
454.696632	2530.460105
455.070202	2528.791483
455.443713	2530.916330
455.817164	2527.964734
456.190556	2527.884076
456.563888	2529.091432
456.937160	2527.755526
457.310373	2530.669313
457.683526	2532.610157
458.056619	2530.858356
458.429653	2533.580579
458.802628	2528.776360
459.175542	2531.745599
459.548398	2533.862884
459.921194	2531.478418
460.293930	2531.773326
460.666607	2535.203831
461.039224	2534.054448
461.411782	2533.295754
461.784280	2533.933460
462.156719	2533.172246
462.529099	2534.210724
462.901419	2532.955476
463.273680	2533.235260
463.645882	2532.834489
464.018024	2533.673841
464.390106	2533.285672
464.762130	2537.651311
465.134094	2535.536547
465.505999	2533.333563
465.877845	2537.071578
466.249631	2535.985210
466.621358	2536.756506
466.993026	2536.877494
467.364634	2540.181970
467.736184	2536.869932
468.107674	2535.418080
468.479105	2536.247350
468.850477	2532.292565
469.221790	2537.792463
469.593043	2532.247194
469.964238	2535.337422
470.335373	2536.819521
470.706449	2532.703419
471.077467	2533.946063
471.448425	2537.386651
471.819324	2535.715508
472.190164	2536.388502
472.560945	2536.819521
472.931667	2538.374717
473.302330	2535.007226
473.672934	2533.479756
474.043479	2535.372710
474.413965	2533.598223
474.784393	2532.579910
475.154761	2532.779036
475.525070	2532.854653
475.895321	2530.898686
476.265513	2529.487163
476.635645	2534.291382
477.005719	2536.199459
477.375734	2531.662420
477.745691	2537.648791
478.115588	2536.713657
478.485427	2538.105015
478.855207	2536.307844
479.224928	2537.096784
479.594591	2535.309695
479.964194	2537.850437
480.333739	2535.319778
480.703226	2536.534696
481.072653	2540.214738
481.442022	2538.820859
481.811333	2539.357742
482.180584	2535.728111
482.549777	2535.425642
482.918912	2536.801877
483.287988	2539.483771
483.657005	2536.655683
484.025964	2539.241795
484.394864	2536.532175
484.763706	2539.561908
485.132489	2537.426980
485.501213	2537.910931
485.869879	2539.108205
486.238487	2536.718698
486.607036	2541.815304
486.975527	2537.837834
487.343959	2537.913451
487.712333	2541.026364
488.080648	2538.462937
488.448905	2540.980993
488.817104	2537.106867
489.185244	2536.350693
489.553326	2538.042001
489.921350	2540.882691
490.289315	2540.802032
490.657222	2538.757844
491.025070	2541.522917
491.392861	2540.237423
491.760593	2540.660880
492.128267	2540.136600
492.495883	2539.226672
492.863440	2538.415046
493.230939	2539.577032
493.598380	2538.828421
493.965763	2534.364479
494.333088	2538.289017
494.700354	2533.015970
495.067563	2539.577032
495.434713	2533.729293
495.801805	2541.364121
496.168839	2541.371683
496.535815	2538.329346
496.902733	2538.878832
497.269593	2537.404295
497.636395	2540.272711
498.003139	2539.375386
498.369825	2540.494522
498.736453	2538.105015
499.103023	2540.544933
499.469535	2538.462937
499.835989	2539.766075
500.202385	2538.175591
500.568723	2538.752803
500.935003	2539.115766
501.301226	2537.590817
501.667390	2539.763555
502.033497	2540.567619
502.399546	2540.804553
502.765537	2538.588966
503.131470	2538.669624
503.497345	2538.843544
503.863163	2541.744728
504.228923	2543.151210
504.594625	2541.832948
504.960269	2540.887732
505.325856	2538.034439
505.691385	2540.920499
506.056856	2542.624409
506.422270	2539.219110
506.787625	2541.487629
507.152924	2539.355221
507.518164	2541.754810
507.883347	2538.183153
508.248472	2539.456044
508.613540	2542.725233
508.978550	2540.509645
509.343503	2540.771785
509.708398	2540.698689
510.073236	2543.322609
510.438016	2541.293545
510.802738	2540.539892
511.167403	2541.076775
511.532010	2538.498225
511.896561	2544.093906
512.261053	2540.676003
512.625488	2537.096784
512.989866	2535.760878
513.354186	2539.803884
513.718449	2536.320447
514.082655	2540.819676
514.446803	2540.837320
514.810894	2542.064841
515.174927	2542.110212
515.538904	2540.403781
515.902822	2541.429656
516.266684	2541.749769
516.630488	2540.784388
516.994235	2538.989738
517.357925	2540.716333
517.721558	2543.322609
518.085133	2540.207176
518.448651	2541.651467
518.812112	2543.622558
519.175516	2539.690458
519.538863	2540.643236
519.902152	2539.692978
520.265385	2544.403937
520.628560	2542.092568
520.991678	2538.135262
521.354739	2539.203987
521.717743	2540.867567
522.080690	2543.108360
522.443580	2539.844213
522.806413	2542.609286
523.169189	2541.825387
523.531908	2539.571991
523.894569	2542.712630
524.257174	2542.634492
524.619722	2542.891591
524.982213	2541.296065
525.344647	2542.349667
525.707025	2543.375541
526.069345	2539.962680
526.431608	2542.705068
526.793815	2542.301776
527.155964	2541.958977
527.518057	2542.148020
527.880093	2542.568957
528.242072	2543.005017
528.603995	2542.276570
528.965860	2542.274049
529.327669	2543.022661
529.689421	2542.450490
530.051117	2543.189019
530.412755	2540.751621
530.774337	2541.883360
531.135862	2543.178936
531.497331	2542.546272
531.858743	2539.514017
532.220098	2538.909079
532.581396	2538.137782
532.942638	2542.929399
533.303824	2541.303627
533.664953	2543.821683
534.026025	2539.917310
534.387040	2540.925541
534.747999	2541.931251
535.108902	2538.432690
535.469748	2544.691283
535.830537	2540.953267
536.191270	2541.490150
536.551947	2541.117104
536.912567	2541.016281
537.273131	2543.778834
537.633638	2542.236241
537.994089	2541.767413
538.354483	2539.755993
538.714821	2543.108360
539.075103	2540.706250
539.435328	2543.367980
539.795497	2541.255736
540.155609	2543.272198
540.515665	2543.899821
540.875665	2543.809081
541.235609	2544.572815
541.595496	2542.175747
541.955328	2541.485109
542.315102	2542.783206
542.674821	2542.274049
543.034483	2542.110212
543.394090	2543.836807
543.753640	2542.077444
544.113134	2539.902186
544.472571	2542.546272
544.831953	2542.100129
545.191278	2544.648433
545.550548	2542.642053
545.909761	2542.591642
546.268918	2542.253885
546.628019	2542.505942
546.987064	2541.525438
547.346053	2544.303114
547.704986	2544.167003
548.063863	2541.795140
548.422684	2544.151879
548.781449	2542.130376
549.140158	2541.966539
549.498811	2543.509132
549.857408	2542.783206
550.215949	2541.013761
550.574434	2541.616179
550.932864	2539.355221
551.291237	2538.730118
551.649555	2541.785057
552.007817	2539.819007
552.366022	2544.587939
552.724173	2543.526776
553.082267	2545.729760
553.440305	2544.547610
553.798288	2542.639533
554.156215	2545.732281
554.514086	2545.318906
554.871902	2541.348997
555.229661	2543.526776
555.587365	2545.260933
555.945014	2544.293031
556.302606	2543.327650
556.660143	2545.152548
557.017625	2543.660367
557.375050	2543.567105
557.732421	2542.024512
558.089735	2545.848227
558.446994	2543.985521
558.804197	2543.872095
559.161345	2541.447300
559.518437	2542.412681
559.875474	2544.033412
560.232455	2542.964687
560.589381	2543.320089
560.946251	2546.349822
561.303065	2540.686086
561.659825	2547.194215
562.016528	2544.529966
562.373177	2543.846889
562.729770	2543.504091
563.086307	2547.277394
563.442789	2544.182126
563.799216	2544.396375
564.155587	2544.479554
564.511904	2543.274718
564.868164	2545.356715
565.224370	2544.958464
565.580520	2542.674821
565.936615	2543.670449
566.292654	2543.640202
566.648638	2544.635830
567.004567	2547.375697
567.360441	2543.604914
567.716260	2544.618186
568.072023	2541.038967
568.427732	2541.830428
568.783385	2541.853113
569.138982	2540.786909
569.494525	2539.025026
569.850013	2538.689789
570.205445	2545.112219
570.560823	2545.283618
570.916145	2542.122815
571.271412	2541.394368
571.626625	2546.438042
571.981782	2541.406971
572.336884	2542.702547
572.691931	2544.782023
573.046923	2545.172713
573.401860	2539.803884
573.756743	2546.238917
574.111570	2541.863195
574.466342	2545.505429
574.821059	2543.393185
575.175722	2542.203473
575.530330	2543.688093
575.884882	2543.292362
576.239380	2544.890408
576.593823	2543.209183
576.948211	2541.301107
577.302544	2544.968546
577.656823	2542.402599
578.011047	2544.577857
578.365216	2544.514842
578.719330	2542.843700
579.073389	2546.259081
579.427394	2542.989893
579.781344	2541.351518
580.135239	2547.257230
580.489080	2544.746735
580.842866	2543.015099
581.196597	2544.552651
581.550273	2541.895963
581.903895	2543.370500
582.257463	2544.930737
582.610975	2542.407640
582.964434	2542.649615
583.317837	2544.590459
583.671186	2542.818494
584.024481	2544.436704
584.377721	2542.868905
584.730906	2541.774975
585.084037	2543.088196
585.437113	2543.458720
585.790135	2544.436704
586.143103	2544.950902
586.496016	2545.104657
586.848874	2540.713812
587.201679	2542.755479
587.554428	2540.035777
587.907124	2542.208514
588.259765	2538.586445
588.612352	2542.047197
588.964884	2542.815973
589.317362	2542.483257
589.669786	2543.919986
590.022155	2542.626930
590.374470	2542.851261
590.726731	2544.950902
591.078937	2540.905376
591.431090	2541.364121
591.783188	2543.375541
592.135232	2545.023999
592.487222	2543.519214
592.839157	2542.357228
593.191038	2541.553164
593.542866	2542.717671
593.894639	2546.032229
594.246358	2545.518032
594.598022	2542.180788
594.949633	2545.114739
595.301190	2543.713299
595.652692	2542.412681
596.004141	2542.309337
596.355535	2545.994421
596.706876	2543.798998
597.058162	2540.071065
597.409395	2542.311858
597.760573	2543.476364
598.111698	2542.329502
598.462768	2543.839327
598.813785	2540.698689
599.164748	2543.494008
599.515657	2542.916796
599.866511	2540.474357
600.217312	2542.090047
600.568060	2541.517876
600.918753	2545.054246
601.269392	2542.848741
601.619978	2543.020140
601.970510	2544.046015
602.320988	2543.723381
602.671412	2545.127342
603.021783	2541.467465
603.372100	2541.139790
603.722363	2540.451672
604.072572	2542.503422
604.422728	2541.936292
604.772830	2537.358924
605.122878	2537.583256
605.472872	2539.592155
605.822813	2537.046373
606.172701	2538.528472
606.522534	2540.867567
606.872314	2542.183308
607.222041	2542.092568
607.571714	2542.589121
607.921333	2543.037784
608.270899	2541.500232
608.620411	2541.984183
608.969870	2544.056097
609.319276	2542.969728
609.668627	2545.893598
610.017926	2549.117416
610.367171	2551.418702
610.716362	2550.317210
611.065500	2548.749411
611.414585	2546.102806
611.763616	2545.245809
612.112594	2543.509132
612.461518	2543.315048
612.810389	2544.678680
613.159207	2543.957795
613.507971	2543.483926
613.856682	2543.133566
614.205340	2543.161292
614.553945	2544.517363
614.902496	2542.263967
615.250994	2546.848896
615.599439	2542.790768
615.947830	2540.290355
616.296169	2544.169523
616.644454	2543.252033
616.992686	2541.278421
617.340864	2543.078113
617.688990	2543.791437
618.037063	2540.071065
618.385082	2542.195911
618.733048	2543.594832
619.080961	2544.303114
619.428821	2544.169523
619.776628	2543.980480
620.124382	2542.798329
620.472083	2541.202804
620.819731	2543.211704
621.167326	2539.156096
621.514868	2542.936961
621.862357	2541.124666
622.209793	2542.712630
622.557176	2542.337064
622.904506	2542.362269
623.251783	2536.706095
623.599007	2539.609799
623.946179	2538.420087
624.293297	2536.897659
624.640363	2540.983514
624.987376	2544.353525
625.334336	2540.469316
625.681243	2540.713812
626.028097	2541.608617
626.374899	2541.210366
626.721647	2537.457227
627.068343	2540.179450
627.414987	2541.434697
627.761577	2542.664739
628.108115	2540.159285
628.454600	2538.213400
628.801032	2540.134079
629.147412	2540.615510
629.493739	2543.312527
629.840014	2542.669780
630.186236	2539.541744
630.532405	2542.689944
630.878521	2543.889739
631.224585	2540.373534
631.570597	2541.522917
631.916556	2541.880839
632.262462	2539.519059
632.608316	2540.212217
632.954117	2540.219779
633.299866	2543.199101
633.645562	2542.231199
633.991206	2542.994934
634.336797	2540.827238
634.682336	2540.819676
635.027823	2540.023174
635.373257	2539.481250
635.718639	2539.607279
636.063968	2542.027033
636.409245	2540.640715
636.754470	2540.350849
637.099642	2538.591486
637.444762	2541.709440
637.789829	2540.000489
638.134845	2540.809594
638.479808	2538.462937
638.824719	2541.366642
639.169577	2541.656508
639.514383	2537.981507
639.859137	2542.110212
640.203839	2541.840510
640.548489	2538.208359
640.893086	2538.180632
641.237632	2536.161650
641.582125	2534.810621
641.926566	2533.262987
642.270955	2540.187012
642.615292	2539.524100
642.959576	2539.617361
643.303809	2539.730787
643.647990	2539.927392
643.992118	2540.585263
644.336195	2541.066693
644.680219	2540.093750
645.024192	2538.437731
645.368112	2539.529141
645.711981	2539.259439
646.055797	2541.487629
646.399562	2539.647608
646.743274	2538.609130
647.086935	2541.490150
647.430544	2541.853113
647.774101	2538.203318
648.117606	2540.701209
648.461059	2538.838503
648.804460	2543.461241
649.147810	2541.240613
649.491108	2536.716177
649.834354	2540.628113
650.177548	2542.495860
650.520690	2541.691796
650.863781	2539.771116
651.206820	2540.938143
651.549807	2539.743390
651.892742	2540.620551
652.235626	2538.548637
652.578458	2541.729605
652.921238	2537.671476
653.263967	2542.251364
653.606644	2538.059645
653.949269	2543.693134
654.291843	2537.585776
654.634365	2537.784902
654.976836	2536.670807
655.319255	2538.011754
655.661622	2541.323792
656.003938	2540.010571
656.346203	2541.951415
656.688416	2535.559232
657.030577	2540.116435
657.372687	2538.684748
657.714746	2538.140303
658.056753	2539.718184
658.398708	2534.576207
658.740612	2537.308513
659.082465	2535.813811
659.424266	2537.426980
659.766016	2534.717360
660.107715	2542.324461
660.449362	2536.088553
660.790958	2540.683565
661.132503	2537.520241
661.473996	2539.892104
661.815438	2539.892104
662.156829	2538.188194
662.498168	2539.027546
662.839456	2538.415046
663.180693	2537.933616
663.521879	2540.577701
663.863013	2538.651980
664.204097	2538.556198
664.545129	2538.165509
664.886110	2540.928061
665.227040	2542.687424
665.567918	2541.820345
665.908746	2538.810777
666.249522	2542.359749
666.590248	2540.708771
666.930922	2539.327495
667.271545	2537.031249
667.612118	2538.530992
667.952639	2540.759182
668.293109	2538.102494
668.633528	2538.024357
668.973896	2537.472350
669.314213	2538.069727
669.654480	2536.176774
669.994695	2537.270704
670.334859	2539.950077
670.674973	2537.351363
671.015035	2539.675334
671.355047	2536.360776
671.695008	2540.058462
672.034918	2536.146527
672.374777	2540.134079
672.714585	2537.593338
673.054342	2539.758513
673.394049	2536.219623
673.733705	2540.736497
674.073310	2538.651980
674.412864	2538.485622
674.752368	2539.682896
675.091820	2538.841023
675.431223	2537.666435
675.770574	2541.938813
676.109875	2534.387164
676.449125	2536.512010
676.788324	2536.333049
677.127473	2537.608461
677.466571	2532.272400
677.805619	2538.674665
678.144616	2536.814480
678.483562	2535.337422
678.822458	2538.982176
679.161303	2537.540406
679.500098	2537.348842
679.838842	2539.690458
680.177535	2539.415715
680.516179	2534.316588
680.854771	2535.833975
681.193314	2537.875642
681.531805	2537.608461
681.870247	2537.179963
682.208638	2535.987730
682.546978	2540.784388
682.885268	2538.883873
683.223508	2536.998482
683.561697	2534.054448
683.899836	2538.029398
684.237925	2537.333718
684.575963	2536.209541
684.913951	2537.580735
685.251889	2540.335726
685.589776	2538.082330
685.927614	2538.977135
686.265401	2536.955632
686.603137	2539.682896
686.940824	2540.338246
687.278460	2538.082330
687.616046	2539.193904
687.953582	2536.877494
688.291068	2536.925385
688.628504	2537.280786
688.965889	2539.556867
689.303224	2538.044521
689.640510	2538.505787
689.977745	2536.385982
690.314930	2538.180632
690.652065	2538.107536
690.989150	2539.476209
691.326185	2540.270191
691.663170	2537.628626
692.000105	2536.156609
692.336990	2537.268183
692.673825	2537.321116
693.010610	2537.200128
693.347345	2534.848430
693.684030	2533.792308
694.020665	2538.263811
694.357251	2532.746268
694.693786	2538.047042
695.030272	2538.125180
695.366707	2536.161650
695.703093	2538.732639
696.039429	2538.641898
696.375716	2536.519572
696.711952	2538.049562
697.048139	2537.817669
697.384276	2539.032587
697.720363	2535.907072
698.056400	2539.985365
698.392388	2538.215920
698.728326	2540.169367
699.064214	2537.389171
699.400053	2538.263811
699.735842	2535.874304
700.071581	2538.830941
700.407270	2534.888759
700.742910	2536.849768
701.078501	2535.816331
701.414042	2534.767771
701.749533	2537.641229
702.084974	2536.481763
702.420366	2534.558563
702.755709	2538.415046
703.091002	2538.074768
703.426246	2537.225334
703.761440	2534.263656
704.096584	2536.670807
704.431679	2536.176774
704.766725	2538.021836
705.101721	2537.590817
705.436668	2537.525282
705.771565	2536.103677
706.106413	2538.934285
706.441212	2537.550488
706.775961	2539.992927
707.110661	2535.685261
707.445311	2537.711805
707.779913	2538.273894
708.114465	2539.836651
708.448967	2537.600900
708.783421	2538.462937
709.117825	2533.346166
709.452180	2538.982176
709.786485	2535.314736
710.120742	2536.897659
710.454949	2536.985879
710.789107	2534.954294
711.123216	2535.813811
711.457275	2535.309695
711.791286	2530.311391
712.125247	2533.545291
712.459159	2537.805066
712.793023	2537.794984
713.126837	2538.122659
713.460602	2535.929757
713.794318	2534.964376
714.127985	2539.261960
714.461602	2538.263811
714.795171	2539.642567
715.128691	2537.414377
715.462162	2536.842206
715.795584	2537.479912
716.128957	2537.840354
716.462281	2535.889428
716.795556	2537.515200
717.128782	2535.062679
717.461960	2538.616692
717.795088	2535.327339
718.128167	2538.515869
718.461198	2536.002854
718.794180	2537.754655
719.127113	2536.305323
719.459997	2537.404295
719.792833	2533.764582
720.125619	2540.512166
720.458357	2535.196269
720.791046	2536.229706
721.123686	2535.763399
721.456278	2535.932278
721.788821	2532.922709
722.121315	2536.517052
722.453761	2535.077802
722.786158	2536.638039
723.118506	2534.732483
723.450805	2533.878008
723.783056	2536.118800
724.115259	2537.263142
724.447412	2534.430014
724.779518	2536.108718
725.111574	2535.569315
725.443582	2535.665097
725.775542	2536.922864
726.107453	2535.667617
726.439315	2535.914634
726.771129	2545.752445
727.102895	2534.654345
727.434612	2539.629964
727.766281	2536.431352
728.097901	2535.649973
728.429473	2532.952956
728.760996	2534.319108
729.092471	2529.464477
729.423897	2539.277083
729.755276	2535.289531
730.086606	2538.155427
730.417887	2537.253060
730.749120	2534.747607
731.080305	2536.849768
731.411442	2537.283307
731.742530	2535.173584
732.073570	2536.179294
732.404562	2535.619726
732.735506	2537.933616
733.066401	2535.329860
733.397249	2535.642411
733.728048	2535.365148
734.058798	2535.854140
734.389501	2536.643080
734.720156	2537.389171
735.050762	2538.856147
735.381320	2534.926567
735.711831	2533.913296
736.042293	2537.605941
736.372707	2535.534027
736.703073	2534.256094
737.033391	2538.677186
737.363661	2535.922195
737.693883	2536.408667
738.024056	2537.729449
738.354182	2534.152750
738.684260	2535.624767
739.014290	2538.188194
739.344272	2532.085877
739.674207	2535.881866
740.004093	2535.299613
740.333931	2536.988399
740.663722	2536.262473
740.993464	2535.375230
741.323159	2535.801208
741.652806	2536.736342
741.982405	2537.820190
742.311956	2534.185518
742.641460	2536.943029
742.970915	2537.109387
743.300323	2537.817669
743.629683	2537.159799
743.958996	2537.550488
744.288260	2533.111752
744.617477	2536.506969
744.946647	2531.193593
745.275768	2534.409849
745.604842	2530.160157
745.933869	2533.883049
746.262847	2531.017153
746.591778	2532.983203
746.920662	2538.014274
747.249498	2535.488656
747.578286	2536.791794
747.907027	2537.915972
748.235720	2537.545447
748.564365	2540.708771
748.892963	2535.095446
749.221514	2535.181146
749.550017	2535.944881
749.878473	2534.177956
750.206881	2534.495549
750.535242	2535.198790
750.863555	2534.717360
751.191821	2533.908254
751.520039	2533.953625
751.848210	2534.629139
752.176334	2533.875487
752.504411	2535.350024
752.832440	2535.186187
753.160421	2535.153419
753.488356	2535.730632
753.816243	2535.150899
754.144082	2534.815662
754.471875	2534.727442
754.799620	2535.183666
755.127318	2533.918337
755.454969	2532.973120
755.782572	2533.794828
756.110129	2536.045704
756.437638	2533.593182
756.765100	2536.607792
757.092515	2533.492359
757.419882	2533.673841
757.747203	2533.784746
758.074477	2535.871784
758.401703	2534.861033
758.728882	2533.401618
759.056014	2532.632842
759.383099	2535.012267
759.710138	2533.971269
760.037129	2535.561753
760.364073	2535.027391
760.690970	2535.506300
761.017820	2537.258101
761.344623	2534.687113
761.671379	2534.263656
761.998088	2532.547143
762.324751	2533.225178
762.651366	2532.443799
762.977935	2534.543440
763.304456	2529.847605
763.630931	2539.677855
763.957359	2534.359438
764.283740	2535.985210
764.610074	2536.244829
764.936362	2536.416228
765.262602	2536.517052
765.588796	2532.269879
765.914943	2534.576207
766.241044	2534.543440
766.567097	2533.895652
766.893104	2535.367668
767.219064	2534.818183
767.544978	2532.690816
767.870845	2532.199303
768.196665	2536.257432
768.522438	2530.848274
768.848165	2534.714839
769.173846	2536.469161
769.499479	2535.992772
769.825066	2532.474046
770.150607	2535.902031
770.476101	2532.131248
770.801548	2536.985879
771.126949	2534.301464
771.452303	2534.997144
771.777611	2533.769623
772.102872	2533.502442
772.428087	2530.838192
772.753256	2534.326670
773.078378	2532.902544
773.403453	2533.499921
773.728482	2532.632842
774.053465	2531.748120
774.378401	2533.903213
774.703291	2533.068902
775.028135	2533.257946
775.352932	2532.829447
775.677683	2534.039324
776.002388	2532.645445
776.327046	2533.946063
776.651658	2534.553522
776.976224	2533.958666
777.300743	2535.657535
777.625216	2535.680220
777.949643	2535.574356
778.274024	2533.812472
778.598359	2532.229550
778.922647	2528.683098
779.246889	2531.468336
779.571086	2530.881042
779.895236	2534.528316
780.219339	2534.828265
780.543397	2532.257277
780.867409	2534.117462
781.191374	2533.759540
781.515294	2535.791125
781.839167	2530.883562
782.162995	2532.098480
782.486776	2533.361289
782.810511	2533.762061
783.134201	2535.586959
783.457844	2534.351876
783.781441	2534.283820
784.104993	2533.908254
784.428498	2536.428831
784.751958	2534.523275
785.075372	2533.701567
785.398739	2532.932791
785.722061	2533.822555
786.045337	2532.519417
786.368568	2534.208203
786.691752	2532.572349
787.014891	2536.025539
787.337983	2531.780888
787.661030	2535.085364
787.984031	2535.400436
788.306987	2533.956145
788.629897	2531.712832
788.952760	2534.745086
789.275579	2534.558563
789.598351	2533.421783
789.921078	2534.671989
790.243759	2531.178470
790.566395	2533.620909
790.888984	2533.464633
791.211529	2532.126207
791.534027	2534.339273
791.856480	2532.869777
792.178888	2532.710980
792.501249	2534.190559
792.823566	2534.193080
793.145836	2531.150743
793.468062	2531.959848
793.790241	2532.020342
794.112375	2533.026052
794.434464	2533.963707
794.756507	2533.091587
795.078505	2532.363141
795.400457	2529.613191
795.722364	2529.192255
796.044226	2529.993798
796.366042	2530.475229
796.687812	2530.145033
797.009538	2534.412370
797.331218	2532.683254
797.652852	2536.776671
797.974442	2535.022349
798.295986	2531.309540
798.617484	2533.429345
798.938938	2533.124355
799.260346	2536.517052
799.581709	2530.979344
799.903026	2534.246012
800.224299	2535.052596
800.545526	2531.417924
800.866708	2533.749458
801.187845	2532.358100
801.508936	2531.957328
801.829983	2530.868439
802.150984	2534.215765
802.471940	2533.870446
802.792851	2534.891279
803.113717	2531.087729
803.434538	2532.680733
803.755314	2534.495549
804.076045	2534.886238
804.396731	2535.433203
804.717372	2534.145189
805.037967	2532.826927
805.358518	2530.918850
805.679024	2533.744417
805.999485	2532.516896
806.319901	2535.402957
806.640272	2532.559746
806.960598	2533.711649
807.280879	2532.789118
807.601115	2532.413552
807.921306	2533.313398
808.241453	2533.898172
808.561554	2534.717360
808.881611	2534.114942
809.201623	2532.587472
809.521590	2532.552184
809.841513	2532.700898
810.161390	2534.382123
810.481223	2531.123017
810.801011	2533.046217
811.120755	2531.009591
811.440453	2534.470343
811.760107	2533.056299
812.079716	2527.879034
812.399281	2527.732841
812.718801	2530.989426
813.038276	2525.887779
813.357707	2531.715353
813.677093	2531.007070
813.996434	2535.675179
814.315731	2535.264325
814.634983	2535.352545
814.954191	2532.378264
815.273354	2535.357586
815.592473	2529.711494
815.911547	2532.151412
816.230577	2533.300795
816.549562	2535.052596
816.868502	2531.932122
817.187399	2531.879190
817.506250	2534.185518
817.825058	2533.434386
818.143821	2533.618388
818.462539	2532.781557
818.781213	2532.700898
819.099843	2533.159643
819.418429	2533.520086
819.736970	2535.045035
820.055466	2532.635363
820.373919	2533.023532
820.692327	2532.819365
821.010691	2534.064530
821.329011	2534.853471
821.647286	2538.195756
821.965517	2539.082999
822.283704	2543.446117
822.601847	2544.119112
822.919945	2541.396888
823.237999	2538.200797
823.556010	2538.263811
823.873976	2537.794984
824.191897	2537.520241
824.509775	2534.036804
824.827609	2533.966228
825.145398	2532.927750
825.463144	2532.355579
825.780845	2531.755682
826.098502	2537.459747
826.416116	2533.031094
826.733685	2534.177956
827.051210	2535.019829
827.368692	2533.767102
827.686129	2533.772143
828.003522	2536.716177
828.320872	2529.832482
828.638177	2530.616381
828.955439	2528.509179
829.272656	2530.883562
829.589830	2530.790301
829.906960	2532.559746
830.224046	2528.942718
830.541088	2532.325332
830.858086	2532.380785
831.175041	2529.293078
831.491952	2531.291896
831.808819	2534.533357
832.125642	2534.566125
832.442421	2532.209386
832.759157	2529.557739
833.075849	2534.309026
833.392497	2532.675692
833.709101	2538.525951
834.025662	2533.356248
834.342179	2533.734335
834.658653	2532.582431
834.975083	2532.441279
835.291469	2537.699202
835.607811	2534.913965
835.924110	2534.787936
836.240366	2530.293747
836.556578	2533.232740
836.872746	2532.506814
837.188871	2533.189890
837.504952	2530.898686
837.820990	2530.762574
838.136984	2526.386853
838.452935	2532.574869
838.768842	2531.773326
839.084706	2533.144520
839.400526	2530.845753
839.716303	2533.799870
840.032037	2531.586803
840.347727	2532.965559
840.663373	2530.639066
840.978977	2530.961700
841.294537	2530.003881
841.610054	2532.378264
841.925527	2532.446320
842.240957	2531.649818
842.556344	2532.864736
842.871687	2528.947759
843.186987	2532.191742
843.502244	2530.051772
843.817458	2534.074613
844.132629	2531.952287
844.447756	2530.603778
844.762840	2528.305012
845.077881	2528.584796
845.392879	2525.262676
845.707833	2531.054961
846.022745	2526.326359
846.337613	2529.146885
846.652438	2532.201824
846.967221	2531.344828
847.281960	2527.435413
847.596656	2534.893800
847.911309	2528.456247
848.225919	2530.187883
848.540485	2529.822399
848.855009	2530.868439
849.169490	2534.432534
849.483928	2531.916999
849.798323	2532.085877
850.112675	2531.196114
850.426984	2531.440610
850.741251	2529.590506
851.055474	2529.043541
851.369654	2531.201155
851.683792	2530.954138
851.997887	2528.557070
852.311938	2530.404652
852.625947	2531.982534
852.939914	2530.623943
853.253837	2532.143851
853.567718	2526.558252
853.881555	2530.888603
854.195350	2528.851977
854.509103	2531.324663
854.822812	2531.435568
855.136479	2530.442461
855.450103	2530.906247
855.763685	2530.646628
856.077224	2528.698222
856.390720	2531.543953
856.704173	2529.134282
857.017584	2528.617563
857.330953	2529.033459
857.644278	2532.095960
857.957561	2535.281969
858.270802	2532.809283
858.584000	2527.057326
858.897155	2528.972965
859.210268	2530.568490
859.523339	2534.072092
859.836367	2530.528161
860.149352	2529.605630
860.462295	2533.169725
860.775195	2525.681091
861.088054	2526.722090
861.400869	2530.122348
861.713642	2524.577079
862.026373	2529.068747
862.339062	2530.860877
862.651708	2531.770805
862.964312	2531.112935
863.276873	2530.323994
863.589392	2530.835671
863.901869	2529.333407
864.214303	2531.511186
864.526696	2532.718542
864.839045	2530.956659
865.151353	2529.338448
865.463619	2531.090249
865.775842	2530.349200
866.088023	2533.721732
866.400162	2532.169056
866.712258	2528.610002
867.024313	2530.744930
867.336325	2529.656041
867.648296	2531.317101
867.960224	2529.378778
868.272110	2530.530681
868.583954	2530.820548
868.895755	2530.288706
869.207515	2528.952800
869.519233	2530.886083
869.830909	2530.606299
870.142542	2530.576052
870.454134	2530.349200
870.765684	2531.712832
871.077191	2531.559077
871.388657	2530.203006
871.700081	2529.908099
872.011463	2530.245856
872.322803	2531.415404
872.634101	2532.083357
872.945357	2528.720907
873.256571	2530.402132
873.567744	2531.037317
873.878874	2532.466484
874.189963	2529.774508
874.501010	2531.395239
874.812015	2532.206865
875.122979	2530.187883
875.433900	2528.342821
875.744780	2533.394057
876.055618	2531.541433
876.366415	2533.452030
876.677169	2531.092770
876.987882	2528.980527
877.298554	2526.170083
877.609183	2528.620084
877.919771	2526.676719
878.230317	2528.057995
878.540822	2534.314067
878.851285	2528.695701
879.161707	2532.063192
879.472087	2530.893644
879.782425	2530.611340
880.092722	2531.778367
880.402977	2532.148892
880.713191	2533.941022
881.023363	2533.207534
881.333494	2536.108718
881.643583	2532.915147
881.953631	2535.579397
882.263637	2532.451361
882.573602	2534.366999
882.883526	2534.835827
883.193408	2533.812473
883.503248	2532.557225
883.813048	2532.741227
884.122806	2531.528830
884.432522	2531.745599
884.742197	2527.866432
885.051831	2532.703419
885.361424	2534.563604
885.670975	2531.548994
885.980485	2529.214940
886.289954	2532.773995
886.599382	2530.457585
886.908768	2528.680578
887.218113	2529.640918
887.527417	2531.296937
887.836680	2529.935825
888.145901	2529.633356
888.455082	2528.630166
888.764221	2529.698891
889.073319	2531.140661
889.382376	2531.274252
889.691392	2529.729138
890.000366	2533.280631
890.309300	2528.330218
890.618193	2529.174611
890.927044	2530.623943
891.235855	2529.913140
891.544625	2530.911288
891.853353	2529.514889
892.162041	2530.558408
892.470687	2530.908768
892.779293	2531.087729
893.087858	2529.091432
893.396381	2526.467511
893.704864	2528.012625
894.013306	2525.731503
894.321707	2531.473377
894.630068	2530.679395
894.938387	2532.113604
895.246665	2533.527647
895.554903	2530.865918
895.863100	2532.388347
896.171256	2528.831812
896.479371	2532.010260
896.787446	2532.612678
897.095480	2529.656041
897.403473	2527.513551
897.711425	2529.726617
898.019336	2530.588655
898.327207	2531.377595
898.635038	2530.886083
898.942827	2529.892975
899.250576	2530.127389
899.558284	2531.990095
899.865952	2530.039169
900.173579	2528.985568
900.481165	2528.199148
900.788711	2529.976154
901.096216	2531.052441
901.403681	2528.935156
901.711105	2529.313243
902.018489	2529.981196
902.325832	2534.016639
902.633135	2526.659075
902.940397	2528.453726
903.247619	2529.751823
903.554800	2530.661751
903.861941	2530.238294
904.169041	2531.259128
904.476101	2531.211237
904.783121	2532.363141
905.090100	2528.257121
905.397039	2530.961700
905.703938	2529.832482
906.010796	2529.469518
906.317614	2529.913140
906.624391	2531.470857
906.931129	2529.769467
907.237826	2528.446164
907.544483	2529.598068
907.851099	2530.644107
908.157675	2527.841226
908.464211	2530.066895
908.770707	2525.444157
909.077163	2524.690505
909.383578	2527.324507
909.689954	2525.421472
909.996289	2525.487007
910.302584	2527.508510
910.608839	2529.141843
910.915054	2529.121679
911.221229	2529.746782
911.527363	2530.702081
911.833458	2529.668644
912.139513	2531.695188
912.445527	2528.294930
912.751502	2531.110414
913.057436	2530.059333
913.363331	2529.640918
913.669186	2528.922553
913.975000	2527.780732
914.280775	2530.712163
914.586510	2529.658562
914.892205	2530.104704
915.197859	2529.519930
915.503475	2531.876669
915.809050	2533.406660
916.114585	2531.516227
916.420081	2532.053110
916.725536	2529.802235
917.030952	2530.384488
917.336328	2531.561597
917.641665	2533.890610
917.946961	2532.171577
918.252218	2529.300640
918.557435	2530.379447
918.862612	2527.400125
919.167750	2527.702594
919.472848	2529.550177
919.777906	2530.883562
920.082925	2529.746782
920.387904	2529.267872
920.692843	2528.526823
920.997743	2529.154446
921.302603	2528.365506
921.607423	2530.739889
921.912204	2528.453726
922.216946	2529.877852
922.521647	2529.182173
922.826310	2529.530012
923.130932	2530.639066
923.435516	2528.894827
923.740059	2529.608150
924.044564	2525.333252
924.349028	2530.639066
924.653454	2528.015146
924.957840	2527.899199
925.262186	2525.681091
925.566493	2526.936339
925.870761	2523.314270
926.174989	2528.887265
926.479178	2527.604292
926.783328	2530.621422
927.087438	2530.361803
927.391509	2529.451874
927.695541	2528.151257
927.999533	2531.647297
928.303486	2527.468180
928.607400	2528.935156
928.911275	2530.180321
929.215110	2529.419107
929.518906	2527.979857
929.822663	2529.323325
930.126381	2528.410876
930.430060	2529.219981
930.733699	2527.092614
931.037299	2530.286185
931.340861	2530.049251
931.644383	2527.901720
931.947866	2525.671009
932.251309	2528.284847
932.554714	2529.189734
932.858080	2530.316432
933.161407	2528.862059
933.464694	2525.539939
933.767943	2526.880886
934.071153	2526.608664
934.374323	2526.091945
934.677455	2529.661082
934.980548	2528.040351
935.283602	2527.173273
935.586617	2527.382481
935.889593	2529.136802
936.192530	2529.179652
936.495428	2527.105217
936.798287	2526.359127
937.101108	2528.647810
937.403890	2528.625125
937.706632	2531.445651
938.009336	2529.456916
938.312002	2528.146216
938.614628	2529.073788
938.917216	2531.884231
939.219765	2530.021525
939.522275	2529.023376
939.824747	2531.473377
940.127179	2523.717562
940.429573	2526.573376
940.731929	2527.190917
941.034246	2525.277799
941.336524	2526.563293
941.638763	2528.909950
941.940964	2528.584796
942.243126	2526.172604
942.545250	2526.472553
942.847335	2527.448016
943.149381	2528.985568
943.451389	2528.385670
943.753359	2531.201155
944.055290	2530.208048
944.357182	2529.716535
944.659036	2528.725948
944.960851	2529.706453
945.262628	2529.346010
945.564367	2528.453726
945.866067	2528.224353
946.167729	2528.930115
946.469352	2527.989940
946.770937	2530.182842
947.072484	2527.024559
947.373992	2528.211751
947.675462	2527.521112
947.976893	2526.636390
948.278286	2527.468180
948.579641	2527.246370
948.880958	2526.850639
949.182236	2529.582944
949.483476	2529.582944
949.784678	2526.701925
950.085841	2526.850639
950.386967	2527.440454
950.688054	2526.568334
950.989103	2528.158818
951.290114	2527.614374
951.591087	2526.568334
951.892021	2528.730989
952.192917	2529.797193
952.493776	2526.480114
952.794596	2528.559590
953.095378	2526.409538
953.396122	2526.956503
953.696828	2526.500279
953.997496	2529.540095
954.298126	2531.143182
954.598718	2527.160670
954.899272	2527.334590
955.199788	2528.105886
955.500266	2530.273582
955.800706	2526.114631
956.101108	2521.834691
956.401472	2525.746626
956.701798	2521.570030
957.002087	2527.458098
957.302337	2528.085722
957.602550	2524.829136
957.902724	2527.521113
958.202861	2525.799558
958.502960	2527.405166
958.803022	2530.250897
959.103045	2526.331400
959.403031	2529.207378
959.702979	2529.252749
960.002889	2528.998171
960.302762	2530.228212
960.602596	2529.136802
960.902393	2528.927594
961.202153	2527.821061
961.501875	2527.072450
961.801559	2526.744775
962.101205	2526.593540
962.400814	2526.530526
962.700385	2528.819210
962.999918	2524.932480
963.299414	2526.487676
963.598873	2530.036648
963.898293	2531.254087
964.197677	2527.662265
964.497022	2528.010104
964.796331	2527.586648
965.095601	2524.372912
965.394835	2528.226874
965.694030	2528.877183
965.993189	2527.158149
966.292309	2525.623118
966.591393	2528.189065
966.890439	2527.884076
967.189447	2528.486493
967.488419	2526.500279
967.787353	2527.632018
968.086249	2527.621936
968.385108	2527.977337
968.683930	2529.930784
968.982714	2528.166380
969.281462	2527.087573
969.580172	2526.280989
969.878844	2525.318128
970.177480	2529.799714
970.476078	2527.871473
970.774639	2528.960362
971.073162	2524.700587
971.371649	2525.378622
971.670098	2523.468025
971.968510	2524.302336
972.266885	2520.662623
972.565223	2525.993643
972.863524	2524.511544
973.161788	2526.492717
973.460014	2526.298633
973.758204	2526.429703
974.056356	2527.574045
974.354471	2525.371060
974.652550	2527.707635
974.950591	2527.634538
975.248595	2526.273427
975.546563	2526.812830
975.844493	2527.213602
976.142386	2526.535567
976.440243	2528.970444
976.738062	2527.226205
977.035845	2527.390043
977.333590	2527.390042
977.631299	2526.381812
977.928971	2526.608664
978.226606	2525.867614
978.524204	2528.426000
978.821765	2527.747964
979.119290	2527.352234
979.416777	2528.766278
979.714228	2526.296112
980.011642	2524.652696
980.309020	2530.147554
980.606360	2525.237470
980.903664	2527.437933
981.200931	2525.933149
981.498162	2525.239990
981.795356	2525.310567
982.092513	2527.601771
982.389633	2525.610515
982.686717	2528.088242
982.983764	2529.247708
983.280775	2526.472552
983.577749	2526.321318
983.874686	2526.769981
984.171587	2526.810310
984.468451	2524.877027
984.765279	2526.223015
985.062070	2527.904240
985.358824	2527.231246
985.655543	2528.090763
985.952224	2528.428520
986.248869	2526.807789
986.545478	2522.444671
986.842050	2523.727644
987.138586	2523.163035
987.435086	2525.555063
987.731549	2523.631862
988.027975	2528.489014
988.324366	2528.546987
988.620719	2528.526823
988.917037	2527.067409
989.213318	2526.732172
989.509563	2525.600433
989.805772	2527.014477
990.101944	2525.050947
990.398080	2524.667819
990.694180	2527.659744
990.990244	2526.744775
991.286271	2527.914322
991.582262	2525.784435
991.878217	2526.999353
992.174136	2528.983047
992.470019	2526.459950
992.765865	2526.681760
993.061676	2528.269724
993.357450	2528.761236
993.653188	2527.543798
993.948890	2526.762419
994.244556	2526.001205
994.540186	2526.230577
994.835780	2527.077491
995.131337	2529.494724
995.426859	2526.238139
995.722345	2525.718900
996.017795	2526.386853
996.313208	2525.791997
996.608586	2524.859383
996.903928	2526.626308
997.199234	2527.437933
997.494504	2526.495238
997.789738	2527.972296
998.084936	2526.177645
998.380099	2527.016997
998.675225	2526.923736
998.970316	2528.456247
999.265371	2526.419620
999.560390	2526.054137
999.855373	2528.332738
1000.150320	2527.937008
1000.445232	2527.937008
1000.740108	2528.579755
1001.034948	2527.062368
1001.329752	2526.593540
1001.624521	2528.047913
1001.919254	2521.844773
1002.213951	2521.365864
1002.508613	2524.451050
1002.803239	2522.580782
1003.097829	2520.740761
1003.392384	2527.122861
1003.686903	2526.769981
1003.981386	2528.095804
1004.275834	2526.717048
1004.570246	2528.027748
1004.864623	2523.427696
1005.158964	2526.696884
1005.453270	2526.691843
1005.747540	2524.264527
1006.041775	2524.360309
1006.335974	2525.091276
1006.630138	2527.100176
1006.924266	2523.200844
1007.218359	2527.221164
1007.512416	2527.309384
1007.806438	2526.800228
1008.100425	2530.450023
1008.394376	2527.236287
1008.688292	2526.308715
1008.982172	2524.309898
1009.276017	2525.981040
1009.569827	2525.537418
1009.863602	2528.148736
1010.157341	2526.888448
1010.451045	2525.355937
1010.744714	2528.121010
1011.038347	2527.203520
1011.331945	2523.722603
1011.625508	2526.248221
1011.919036	2526.076822
1012.212528	2526.772501
1012.505986	2526.633869
1012.799408	2528.483973
1013.092795	2526.951462
1013.386147	2527.614374
1013.679464	2525.721421
1013.972745	2526.951462
1014.265992	2525.945752
1014.559204	2526.729651
1014.852380	2526.865762
1015.145521	2526.714528
1015.438628	2525.572707
1015.731699	2526.444826
1016.024736	2528.310053
1016.317737	2528.539426
1016.610703	2527.695032
1016.903635	2524.372912
1017.196531	2523.659589
1017.489393	2524.385515
1017.782219	2523.258817
1018.075011	2524.259486
1018.367768	2525.429034
1018.660490	2525.764270
1018.953177	2525.764270
1019.245829	2525.764270
