Dividing Wavelength (nm)	Counts (n)	Blue Motor Position (mm): 0.000000	Red Motor Position (mm): 34.500000	
326.493990	2129.738786
326.888308	2129.738786
327.282561	2129.738786
327.676750	2096.131934
328.070874	2093.291244
328.464933	2094.483477
328.858929	2103.469333
329.252859	2111.774634
329.646726	2125.138733
330.040528	2139.354787
330.434265	2156.381284
330.827938	2171.081289
331.221547	2190.625842
331.615091	2209.363811
332.008571	2228.063971
332.401986	2248.780593
332.795338	2267.432862
333.188625	2286.531273
333.581847	2304.089612
333.975006	2323.571151
334.368100	2341.961281
334.761129	2359.602798
335.154095	2375.406816
335.546996	2397.202244
335.939833	2415.554565
336.332606	2428.659044
336.725315	2440.757814
337.117960	2451.853393
337.510540	2461.678602
337.903056	2471.196301
338.295508	2480.499750
338.687896	2487.937973
339.080220	2497.450630
339.472480	2500.268635
339.864676	2506.055879
340.256807	2512.284225
340.648875	2511.459996
341.040879	2518.842766
341.432818	2517.058198
341.824694	2517.728671
342.216506	2518.789834
342.608253	2519.709845
342.999937	2520.115658
343.391557	2521.297808
343.783113	2518.270595
344.174605	2517.753877
344.566033	2515.737415
344.957397	2517.111130
345.348697	2511.734739
345.739934	2511.611231
346.131106	2508.952022
346.522215	2509.294821
346.913260	2506.640653
347.304241	2503.351300
347.695159	2503.537823
348.086012	2500.314005
348.476802	2503.124448
348.867528	2499.693943
349.258191	2494.967862
349.648789	2497.692605
350.039324	2491.766729
350.429796	2493.634476
350.820203	2492.580875
351.210548	2491.711276
351.600828	2489.641882
351.991045	2488.704228
352.381198	2489.455360
352.771288	2487.973261
353.161314	2490.314877
353.551276	2488.817654
353.941175	2487.370843
354.331010	2488.008549
354.720782	2487.887561
355.110490	2487.098620
355.500135	2488.379073
355.889717	2490.193889
356.279235	2489.316728
356.668689	2489.513333
357.058080	2487.673312
357.447408	2488.290853
357.836672	2487.595174
358.225873	2488.673981
358.615010	2486.350009
359.004084	2491.865031
359.393095	2491.413848
359.782043	2492.386791
360.170927	2494.766215
360.559748	2494.201606
360.948505	2495.091370
361.337199	2494.055413
361.725830	2495.182111
362.114398	2496.447440
362.502903	2497.773264
362.891344	2498.055568
363.279722	2498.640342
363.668037	2499.051196
364.056289	2501.680158
364.444478	2503.197545
364.832603	2500.770230
365.220665	2501.314674
365.608665	2503.507576
365.996601	2505.309789
366.384474	2506.428925
366.772284	2506.801970
367.160031	2505.992865
367.547715	2510.308093
367.935336	2511.540655
368.322893	2514.666170
368.710388	2518.588188
369.097820	2522.850483
369.485189	2528.121010
369.872495	2536.481763
370.259738	2539.569470
370.646918	2548.247817
371.034035	2554.183775
371.421090	2564.772719
371.808081	2574.169430
372.195010	2583.548496
372.581875	2598.039293
372.968678	2610.869030
373.355418	2621.626852
373.742096	2640.150572
374.128710	2654.527942
374.515262	2670.513441
374.901751	2683.297808
375.288177	2698.335569
375.674540	2720.385576
376.060841	2737.903586
376.447079	2757.349837
376.833254	2778.197529
377.219367	2792.826957
377.605417	2829.708039
377.991404	2837.237002
378.377329	2860.937987
378.763191	2876.580687
379.148991	2914.545617
379.534727	2939.917744
379.920402	2969.700881
380.306013	2975.188177
380.691563	3029.617515
381.077049	3052.590053
381.462474	3069.840882
381.847835	3108.393106
382.233134	3130.251549
382.618371	3131.955459
383.003545	3196.714121
383.388657	3205.952035
383.773706	3238.739700
384.158693	3252.537338
384.543618	3280.601442
384.928480	3314.193170
385.313280	3364.193855
385.698017	3358.855273
386.082692	3415.404416
386.467305	3417.481371
386.851856	3450.110240
387.236344	3476.762820
387.620770	3507.521420
388.005133	3532.981768
388.389435	3559.533525
388.773674	3568.882345
389.157851	3610.628140
389.541965	3627.889051
389.926018	3591.872527
390.310008	3662.678053
390.693936	3682.620858
391.077802	3726.030234
391.461606	3713.969273
391.845348	3775.378089
392.229027	3774.662245
392.612645	3787.406282
392.996200	3867.432078
393.379694	3907.471443
393.763125	3970.765650
394.146494	3937.146195
394.529801	4001.022655
394.913047	4048.406981
395.296230	4012.773585
395.679351	4068.314497
396.062410	4094.863734
396.445408	4079.457968
396.828343	4107.466619
397.211217	4133.252121
397.594028	4051.920665
397.976778	4118.216879
398.359466	4141.869973
398.742092	4174.428265
399.124656	4098.896657
399.507158	4177.974717
399.889598	4202.187379
400.271977	4263.520577
400.654294	4235.330445
401.036549	4239.663317
401.418742	4214.402095
401.800874	4311.028411
402.182944	4335.021783
402.564952	4401.824633
402.946898	4389.814084
403.328783	4386.335688
403.710606	4296.353612
404.092367	4490.561544
404.474067	4458.772027
404.855705	4463.014158
405.237282	4389.642685
405.618797	4500.565713
406.000250	4535.034603
406.381642	4617.472592
406.762972	4577.904575
407.144240	4586.403961
407.525447	4588.168364
407.906593	4652.243950
408.287677	4689.067059
408.668700	4615.357828
409.049661	4669.346065
409.430560	4710.963310
409.811399	4639.149553
410.192176	4802.314059
410.572891	4738.553545
410.953545	4840.347044
411.334138	4724.309765
411.714669	4788.098005
412.095139	4681.906100
412.475547	4825.967153
412.855894	4803.649965
413.236180	4820.452131
413.616405	4767.812402
413.996568	4853.817007
414.376670	4798.863389
414.756711	4749.618878
415.136691	4781.884783
415.516609	4862.132391
415.896466	4899.830139
416.276262	4937.928659
416.655997	4914.898148
417.035670	5095.822639
417.415283	5187.470816
417.794834	5132.880161
418.174324	5083.718829
418.553753	4993.094006
418.933121	5174.935987
419.312428	5245.643211
419.691674	5186.976783
420.070859	5311.909178
420.449983	5220.989448
420.829045	5338.312221
421.208047	5242.275720
421.586988	5315.170805
421.965867	5328.066076
422.344686	5459.410819
422.723444	5313.076205
423.102141	5133.326303
423.480777	5429.226910
423.859352	5199.735943
424.237866	5462.064987
424.616319	5453.646260
424.994712	5564.995266
425.373044	5438.116985
425.751314	5582.926650
426.129524	5384.287544
426.507673	5576.857101
426.885762	5659.436242
427.263789	5594.846458
427.641756	5475.335824
428.019662	5596.608342
428.397508	5601.891471
428.775292	5546.249735
429.153016	5656.996323
429.530679	5573.393828
429.908282	5660.814997
430.285824	5530.581829
430.663305	5806.529549
431.040726	5537.951996
431.418086	5538.196492
431.795385	5643.312111
432.172624	5658.680069
432.549802	5653.028935
432.926920	5664.689124
433.303977	5675.273027
433.680974	5712.491866
434.057910	5730.284618
434.434786	5736.109671
434.811601	5705.711514
435.188355	5937.163490
435.565050	5816.997505
435.941683	5795.504546
436.318257	6010.855077
436.694770	5988.575697
437.071222	6027.581625
437.447614	5962.636440
437.823946	5871.149580
438.200218	6025.373600
438.576429	5891.830914
438.952580	5986.337425
439.328670	6031.614548
439.704700	5941.445950
440.080670	5927.605462
440.456580	6201.776176
440.832429	6083.644297
441.208218	5925.319299
441.583947	6089.071099
441.959616	6085.890131
442.335224	6015.956724
442.710773	6150.545450
443.086261	6180.706673
443.461689	5972.814530
443.837057	6126.310102
444.212365	6278.293329
444.587612	6166.188150
444.962800	6323.419218
445.337927	6303.768800
445.712995	5918.007105
446.088002	6493.230485
446.462949	6321.858981
446.837837	6250.493886
447.212664	6420.542088
447.587431	6564.676238
447.962139	7109.413240
448.336786	8037.713995
448.711374	7780.282433
449.085901	6848.404979
449.460369	6769.944461
449.834776	6702.637495
450.209124	7101.899401
450.583412	7247.528253
450.957640	7393.177270
451.331808	7157.891496
451.705917	6716.767850
452.079965	6632.961188
452.453954	6848.725093
452.827883	6726.038532
453.201752	6818.659651
453.575562	6610.810358
453.949311	6820.565207
454.323001	6706.201591
454.696632	6784.100021
455.070202	6921.789056
455.443713	7073.701707
455.817164	7174.711306
456.190556	7257.691219
456.563888	7340.267840
456.937160	7378.497430
457.310373	7033.556478
457.683526	7056.909623
458.056619	6949.530526
458.429653	6935.639626
458.802628	6870.891046
459.175542	6982.650906
459.548398	7338.135432
459.921194	7497.302303
460.293930	7498.252560
460.666607	8030.742079
461.039224	8337.629881
461.411782	8468.546126
461.784280	8485.736461
462.156719	8376.361066
462.529099	8250.186027
462.901419	7839.629416
463.273680	7739.822132
463.645882	7748.097186
464.018024	7608.787420
464.390106	7778.777648
464.762130	8165.287955
465.134094	8635.514183
465.505999	9660.111058
465.877845	10880.851667
466.249631	11537.512367
466.621358	11143.941925
466.993026	10521.195587
467.364634	10258.783365
467.736184	9895.820288
468.107674	9570.633097
468.479105	9594.669319
468.850477	9358.944965
469.221790	9136.362899
469.593043	8803.243453
469.964238	8665.057865
470.335373	8680.014968
470.706449	8742.608455
471.077467	8718.531904
471.448425	10027.074290
471.819324	11105.273754
472.190164	11124.528441
472.560945	9876.948729
472.931667	9086.715096
473.302330	8949.212583
473.672934	8603.026467
474.043479	8956.209705
474.413965	8891.418275
474.784393	8774.211448
475.154761	8930.298174
475.525070	9023.549438
475.895321	8850.090896
476.265513	9027.257207
476.635645	9194.578144
477.005719	9194.714255
477.375734	9308.198190
477.745691	9538.916678
478.115588	9677.142596
478.485427	9919.848948
478.855207	10450.705133
479.224928	11269.955647
479.594591	11905.171279
479.964194	11712.538708
480.333739	11652.647280
480.703226	11567.532438
481.072653	11659.483085
481.442022	11900.064590
481.811333	12091.774630
482.180584	11892.560833
482.549777	11605.479724
482.918912	11431.892632
483.287988	11447.190014
483.657005	11463.697272
484.025964	11145.698767
484.394864	11268.569330
484.763706	11239.940617
485.132489	11001.874648
485.501213	10964.486930
485.869879	11039.756398
486.238487	10880.433252
486.607036	10984.021401
486.975527	10766.402352
487.343959	10959.342433
487.712333	11003.986891
488.080648	10941.106059
488.448905	10981.848664
488.817104	10923.310786
489.185244	11182.925167
489.553326	11342.659168
489.921350	11875.126002
490.289315	12932.187908
490.657222	13277.128860
491.025070	13192.356817
491.392861	13064.709760
491.760593	12686.729086
492.128267	12336.079027
492.495883	11999.990342
492.863440	11672.549755
493.230939	11331.495533
493.598380	11270.058991
493.965763	11134.557817
494.333088	11025.845334
494.700354	10952.617533
495.067563	11017.212358
495.434713	10830.097330
495.801805	10965.510284
496.168839	10892.957998
496.535815	10821.292955
496.902733	10823.485857
497.269593	10745.516851
497.636395	10849.697337
498.003139	10838.546304
498.369825	10701.056395
498.736453	10855.577843
499.103023	10777.626481
499.469535	10809.615122
499.835989	10794.385797
500.202385	10752.042625
500.568723	10596.497823
500.935003	10818.709364
501.301226	10615.926430
501.667390	10871.780111
502.033497	10968.648403
502.399546	10823.811012
502.765537	10734.330531
503.131470	10794.257247
503.497345	10965.376694
503.863163	10568.801724
504.228923	10874.822447
504.594625	10936.760584
504.960269	10674.744092
505.325856	10891.722916
505.691385	10679.933960
506.056856	10823.566516
506.422270	10844.855308
506.787625	10726.368028
507.152924	10829.101702
507.518164	10804.490789
507.883347	10716.956194
508.248472	10622.966401
508.613540	10850.466112
508.978550	10718.108098
509.343503	10688.405619
509.708398	10790.433532
510.073236	10886.417101
510.438016	10880.355114
510.802738	10812.365072
511.167403	10857.785868
511.532010	10733.307177
511.896561	10951.148037
512.261053	11004.488486
512.625488	10861.032371
512.989866	10825.315796
513.354186	10809.103445
513.718449	10694.651609
514.082655	10859.489778
514.446803	10741.917467
514.810894	10844.454537
515.174927	10695.337206
515.538904	10694.908708
515.902822	10815.402367
516.266684	10687.858654
516.630488	10612.919382
516.994235	10653.447738
517.357925	10675.177632
517.721558	10738.819678
518.085133	10722.428367
518.448651	10714.889321
518.812112	10574.261293
519.175516	10564.597401
519.538863	10646.037242
519.902152	10540.629235
520.265385	10648.368775
520.628560	10544.463033
520.991678	10482.832407
521.354739	10517.878508
521.717743	10422.280587
522.080690	10379.519000
522.443580	10451.610020
522.806413	10378.011695
523.169189	10370.538184
523.531908	10388.668694
523.894569	10188.066059
524.257174	10154.822170
524.619722	10221.665349
524.982213	10146.141303
525.344647	10137.596547
525.707025	10059.972860
526.069345	10096.879148
526.431608	9977.126538
526.793815	10027.984218
527.155964	9810.445827
527.518057	9813.594028
527.880093	9735.564528
528.242072	9749.412577
528.603995	9616.792423
528.965860	9507.843006
529.327669	9508.473150
529.689421	9419.259850
530.051117	9359.128967
530.412755	9374.980876
530.774337	9259.538453
531.135862	9176.626595
531.497331	9160.298298
531.858743	8993.115992
532.220098	9069.907889
532.581396	8927.187782
532.942638	8862.552628
533.303824	8788.621587
533.664953	8736.579235
534.026025	8635.723390
534.387040	8647.433991
534.747999	8601.924974
535.108902	8588.744878
535.469748	8370.596507
535.830537	8386.279536
536.191270	8320.953744
536.551947	8278.159389
536.912567	8222.205102
537.273131	8125.389742
537.633638	8056.449443
537.994089	7995.758992
538.354483	7904.017554
538.714821	7947.956251
539.075103	7898.628560
539.435328	7815.905746
539.795497	7665.394536
540.155609	7696.180863
540.515665	7701.080864
540.875665	7487.023390
541.235609	7464.537323
541.595496	7417.712566
541.955328	7444.244158
542.315102	7329.878022
542.674821	7247.525732
543.034483	7198.757610
543.394090	7143.251986
543.753640	7054.252935
544.113134	7109.821574
544.472571	6980.372305
544.831953	6994.752196
545.191278	6842.012796
545.550548	6800.758514
545.909761	6824.005795
546.268918	6748.582572
546.628019	6738.684266
546.987064	6610.442353
547.346053	6535.813112
547.704986	6512.817888
548.063863	6457.839065
548.422684	6414.830461
548.781449	6307.728627
549.140158	6309.586292
549.498811	6199.752152
549.857408	6093.479588
550.215949	6120.243074
550.574434	6016.251632
550.932864	5995.053580
551.291237	5981.835674
551.649555	5898.099588
552.007817	5854.140727
552.366022	5792.915913
552.724173	5741.753243
553.082267	5688.692578
553.440305	5673.730434
553.798288	5572.534311
554.156215	5562.754473
554.514086	5507.750443
554.871902	5414.405918
555.229661	5378.454929
555.587365	5323.793698
555.945014	5254.175364
556.302606	5232.944544
556.660143	5169.632693
557.017625	5156.921424
557.375050	5086.597328
557.732421	5082.390485
558.089735	5003.947610
558.446994	4964.314059
558.804197	4932.711065
559.161345	4889.039549
559.518437	4813.996933
559.875474	4784.969969
560.232455	4754.188684
560.589381	4709.208989
560.946251	4648.808404
561.303065	4652.841327
561.659825	4586.857664
562.016528	4533.721382
562.373177	4474.598730
562.729770	4453.695586
563.086307	4398.376484
563.442789	4389.176378
563.799216	4312.578566
564.155587	4295.544507
564.511904	4244.578442
564.868164	4210.104511
565.224370	4182.189122
565.580520	4123.406747
565.936615	4103.252214
566.292654	4034.077501
566.648638	4033.197820
567.004567	3990.174092
567.360441	3955.808547
567.716260	3909.737442
568.072023	3898.082294
568.427732	3850.541692
568.783385	3818.548010
569.138982	3795.192344
569.494525	3769.953807
569.850013	3720.469841
570.205445	3706.047100
570.560823	3673.156092
570.916145	3628.521715
571.271412	3616.301958
571.626625	3578.518510
571.981782	3552.801064
572.336884	3525.533463
572.691931	3506.719877
573.046923	3472.830720
573.401860	3446.382306
573.756743	3417.594797
574.111570	3397.538567
574.466342	3379.168602
574.821059	3362.041282
575.175722	3331.804441
575.530330	3307.906851
575.884882	3291.717186
576.239380	3263.161570
576.593823	3245.217583
576.948211	3227.916343
577.302544	3206.541850
577.656823	3182.992100
578.011047	3173.040863
578.365216	3151.444559
578.719330	3130.488483
579.073389	3116.872326
579.427394	3098.827516
579.781344	3084.931576
580.135239	3066.793504
580.489080	3054.109961
580.842866	3029.685571
581.196597	3023.739530
581.550273	3013.992459
581.903895	2994.760457
582.257463	2992.539828
582.610975	2971.896303
582.964434	2965.446147
583.317837	2946.660287
583.671186	2937.893721
584.024481	2927.077925
584.377721	2912.216604
584.730906	2901.022722
585.084037	2892.127606
585.437113	2879.151676
585.790135	2873.092209
586.143103	2856.743747
586.496016	2850.485154
586.848874	2839.818073
587.201679	2838.111642
587.554428	2820.984322
587.907124	2818.282263
588.259765	2809.104843
588.612352	2805.623926
588.964884	2793.946093
589.317362	2790.318983
589.669786	2782.031326
590.022155	2779.485543
590.374470	2771.644029
590.726731	2767.538009
591.078937	2756.548293
591.431090	2752.127202
591.783188	2742.216293
592.135232	2736.562639
592.487222	2734.241188
592.839157	2733.742113
593.191038	2727.062585
593.542866	2720.662840
593.894639	2711.404761
594.246358	2710.459544
594.598022	2705.287321
594.949633	2703.086857
595.301190	2698.146526
595.652692	2696.215764
596.004141	2693.100331
596.355535	2688.512881
596.706876	2681.175482
597.058162	2677.848320
597.409395	2677.618948
597.760573	2675.196673
598.111698	2671.632577
598.462768	2667.849192
598.813785	2665.026145
599.164748	2659.720331
599.515657	2658.684374
599.866511	2654.084321
600.217312	2658.069353
600.568060	2652.846718
600.918753	2655.203457
601.269392	2649.396048
601.619978	2645.723567
601.970510	2646.583084
602.320988	2647.825728
602.671412	2645.098464
603.021783	2642.998824
603.372100	2642.313227
603.722363	2635.303502
604.072572	2639.381796
604.422728	2639.238123
604.772830	2631.061371
605.122878	2630.085908
605.472872	2629.682616
605.822813	2628.140023
606.172701	2627.595578
606.522534	2632.694705
606.872314	2629.334776
607.222041	2628.013994
607.571714	2627.638428
607.921333	2629.841412
608.270899	2626.310084
608.620411	2627.041051
608.969870	2625.536267
609.319276	2627.010804
609.668627	2628.084570
610.017926	2628.807976
610.367171	2633.019860
610.716362	2629.793521
611.065500	2623.923097
611.414585	2624.414610
611.763616	2626.872172
612.112594	2621.475617
612.461518	2623.837398
612.810389	2620.507716
613.159207	2621.402521
613.507971	2620.248096
613.856682	2620.366563
614.205340	2619.441512
614.553945	2621.636934
614.902496	2617.538476
615.250994	2617.583847
615.599439	2615.842128
615.947830	2617.699793
616.296169	2613.755090
616.644454	2618.183744
616.992686	2614.609566
617.340864	2615.708537
617.688990	2615.002776
618.037063	2616.968826
618.385082	2613.969339
618.733048	2614.780965
619.080961	2611.438680
619.428821	2614.768362
619.776628	2612.721654
620.124382	2611.728546
620.472083	2610.039760
620.819731	2611.592435
621.167326	2610.561519
621.514868	2613.006479
621.862357	2610.037239
622.209793	2606.304265
622.557176	2607.874584
622.904506	2605.321240
623.251783	2600.834613
623.599007	2602.888883
623.946179	2601.868049
624.293297	2601.621033
624.640363	2603.261928
624.987376	2603.269490
625.334336	2601.139603
625.681243	2600.277565
626.028097	2599.934767
626.374899	2600.701022
626.721647	2601.074068
627.068343	2602.357041
627.414987	2596.388315
627.761577	2596.796649
628.108115	2600.615323
628.454600	2598.382092
628.801032	2596.831937
629.147412	2596.978130
629.493739	2596.766402
629.840014	2596.726072
630.186236	2598.800507
630.532405	2596.952924
630.878521	2594.449992
631.224585	2597.646083
631.570597	2594.923860
631.916556	2593.487131
632.262462	2594.928901
632.608316	2595.614498
632.954117	2591.876482
633.299866	2596.572317
633.645562	2591.649631
633.991206	2590.361616
634.336797	2592.524271
634.682336	2590.656523
635.027823	2590.641400
635.373257	2589.779362
635.718639	2588.488827
636.063968	2591.311873
636.409245	2584.967581
636.754470	2585.862386
637.099642	2585.025554
637.444762	2588.607294
637.789829	2585.600246
638.134845	2587.170565
638.479808	2587.430185
638.824719	2585.794330
639.169577	2586.008579
639.514383	2585.809454
639.859137	2583.576223
640.203839	2584.347519
640.548489	2581.012796
640.893086	2578.514904
641.237632	2581.295101
641.582125	2582.081521
641.926566	2580.465831
642.270955	2585.270050
642.615292	2583.498085
642.959576	2585.060842
643.303809	2581.695872
643.647990	2584.836511
643.992118	2582.736871
644.336195	2580.637230
644.680219	2582.018506
645.024192	2582.084041
645.368112	2584.564289
645.711981	2582.691500
646.055797	2581.960533
646.399562	2583.442632
646.743274	2582.439442
647.086935	2584.269381
647.430544	2586.691656
647.774101	2586.885740
648.117606	2584.773497
648.461059	2585.547314
648.804460	2586.936152
649.147810	2585.683425
649.491108	2582.467169
649.834354	2585.106213
650.177548	2582.003383
650.520690	2581.854669
650.863781	2581.191757
651.206820	2583.271233
651.549807	2580.228897
651.892742	2581.267374
652.235626	2584.287025
652.578458	2580.639751
652.921238	2577.294945
653.263967	2580.992631
653.606644	2578.003227
653.949269	2580.755697
654.291843	2579.805440
654.634365	2577.607497
654.976836	2577.841910
655.319255	2576.760583
655.661622	2579.694534
656.003938	2578.661098
656.346203	2578.086406
656.688416	2577.433577
657.030577	2578.217476
657.372687	2577.436097
657.714746	2578.005748
658.056753	2576.379976
658.398708	2575.291086
658.740612	2574.504666
659.082465	2573.370407
659.424266	2574.960891
659.766016	2574.182032
660.107715	2576.400140
660.449362	2577.284863
660.790958	2578.073803
661.132503	2577.899883
661.473996	2578.003227
661.815438	2576.400140
662.156829	2577.746128
662.498168	2573.529203
662.839456	2574.507187
663.180693	2575.888463
663.521879	2575.467527
663.863013	2577.133628
664.204097	2579.898701
664.545129	2576.382496
664.886110	2574.895356
665.227040	2577.816704
665.567918	2579.283680
665.908746	2579.061869
666.249522	2576.697568
666.590248	2576.609348
666.930922	2575.104564
667.271545	2575.959039
667.612118	2581.176633
667.952639	2580.107909
668.293109	2580.707806
668.633528	2577.544482
668.973896	2578.991293
669.314213	2577.960377
669.654480	2579.767631
669.994695	2576.884091
670.334859	2578.159503
670.674973	2577.821746
671.015035	2578.068762
671.355047	2576.821077
671.695008	2573.839234
672.034918	2576.415264
672.374777	2575.686817
672.714585	2576.448031
673.054342	2575.669173
673.394049	2575.759914
673.733705	2579.215625
674.073310	2581.315265
674.412864	2579.744946
674.752368	2574.418967
675.091820	2577.541962
675.431223	2574.781930
675.770574	2573.125911
676.109875	2573.667835
676.449125	2575.160016
676.788324	2572.223544
677.127473	2575.419636
677.466571	2567.731876
677.805619	2575.633885
678.144616	2573.761096
678.483562	2575.928792
678.822458	2572.160530
679.161303	2572.687330
679.500098	2572.677248
679.838842	2574.456775
680.177535	2571.913513
680.516179	2574.088771
680.854771	2570.360838
681.193314	2576.437949
681.531805	2576.115315
681.870247	2576.193453
682.208638	2579.409709
682.546978	2576.672362
682.885268	2576.072465
683.223508	2578.038515
683.561697	2575.835531
683.899836	2578.772003
684.237925	2574.713874
684.575963	2575.422156
684.913951	2575.467527
685.251889	2575.830490
685.589776	2574.023236
685.927614	2577.234451
686.265401	2578.101530
686.603137	2574.895356
686.940824	2577.925089
687.278460	2578.986252
687.616046	2577.352918
687.953582	2579.598752
688.291068	2577.907445
688.628504	2577.075655
688.965889	2576.367373
689.303224	2575.465006
689.640510	2576.994996
689.977745	2574.343349
690.314930	2575.580953
690.652065	2574.058524
690.989150	2576.437949
691.326185	2572.493246
691.663170	2570.975859
692.000105	2573.423339
692.336990	2574.081209
692.673825	2570.053328
693.010610	2571.651373
693.347345	2568.445199
693.684030	2561.019580
694.020665	2565.317163
694.357251	2562.282389
694.693786	2568.808163
695.030272	2564.911351
695.366707	2567.631053
695.703093	2564.808007
696.039429	2567.747000
696.375716	2564.429920
696.711952	2568.435117
697.048139	2567.010991
697.384276	2562.562173
697.720363	2567.520148
698.056400	2565.390260
698.392388	2565.773388
698.728326	2569.418142
699.064214	2566.383367
699.400053	2565.463357
699.735842	2563.562842
700.071581	2564.601320
700.407270	2566.383368
700.742910	2564.596278
701.078501	2563.129303
701.414042	2562.915054
701.749533	2562.037893
702.084974	2562.862122
702.420366	2564.578634
702.755709	2563.300702
703.091002	2559.890361
703.426246	2562.199210
703.761440	2561.919426
704.096584	2560.661658
704.431679	2559.756771
704.766725	2561.201061
705.101721	2559.749209
705.436668	2560.444888
705.771565	2558.693087
706.106413	2561.468242
706.441212	2559.731565
706.775961	2559.335834
707.110661	2558.957748
707.445311	2561.755588
707.779913	2563.288099
708.114465	2564.500497
708.448967	2562.312636
708.783421	2563.169632
709.117825	2563.262893
709.452180	2562.514282
709.786485	2564.354303
710.120742	2563.162070
710.454949	2566.615261
710.789107	2564.747513
711.123216	2563.099056
711.457275	2565.024777
711.791286	2565.778429
712.125247	2562.179045
712.459159	2567.368913
712.793023	2567.638615
713.126837	2570.023081
713.460602	2565.150805
713.794318	2567.336146
714.127985	2568.858574
714.461602	2565.130641
714.795171	2567.426886
715.128691	2565.241546
715.462162	2564.215671
715.795584	2563.882955
716.128957	2562.370609
716.462281	2562.118551
716.795556	2561.127965
717.128782	2563.668706
717.461960	2562.055537
717.795088	2561.558983
718.128167	2561.435475
718.461198	2562.703325
718.794180	2558.781307
719.127113	2555.796944
719.459997	2559.653427
719.792833	2559.308108
720.125619	2559.923129
720.458357	2558.199054
720.791046	2559.081256
721.123686	2554.710576
721.456278	2557.770556
721.788821	2557.639486
722.121315	2557.079918
722.453761	2556.341389
722.786158	2554.072870
723.118506	2558.088149
723.450805	2556.427089
723.783056	2557.815927
724.115259	2558.740978
724.447412	2557.153015
724.779518	2559.492110
725.111574	2556.406924
725.443582	2557.014383
725.775542	2559.880279
726.107453	2557.634445
726.439315	2556.981616
726.771129	2562.776422
727.102895	2560.470094
727.434612	2558.534291
727.766281	2558.433468
728.097901	2558.738458
728.429473	2556.222922
728.760996	2557.034548
729.092471	2555.088662
729.423897	2558.168807
729.755276	2561.085115
730.086606	2558.020093
730.417887	2563.179714
730.749120	2560.321380
731.080305	2559.935732
731.411442	2564.497976
731.742530	2562.917574
732.073570	2563.454457
732.404562	2566.769016
732.735506	2562.365568
733.066401	2563.945970
733.397249	2562.849519
733.728048	2561.669889
734.058798	2559.018242
734.389501	2560.293654
734.720156	2557.871379
735.050762	2557.127809
735.381320	2553.614125
735.711831	2557.662171
736.042293	2557.682336
736.372707	2556.681667
736.703073	2554.614794
737.033391	2556.754764
737.363661	2556.905998
737.693883	2557.735268
738.024056	2560.097049
738.354182	2555.885165
738.684260	2558.257027
739.014290	2556.253169
739.344272	2558.259548
739.674207	2558.922460
740.004093	2562.158881
740.333931	2557.238714
740.663722	2561.170814
740.993464	2557.347099
741.323159	2558.231822
741.652806	2558.390618
741.982405	2560.172666
742.311956	2558.476318
742.641460	2555.769218
742.970915	2556.240566
743.300323	2558.612429
743.629683	2556.865669
743.958996	2558.171328
744.288260	2554.750905
744.617477	2555.060936
744.946647	2550.445760
745.275768	2551.872406
745.604842	2553.004145
745.933869	2552.167314
746.262847	2551.058260
746.591778	2557.009342
746.920662	2553.218394
747.249498	2554.682849
747.578286	2551.522046
747.907027	2556.202757
748.235720	2555.817109
748.564365	2554.967675
748.892963	2552.389124
749.221514	2554.733261
749.550017	2558.206616
749.878473	2554.387942
750.206881	2553.062118
750.535242	2552.512633
750.863555	2554.047664
751.191821	2552.079093
751.520039	2554.614794
751.848210	2553.677139
752.176334	2555.892726
752.504411	2551.504402
752.832440	2554.821481
753.160421	2554.077911
753.488356	2552.157231
753.816243	2552.631100
754.144082	2552.132026
754.471875	2554.372818
754.799620	2552.948693
755.127318	2551.837118
755.454969	2554.841646
755.782572	2552.515153
756.110129	2553.059598
756.437638	2548.535162
756.765100	2555.635628
757.092515	2551.118754
757.419882	2549.228321
757.747203	2553.004145
758.074477	2552.379042
758.401703	2551.212015
758.728882	2552.552962
759.056014	2554.430792
759.383099	2549.440049
759.710138	2555.970864
760.037129	2551.514484
760.364073	2554.468600
760.690970	2553.694783
761.017820	2555.499516
761.344623	2553.949362
761.671379	2555.151677
761.998088	2550.783517
762.324751	2557.405072
762.651366	2561.057388
762.977935	2567.943605
763.304456	2572.059707
763.630931	2577.743608
763.957359	2572.803277
764.283740	2571.255643
764.610074	2565.954869
764.936362	2561.586710
765.262602	2557.276523
765.588796	2557.223591
765.914943	2551.542211
766.241044	2555.693601
766.567097	2552.046326
766.893104	2552.300904
767.219064	2548.139432
767.544978	2553.241079
767.870845	2551.154042
768.196665	2551.748898
768.522438	2548.121788
768.848165	2552.058929
769.173846	2548.275543
769.499479	2547.665563
769.825066	2548.850234
770.150607	2546.987528
770.476101	2549.220759
770.801548	2546.438042
771.126949	2550.818805
771.452303	2548.522559
771.777611	2547.484082
772.102872	2544.401416
772.428087	2544.033412
772.753256	2547.441232
773.078378	2547.322765
773.403453	2546.987528
773.728482	2547.461397
774.053465	2546.576674
774.378401	2544.857641
774.703291	2544.522404
775.028135	2542.745397
775.352932	2547.360573
775.677683	2543.546941
776.002388	2548.315872
776.327046	2544.557692
776.651658	2545.059287
776.976224	2543.703216
777.300743	2544.393854
777.625216	2543.284801
777.949643	2545.220604
778.274024	2546.231355
778.598359	2541.036446
778.922647	2540.532331
779.246889	2539.874460
779.571086	2538.934285
779.895236	2544.303114
780.219339	2542.508463
780.543397	2546.735470
780.867409	2542.516025
781.191374	2541.865716
781.515294	2544.172044
781.839167	2542.853782
782.162995	2541.568288
782.486776	2543.405788
782.810511	2545.225645
783.134201	2546.402754
783.457844	2543.831766
783.781441	2544.083823
784.104993	2544.345963
784.428498	2545.220604
784.751958	2543.080634
785.075372	2544.492157
785.398739	2543.713299
785.722061	2543.821683
786.045337	2542.531148
786.368568	2543.337733
786.691752	2543.902342
787.014891	2542.556354
787.337983	2544.867723
787.661030	2547.458876
787.984031	2545.291180
788.306987	2546.611962
788.629897	2547.191695
788.952760	2547.042981
789.275579	2547.718495
789.598351	2549.210677
789.921078	2544.524924
790.243759	2544.986190
790.566395	2542.871426
790.888984	2546.037271
791.211529	2542.642053
791.534027	2545.875954
791.856480	2545.651622
792.178888	2543.509132
792.501249	2542.939482
792.823566	2544.235058
793.145836	2542.984852
793.468062	2543.209183
793.790241	2543.549461
794.112375	2543.640202
794.434464	2541.878319
794.756507	2542.800850
795.078505	2544.081303
795.400457	2545.994421
795.722364	2541.502753
796.044226	2543.597352
796.366042	2544.106509
796.687812	2541.792619
797.009538	2543.930068
797.331218	2545.969215
797.652852	2545.351674
797.974442	2544.734132
798.295986	2542.989893
798.617484	2545.041643
798.938938	2543.804039
799.260346	2543.932589
799.581709	2543.622558
799.903026	2544.567774
800.224299	2544.245140
800.545526	2542.886549
800.866708	2539.345139
801.187845	2542.601724
801.508936	2543.282280
801.829983	2542.604245
802.150984	2541.117104
802.471940	2543.007537
802.792851	2540.376055
803.113717	2543.156251
803.434538	2540.542413
803.755314	2543.183977
804.076045	2541.946374
804.396731	2544.020809
804.717372	2543.141128
805.037967	2542.659698
805.358518	2542.228679
805.679024	2540.008051
805.999485	2541.354039
806.319901	2545.505429
806.640272	2540.502084
806.960598	2545.265974
807.280879	2545.470141
807.601115	2543.418391
807.921306	2542.793288
808.241453	2541.724563
808.561554	2542.437887
808.881611	2543.289842
809.201623	2540.350849
809.521590	2544.771941
809.841513	2542.672300
810.161390	2542.589121
810.481223	2541.573329
810.801011	2540.731456
811.120755	2543.766231
811.440453	2543.957795
811.760107	2542.513504
812.079716	2540.396219
812.399281	2538.888914
812.718801	2539.614841
813.038276	2534.182997
813.357707	2541.744728
813.677093	2540.837320
813.996434	2543.559543
814.315731	2539.939995
814.634983	2542.160623
814.954191	2540.794471
815.273354	2541.492670
815.592473	2541.424615
815.911547	2543.148689
816.230577	2543.259595
816.549562	2544.809750
816.868502	2542.634492
817.187399	2543.040305
817.506250	2544.015768
817.825058	2545.565923
818.143821	2546.259081
818.462539	2543.972918
818.781213	2544.978628
819.099843	2545.255892
819.418429	2550.125646
819.736970	2549.881150
820.055466	2552.459701
820.373919	2558.846842
820.692327	2560.641493
821.010691	2565.886814
821.329011	2584.982705
821.647286	2619.572582
821.965517	2655.183292
822.283704	2678.022240
822.601847	2686.708148
822.919945	2667.087977
823.237999	2646.235244
823.556010	2625.551390
823.873976	2609.391972
824.191897	2596.000146
824.509775	2587.939341
824.827609	2578.512384
825.145398	2573.647670
825.463144	2571.167422
825.780845	2570.839747
826.098502	2577.173957
826.416116	2586.089238
826.733685	2598.263624
827.051210	2601.316043
827.368692	2595.664910
827.686129	2585.171748
828.003522	2578.764441
828.320872	2563.393963
828.638177	2560.361709
828.955439	2553.513302
829.272656	2551.973229
829.589830	2545.901159
829.906960	2548.996428
830.224046	2546.455686
830.541088	2546.974925
830.858086	2546.080120
831.175041	2546.357384
831.491952	2543.095757
831.808819	2547.317724
832.125642	2544.033412
832.442421	2548.741850
832.759157	2551.569937
833.075849	2560.339024
833.392497	2565.942267
833.709101	2571.205231
834.025662	2573.624985
834.342179	2568.404870
834.658653	2563.144426
834.975083	2556.986657
835.291469	2558.544373
835.607811	2551.365770
835.924110	2546.387631
836.240366	2545.356715
836.556578	2541.923689
836.872746	2545.923845
837.188871	2540.875129
837.504952	2539.778678
837.820990	2539.791281
838.136984	2541.051569
838.452935	2541.359080
838.768842	2543.229348
839.084706	2541.376724
839.400526	2544.371169
839.716303	2545.397044
840.032037	2553.659495
840.347727	2549.452652
840.663373	2549.190512
840.978977	2545.361756
841.294537	2547.559699
841.610054	2544.688762
841.925527	2539.992927
842.240957	2539.456044
842.556344	2542.195911
842.871687	2538.586445
843.186987	2539.975283
843.502244	2536.209541
843.817458	2539.698020
844.132629	2537.263142
844.447756	2538.551157
844.762840	2535.062679
845.077881	2534.934129
845.392879	2532.244674
845.707833	2535.347504
846.022745	2531.443130
846.337613	2535.586959
846.652438	2537.963863
846.967221	2535.042514
847.281960	2536.406146
847.596656	2537.608461
847.911309	2538.815818
848.225919	2537.865560
848.540485	2536.219623
848.855009	2536.411187
849.169490	2536.121321
849.483928	2536.549819
849.798323	2535.982689
850.112675	2537.409336
850.426984	2535.476053
850.741251	2536.257432
851.055474	2533.376413
851.369654	2535.869263
851.683792	2534.220806
851.997887	2536.804397
852.311938	2533.961187
852.625947	2534.760209
852.939914	2534.825744
853.253837	2539.451003
853.567718	2538.084850
853.881555	2538.553678
854.195350	2537.537885
854.509103	2533.630991
854.822812	2533.449509
855.136479	2535.324819
855.450103	2536.131403
855.763685	2537.752134
856.077224	2535.322298
856.390720	2534.316588
856.704173	2536.627957
857.017584	2535.728111
857.330953	2535.604603
857.644278	2536.811959
857.957561	2539.662732
858.270802	2538.251208
858.584000	2533.835158
858.897155	2534.213244
859.210268	2535.733152
859.523339	2536.532175
859.836367	2534.467823
860.149352	2537.051414
860.462295	2537.815149
860.775195	2535.647453
861.088054	2530.878521
861.400869	2534.377082
861.713642	2531.065044
862.026373	2537.142155
862.339062	2535.634850
862.651708	2536.045704
862.964312	2536.549819
863.276873	2535.231557
863.589392	2535.917154
863.901869	2537.694161
864.214303	2535.103008
864.526696	2537.366486
864.839045	2537.457227
865.151353	2535.357586
865.463619	2537.260622
865.775842	2536.688451
866.088023	2537.714326
866.400162	2538.029398
866.712258	2536.575025
867.024313	2538.702392
867.336325	2535.637370
867.648296	2537.242978
867.960224	2537.870601
868.272110	2538.346990
868.583954	2535.488656
868.895755	2538.762886
869.207515	2535.960004
869.519233	2536.834644
869.830909	2536.917823
870.142542	2539.249357
870.454134	2538.394881
870.765684	2537.026208
871.077191	2534.956814
871.388657	2542.175747
871.700081	2539.214069
872.011463	2539.382948
872.322803	2537.817669
872.634101	2537.840354
872.945357	2537.905889
873.256571	2539.851775
873.567744	2537.235416
873.878874	2537.863040
874.189963	2538.137783
874.501010	2541.792619
874.812015	2539.571991
875.122979	2539.130890
875.433900	2541.018802
875.744780	2540.081147
876.055618	2536.902700
876.366415	2536.632998
876.677169	2536.804397
876.987882	2538.430169
877.298554	2534.039324
877.609183	2536.827082
877.919771	2537.351362
878.230317	2539.113246
878.540822	2543.791437
878.851285	2542.243802
879.161707	2546.848896
879.472087	2547.070707
879.782425	2554.352654
880.092722	2558.322562
880.402977	2569.027453
880.713191	2586.169896
881.023363	2606.231168
881.333494	2621.273971
881.643583	2626.572224
881.953631	2620.744650
882.263637	2617.420009
882.573602	2608.081272
882.883526	2599.637339
883.193408	2589.187027
883.503248	2582.396593
883.813048	2575.283525
884.122806	2569.362689
884.432522	2562.809189
884.742197	2559.363561
885.051831	2558.287274
885.361424	2556.210319
885.670975	2551.910215
885.980485	2547.579864
886.289954	2547.731098
886.599382	2545.913762
886.908768	2545.727240
887.218113	2543.930068
887.527417	2544.565254
887.836680	2543.713299
888.145901	2542.395037
888.455082	2541.323792
888.764221	2540.882691
889.073319	2537.921013
889.382376	2540.040818
889.691392	2539.219110
890.000366	2539.826569
890.309300	2538.306661
890.618193	2543.625078
890.927044	2540.512166
891.235855	2537.079140
891.544625	2538.372196
891.853353	2539.309851
892.162041	2542.389996
892.470687	2540.648277
892.779293	2542.072403
893.087858	2541.694317
893.396381	2541.202804
893.704864	2547.443753
894.013306	2547.834442
894.321707	2559.522357
894.630068	2564.588717
894.938387	2568.243553
895.246665	2566.022925
895.554903	2561.881617
895.863100	2556.674105
896.171256	2556.381718
896.479371	2553.858621
896.787446	2551.096068
897.095480	2546.201108
897.403473	2544.426622
897.711425	2544.058618
898.019336	2546.949719
898.327207	2540.716333
898.635038	2542.805891
898.942827	2541.167516
899.250576	2542.342105
899.558284	2539.824048
899.865952	2540.413863
900.173579	2543.035263
900.481165	2540.159285
900.788711	2539.128369
901.096216	2537.540406
901.403681	2536.249870
901.711105	2537.537885
902.018489	2537.159799
902.325832	2541.139790
902.633135	2539.440921
902.940397	2542.251364
903.247619	2541.273380
903.554800	2547.186654
903.861941	2558.730896
904.169041	2572.657083
904.476101	2580.375090
904.783121	2580.065059
905.090100	2574.890315
905.397039	2566.832030
905.703938	2559.156873
906.010796	2554.229146
906.317614	2550.009700
906.624391	2547.499205
906.931129	2542.730274
907.237826	2540.739018
907.544483	2539.592155
907.851099	2537.454706
908.157675	2540.083668
908.464211	2538.949408
908.770707	2532.138809
909.077163	2534.601413
909.383578	2529.895496
909.689954	2535.231557
909.996289	2529.421627
910.302584	2535.299613
910.608839	2534.248532
910.915054	2539.413194
911.221229	2535.284489
911.527363	2538.518390
911.833458	2535.216434
912.139513	2537.079140
912.445527	2535.642411
912.751502	2538.682227
913.057436	2537.807587
913.363331	2535.788605
913.669186	2539.042670
913.975000	2540.388658
914.280775	2540.134079
914.586510	2544.857641
914.892205	2549.896274
915.197859	2556.235525
915.503475	2561.659806
915.809050	2569.196331
916.114585	2572.188256
916.420081	2574.676066
916.725536	2575.754872
917.030952	2571.109449
917.336328	2566.980744
917.641665	2561.374981
917.946961	2559.066133
918.252218	2553.425082
918.557435	2550.362581
918.862612	2550.637323
919.167750	2543.955274
919.472848	2543.143648
919.777906	2543.234389
920.082925	2543.710778
920.387904	2539.791281
920.692843	2539.274563
920.997743	2540.625592
921.302603	2536.963194
921.607423	2540.086188
921.912204	2536.416228
922.216946	2536.864891
922.521647	2538.193235
922.826310	2534.336753
923.130932	2538.664583
923.435516	2534.651825
923.740059	2539.481250
924.044564	2535.501259
924.349028	2534.553522
924.653454	2530.981865
924.957840	2531.899355
925.262186	2527.954652
925.566493	2534.188038
925.870761	2528.010104
926.174989	2534.087215
926.479178	2534.926567
926.783328	2532.360620
927.087438	2532.574869
927.391509	2535.516382
927.695541	2532.882380
927.999533	2531.274252
928.303486	2532.831968
928.607400	2531.969931
928.911275	2531.614529
929.215110	2532.622760
929.518906	2529.386339
929.822663	2534.959335
930.126381	2532.511855
930.430060	2532.975641
930.733699	2532.058151
931.037299	2532.501772
931.340861	2528.546987
931.644383	2531.866587
931.947866	2532.781557
932.251309	2534.072092
932.554714	2533.378933
932.858080	2533.247863
933.161407	2531.483459
933.464694	2530.432379
933.767943	2530.966741
934.071153	2529.852646
934.374323	2530.576052
934.677455	2531.727955
934.980548	2531.982534
935.283602	2532.741227
935.586617	2530.535722
935.889593	2530.061854
936.192530	2529.598068
936.495428	2532.007739
936.798287	2532.156453
937.101108	2531.677544
937.403890	2529.789632
937.706632	2534.223327
938.009336	2533.701567
938.312002	2534.792977
938.614628	2534.780374
938.917216	2533.326001
939.219765	2534.737524
939.522275	2534.009078
939.824747	2533.237781
940.127179	2530.485311
940.429573	2530.253418
940.731929	2528.594878
941.034246	2528.700742
941.336524	2532.469005
941.638763	2533.081505
941.940964	2536.282638
942.243126	2532.562266
942.545250	2534.273738
942.847335	2532.577390
943.149381	2532.625281
943.451389	2531.831299
943.753359	2532.436237
944.055290	2529.469518
944.357182	2530.321473
944.659036	2532.511855
944.960851	2534.719880
945.262628	2531.992616
945.564367	2530.192924
945.866067	2530.155115
946.167729	2530.397091
946.469352	2529.678726
946.770937	2532.058151
947.072484	2530.175280
947.373992	2533.013450
947.675462	2528.864580
947.976893	2531.871628
948.278286	2530.770136
948.579641	2534.470343
948.880958	2531.498583
949.182236	2531.826258
949.483476	2533.063861
949.784678	2531.629653
950.085841	2533.681403
950.386967	2533.804911
950.688054	2530.336597
950.989103	2532.315250
951.290114	2528.894827
951.591087	2531.775846
951.892021	2532.582431
952.192917	2535.211393
952.493776	2533.827596
952.794596	2534.225847
953.095378	2532.232071
953.396122	2535.707946
953.696828	2534.379602
953.997496	2533.721732
954.298126	2534.034283
954.598718	2531.987575
954.899272	2530.119827
955.199788	2532.353058
955.500266	2527.957172
955.800706	2529.688809
956.101108	2525.935670
956.401472	2528.728469
956.701798	2526.918695
957.002087	2528.234436
957.302337	2530.228212
957.602550	2531.370033
957.902724	2529.141843
958.202861	2530.414735
958.502960	2528.521782
958.803022	2533.320960
959.103045	2529.832482
959.403031	2530.518078
959.702979	2527.755526
960.002889	2527.639580
960.302762	2527.637059
960.602596	2529.900537
960.902393	2527.977337
961.202153	2530.898686
961.501875	2526.941380
961.801559	2529.532533
962.101205	2528.267203
962.400814	2527.994981
962.700385	2527.785773
962.999918	2528.194107
963.299414	2527.339631
963.598873	2530.276103
963.898293	2526.729651
964.197677	2526.964065
964.497022	2527.216123
964.796331	2530.155115
965.095601	2527.992460
965.394835	2528.557070
965.694030	2527.717717
965.993189	2528.239477
966.292309	2526.974147
966.591393	2528.113448
966.890439	2529.194776
967.189447	2529.678726
967.488419	2527.901720
967.787353	2528.935156
968.086249	2529.741741
968.385108	2528.373068
968.683930	2528.234436
968.982714	2527.221164
969.281462	2527.526154
969.580172	2528.196627
969.878844	2526.762419
970.177480	2529.530012
970.476078	2530.455064
970.774639	2529.547656
971.073162	2527.301822
971.371649	2527.924405
971.670098	2525.058509
971.968510	2527.321987
972.266885	2526.023890
972.565223	2529.585465
972.863524	2529.817358
973.161788	2527.601771
973.460014	2531.599406
973.758204	2529.063706
974.056356	2526.636390
974.354471	2529.159487
974.652550	2526.437264
974.950591	2530.712163
975.248595	2529.580424
975.546563	2528.501617
975.844493	2527.866432
976.142386	2527.188396
976.440243	2529.373737
976.738062	2527.500948
977.035845	2529.550177
977.333590	2528.655372
977.631299	2526.722090
977.928971	2529.827440
978.226606	2529.214940
978.524204	2529.121679
978.821765	2527.306863
979.119290	2527.160670
979.416777	2528.501617
979.714228	2527.105217
980.011642	2526.170083
980.309020	2532.416073
980.606360	2527.470701
980.903664	2526.223015
981.200931	2529.570342
981.498162	2527.919364
981.795356	2527.611853
982.092513	2531.034797
982.389633	2528.952800
982.686717	2529.840043
982.983764	2531.309540
983.280775	2530.681916
983.577749	2528.438603
983.874686	2532.148892
984.171587	2528.554549
984.468451	2531.768285
984.765279	2529.262831
985.062070	2527.851308
985.358824	2528.178983
985.655543	2529.809796
985.952224	2528.552028
986.248869	2526.233098
986.545478	2525.161853
986.842050	2526.522964
987.138586	2523.271420
987.435086	2523.145391
987.731549	2525.010618
988.027975	2528.914992
988.324366	2529.194776
988.620719	2528.862059
988.917037	2530.397091
989.213318	2525.053468
989.509563	2527.732841
989.805772	2526.303674
990.101944	2528.743592
990.398080	2529.335928
990.694180	2528.456247
990.990244	2526.800227
991.286271	2529.119158
991.582262	2528.317615
991.878217	2528.662934
992.174136	2527.435413
992.470019	2528.320135
992.765865	2527.216123
993.061676	2530.387008
993.357450	2529.537574
993.653188	2528.151257
993.948890	2528.819210
994.244556	2529.086391
994.540186	2526.699404
994.835780	2526.142357
995.131337	2529.943387
995.426859	2527.795855
995.722345	2526.911133
996.017795	2525.557583
996.313208	2528.662934
996.608586	2529.570342
996.903928	2526.938859
997.199234	2528.471370
997.494504	2527.838705
997.789738	2524.932480
998.084936	2527.783252
998.380099	2526.719569
998.675225	2527.901720
998.970316	2526.850639
999.265371	2528.315094
999.560390	2529.003212
999.855373	2527.521113
1000.150320	2526.538088
1000.445232	2528.259642
1000.740108	2527.868952
1001.034948	2526.031452
1001.329752	2527.140505
1001.624521	2527.972296
1001.919254	2522.706811
1002.213951	2522.847963
1002.508613	2526.056657
1002.803239	2523.838550
1003.097829	2522.953827
1003.392384	2527.689991
1003.686903	2526.908612
1003.981386	2527.511030
1004.275834	2527.357275
1004.570246	2529.633356
1004.864623	2525.935670
1005.158964	2523.077335
1005.453270	2526.888448
1005.747540	2526.780063
1006.041775	2526.916174
1006.335974	2525.587830
1006.630138	2526.820392
1006.924266	2529.240146
1007.218359	2526.046575
1007.512416	2527.788294
1007.806438	2526.464991
1008.100425	2528.247039
1008.394376	2527.027079
1008.688292	2527.289219
1008.982172	2525.885258
1009.276017	2528.433561
1009.569827	2526.454908
1009.863602	2529.716535
1010.157341	2526.248221
1010.451045	2526.157480
1010.744714	2524.503982
1011.038347	2528.362985
1011.331945	2525.469363
1011.625508	2527.226205
1011.919036	2525.887779
1012.212528	2527.591689
1012.505986	2526.044054
1012.799408	2526.409538
1013.092795	2528.078160
1013.386147	2529.469518
1013.679464	2525.396266
1013.972745	2525.345855
1014.265992	2525.877696
1014.559204	2526.250742
1014.852380	2528.622605
1015.145521	2528.685619
1015.438628	2525.575227
1015.731699	2524.927439
1016.024736	2525.388704
1016.317737	2526.681760
1016.610703	2527.505989
1016.903635	2522.346368
1017.196531	2519.971985
1017.489393	2525.368540
1017.782219	2520.629855
1018.075011	2524.559435
1018.367768	2525.330731
1018.660490	2526.848118
1018.953177	2526.848118
1019.245829	2526.848118
