Dividing Wavelength (nm)	Counts (n)	Blue Motor Position (mm): 0.000000	Red Motor Position (mm): 25.800000	
326.493990	2126.459515
326.888308	2126.459515
327.282561	2126.459515
327.676750	2091.720924
328.070874	2092.378795
328.464933	2094.208734
328.858929	2098.687799
329.252859	2112.513163
329.646726	2124.783332
330.040528	2139.092647
330.434265	2153.119658
330.827938	2171.010713
331.221547	2189.534432
331.615091	2207.730477
332.008571	2226.854094
332.401986	2247.248082
332.795338	2268.393202
333.188625	2284.514812
333.581847	2306.118677
333.975006	2321.385811
334.368100	2342.780468
334.761129	2359.204547
335.154095	2373.833976
335.546996	2392.640000
335.939833	2407.939902
336.332606	2422.168559
336.725315	2437.012236
337.117960	2446.366097
337.510540	2455.011676
337.903056	2464.095835
338.295508	2473.109418
338.687896	2483.287508
339.080220	2489.074753
339.472480	2496.268479
339.864676	2497.881648
340.256807	2509.441014
340.648875	2510.789523
341.040879	2511.530573
341.432818	2514.656088
341.824694	2514.245234
342.216506	2514.734226
342.608253	2515.631551
342.999937	2515.676922
343.391557	2511.308762
343.783113	2510.928155
344.174605	2510.376148
344.566033	2510.517301
344.957397	2509.093175
345.348697	2508.679800
345.739934	2506.610406
346.131106	2504.394819
346.522215	2504.508245
346.913260	2501.355003
347.304241	2499.903151
347.695159	2496.495331
348.086012	2496.570948
348.476802	2493.652120
348.867528	2491.570124
349.258191	2489.329331
349.648789	2490.599702
350.039324	2489.455360
350.429796	2488.588281
350.820203	2483.804226
351.210548	2485.034268
351.600828	2485.878661
351.991045	2483.451346
352.381198	2482.097796
352.771288	2481.334061
353.161314	2481.316417
353.551276	2484.799854
353.941175	2480.093937
354.331010	2485.515698
354.720782	2482.027220
355.110490	2483.043012
355.500135	2483.370687
355.889717	2483.262302
356.279235	2484.792293
356.668689	2483.282467
357.058080	2483.821870
357.447408	2484.199957
357.836672	2480.240131
358.225873	2483.164000
358.615010	2485.049391
359.004084	2488.560555
359.393095	2485.858497
359.782043	2489.145329
360.170927	2485.750112
360.559748	2489.054588
360.948505	2490.266986
361.337199	2491.960813
361.725830	2491.381081
362.114398	2493.369816
362.502903	2490.803868
362.891344	2491.539877
363.279722	2492.684219
363.668037	2494.448623
364.056289	2493.962151
364.444478	2492.497696
364.832603	2495.391318
365.220665	2497.914416
365.608665	2496.908706
365.996601	2502.532113
366.384474	2500.561022
366.772284	2498.927688
367.160031	2502.617812
367.547715	2505.924809
367.935336	2507.270798
368.322893	2510.698782
368.710388	2513.496622
369.097820	2519.442663
369.485189	2522.122037
369.872495	2527.185876
370.259738	2531.301978
370.646918	2543.012578
371.034035	2546.889226
371.421090	2559.043448
371.808081	2570.595252
372.195010	2577.526838
372.581875	2591.700042
372.968678	2605.515324
373.355418	2617.881275
373.742096	2633.982720
374.128710	2648.748260
374.515262	2662.750064
374.901751	2676.893022
375.288177	2691.948427
375.674540	2714.484906
376.060841	2733.540467
376.447079	2751.920514
376.833254	2775.508073
377.219367	2783.538631
377.605417	2825.060095
377.991404	2831.842967
378.377329	2854.873479
378.763191	2870.753113
379.148991	2908.947415
379.534727	2933.555808
379.920402	2962.544963
380.306013	2972.760861
380.691563	3024.210878
381.077049	3043.460523
381.462474	3063.826785
381.847835	3100.032352
382.233134	3123.677884
382.618371	3123.776187
383.003545	3194.450643
383.388657	3202.609750
383.773706	3231.044379
384.158693	3247.191194
384.543618	3272.656583
384.928480	3310.891214
385.313280	3355.709593
385.698017	3355.144983
386.082692	3406.022829
386.467305	3414.227307
386.851856	3442.878704
387.236344	3467.734113
387.620770	3500.345338
388.005133	3527.340717
388.389435	3551.404664
388.773674	3560.609811
389.157851	3605.276955
389.541965	3622.396713
389.926018	3586.183585
390.310008	3656.653874
390.693936	3675.785053
391.077802	3718.833987
391.461606	3705.381668
391.845348	3771.415742
392.229027	3770.296606
392.612645	3782.034932
392.996200	3861.584340
393.379694	3900.799476
393.763125	3964.839774
394.146494	3932.074794
394.529801	3994.887571
394.913047	4044.316085
395.296230	4008.889376
395.679351	4064.316862
396.062410	4086.767641
396.445408	4064.841142
396.828343	4100.890434
397.211217	4122.864823
397.594028	4046.186353
397.976778	4110.493832
398.359466	4139.356958
398.742092	4169.147657
399.124656	4087.758228
399.507158	4173.321732
399.889598	4194.708827
400.271977	4257.813991
400.654294	4223.944999
401.036549	4233.699632
401.418742	4206.159808
401.800874	4305.163029
402.182944	4327.550793
402.564952	4392.508581
402.946898	4381.165985
403.328783	4376.117269
403.710606	4288.950678
404.092367	4478.997137
404.474067	4442.829378
404.855705	4452.704999
405.237282	4378.579873
405.618797	4494.428109
406.000250	4520.657232
406.381642	4605.315849
406.762972	4564.006114
407.144240	4580.188218
407.525447	4578.683433
407.906593	4635.439264
408.287677	4681.646480
408.668700	4610.510758
409.049661	4656.806195
409.430560	4699.633317
409.811399	4629.314262
410.192176	4789.433911
410.572891	4726.797575
410.953545	4831.061239
411.334138	4711.848033
411.714669	4778.918064
412.095139	4674.679606
412.475547	4814.178415
412.855894	4797.315755
413.236180	4806.561231
413.616405	4760.742184
413.996568	4846.441799
414.376670	4785.272439
414.756711	4742.677209
415.136691	4776.246253
415.516609	4851.772820
415.896466	4890.448552
416.276262	4926.134880
416.655997	4905.657713
417.035670	5085.548768
417.415283	5178.169887
417.794834	5120.410867
418.174324	5075.544598
418.553753	4981.496832
418.933121	5168.203526
419.312428	5234.996294
419.691674	5177.842212
420.070859	5298.025840
420.449983	5213.294127
420.829045	5324.007947
421.208047	5227.704265
421.586988	5306.520185
421.965867	5315.150640
422.344686	5448.993275
422.723444	5300.622035
423.102141	5120.690651
423.480777	5424.032001
423.859352	5189.567936
424.237866	5447.017142
424.616319	5442.459939
424.994712	5541.427872
425.373044	5425.604841
425.751314	5567.160441
426.129524	5370.139546
426.507673	5569.025668
426.885762	5644.990816
427.263789	5580.252318
427.641756	5461.475172
428.019662	5581.613429
428.397508	5584.179377
428.775292	5534.103075
429.153016	5635.568899
429.530679	5559.094595
429.908282	5640.839425
430.285824	5513.726731
430.663305	5787.040449
431.040726	5525.160068
431.418086	5525.167630
431.795385	5630.089165
432.172624	5643.261700
432.549802	5632.055215
432.926920	5643.841432
433.303977	5657.376931
433.680974	5696.859247
434.057910	5711.579417
434.434786	5714.757864
434.811601	5684.636970
435.188355	5919.574904
435.565050	5791.441376
435.941683	5772.300115
436.318257	5981.545808
436.694770	5963.644671
437.071222	5993.251367
437.447614	5923.033135
437.823946	5836.521894
438.200218	5987.690975
438.576429	5845.749726
438.952580	5942.592812
439.328670	5980.799717
439.704700	5884.732969
440.080670	5864.757397
440.456580	6126.819259
440.832429	6004.437688
441.208218	5848.116548
441.583947	5991.033260
441.959616	5983.103525
442.335224	5912.280354
442.710773	6030.981883
443.086261	6043.841867
443.461689	5839.740671
443.837057	5974.354602
444.212365	6107.793944
444.587612	5995.847562
444.962800	6131.920907
445.337927	6092.191573
445.712995	5706.122368
446.088002	6240.328400
446.462949	6064.003962
446.837837	5977.883410
447.212664	6130.249764
447.587431	6232.585187
447.962139	6703.343257
448.336786	7512.962647
448.711374	7259.012001
449.085901	6405.892495
449.460369	6305.868441
449.834776	6229.104271
450.209124	6536.687752
450.583412	6626.737883
450.957640	6730.225210
451.331808	6497.102091
451.705917	6079.019038
452.079965	5976.323173
452.453954	6123.303054
452.827883	5985.621581
453.201752	6029.920720
453.575562	5828.536707
453.949311	5946.298060
454.323001	5822.152085
454.696632	5848.391291
455.070202	5906.818264
455.443713	5979.584799
455.817164	6010.411455
456.190556	6021.706160
456.563888	6028.277304
456.937160	6009.264593
457.310373	5720.683741
457.683526	5686.678637
458.056619	5561.128701
458.429653	5497.532024
458.802628	5407.091204
459.175542	5430.915697
459.548398	5599.247386
459.921194	5646.054499
460.293930	5588.701292
460.666607	5835.032233
461.039224	5950.164625
461.411782	5957.993537
461.784280	5901.865330
462.156719	5773.000835
462.529099	5636.481348
462.901419	5347.492162
463.273680	5226.585129
463.645882	5177.605278
464.018024	5037.481366
464.390106	5056.317637
464.762130	5173.015307
465.134094	5322.336805
465.505999	5720.066199
465.877845	6186.907292
466.249631	6384.165122
466.621358	6109.873420
466.993026	5741.037399
467.364634	5545.455753
467.736184	5308.612263
468.107674	5104.180872
468.479105	5023.966032
468.850477	4879.645359
469.221790	4721.022933
469.593043	4537.615674
469.964238	4414.465326
470.335373	4357.661605
470.706449	4311.620747
471.077467	4251.096654
471.448425	4548.295358
471.819324	4762.771248
472.190164	4699.802196
472.560945	4311.025891
472.931667	4052.545768
473.302330	3962.770380
473.672934	3831.957479
474.043479	3847.050693
474.413965	3785.478040
474.784393	3704.754044
475.154761	3683.682021
475.525070	3651.950478
475.895321	3577.379210
476.265513	3559.576375
476.635645	3545.405691
477.005719	3497.340810
477.375734	3474.998416
477.745691	3461.956951
478.115588	3433.683640
478.485427	3417.171340
478.855207	3446.641926
479.224928	3503.949763
479.594591	3531.850029
479.964194	3450.218624
480.333739	3392.058833
480.703226	3328.116837
481.072653	3299.220943
481.442022	3284.528500
481.811333	3269.866304
482.180584	3210.199207
482.549777	3148.276194
482.918912	3105.532251
483.287988	3078.183991
483.657005	3048.579815
484.025964	3000.882938
484.394864	2973.043166
484.763706	2949.538786
485.132489	2914.139804
485.501213	2891.804972
485.869879	2873.641694
486.238487	2846.283352
486.607036	2835.744820
486.975527	2811.179278
487.343959	2802.148051
487.712333	2789.197326
488.080648	2774.709050
488.448905	2762.569952
488.817104	2746.617220
489.185244	2743.905080
489.553326	2736.819738
489.921350	2737.800242
490.289315	2753.069897
490.657222	2749.107550
491.025070	2739.269739
491.392861	2728.950497
491.760593	2710.832590
492.128267	2699.230374
492.495883	2687.174455
492.863440	2676.754390
493.230939	2666.387257
493.598380	2660.095897
493.965763	2650.989052
494.333088	2649.254896
494.700354	2640.936992
495.067563	2643.160141
495.434713	2635.903400
495.801805	2635.099336
496.168839	2635.341311
496.535815	2630.363172
496.902733	2630.955507
497.269593	2626.751185
497.636395	2622.453601
498.003139	2623.053498
498.369825	2619.292798
498.736453	2620.595936
499.103023	2617.384721
499.469535	2618.206429
499.835989	2615.670729
500.202385	2614.450769
500.568723	2610.743001
500.935003	2613.445059
501.301226	2608.913062
501.667390	2613.074534
502.033497	2615.658126
502.399546	2610.246447
502.765537	2608.814759
503.131470	2606.911724
503.497345	2608.073710
503.863163	2607.007506
504.228923	2607.572115
504.594625	2608.681169
504.960269	2603.745879
505.325856	2606.826024
505.691385	2603.221599
506.056856	2603.380396
506.422270	2603.743359
506.787625	2599.070209
507.152924	2598.571135
507.518164	2599.029880
507.883347	2598.654314
508.248472	2598.240939
508.613540	2597.562904
508.978550	2597.870414
509.343503	2597.643562
509.708398	2600.779160
510.073236	2601.028697
510.438016	2599.130703
510.802738	2599.748244
511.167403	2595.710280
511.532010	2596.683223
511.896561	2596.403439
512.261053	2601.149685
512.625488	2595.138109
512.989866	2593.129209
513.354186	2594.349168
513.718449	2590.064188
514.082655	2596.595002
514.446803	2597.507451
514.810894	2599.518872
515.174927	2596.894951
515.538904	2596.894951
515.902822	2596.206834
516.266684	2596.988212
516.630488	2595.947214
516.994235	2599.901999
517.357925	2595.168356
517.721558	2596.098449
518.085133	2597.935949
518.448651	2598.150198
518.812112	2595.732965
519.175516	2594.747420
519.538863	2599.286979
519.902152	2596.347986
520.265385	2598.235898
520.628560	2595.627101
520.991678	2595.611977
521.354739	2597.777153
521.717743	2595.243973
522.080690	2592.859508
522.443580	2596.600044
522.806413	2595.919488
523.169189	2597.855291
523.531908	2597.678851
523.894569	2594.107193
524.257174	2598.944180
524.619722	2598.109869
524.982213	2595.685074
525.344647	2595.488469
525.707025	2598.064499
526.069345	2596.204313
526.431608	2596.630291
526.793815	2598.339242
527.155964	2598.006526
527.518057	2596.857142
527.880093	2596.521906
528.242072	2599.102977
528.603995	2599.617174
528.965860	2595.790938
529.327669	2596.451330
529.689421	2595.816144
530.051117	2597.162132
530.412755	2599.418049
530.774337	2597.681371
531.135862	2596.295054
531.497331	2595.296905
531.858743	2590.349013
532.220098	2590.714497
532.581396	2592.330186
532.942638	2591.233735
533.303824	2595.743048
533.664953	2592.655341
534.026025	2593.068715
534.387040	2596.282451
534.747999	2594.941504
535.108902	2597.210023
535.469748	2594.460074
535.830537	2594.558376
536.191270	2592.395721
536.551947	2596.751278
536.912567	2593.043510
537.273131	2593.371185
537.633638	2596.426124
537.994089	2594.772625
538.354483	2593.161977
538.714821	2593.971082
539.075103	2593.829930
539.435328	2593.131730
539.795497	2594.805393
540.155609	2595.412852
540.515665	2594.815475
540.875665	2597.215064
541.235609	2593.877821
541.595496	2595.007039
541.955328	2594.944025
542.315102	2594.066864
542.674821	2595.768253
543.034483	2594.936463
543.394090	2595.228850
543.753640	2595.453181
544.113134	2593.078798
544.472571	2595.440578
544.831953	2597.260435
545.191278	2596.116093
545.550548	2594.563417
545.909761	2595.049889
546.268918	2593.479569
546.628019	2597.202462
546.987064	2595.886720
547.346053	2595.251535
547.704986	2596.010229
548.063863	2594.520568
548.422684	2594.621391
548.781449	2593.366143
549.140158	2594.760022
549.498811	2594.308839
549.857408	2592.672985
550.215949	2593.308170
550.574434	2589.030751
550.932864	2593.580392
551.291237	2593.560228
551.649555	2595.722883
552.007817	2596.539550
552.366022	2597.368820
552.724173	2596.126175
553.082267	2592.239446
553.440305	2599.339911
553.798288	2594.941504
554.156215	2596.300095
554.514086	2594.311360
554.871902	2594.374374
555.229661	2593.862697
555.587365	2596.539550
555.945014	2594.036617
556.302606	2593.456884
556.660143	2595.349837
557.017625	2596.358068
557.375050	2594.631473
557.732421	2599.649942
558.089735	2596.113572
558.446994	2593.174580
558.804197	2592.836822
559.161345	2597.182297
559.518437	2593.973602
559.875474	2593.114086
560.232455	2597.512492
560.589381	2595.417893
560.946251	2596.204313
561.303065	2596.058120
561.659825	2595.433017
562.016528	2597.925867
562.373177	2592.612491
562.729770	2594.664241
563.086307	2597.305805
563.442789	2594.404621
563.799216	2596.859663
564.155587	2594.402101
564.511904	2596.809252
564.868164	2594.134919
565.224370	2595.256576
565.580520	2594.172728
565.936615	2598.364447
566.292654	2593.396390
566.648638	2595.838829
567.004567	2593.114086
567.360441	2595.087697
567.716260	2592.720876
568.072023	2595.012080
568.427732	2590.016297
568.783385	2592.433530
569.138982	2590.182655
569.494525	2593.512337
569.850013	2592.209199
570.205445	2594.724734
570.560823	2593.746751
570.916145	2591.692480
571.271412	2593.519899
571.626625	2592.839343
571.981782	2592.942687
572.336884	2594.233222
572.691931	2593.792121
573.046923	2591.019486
573.401860	2592.655341
573.756743	2591.737851
574.111570	2592.151225
574.466342	2592.778849
574.821059	2589.592840
575.175722	2591.105186
575.530330	2591.160639
575.884882	2593.358582
576.239380	2592.458736
576.593823	2592.367995
576.948211	2590.855649
577.302544	2588.685432
577.656823	2591.100145
578.011047	2591.788262
578.365216	2592.315063
578.719330	2591.644589
579.073389	2588.425813
579.427394	2585.960688
579.781344	2589.529825
580.135239	2589.663416
580.489080	2589.348344
580.842866	2587.132757
581.196597	2592.393201
581.550273	2590.061667
581.903895	2589.315576
582.257463	2588.720720
582.610975	2586.653847
582.964434	2589.371029
583.317837	2588.940010
583.671186	2589.605443
584.024481	2588.609815
584.377721	2587.682242
584.730906	2584.092941
585.084037	2587.157962
585.437113	2586.679053
585.790135	2589.166862
586.143103	2587.311718
586.496016	2588.501430
586.848874	2582.719227
587.201679	2586.618559
587.554428	2579.596232
587.907124	2584.637386
588.259765	2586.041347
588.612352	2587.243662
588.964884	2584.173599
589.317362	2583.361974
589.669786	2586.152252
590.022155	2588.140987
590.374470	2587.866245
590.726731	2586.258117
591.078937	2585.348188
591.431090	2584.758373
591.783188	2588.163673
592.135232	2585.040678
592.487222	2582.691500
592.839157	2583.591346
593.191038	2585.663260
593.542866	2585.101172
593.894639	2585.287694
594.246358	2582.404154
594.598022	2583.954309
594.949633	2584.788620
595.301190	2581.960533
595.652692	2584.234093
596.004141	2582.293249
596.355535	2583.283836
596.706876	2583.112437
597.058162	2582.383990
597.409395	2583.180492
597.760573	2584.014803
598.111698	2582.978846
598.462768	2581.101016
598.813785	2584.287025
599.164748	2580.796026
599.515657	2580.758218
599.866511	2580.833835
600.217312	2582.013465
600.568060	2580.848958
600.918753	2585.963209
601.269392	2583.440112
601.619978	2580.105388
601.970510	2581.839545
602.320988	2582.933476
602.671412	2582.714185
603.021783	2582.593198
603.372100	2582.192426
603.722363	2580.022209
604.072572	2581.945409
604.422728	2585.106213
604.772830	2578.066242
605.122878	2576.006930
605.472872	2579.336612
605.822813	2577.315110
606.172701	2580.160841
606.522534	2582.724268
606.872314	2583.404823
607.222041	2580.052456
607.571714	2582.840214
607.921333	2579.984401
608.270899	2579.739905
608.620411	2583.069587
608.969870	2581.615214
609.319276	2583.508167
609.668627	2584.327355
610.017926	2587.339444
610.367171	2589.441605
610.716362	2589.481934
611.065500	2588.597212
611.414585	2584.609659
611.763616	2585.065884
612.112594	2584.468507
612.461518	2583.964392
612.810389	2584.897005
613.159207	2584.092941
613.507971	2584.473548
613.856682	2584.730647
614.205340	2584.529001
614.553945	2583.540935
614.902496	2582.943558
615.250994	2585.718713
615.599439	2580.669997
615.947830	2581.544638
616.296169	2581.431212
616.644454	2583.235945
616.992686	2581.537076
617.340864	2582.328537
617.688990	2582.550348
618.037063	2582.860379
618.385082	2582.651171
618.733048	2585.393559
619.080961	2582.131932
619.428821	2583.959350
619.776628	2582.235276
620.124382	2583.782910
620.472083	2582.136973
620.819731	2582.893146
621.167326	2583.475400
621.514868	2581.428691
621.862357	2582.872982
622.209793	2579.911304
622.557176	2581.078331
622.904506	2579.054308
623.251783	2574.892835
623.599007	2576.450552
623.946179	2575.054152
624.293297	2574.577763
624.640363	2576.369893
624.987376	2578.943402
625.334336	2578.308217
625.681243	2575.558268
626.028097	2577.733525
626.374899	2576.377455
626.721647	2576.707651
627.068343	2572.432752
627.414987	2574.479461
627.761577	2573.592217
628.108115	2575.190263
628.454600	2573.617423
628.801032	2577.365521
629.147412	2574.277814
629.493739	2576.362332
629.840014	2576.392578
630.186236	2577.110943
630.532405	2574.731518
630.878521	2574.207238
631.224585	2575.520459
631.570597	2571.051476
631.916556	2573.178843
632.262462	2575.233113
632.608316	2574.948288
632.954117	2572.541137
633.299866	2576.256467
633.645562	2571.381672
633.991206	2571.447207
634.336797	2569.516445
634.682336	2570.743966
635.027823	2571.303534
635.373257	2570.580128
635.718639	2567.686506
636.063968	2571.553071
636.409245	2570.587690
636.754470	2568.538461
637.099642	2570.799418
637.444762	2567.807493
637.789829	2567.368913
638.134845	2571.283369
638.479808	2567.613409
638.824719	2571.253122
639.169577	2569.219017
639.514383	2569.047617
639.859137	2567.288255
640.203839	2566.637946
640.548489	2568.898903
640.893086	2564.384550
641.237632	2563.933367
641.582125	2567.237843
641.926566	2561.107800
642.270955	2566.927812
642.615292	2566.746331
642.959576	2566.920250
643.303809	2567.321022
643.647990	2567.205076
643.992118	2568.107442
644.336195	2568.130127
644.680219	2566.907647
645.024192	2566.922771
645.368112	2566.809345
645.711981	2567.333625
646.055797	2570.214644
646.399562	2569.014850
646.743274	2567.774726
647.086935	2568.924109
647.430544	2572.044583
647.774101	2570.277659
648.117606	2570.416291
648.461059	2568.528378
648.804460	2571.414439
649.147810	2569.256825
649.491108	2568.795560
649.834354	2567.938563
650.177548	2568.001578
650.520690	2565.468398
650.863781	2563.356155
651.206820	2569.425704
651.549807	2566.529561
651.892742	2566.680796
652.235626	2565.962431
652.578458	2565.538974
652.921238	2564.873542
653.263967	2565.430589
653.606644	2563.502348
653.949269	2562.879766
654.291843	2564.225754
654.634365	2567.782288
654.976836	2562.161401
655.319255	2564.366906
655.661622	2563.008315
656.003938	2565.027297
656.346203	2563.172153
656.688416	2563.885476
657.030577	2563.905640
657.372687	2564.387071
657.714746	2564.218192
658.056753	2562.393294
658.398708	2556.636297
658.740612	2561.760629
659.082465	2562.471432
659.424266	2559.119065
659.766016	2560.205433
660.107715	2563.464539
660.449362	2563.696433
660.790958	2561.841288
661.132503	2563.235167
661.473996	2564.008984
661.815438	2564.520661
662.156829	2563.593089
662.498168	2565.889334
662.839456	2561.627039
663.180693	2565.942267
663.521879	2566.479149
663.863013	2561.455640
664.204097	2561.465722
664.545129	2564.225754
664.886110	2563.537636
665.227040	2564.253480
665.567918	2561.642162
665.908746	2565.470919
666.249522	2561.594271
666.590248	2564.966803
666.930922	2561.589230
667.271545	2562.441185
667.612118	2565.170970
667.952639	2563.300702
668.293109	2564.649211
668.633528	2562.703325
668.973896	2560.417162
669.314213	2564.946639
669.654480	2563.663665
669.994695	2562.660475
670.334859	2562.413459
670.674973	2562.852039
671.015035	2560.765002
671.355047	2558.975392
671.695008	2561.687533
672.034918	2564.147616
672.374777	2564.601320
672.714585	2563.194838
673.054342	2563.207441
673.394049	2562.249621
673.733705	2563.333469
674.073310	2563.777091
674.412864	2565.125600
674.752368	2561.642162
675.091820	2561.069991
675.431223	2561.584189
675.770574	2562.216854
676.109875	2554.259393
676.449125	2557.100083
676.788324	2558.829198
677.127473	2558.791390
677.466571	2557.326935
677.805619	2561.064950
678.144616	2561.869014
678.483562	2561.722821
678.822458	2560.875907
679.161303	2561.979920
679.500098	2561.601833
679.838842	2559.131668
680.177535	2558.274672
680.516179	2560.570917
680.854771	2561.296843
681.193314	2558.226781
681.531805	2561.884138
681.870247	2562.809189
682.208638	2562.345403
682.546978	2565.039900
682.885268	2562.703325
683.223508	2564.278686
683.561697	2560.281051
683.899836	2562.758778
684.237925	2561.667368
684.575963	2562.035372
684.913951	2561.793397
685.251889	2563.116700
685.589776	2562.879766
685.927614	2562.685681
686.265401	2560.641493
686.603137	2562.776422
686.940824	2563.325908
687.278460	2561.057388
687.616046	2562.978068
687.953582	2564.876062
688.291068	2560.107131
688.628504	2563.283058
688.965889	2562.849519
689.303224	2563.109138
689.640510	2562.438665
689.977745	2562.700805
690.314930	2560.523026
690.652065	2561.664847
690.989150	2561.380022
691.326185	2559.610577
691.663170	2559.136709
692.000105	2558.627552
692.336990	2557.032027
692.673825	2558.272151
693.010610	2556.613611
693.347345	2556.646379
693.684030	2550.244113
694.020665	2553.120092
694.357251	2549.119936
694.693786	2552.963816
695.030272	2553.339382
695.366707	2554.153528
695.703093	2552.681511
696.039429	2553.624207
696.375716	2554.085473
696.711952	2555.449105
697.048139	2554.889537
697.384276	2554.647561
697.720363	2554.297201
698.056400	2553.563713
698.392388	2554.019938
698.728326	2553.591440
699.064214	2554.163611
699.400053	2552.517674
699.735842	2552.555482
700.071581	2551.234700
700.407270	2551.199412
700.742910	2554.455997
701.078501	2552.585729
701.414042	2550.450801
701.749533	2549.452652
702.084974	2550.564227
702.420366	2552.036244
702.755709	2550.765873
703.091002	2548.777138
703.426246	2551.935421
703.761440	2550.604556
704.096584	2551.862324
704.431679	2549.896274
704.766725	2551.048178
705.101721	2552.661347
705.436668	2550.309648
705.771565	2551.758980
706.106413	2550.455842
706.441212	2549.130018
706.775961	2550.102961
707.110661	2550.589432
707.445311	2550.712941
707.779913	2551.537169
708.114465	2553.127653
708.448967	2553.515822
708.783421	2553.961964
709.117825	2552.031202
709.452180	2553.999773
709.786485	2552.908363
710.120742	2553.104968
710.454949	2552.989022
710.789107	2553.223435
711.123216	2551.665719
711.457275	2553.682180
711.791286	2551.501881
712.125247	2551.610266
712.459159	2557.077397
712.793023	2558.017573
713.126837	2553.818292
713.460602	2555.136553
713.794318	2554.145967
714.127985	2551.053219
714.461602	2552.333672
714.795171	2553.052036
715.128691	2554.309804
715.462162	2554.566903
715.795584	2553.394835
716.128957	2549.377035
716.462281	2552.555482
716.795556	2554.634958
717.128782	2552.714279
717.461960	2549.795451
717.795088	2549.349309
718.128167	2549.127498
718.461198	2549.293856
718.794180	2551.874927
719.127113	2546.657333
719.459997	2550.959957
719.792833	2547.035419
720.125619	2550.780996
720.458357	2545.989380
720.791046	2546.952240
721.123686	2548.111705
721.456278	2549.238403
721.788821	2547.980635
722.121315	2546.291849
722.453761	2546.609442
722.786158	2547.869730
723.118506	2548.227652
723.450805	2548.855276
723.783056	2548.646068
724.115259	2549.709751
724.447412	2548.706562
724.779518	2550.579350
725.111574	2549.339226
725.443582	2548.502395
725.775542	2548.225131
726.107453	2544.955943
726.439315	2547.990718
726.771129	2549.762683
727.102895	2548.197405
727.434612	2546.619524
727.766281	2548.923331
728.097901	2545.271015
728.429473	2544.136756
728.760996	2547.605069
729.092471	2545.288659
729.423897	2550.239072
729.755276	2546.647250
730.086606	2547.723537
730.417887	2551.680842
730.749120	2550.055070
731.080305	2551.564896
731.411442	2551.595143
731.742530	2551.154042
732.073570	2550.962478
732.404562	2551.370811
732.735506	2550.660009
733.066401	2550.526418
733.397249	2551.083466
733.728048	2551.138918
734.058798	2548.555327
734.389501	2547.436191
734.720156	2549.084648
735.050762	2548.225131
735.381320	2546.390151
735.711831	2546.823691
736.042293	2546.934596
736.372707	2548.588094
736.703073	2547.302600
737.033391	2547.138763
737.363661	2548.595656
737.693883	2546.493495
738.024056	2549.024154
738.354182	2548.464586
738.684260	2547.673125
739.014290	2545.646581
739.344272	2547.937786
739.674207	2549.067004
740.004093	2550.420554
740.333931	2547.655481
740.663722	2550.647406
740.993464	2547.138763
741.323159	2549.286294
741.652806	2546.410316
741.982405	2546.102806
742.311956	2546.233876
742.641460	2547.171530
742.970915	2545.840666
743.300323	2545.298742
743.629683	2546.251520
743.958996	2545.817980
744.288260	2545.205480
744.617477	2545.896118
744.946647	2543.380583
745.275768	2542.384955
745.604842	2540.887732
745.933869	2542.843700
746.262847	2540.731456
746.591778	2545.729760
746.920662	2544.736653
747.249498	2545.873433
747.578286	2543.917465
747.907027	2545.119781
748.235720	2547.063145
748.564365	2544.590459
748.892963	2544.524924
749.221514	2544.822352
749.550017	2546.032229
749.878473	2545.434853
750.206881	2544.129194
750.535242	2544.424101
750.863555	2547.206818
751.191821	2545.699513
751.520039	2542.543751
751.848210	2546.899308
752.176334	2544.061138
752.504411	2543.834286
752.832440	2545.054246
753.160421	2544.706406
753.488356	2544.577857
753.816243	2544.287990
754.144082	2547.085831
754.471875	2543.645243
754.799620	2546.778320
755.127318	2541.351518
755.454969	2544.925696
755.782572	2542.639533
756.110129	2545.475182
756.437638	2543.264636
756.765100	2540.086188
757.092515	2545.916283
757.419882	2542.992414
757.747203	2543.362938
758.074477	2546.183464
758.401703	2542.821014
758.728882	2544.628268
759.056014	2542.758000
759.383099	2543.035263
759.710138	2544.729091
760.037129	2543.862013
760.364073	2545.878474
760.690970	2544.323278
761.017820	2544.330840
761.344623	2543.252033
761.671379	2544.456869
761.998088	2540.010571
762.324751	2546.440563
762.651366	2546.574153
762.977935	2556.979095
763.304456	2554.423230
763.630931	2558.589744
763.957359	2557.521019
764.283740	2555.176882
764.610074	2553.863662
764.936362	2548.283105
765.262602	2548.479710
765.588796	2547.511808
765.914943	2542.838658
766.241044	2544.066179
766.567097	2543.506611
766.893104	2546.906870
767.219064	2542.561395
767.544978	2544.517363
767.870845	2543.914945
768.196665	2544.950902
768.522438	2543.367980
768.848165	2544.701365
769.173846	2541.815304
769.499479	2542.311858
769.825066	2539.808925
770.150607	2541.149872
770.476101	2541.656508
770.801548	2541.530479
771.126949	2539.095602
771.452303	2540.365973
771.777611	2540.607948
772.102872	2540.446631
772.428087	2538.722556
772.753256	2540.580222
773.078378	2538.921682
773.403453	2541.066693
773.728482	2536.897659
774.053465	2541.285983
774.378401	2539.050231
774.703291	2536.927906
775.028135	2537.074099
775.352932	2538.054603
775.677683	2539.834131
776.002388	2539.198945
776.327046	2538.493184
776.651658	2539.851775
776.976224	2538.460416
777.300743	2536.975797
777.625216	2538.301620
777.949643	2540.371014
778.274024	2539.635005
778.598359	2532.695857
778.922647	2535.972607
779.246889	2535.816331
779.571086	2535.846578
779.895236	2535.647453
780.219339	2539.226672
780.543397	2536.869932
780.867409	2538.611651
781.191374	2537.747093
781.515294	2537.520241
781.839167	2539.466127
782.162995	2538.047042
782.486776	2537.043852
782.810511	2537.744572
783.134201	2537.946219
783.457844	2540.161806
783.781441	2539.433359
784.104993	2540.426466
784.428498	2540.348328
784.751958	2538.157947
785.075372	2536.290200
785.398739	2538.858668
785.722061	2536.643080
786.045337	2537.542926
786.368568	2538.747762
786.691752	2535.372710
787.014891	2539.085519
787.337983	2537.069058
787.661030	2542.475695
787.984031	2540.318082
788.306987	2541.439738
788.629897	2541.442259
788.952760	2539.831610
789.275579	2542.473175
789.598351	2542.074924
789.921078	2538.979655
790.243759	2540.166847
790.566395	2538.883873
790.888984	2537.434542
791.211529	2538.896476
791.534027	2538.936805
791.856480	2539.385468
792.178888	2536.832124
792.501249	2537.210210
792.823566	2538.238606
793.145836	2537.386651
793.468062	2537.479912
793.790241	2538.402443
794.112375	2537.827752
794.434464	2537.041332
794.756507	2539.849254
795.078505	2538.384799
795.400457	2538.155427
795.722364	2533.608306
796.044226	2537.270704
796.366042	2535.110570
796.687812	2536.292720
797.009538	2539.274563
797.331218	2540.088709
797.652852	2536.577545
797.974442	2538.883873
798.295986	2537.500077
798.617484	2537.825231
798.938938	2538.543595
799.260346	2538.631816
799.581709	2536.050745
799.903026	2540.103833
800.224299	2539.526620
800.545526	2535.581918
800.866708	2535.329860
801.187845	2537.880684
801.508936	2535.871784
801.829983	2538.412525
802.150984	2535.501259
802.471940	2536.935467
802.792851	2536.582587
803.113717	2536.622916
803.434538	2536.975797
803.755314	2536.670807
804.076045	2533.993954
804.396731	2536.670807
804.717372	2535.229037
805.037967	2536.383461
805.358518	2535.465971
805.679024	2537.573173
805.999485	2538.682227
806.319901	2538.218441
806.640272	2534.727442
806.960598	2534.412370
807.280879	2537.048893
807.601115	2539.546785
807.921306	2535.488656
808.241453	2534.951773
808.561554	2536.867412
808.881611	2538.228523
809.201623	2539.299768
809.521590	2536.940508
809.841513	2537.479912
810.161390	2535.813811
810.481223	2537.333718
810.801011	2535.934798
811.120755	2535.662576
811.440453	2538.283976
811.760107	2538.175591
812.079716	2535.937319
812.399281	2535.337422
812.718801	2534.369520
813.038276	2529.535053
813.357707	2537.258101
813.677093	2537.437062
813.996434	2535.090405
814.315731	2533.981351
814.634983	2535.801208
814.954191	2535.415559
815.273354	2536.164171
815.592473	2536.731301
815.911547	2535.123172
816.230577	2538.823379
816.549562	2536.428831
816.868502	2537.381609
817.187399	2536.620395
817.506250	2537.283307
817.825058	2537.311033
818.143821	2535.982689
818.462539	2539.942516
818.781213	2539.453524
819.099843	2538.248688
819.418429	2541.046528
819.736970	2542.425284
820.055466	2544.673638
820.373919	2543.650284
820.692327	2548.819987
821.010691	2552.789896
821.329011	2565.932184
821.647286	2586.900864
821.965517	2609.349122
822.283704	2624.016359
822.601847	2630.552215
822.919945	2620.976543
823.237999	2604.217227
823.556010	2589.756677
823.873976	2579.523135
824.191897	2570.307906
824.509775	2565.571742
824.827609	2561.879097
825.145398	2555.746533
825.463144	2555.101265
825.780845	2553.546069
826.098502	2556.986657
826.416116	2565.851526
826.733685	2572.473081
827.051210	2576.425346
827.368692	2571.046435
827.686129	2565.470919
828.003522	2557.584033
828.320872	2550.566747
828.638177	2547.380738
828.955439	2543.446118
829.272656	2538.296579
829.589830	2539.803884
829.906960	2539.589635
830.224046	2542.392516
830.541088	2539.997968
830.858086	2539.284645
831.175041	2539.418236
831.491952	2538.546116
831.808819	2540.665921
832.125642	2539.387989
832.442421	2541.774975
832.759157	2543.816642
833.075849	2550.556665
833.392497	2552.429454
833.709101	2553.014228
834.025662	2555.224773
834.342179	2552.797458
834.658653	2547.577343
834.975083	2547.166489
835.291469	2547.852086
835.607811	2541.172557
835.924110	2540.804553
836.240366	2536.753986
836.556578	2538.997299
836.872746	2535.549150
837.188871	2535.042514
837.504952	2535.632329
837.820990	2536.242309
838.136984	2538.301620
838.452935	2532.816845
838.768842	2536.189377
839.084706	2534.097298
839.400526	2536.443955
839.716303	2539.113246
840.032037	2540.184491
840.347727	2543.773792
840.663373	2542.246323
840.978977	2541.074255
841.294537	2539.728267
841.610054	2534.891279
841.925527	2531.251566
842.240957	2535.574356
842.556344	2534.624098
842.871687	2532.932791
843.186987	2535.077802
843.502244	2530.213089
843.817458	2534.165353
844.132629	2535.944881
844.447756	2531.881711
844.762840	2530.727286
845.077881	2530.833151
845.392879	2530.560928
845.707833	2531.927081
846.022745	2528.027748
846.337613	2532.345497
846.652438	2530.966741
846.967221	2531.957328
847.281960	2531.773326
847.596656	2533.510003
847.911309	2531.780888
848.225919	2532.975641
848.540485	2531.722914
848.855009	2531.735517
849.169490	2529.756864
849.483928	2532.398429
849.798323	2529.633356
850.112675	2532.592513
850.426984	2532.998326
850.741251	2534.205682
851.055474	2532.494211
851.369654	2533.477236
851.683792	2533.492359
851.997887	2533.527647
852.311938	2530.553367
852.625947	2530.941535
852.939914	2531.473377
853.253837	2531.521268
853.567718	2532.295085
853.881555	2534.019160
854.195350	2531.614529
854.509103	2530.747451
854.822812	2532.847092
855.136479	2533.323481
855.450103	2531.876669
855.763685	2530.260980
856.077224	2531.165867
856.390720	2532.282482
856.704173	2532.615198
857.017584	2530.434899
857.330953	2530.094622
857.644278	2533.099149
857.957561	2535.007226
858.270802	2531.158305
858.584000	2530.208048
858.897155	2533.719211
859.210268	2531.324663
859.523339	2534.767771
859.836367	2531.559077
860.149352	2532.090918
860.462295	2533.550333
860.775195	2530.104704
861.088054	2527.692512
861.400869	2531.188552
861.713642	2527.632018
862.026373	2530.029087
862.339062	2534.213244
862.651708	2533.547812
862.964312	2530.145033
863.276873	2532.017822
863.589392	2533.391536
863.901869	2529.635877
864.214303	2533.099149
864.526696	2533.557894
864.839045	2532.131248
865.151353	2532.060672
865.463619	2533.978831
865.775842	2534.356917
866.088023	2533.109232
866.400162	2534.331711
866.712258	2532.617719
867.024313	2535.176105
867.336325	2531.508665
867.648296	2533.888090
867.960224	2531.201155
868.272110	2533.484798
868.583954	2532.169056
868.895755	2532.950435
869.207515	2530.573531
869.519233	2530.137471
869.830909	2532.489170
870.142542	2531.730476
870.454134	2535.725590
870.765684	2536.794315
871.077191	2532.602596
871.388657	2532.892462
871.700081	2531.319622
872.011463	2531.904396
872.322803	2532.108562
872.634101	2531.675023
872.945357	2532.469005
873.256571	2534.263656
873.567744	2532.126207
873.878874	2535.801208
874.189963	2533.149561
874.501010	2536.910262
874.812015	2532.844571
875.122979	2534.051927
875.433900	2533.008408
875.744780	2536.058307
876.055618	2535.022349
876.366415	2534.188038
876.677169	2535.914634
876.987882	2531.352389
877.298554	2528.317615
877.609183	2532.408511
877.919771	2531.420445
878.230317	2533.588141
878.540822	2537.177443
878.851285	2536.670807
879.161707	2538.304141
879.472087	2538.475540
879.782425	2541.306148
880.092722	2545.996941
880.402977	2549.742519
880.713191	2564.228274
881.023363	2578.721592
881.333494	2588.612335
881.643583	2588.589650
881.953631	2585.375915
882.263637	2582.749473
882.573602	2579.933989
882.883526	2573.788822
883.193408	2566.214489
883.503248	2561.226267
883.813048	2557.276523
884.122806	2552.862993
884.432522	2549.243444
884.742197	2546.556509
885.051831	2543.919986
885.361424	2540.343287
885.670975	2543.128525
885.980485	2540.401261
886.289954	2539.997968
886.599382	2537.694161
886.908768	2536.103677
887.218113	2537.686599
887.527417	2537.096784
887.836680	2538.112577
888.145901	2535.783564
888.455082	2534.931609
888.764221	2534.263656
889.073319	2535.327339
889.382376	2534.127545
889.691392	2532.532019
890.000366	2534.505631
890.309300	2533.799870
890.618193	2536.448996
890.927044	2534.523275
891.235855	2536.078471
891.544625	2535.229037
891.853353	2534.717360
892.162041	2535.632329
892.470687	2536.557381
892.779293	2535.508821
893.087858	2535.047555
893.396381	2535.750796
893.704864	2538.616692
894.013306	2539.337577
894.321707	2546.642209
894.630068	2550.438198
894.938387	2554.178734
895.246665	2551.012889
895.554903	2548.648588
895.863100	2544.242620
896.171256	2544.046015
896.479371	2543.189019
896.787446	2543.423432
897.095480	2541.079296
897.403473	2537.111908
897.711425	2537.910931
898.019336	2536.683410
898.327207	2537.847916
898.635038	2534.699716
898.942827	2535.037473
899.250576	2534.029242
899.558284	2535.357586
899.865952	2534.112421
900.173579	2533.537730
900.481165	2532.451361
900.788711	2535.332380
901.096216	2532.728624
901.403681	2536.431352
901.711105	2533.320960
902.018489	2531.370033
902.325832	2536.935467
902.633135	2534.782895
902.940397	2534.102339
903.247619	2538.442772
903.554800	2541.071734
903.861941	2545.780172
904.169041	2553.462890
904.476101	2559.431616
904.783121	2559.716442
905.090100	2555.058415
905.397039	2551.922818
905.703938	2546.097764
906.010796	2540.073586
906.317614	2541.323792
906.624391	2539.115766
906.931129	2539.246836
907.237826	2537.316074
907.544483	2531.929602
907.851099	2535.128214
908.157675	2532.758871
908.464211	2531.485980
908.770707	2529.895496
909.077163	2530.739889
909.383578	2525.411390
909.689954	2527.705115
909.996289	2527.654703
910.302584	2530.873480
910.608839	2531.816176
910.915054	2530.525640
911.221229	2530.513037
911.527363	2527.944569
911.833458	2530.172759
912.139513	2531.997657
912.445527	2529.981196
912.751502	2533.131917
913.057436	2532.073274
913.363331	2532.131248
913.669186	2535.019829
913.975000	2532.554705
914.280775	2535.607123
914.586510	2536.209541
914.892205	2539.188863
915.197859	2546.397713
915.503475	2548.157076
915.809050	2549.929041
916.114585	2554.574465
916.420081	2557.838612
916.725536	2554.534135
917.030952	2554.037582
917.336328	2549.193033
917.641665	2548.295707
917.946961	2544.751776
918.252218	2541.764893
918.557435	2540.217258
918.862612	2535.919675
919.167750	2538.130221
919.472848	2537.258101
919.777906	2536.017977
920.082925	2536.222144
920.387904	2536.494366
920.692843	2535.869263
920.997743	2532.864736
921.302603	2532.539581
921.607423	2532.030425
921.912204	2532.365661
922.216946	2534.147709
922.521647	2532.940353
922.826310	2531.985054
923.130932	2533.847761
923.435516	2531.357431
923.740059	2530.419776
924.044564	2530.387008
924.349028	2530.928933
924.653454	2525.875176
924.957840	2527.758047
925.262186	2530.006401
925.566493	2528.042872
925.870761	2525.108920
926.174989	2530.205527
926.479178	2531.100332
926.783328	2529.149405
927.087438	2527.818541
927.391509	2529.678726
927.695541	2529.635877
927.999533	2530.001360
928.303486	2528.297450
928.607400	2529.802235
928.911275	2529.035979
929.215110	2528.151257
929.518906	2528.110928
929.822663	2530.308871
930.126381	2527.533715
930.430060	2528.902389
930.733699	2528.529343
931.037299	2529.585465
931.340861	2528.932636
931.644383	2528.216792
931.947866	2526.792666
932.251309	2530.850795
932.554714	2526.759898
932.858080	2531.775846
933.161407	2527.440454
933.464694	2527.531195
933.767943	2526.185207
934.071153	2532.211906
934.374323	2528.978006
934.677455	2528.602440
934.980548	2528.814168
935.283602	2530.412214
935.586617	2528.983047
935.889593	2527.639580
936.192530	2529.058664
936.495428	2528.373067
936.798287	2528.136133
937.101108	2527.599250
937.403890	2531.561597
937.706632	2531.112935
938.009336	2529.222502
938.312002	2529.313243
938.614628	2529.706453
938.917216	2529.673685
939.219765	2529.610671
939.522275	2531.543953
939.824747	2533.696526
940.127179	2525.829805
940.429573	2528.592358
940.731929	2525.726462
941.034246	2524.070443
941.336524	2529.991278
941.638763	2529.711494
941.940964	2528.025228
942.243126	2528.771319
942.545250	2532.519417
942.847335	2527.989940
943.149381	2527.488345
943.451389	2527.969775
943.753359	2527.203520
944.055290	2532.017822
944.357182	2530.167718
944.659036	2527.921884
944.960851	2531.601927
945.262628	2528.804086
945.564367	2529.824920
945.866067	2527.977337
946.167729	2528.030269
946.469352	2527.584127
946.770937	2526.938859
947.072484	2526.986750
947.373992	2528.491535
947.675462	2528.824251
947.976893	2528.796524
948.278286	2528.121010
948.579641	2527.692512
948.880958	2528.920033
949.182236	2527.437933
949.483476	2528.113448
949.784678	2530.576052
950.085841	2527.168232
950.386967	2531.052441
950.688054	2526.764939
950.989103	2528.340300
951.290114	2528.115969
951.591087	2526.815351
951.892021	2528.035310
952.192917	2531.352389
952.493776	2526.661596
952.794596	2529.396422
953.095378	2529.189734
953.396122	2528.557070
953.696828	2528.320135
953.997496	2528.244518
954.298126	2526.384332
954.598718	2529.978675
954.899272	2528.368026
955.199788	2529.804755
955.500266	2528.236956
955.800706	2526.533046
956.101108	2522.999198
956.401472	2523.145391
956.701798	2523.382325
957.002087	2527.866432
957.302337	2524.514064
957.602550	2526.916174
957.902724	2528.428520
958.202861	2529.409025
958.502960	2528.040351
958.803022	2528.002543
959.103045	2524.284692
959.403031	2527.594209
959.702979	2527.851308
960.002889	2528.012625
960.302762	2527.001874
960.602596	2526.603622
960.902393	2524.937521
961.202153	2527.034641
961.501875	2526.628828
961.801559	2526.023890
962.101205	2526.260824
962.400814	2525.093797
962.700385	2527.110258
962.999918	2526.843077
963.299414	2527.508510
963.598873	2527.969775
963.898293	2527.450536
964.197677	2525.668488
964.497022	2526.941380
964.796331	2527.226205
965.095601	2525.940711
965.394835	2529.542615
965.694030	2526.064219
965.993189	2528.373067
966.292309	2526.953983
966.591393	2527.500948
966.890439	2527.027079
967.189447	2527.016997
967.488419	2526.616225
967.787353	2527.168232
968.086249	2526.616225
968.385108	2528.347862
968.683930	2526.432223
968.982714	2528.705784
969.281462	2524.350227
969.580172	2528.519261
969.878844	2525.285361
970.177480	2525.287881
970.476078	2525.055988
970.774639	2530.588655
971.073162	2525.139167
971.371649	2523.614218
971.670098	2522.553055
971.968510	2524.645134
972.266885	2523.508354
972.565223	2525.902902
972.863524	2527.430372
973.161788	2526.056657
973.460014	2527.523633
973.758204	2524.950124
974.056356	2524.773684
974.354471	2529.212420
974.652550	2526.890968
974.950591	2526.795186
975.248595	2528.466329
975.546563	2525.474404
975.844493	2528.189065
976.142386	2523.364681
976.440243	2524.098169
976.738062	2527.851308
977.035845	2524.710669
977.333590	2526.137316
977.631299	2527.304343
977.928971	2527.957172
978.226606	2528.103366
978.524204	2528.436082
978.821765	2525.910464
979.119290	2528.141174
979.416777	2528.226874
979.714228	2525.494569
980.011642	2524.803931
980.309020	2529.797193
980.606360	2527.274096
980.903664	2523.102541
981.200931	2528.239477
981.498162	2524.287212
981.795356	2527.412728
982.092513	2529.282996
982.389633	2525.877696
982.686717	2528.173942
982.983764	2528.269724
983.280775	2530.815507
983.577749	2526.439785
983.874686	2528.766278
984.171587	2526.119672
984.468451	2529.353572
984.765279	2528.713345
985.062070	2527.385001
985.358824	2527.337110
985.655543	2528.247039
985.952224	2525.671009
986.248869	2524.022552
986.545478	2522.079187
986.842050	2522.122037
987.138586	2520.687828
987.435086	2522.948786
987.731549	2519.906450
988.027975	2524.506503
988.324366	2526.757378
988.620719	2524.317459
988.917037	2527.435413
989.213318	2525.658406
989.509563	2525.562624
989.805772	2525.096318
990.101944	2526.278468
990.398080	2524.531708
990.694180	2528.267203
990.990244	2528.582275
991.286271	2526.785104
991.582262	2525.965917
991.878217	2524.806451
992.174136	2525.161853
992.470019	2527.069929
992.765865	2525.671009
993.061676	2528.257121
993.357450	2525.547501
993.653188	2527.299302
993.948890	2525.050947
994.244556	2524.662778
994.540186	2525.323169
994.835780	2526.361647
995.131337	2526.898530
995.426859	2526.565814
995.722345	2523.873838
996.017795	2526.666637
996.313208	2527.947090
996.608586	2526.454908
996.903928	2526.417100
997.199234	2522.900895
997.494504	2526.409538
997.789738	2523.899043
998.084936	2526.427182
998.380099	2524.221677
998.675225	2524.992974
998.970316	2525.275278
999.265371	2523.856194
999.560390	2522.885772
999.855373	2526.959024
1000.150320	2521.348220
1000.445232	2527.100176
1000.740108	2525.423993
1001.034948	2525.139167
1001.329752	2521.050792
1001.624521	2527.057326
1001.919254	2519.495596
1002.213951	2524.319980
1002.508613	2521.781759
1002.803239	2523.924249
1003.097829	2519.074659
1003.392384	2526.391894
1003.686903	2524.841739
1003.981386	2526.807789
1004.275834	2523.800741
1004.570246	2528.236956
1004.864623	2526.802748
1005.158964	2525.048427
1005.453270	2525.434075
1005.747540	2523.851152
1006.041775	2522.653878
1006.335974	2527.442975
1006.630138	2524.602284
1006.924266	2527.049765
1007.218359	2526.633869
1007.512416	2524.796369
1007.806438	2525.849970
1008.100425	2525.204702
1008.394376	2523.195802
1008.688292	2523.508354
1008.982172	2525.267717
1009.276017	2525.212264
1009.569827	2524.566996
1009.863602	2525.907943
1010.157341	2524.690505
1010.451045	2525.426513
1010.744714	2526.449867
1011.038347	2523.523477
1011.331945	2525.779394
1011.625508	2524.204033
1011.919036	2523.304187
1012.212528	2524.763601
1012.505986	2523.536080
1012.799408	2524.577079
1013.092795	2522.174969
1013.386147	2521.549866
1013.679464	2525.237470
1013.972745	2527.672347
1014.265992	2523.289064
1014.559204	2526.502799
1014.852380	2523.291584
1015.145521	2526.679240
1015.438628	2524.491379
1015.731699	2525.663447
1016.024736	2526.338962
1016.317737	2524.559435
1016.610703	2526.780063
1016.903635	2520.836543
1017.196531	2520.186234
1017.489393	2523.306708
1017.782219	2521.005421
1018.075011	2524.083046
1018.367768	2524.072963
1018.660490	2524.088087
1018.953177	2524.088087
1019.245829	2524.088087
