Dividing Wavelength (nm)	Counts (n)	Blue Motor Position (mm): 0.000000	Red Motor Position (mm): 26.700000	
326.493990	2126.761985
326.888308	2126.761985
327.282561	2126.761985
327.676750	2095.053127
328.070874	2091.733527
328.464933	2096.472212
328.858929	2103.549992
329.252859	2112.243462
329.646726	2125.952879
330.040528	2135.692389
330.434265	2153.596047
330.827938	2169.657163
331.221547	2189.428568
331.615091	2209.018492
332.008571	2226.899465
332.401986	2248.951992
332.795338	2267.672317
333.188625	2286.495985
333.581847	2302.998203
333.975006	2323.407314
334.368100	2341.925993
334.761129	2359.554908
335.154095	2375.033770
335.546996	2393.933056
335.939833	2408.552402
336.332606	2425.344486
336.725315	2440.417536
337.117960	2444.664708
337.510540	2457.247428
337.903056	2466.160188
338.295508	2474.652012
338.687896	2485.404793
339.080220	2488.777325
339.472480	2498.040445
339.864676	2502.632936
340.256807	2505.226610
340.648875	2509.345232
341.040879	2510.250119
341.432818	2514.804802
341.824694	2515.434946
342.216506	2514.104082
342.608253	2515.369411
342.999937	2514.625841
343.391557	2515.596263
343.783113	2512.995028
344.174605	2512.629544
344.566033	2511.570902
344.957397	2509.239368
345.348697	2508.644512
345.739934	2505.002278
346.131106	2507.548061
346.522215	2502.758965
346.913260	2501.145796
347.304241	2501.402894
347.695159	2498.625219
348.086012	2497.052379
348.476802	2496.780156
348.867528	2490.647593
349.258191	2491.859990
349.648789	2494.282265
350.039324	2488.414362
350.429796	2490.667757
350.820203	2489.178096
351.210548	2486.917139
351.600828	2485.230873
351.991045	2487.446460
352.381198	2483.716006
352.771288	2484.194916
353.161314	2483.244658
353.551276	2482.102837
353.941175	2483.254741
354.331010	2485.273723
354.720782	2484.157107
355.110490	2481.414719
355.500135	2485.142653
355.889717	2485.298928
356.279235	2486.191213
356.668689	2487.229690
357.058080	2486.690287
357.447408	2481.404637
357.836672	2483.494195
358.225873	2485.185503
358.615010	2482.576705
359.004084	2486.798672
359.393095	2487.711121
359.782043	2488.454691
360.170927	2488.689104
360.559748	2489.888899
360.948505	2491.393683
361.337199	2489.147849
361.725830	2492.016266
362.114398	2492.835453
362.502903	2493.604229
362.891344	2494.511637
363.279722	2494.425938
363.668037	2495.350989
364.056289	2497.216216
364.444478	2496.502893
364.832603	2495.595485
365.220665	2495.547594
365.608665	2499.545229
365.996601	2495.913078
366.384474	2500.588748
366.772284	2500.979438
367.160031	2502.259891
367.547715	2504.810714
367.935336	2506.028153
368.322893	2508.705006
368.710388	2512.042250
369.097820	2519.402334
369.485189	2520.939886
369.872495	2529.681247
370.259738	2534.934129
370.646918	2541.623740
371.034035	2550.223949
371.421090	2557.856256
371.808081	2570.144068
372.195010	2581.113619
372.581875	2590.374219
372.968678	2607.330140
373.355418	2614.919597
373.742096	2636.518420
374.128710	2648.166006
374.515262	2663.423058
374.901751	2678.954853
375.288177	2692.568489
375.674540	2715.276367
376.060841	2732.202041
376.447079	2752.608632
376.833254	2774.572939
377.219367	2785.537449
377.605417	2823.071360
377.991404	2832.790704
378.377329	2858.611494
378.763191	2869.092053
379.148991	2910.298445
379.534727	2933.548246
379.920402	2961.940025
380.306013	2976.582056
380.691563	3027.049047
381.077049	3046.770041
381.462474	3067.529512
381.847835	3106.560646
382.233134	3125.946403
382.618371	3125.845580
383.003545	3193.956610
383.388657	3199.136395
383.773706	3232.639904
384.158693	3249.316041
384.543618	3273.233795
384.928480	3311.165957
385.313280	3356.468286
385.698017	3359.339223
386.082692	3412.783016
386.467305	3415.192688
386.851856	3446.145372
387.236344	3466.700677
387.620770	3499.024555
388.005133	3529.800800
388.389435	3553.509346
388.773674	3567.758168
389.157851	3608.520937
389.541965	3624.224132
389.926018	3588.958740
390.310008	3661.195954
390.693936	3680.017102
391.077802	3719.554872
391.461606	3708.613047
391.845348	3773.669138
392.229027	3775.746093
392.612645	3782.450828
392.996200	3862.106099
393.379694	3903.320053
393.763125	3967.062922
394.146494	3935.888427
394.529801	3994.658199
394.913047	4042.859191
395.296230	4012.040097
395.679351	4061.846697
396.062410	4087.410388
396.445408	4068.707707
396.828343	4107.093573
397.211217	4127.054022
397.594028	4047.832289
397.976778	4112.081795
398.359466	4137.927791
398.742092	4167.320238
399.124656	4093.061522
399.507158	4168.162111
399.889598	4196.876523
400.271977	4260.059825
400.654294	4229.394486
401.036549	4236.862956
401.418742	4208.778688
401.800874	4311.323319
402.182944	4331.893747
402.564952	4395.049322
402.946898	4381.662538
403.328783	4381.425604
403.710606	4294.770690
404.092367	4487.579701
404.474067	4450.081078
404.855705	4454.464362
405.237282	4384.541037
405.618797	4496.336185
406.000250	4529.360784
406.381642	4607.289461
406.762972	4568.787648
407.144240	4584.977314
407.525447	4584.470678
407.906593	4642.219616
408.287677	4684.950957
408.668700	4613.260708
409.049661	4665.040919
409.430560	4705.901992
409.811399	4631.739057
410.192176	4796.824243
410.572891	4734.031630
410.953545	4837.148432
411.334138	4712.999937
411.714669	4782.333446
412.095139	4681.054145
412.475547	4818.730577
412.855894	4800.721055
413.236180	4808.847395
413.616405	4761.034571
413.996568	4852.889435
414.376670	4791.284015
414.756711	4748.434207
415.136691	4781.534423
415.516609	4855.455382
415.896466	4894.110950
416.276262	4926.636475
416.655997	4907.434720
417.035670	5091.913224
417.415283	5182.044014
417.794834	5121.857678
418.174324	5079.212037
418.553753	4988.491433
418.933121	5176.629815
419.312428	5239.500565
419.691674	5183.405125
420.070859	5306.452129
420.449983	5221.717895
420.829045	5330.795861
421.208047	5239.188013
421.586988	5310.270803
421.965867	5321.114325
422.344686	5455.166167
422.723444	5308.788704
423.102141	5128.101147
423.480777	5429.168937
423.859352	5192.249830
424.237866	5453.986537
424.616319	5445.421617
424.994712	5553.178801
425.373044	5434.215132
425.751314	5574.323921
426.129524	5376.141040
426.507673	5572.287295
426.885762	5656.812321
427.263789	5584.580148
427.641756	5466.546572
428.019662	5588.560139
428.397508	5597.044401
428.775292	5538.567017
429.153016	5643.352441
429.530679	5565.630451
429.908282	5654.833668
430.285824	5522.042114
430.663305	5802.116019
431.040726	5531.194329
431.418086	5531.947982
431.795385	5640.748685
432.172624	5652.860057
432.549802	5644.852184
432.926920	5661.034288
433.303977	5662.927241
433.680974	5703.243869
434.057910	5717.752310
434.434786	5724.903186
434.811601	5695.162899
435.188355	5924.842910
435.565050	5796.850534
435.941683	5786.768226
436.318257	5993.407643
436.694770	5982.995140
437.071222	6017.446385
437.447614	5945.919974
437.823946	5861.780596
438.200218	6011.134861
438.576429	5880.480756
438.952580	5976.272761
439.328670	6018.361355
439.704700	5927.338281
440.080670	5913.606178
440.456580	6177.230797
440.832429	6060.180246
441.208218	5900.731071
441.583947	6058.040277
441.959616	6064.407254
442.335224	5981.187886
442.710773	6117.445233
443.086261	6141.078163
443.461689	5935.540238
443.837057	6078.784625
444.212365	6226.180401
444.587612	6116.532785
444.962800	6261.758345
445.337927	6239.108440
445.712995	5851.463874
446.088002	6411.762918
446.462949	6234.636937
446.837837	6162.956770
447.212664	6326.126317
447.587431	6450.209278
447.962139	6966.380582
448.336786	7851.259358
448.711374	7591.420645
449.085901	6687.758530
449.460369	6594.575322
449.834776	6519.620926
450.209124	6874.775255
450.583412	6995.342011
450.957640	7129.103987
451.331808	6889.916361
451.705917	6447.766839
452.079965	6355.256625
452.453954	6534.446959
452.827883	6407.367032
453.201752	6477.418906
453.575562	6268.742863
453.949311	6433.742349
454.323001	6311.207023
454.696632	6354.732345
455.070202	6452.319001
455.443713	6561.638943
455.817164	6622.163036
456.190556	6661.405898
456.563888	6695.637853
456.937160	6698.745725
457.310373	6379.436519
457.683526	6366.362287
458.056619	6237.661629
458.429653	6192.896183
458.802628	6108.537515
459.175542	6158.694475
459.548398	6406.547845
459.921194	6489.593293
460.293930	6446.355316
460.666607	6788.148068
461.039224	6969.803526
461.411782	7017.175248
461.784280	6982.053530
462.156719	6852.994950
462.529099	6712.266099
462.901419	6359.226534
463.273680	6236.023254
463.645882	6197.324837
464.018024	6038.120157
464.390106	6099.488643
464.762130	6304.204860
465.134094	6532.496032
465.505999	7103.875533
465.877845	7800.436966
466.249631	8137.274263
466.621358	7826.625760
466.993026	7344.154569
467.364634	7104.999710
467.736184	6804.839328
468.107674	6536.349995
468.479105	6457.256811
468.850477	6271.744870
469.221790	6062.713426
469.593043	5805.538963
469.964238	5654.619419
470.335373	5588.492084
470.706449	5548.878697
471.077467	5469.442715
471.448425	6000.435012
471.819324	6405.791672
472.190164	6341.085942
472.560945	5708.562286
472.931667	5278.962717
473.302330	5156.727339
473.672934	4942.868990
474.043479	5011.010267
474.413965	4920.955094
474.784393	4804.411179
475.154761	4790.510197
475.525070	4754.733129
475.895321	4633.692504
476.265513	4618.942088
476.635645	4613.774905
477.005719	4540.842012
477.375734	4514.696068
477.745691	4519.296121
478.115588	4485.454855
478.485427	4482.014267
478.855207	4564.759767
479.224928	4703.285633
479.594591	4798.775169
479.964194	4657.610259
480.333739	4568.467535
480.703226	4444.936581
481.072653	4401.164242
481.442022	4388.117736
481.811333	4360.056153
482.180584	4245.896703
482.549777	4114.809059
482.918912	4030.001728
483.287988	3969.591061
483.657005	3916.119542
484.025964	3805.738438
484.394864	3762.371912
484.763706	3703.460988
485.132489	3621.012917
485.501213	3564.604926
485.869879	3527.514636
486.238487	3457.404789
486.607036	3433.388732
486.975527	3365.204606
487.343959	3344.571163
487.712333	3307.652273
488.080648	3266.468567
488.448905	3233.746437
488.817104	3193.631455
489.185244	3178.545802
489.553326	3157.559479
489.921350	3171.221006
490.289315	3207.252653
490.657222	3199.007846
491.025070	3155.585867
491.392861	3119.576905
491.760593	3061.374264
492.128267	3016.039167
492.495883	2971.268680
492.863440	2933.908689
493.230939	2896.311763
493.598380	2876.404247
493.965763	2846.411902
494.333088	2833.498986
494.700354	2810.806232
495.067563	2802.861374
495.434713	2781.035698
495.801805	2771.177722
496.168839	2758.595002
496.535815	2747.373393
496.902733	2738.490880
497.269593	2727.652400
497.636395	2719.778117
498.003139	2712.012220
498.369825	2702.388657
498.736453	2697.375230
499.103023	2691.035979
499.469535	2684.742098
499.835989	2681.218332
500.202385	2675.720953
500.568723	2665.487411
500.935003	2665.661331
501.301226	2658.013900
501.667390	2656.189003
502.033497	2655.475679
502.399546	2650.754639
502.765537	2645.877322
503.131470	2643.742394
503.497345	2643.530665
503.863163	2637.914820
504.228923	2639.684265
504.594625	2635.759727
504.960269	2629.480970
505.325856	2632.490538
505.691385	2626.491565
506.056856	2628.414766
506.422270	2625.742954
506.787625	2624.701956
507.152924	2623.461832
507.518164	2625.203551
507.883347	2621.888992
508.248472	2617.382200
508.613540	2619.028137
508.978550	2618.445884
509.343503	2615.211984
509.708398	2616.668877
510.073236	2616.517642
510.438016	2617.649382
510.802738	2611.748711
511.167403	2612.525049
511.532010	2609.991869
511.896561	2615.141408
512.261053	2611.100923
512.625488	2608.018257
512.989866	2607.007506
513.354186	2607.783843
513.718449	2600.648090
514.082655	2607.383072
514.446803	2607.509101
514.810894	2608.262753
515.174927	2609.439862
515.538904	2605.913575
515.902822	2606.553802
516.266684	2605.646394
516.630488	2602.541043
516.994235	2603.629933
517.357925	2602.745210
517.721558	2604.184460
518.085133	2605.447269
518.448651	2603.884511
518.812112	2599.460898
519.175516	2605.263267
519.538863	2602.974583
519.902152	2604.774275
520.265385	2604.171857
520.628560	2607.231837
520.991678	2603.148502
521.354739	2605.243102
521.717743	2603.947525
522.080690	2603.960128
522.443580	2605.790067
522.806413	2603.657659
523.169189	2602.147833
523.531908	2606.642022
523.894569	2600.983327
524.257174	2604.595314
524.619722	2603.952567
524.982213	2605.807711
525.344647	2601.742021
525.707025	2601.981475
526.069345	2602.775457
526.431608	2601.079109
526.793815	2599.516351
527.155964	2600.572473
527.518057	2602.200766
527.880093	2601.527772
528.242072	2605.986672
528.603995	2604.791919
528.965860	2601.948708
529.327669	2599.019797
529.689421	2599.387802
530.051117	2598.341762
530.412755	2602.543564
530.774337	2601.162288
531.135862	2600.602720
531.497331	2596.128696
531.858743	2594.835640
532.220098	2597.981320
532.581396	2595.763212
532.942638	2597.167173
533.303824	2595.740527
533.664953	2599.239088
534.026025	2597.840167
534.387040	2600.214551
534.747999	2596.824375
535.108902	2600.191866
535.469748	2596.932760
535.830537	2598.422421
536.191270	2600.484253
536.551947	2600.070878
536.912567	2597.940991
537.273131	2595.992585
537.633638	2597.066350
537.994089	2599.292020
538.354483	2598.750096
538.714821	2599.909561
539.075103	2597.951073
539.435328	2596.836978
539.795497	2596.718511
540.155609	2601.386619
540.515665	2597.109200
540.875665	2598.308995
541.235609	2598.097266
541.595496	2600.799325
541.955328	2600.542226
542.315102	2597.502410
542.674821	2597.096597
543.034483	2601.444592
543.394090	2597.973758
543.753640	2600.131372
544.113134	2598.296392
544.472571	2599.100456
544.831953	2596.337904
545.191278	2597.267997
545.550548	2597.152050
545.909761	2599.047524
546.268918	2597.646083
546.628019	2599.717997
546.987064	2599.576845
547.346053	2596.085846
547.704986	2596.048037
548.063863	2601.011053
548.422684	2598.437544
548.781449	2599.907041
549.140158	2598.374530
549.498811	2599.536516
549.857408	2596.491659
550.215949	2596.446288
550.574434	2593.570310
550.932864	2598.397215
551.291237	2595.143150
551.649555	2601.890735
552.007817	2599.362596
552.366022	2597.890579
552.724173	2599.468460
553.082267	2600.524582
553.440305	2601.056424
553.798288	2598.198089
554.156215	2599.647421
554.514086	2598.190528
554.871902	2598.361927
555.229661	2599.609613
555.587365	2598.830754
555.945014	2597.094077
556.302606	2596.161463
556.660143	2598.803028
557.017625	2599.148347
557.375050	2596.698346
557.732421	2598.485435
558.089735	2599.448296
558.446994	2600.708584
558.804197	2598.815631
559.161345	2600.688419
559.518437	2598.470312
559.875474	2598.737493
560.232455	2600.025508
560.589381	2597.653645
560.946251	2600.643049
561.303065	2599.390322
561.659825	2603.645056
562.016528	2599.803697
562.373177	2599.080291
562.729770	2599.559201
563.086307	2597.346134
563.442789	2601.880652
563.799216	2598.127513
564.155587	2596.970568
564.511904	2596.635332
564.868164	2599.372678
565.224370	2598.984509
565.580520	2598.901330
565.936615	2599.201279
566.292654	2596.791607
566.648638	2598.934098
567.004567	2595.664910
567.360441	2594.586103
567.716260	2594.956628
568.072023	2598.687081
568.427732	2593.567790
568.783385	2592.650300
569.138982	2593.986205
569.494525	2594.906216
569.850013	2591.856318
570.205445	2596.272369
570.560823	2596.297574
570.916145	2593.156936
571.271412	2594.336566
571.626625	2596.799169
571.981782	2595.521237
572.336884	2594.724734
572.691931	2596.884869
573.046923	2593.010742
573.401860	2593.595516
573.756743	2596.375712
574.111570	2597.076433
574.466342	2593.923191
574.821059	2594.371854
575.175722	2593.449323
575.530330	2594.061823
575.884882	2594.719693
576.239380	2593.724065
576.593823	2593.585434
576.948211	2596.625249
577.302544	2591.760536
577.656823	2591.110227
578.011047	2594.598706
578.365216	2593.361102
578.719330	2591.919332
579.073389	2591.203488
579.427394	2592.703232
579.781344	2590.906060
580.135239	2591.364805
580.489080	2591.299270
580.842866	2591.415217
581.196597	2595.710280
581.550273	2592.509147
581.903895	2593.303129
582.257463	2592.756164
582.610975	2589.628128
582.964434	2591.861359
583.317837	2592.874631
583.671186	2592.292378
584.024481	2591.503437
584.377721	2590.122161
584.730906	2589.555031
585.084037	2589.088724
585.437113	2589.791965
585.790135	2591.485793
586.143103	2586.517736
586.496016	2589.118971
586.848874	2585.010431
587.201679	2588.871955
587.554428	2586.242993
587.907124	2586.953796
588.259765	2586.820205
588.612352	2587.190730
588.964884	2588.249372
589.317362	2590.376739
589.669786	2587.546131
590.022155	2590.638879
590.374470	2587.631831
590.726731	2590.744743
591.078937	2586.497571
591.431090	2589.829774
591.783188	2586.353898
592.135232	2588.067891
592.487222	2588.733323
592.839157	2587.911615
593.191038	2585.706110
593.542866	2587.997315
593.894639	2585.844742
594.246358	2586.830288
594.598022	2587.228539
594.949633	2585.602767
595.301190	2585.443970
595.652692	2586.487489
596.004141	2585.920359
596.355535	2588.924887
596.706876	2584.776017
597.058162	2582.207549
597.409395	2587.863724
597.760573	2585.633013
598.111698	2583.251068
598.462768	2586.709300
598.813785	2584.193764
599.164748	2583.520770
599.515657	2585.627972
599.866511	2584.697879
600.217312	2584.012282
600.568060	2585.154104
600.918753	2586.169896
601.269392	2584.352560
601.619978	2584.755853
601.970510	2586.227870
602.320988	2583.119998
602.671412	2587.367170
603.021783	2584.150914
603.372100	2586.873137
603.722363	2582.396593
604.072572	2583.205698
604.422728	2586.079156
604.772830	2580.291911
605.122878	2578.986252
605.472872	2579.613876
605.822813	2579.311407
606.172701	2579.830645
606.522534	2582.767118
606.872314	2586.628641
607.222041	2583.785431
607.571714	2586.434557
607.921333	2583.185533
608.270899	2584.009762
608.620411	2583.414906
608.969870	2584.501274
609.319276	2586.081676
609.668627	2587.692325
610.017926	2589.522264
610.367171	2591.052254
610.716362	2588.904722
611.065500	2591.140474
611.414585	2586.661409
611.763616	2585.383476
612.112594	2585.948086
612.461518	2590.354054
612.810389	2583.369535
613.159207	2585.822057
613.507971	2584.798702
613.856682	2585.917839
614.205340	2583.558579
614.553945	2586.961358
614.902496	2585.680904
615.250994	2589.255082
615.599439	2585.340627
615.947830	2585.660740
616.296169	2585.093610
616.644454	2585.743919
616.992686	2586.842890
617.340864	2582.419278
617.688990	2586.474886
618.037063	2586.520257
618.385082	2584.163517
618.733048	2588.370360
619.080961	2583.515729
619.428821	2587.883889
619.776628	2584.710482
620.124382	2585.887592
620.472083	2584.854155
620.819731	2585.300297
621.167326	2581.978177
621.514868	2582.580595
621.862357	2584.660071
622.209793	2584.130750
622.557176	2585.340627
622.904506	2581.413568
623.251783	2578.376272
623.599007	2580.647312
623.946179	2579.813001
624.293297	2577.481468
624.640363	2580.054977
624.987376	2581.290059
625.334336	2578.787127
625.681243	2580.299473
626.028097	2580.586818
626.374899	2579.013978
626.721647	2579.109760
627.068343	2581.484144
627.414987	2578.424163
627.761577	2579.863413
628.108115	2578.837538
628.454600	2579.825604
628.801032	2580.927096
629.147412	2577.879719
629.493739	2576.679924
629.840014	2578.338464
630.186236	2574.605489
630.532405	2578.635892
630.878521	2577.811663
631.224585	2581.569843
631.570597	2573.879563
631.916556	2575.467527
632.262462	2578.618248
632.608316	2574.315623
632.954117	2574.557598
633.299866	2576.894173
633.645562	2574.827300
633.991206	2575.969122
634.336797	2573.947619
634.682336	2576.190932
635.027823	2575.031467
635.373257	2574.111456
635.718639	2575.071796
636.063968	2571.835375
636.409245	2571.230437
636.754470	2571.759758
637.099642	2572.873853
637.444762	2573.269584
637.789829	2572.775551
638.134845	2572.576425
638.479808	2574.328226
638.824719	2570.703636
639.169577	2572.256312
639.514383	2569.294634
639.859137	2569.529048
640.203839	2572.931826
640.548489	2571.449727
640.893086	2568.689695
641.237632	2564.664334
641.582125	2566.390929
641.926566	2565.370096
642.270955	2570.295303
642.615292	2568.185580
642.959576	2571.747155
643.303809	2571.744635
643.647990	2570.701116
643.992118	2569.135837
644.336195	2568.362020
644.680219	2569.713050
645.024192	2571.263204
645.368112	2570.990982
645.711981	2570.282700
646.055797	2571.361507
646.399562	2569.092988
646.743274	2572.987279
647.086935	2570.653225
647.430544	2570.927968
647.774101	2567.620971
648.117606	2571.716908
648.461059	2573.037691
648.804460	2571.351425
649.147810	2572.034501
649.491108	2568.525858
649.834354	2569.380333
650.177548	2570.791857
650.520690	2572.697413
650.863781	2569.397977
651.206820	2570.282700
651.549807	2568.432597
651.892742	2569.430745
652.235626	2567.005950
652.578458	2568.699778
652.921238	2564.276165
653.263967	2570.076013
653.606644	2566.832030
653.949269	2565.763306
654.291843	2565.864129
654.634365	2567.759602
654.976836	2566.063254
655.319255	2565.627194
655.661622	2565.634756
656.003938	2567.129458
656.346203	2563.779612
656.688416	2565.498645
657.030577	2563.482183
657.372687	2566.582493
657.714746	2565.254149
658.056753	2564.376988
658.398708	2560.137378
658.740612	2565.100394
659.082465	2563.663665
659.424266	2564.482852
659.766016	2561.400187
660.107715	2565.937225
660.449362	2564.165260
660.790958	2563.961093
661.132503	2565.702812
661.473996	2568.059551
661.815438	2565.128120
662.156829	2567.394119
662.498168	2565.687688
662.839456	2566.890003
663.180693	2564.881104
663.521879	2565.773388
663.863013	2567.457133
664.204097	2564.167780
664.545129	2566.912689
664.886110	2566.007802
665.227040	2565.556618
665.567918	2566.257339
665.908746	2565.808676
666.249522	2566.630384
666.590248	2565.223902
666.930922	2567.923440
667.271545	2565.453275
667.612118	2569.183728
667.952639	2567.661300
668.293109	2567.535271
668.633528	2566.171639
668.973896	2566.312791
669.314213	2566.106104
669.654480	2565.914540
669.994695	2564.492935
670.334859	2565.773388
670.674973	2566.610219
671.015035	2566.779098
671.355047	2565.969993
671.695008	2564.795404
672.034918	2564.858418
672.374777	2566.005281
672.714585	2565.365054
673.054342	2565.584345
673.394049	2567.159705
673.733705	2567.036197
674.073310	2563.416648
674.412864	2565.425548
674.752368	2566.121228
675.091820	2566.106104
675.431223	2564.732390
675.770574	2566.214489
676.109875	2555.988508
676.449125	2561.221226
676.788324	2560.848181
677.127473	2562.252142
677.466571	2559.797100
677.805619	2563.154508
678.144616	2562.902451
678.483562	2564.886145
678.822458	2563.658624
679.161303	2565.846485
679.500098	2561.621998
679.838842	2563.209961
680.177535	2561.959755
680.516179	2562.988150
680.854771	2562.786504
681.193314	2564.291289
681.531805	2567.157185
681.870247	2563.507389
682.208638	2564.810528
682.546978	2566.771536
682.885268	2566.816907
683.223508	2565.788511
683.561697	2565.115517
683.899836	2564.210630
684.237925	2565.309602
684.575963	2566.131310
684.913951	2565.481001
685.251889	2567.532751
685.589776	2565.629715
685.927614	2564.054354
686.265401	2564.802966
686.603137	2566.597617
686.940824	2563.308264
687.278460	2564.934036
687.616046	2565.518810
687.953582	2565.261711
688.291068	2564.137533
688.628504	2566.479149
688.965889	2565.261711
689.303224	2566.627863
689.640510	2565.755744
689.977745	2563.414128
690.314930	2563.484704
690.652065	2564.566032
690.989150	2561.443037
691.326185	2560.921277
691.663170	2562.237018
692.000105	2559.865156
692.336990	2557.442881
692.673825	2559.741647
693.010610	2561.306926
693.347345	2557.221070
693.684030	2554.662685
694.020665	2554.035061
694.357251	2552.336192
694.693786	2557.901626
695.030272	2558.113355
695.366707	2558.569579
695.703093	2556.525391
696.039429	2555.408776
696.375716	2556.545556
696.711952	2558.173848
697.048139	2555.595298
697.384276	2556.951369
697.720363	2555.081101
698.056400	2556.893395
698.392388	2558.607388
698.728326	2556.578323
699.064214	2553.717468
699.400053	2556.369115
699.735842	2554.776111
700.071581	2554.876934
700.407270	2553.107489
700.742910	2554.881975
701.078501	2555.388611
701.414042	2553.689742
701.749533	2555.108827
702.084974	2554.975236
702.420366	2554.513971
702.755709	2555.111348
703.091002	2553.026830
703.426246	2555.015566
703.761440	2552.575647
704.096584	2550.758311
704.431679	2553.414999
704.766725	2554.597150
705.101721	2552.177396
705.436668	2553.936759
705.771565	2550.407951
706.106413	2552.628579
706.441212	2554.745864
706.775961	2554.256872
707.110661	2554.062788
707.445311	2555.255020
707.779913	2554.151008
708.114465	2553.984650
708.448967	2555.812068
708.783421	2554.924825
709.117825	2556.222922
709.452180	2555.360885
709.786485	2552.187478
710.120742	2556.437171
710.454949	2556.568241
710.789107	2557.279044
711.123216	2552.971378
711.457275	2556.777449
711.791286	2553.624207
712.125247	2556.606050
712.459159	2556.971533
712.793023	2556.467418
713.126837	2555.406255
713.460602	2556.905998
713.794318	2556.714434
714.127985	2558.383056
714.461602	2556.593447
714.795171	2555.789383
715.128691	2553.319217
715.462162	2554.622356
715.795584	2553.972047
716.128957	2551.723692
716.462281	2554.720658
716.795556	2556.104455
717.128782	2551.428785
717.461960	2553.886347
717.795088	2550.705379
718.128167	2551.852242
718.461198	2552.328631
718.794180	2552.696635
719.127113	2552.084135
719.459997	2550.864175
719.792833	2550.715461
720.125619	2549.745039
720.458357	2550.193702
720.791046	2550.208825
721.123686	2548.883002
721.456278	2550.050029
721.788821	2549.437529
722.121315	2549.757642
722.453761	2548.094061
722.786158	2548.988866
723.118506	2548.814946
723.450805	2552.348795
723.783056	2549.218239
724.115259	2546.866540
724.447412	2548.341078
724.779518	2550.392828
725.111574	2547.511808
725.443582	2550.904505
725.775542	2551.005328
726.107453	2550.491130
726.439315	2550.269319
726.771129	2551.617828
727.102895	2548.913249
727.434612	2554.277037
727.766281	2550.339895
728.097901	2548.673794
728.429473	2548.726726
728.760996	2548.542724
729.092471	2546.982487
729.423897	2554.304763
729.755276	2549.608928
730.086606	2550.823846
730.417887	2550.728064
730.749120	2552.341233
731.080305	2554.834084
731.411442	2554.818961
731.742530	2555.270144
732.073570	2554.125802
732.404562	2552.094217
732.735506	2551.249824
733.066401	2555.096224
733.397249	2551.338044
733.728048	2553.173024
734.058798	2551.365770
734.389501	2552.537838
734.720156	2550.334854
735.050762	2550.362581
735.381320	2548.063814
735.711831	2550.057591
736.042293	2548.658671
736.372707	2546.254040
736.703073	2547.589946
737.033391	2547.166489
737.363661	2549.608928
737.693883	2547.791592
738.024056	2552.326110
738.354182	2545.447456
738.684260	2551.244782
739.014290	2551.877447
739.344272	2547.519370
739.674207	2551.648075
740.004093	2553.593960
740.333931	2549.566078
740.663722	2549.755122
740.993464	2551.103630
741.323159	2551.333003
741.652806	2550.304607
741.982405	2551.201933
742.311956	2550.859134
742.641460	2551.935421
742.970915	2550.506253
743.300323	2547.637837
743.629683	2550.344937
743.958996	2549.389638
744.288260	2548.273022
744.617477	2548.094061
744.946647	2541.820345
745.275768	2546.218752
745.604842	2541.717002
745.933869	2545.530635
746.262847	2544.658515
746.591778	2546.785882
746.920662	2546.932075
747.249498	2546.531304
747.578286	2548.580533
747.907027	2547.095913
748.235720	2548.908208
748.564365	2548.966181
748.892963	2547.385779
749.221514	2545.361756
749.550017	2548.489792
749.878473	2548.305790
750.206881	2546.533824
750.535242	2547.375697
750.863555	2547.302600
751.191821	2546.012065
751.520039	2546.695141
751.848210	2547.418547
752.176334	2546.758156
752.504411	2548.003321
752.832440	2545.641540
753.160421	2543.337733
753.488356	2545.749925
753.816243	2548.129349
754.144082	2546.296890
754.471875	2545.815460
754.799620	2544.305634
755.127318	2545.901159
755.454969	2543.330171
755.782572	2546.027188
756.110129	2545.986859
756.437638	2544.172044
756.765100	2543.879657
757.092515	2543.239430
757.419882	2546.924514
757.747203	2544.930737
758.074477	2542.203473
758.401703	2544.913093
758.728882	2548.525080
759.056014	2546.251520
759.383099	2545.364277
759.710138	2547.211859
760.037129	2547.292518
760.364073	2547.383259
760.690970	2547.108516
761.017820	2544.913093
761.344623	2545.681869
761.671379	2547.360573
761.998088	2544.111550
762.324751	2548.124308
762.651366	2549.624052
762.977935	2556.709393
763.304456	2559.993705
763.630931	2564.389591
763.957359	2560.896072
764.283740	2558.209137
764.610074	2554.287119
764.936362	2550.165976
765.262602	2549.127498
765.588796	2551.499361
765.914943	2545.707075
766.241044	2547.824360
766.567097	2545.165151
766.893104	2544.731612
767.219064	2544.172044
767.544978	2545.976777
767.870845	2543.829245
768.196665	2544.925696
768.522438	2543.209183
768.848165	2543.322609
769.173846	2543.942671
769.499479	2542.135417
769.825066	2540.035777
770.150607	2539.516538
770.476101	2540.804553
770.801548	2542.354708
771.126949	2541.893442
771.452303	2543.569626
771.777611	2543.720860
772.102872	2540.870088
772.428087	2539.498894
772.753256	2540.181970
773.078378	2541.903524
773.403453	2541.122146
773.728482	2540.905376
774.053465	2537.789943
774.378401	2540.320602
774.703291	2542.773123
775.028135	2541.170037
775.352932	2540.572660
775.677683	2540.655839
776.002388	2539.256919
776.327046	2540.081147
776.651658	2537.540406
776.976224	2538.503266
777.300743	2538.573842
777.625216	2539.440921
777.949643	2537.661393
778.274024	2543.284801
778.598359	2538.747762
778.922647	2535.055117
779.246889	2539.612320
779.571086	2534.301464
779.895236	2537.540406
780.219339	2540.060983
780.543397	2540.741538
780.867409	2539.221631
781.191374	2539.819007
781.515294	2537.737011
781.839167	2539.014943
782.162995	2540.844882
782.486776	2537.353883
782.810511	2539.869419
783.134201	2540.986034
783.457844	2536.055786
783.781441	2540.227341
784.104993	2537.764737
784.428498	2541.094419
784.751958	2541.548123
785.075372	2536.910262
785.398739	2539.030067
785.722061	2539.695499
786.045337	2538.866229
786.368568	2541.318751
786.691752	2540.519728
787.014891	2540.020653
787.337983	2538.780530
787.661030	2540.179450
787.984031	2539.902186
788.306987	2540.686086
788.629897	2541.366642
788.952760	2543.267157
789.275579	2539.403112
789.598351	2540.358411
789.921078	2542.332022
790.243759	2540.287835
790.566395	2539.650129
790.888984	2540.378575
791.211529	2538.951929
791.534027	2540.880170
791.856480	2537.706764
792.178888	2537.835313
792.501249	2538.767927
792.823566	2539.302289
793.145836	2539.461085
793.468062	2537.772299
793.790241	2538.631816
794.112375	2541.437218
794.434464	2539.897145
794.756507	2540.824718
795.078505	2540.703730
795.400457	2540.081147
795.722364	2533.525127
796.044226	2537.331198
796.366042	2536.988399
796.687812	2537.237937
797.009538	2538.888914
797.331218	2538.087371
797.652852	2539.811446
797.974442	2537.810108
798.295986	2541.280942
798.617484	2543.060469
798.938938	2538.523431
799.260346	2542.760521
799.581709	2539.057793
799.903026	2538.778009
800.224299	2538.268852
800.545526	2538.218441
800.866708	2538.478060
801.187845	2539.067875
801.508936	2537.094264
801.829983	2537.162319
802.150984	2537.850437
802.471940	2537.003523
802.792851	2537.978986
803.113717	2539.728267
803.434538	2536.247350
803.755314	2540.557536
804.076045	2539.163657
804.396731	2540.655839
804.717372	2534.871115
805.037967	2541.089378
805.358518	2536.771630
805.679024	2535.687782
805.999485	2538.687268
806.319901	2537.613502
806.640272	2537.409336
806.960598	2536.842206
807.280879	2536.895138
807.601115	2537.346321
807.921306	2536.761547
808.241453	2536.348173
808.561554	2540.605427
808.881611	2537.747093
809.201623	2539.030067
809.521590	2540.418905
809.841513	2538.014274
810.161390	2539.932433
810.481223	2535.130734
810.801011	2538.954449
811.120755	2536.355735
811.440453	2541.132228
811.760107	2538.709953
812.079716	2536.784233
812.399281	2533.772143
812.718801	2531.244005
813.038276	2534.704757
813.357707	2538.190715
813.677093	2538.883873
813.996434	2537.540406
814.315731	2538.112577
814.634983	2534.205683
814.954191	2538.725077
815.273354	2538.808256
815.592473	2535.586959
815.911547	2539.186343
816.230577	2536.895138
816.549562	2541.487629
816.868502	2536.340611
817.187399	2540.045859
817.506250	2537.232895
817.825058	2536.302802
818.143821	2539.261960
818.462539	2539.367824
818.781213	2542.145500
819.099843	2541.543082
819.418429	2543.206663
819.736970	2547.204298
820.055466	2546.213711
820.373919	2545.689431
820.692327	2550.508774
821.010691	2556.502706
821.329011	2566.695919
821.647286	2592.821699
821.965517	2617.367077
822.283704	2632.898872
822.601847	2639.452372
822.919945	2629.559107
823.237999	2610.085130
823.556010	2595.712801
823.873976	2581.748804
824.191897	2574.739080
824.509775	2569.536609
824.827609	2563.015877
825.145398	2559.860114
825.463144	2557.243756
825.780845	2557.251317
826.098502	2559.350958
826.416116	2567.290775
826.733685	2577.136149
827.051210	2580.614545
827.368692	2577.584811
827.686129	2566.020404
828.003522	2561.072512
828.320872	2550.758311
828.638177	2548.462066
828.955439	2543.985521
829.272656	2544.892929
829.589830	2540.257588
829.906960	2542.382434
830.224046	2539.236754
830.541088	2541.298586
830.858086	2540.786909
831.175041	2538.415046
831.491952	2539.125849
831.808819	2538.321785
832.125642	2538.641898
832.442421	2541.192722
832.759157	2543.748587
833.075849	2551.055739
833.392497	2553.833415
833.709101	2557.072356
834.025662	2556.963972
834.342179	2557.034548
834.658653	2550.556665
834.975083	2547.826880
835.291469	2549.893753
835.607811	2541.164995
835.924110	2538.949408
836.240366	2540.330684
836.556578	2539.463606
836.872746	2538.573842
837.188871	2538.392361
837.504952	2538.949408
837.820990	2536.141486
838.136984	2536.229706
838.452935	2533.966228
838.768842	2535.861702
839.084706	2539.254398
839.400526	2537.787422
839.716303	2541.853113
840.032037	2545.059287
840.347727	2545.139945
840.663373	2543.988042
840.978977	2538.851106
841.294537	2537.182484
841.610054	2537.028729
841.925527	2536.454037
842.240957	2538.243647
842.556344	2537.706764
842.871687	2538.024357
843.186987	2534.692154
843.502244	2535.486136
843.817458	2535.823893
844.132629	2531.160826
844.447756	2533.416742
844.762840	2532.335414
845.077881	2532.751310
845.392879	2532.421114
845.707833	2533.489839
846.022745	2529.993798
846.337613	2534.147709
846.652438	2533.419263
846.967221	2533.227699
847.281960	2532.073274
847.596656	2534.200641
847.911309	2534.987061
848.225919	2534.301464
848.540485	2533.515044
848.855009	2538.006713
849.169490	2534.750127
849.483928	2531.851464
849.798323	2533.363810
850.112675	2533.928419
850.426984	2533.046217
850.741251	2533.545291
851.055474	2533.867925
851.369654	2533.499921
851.683792	2533.129396
851.997887	2535.586959
852.311938	2532.849612
852.625947	2532.710980
852.939914	2533.648635
853.253837	2535.259284
853.567718	2531.738038
853.881555	2531.851464
854.195350	2533.358769
854.509103	2533.895652
854.822812	2532.665610
855.136479	2533.346166
855.450103	2534.132586
855.763685	2531.042358
856.077224	2528.370547
856.390720	2532.050589
856.704173	2535.130734
857.017584	2531.107893
857.330953	2532.862215
857.644278	2536.295241
857.957561	2536.461599
858.270802	2533.502442
858.584000	2532.451361
858.897155	2532.589993
859.210268	2534.798018
859.523339	2533.638553
859.836367	2533.555374
860.149352	2534.137627
860.462295	2531.773326
860.775195	2528.862059
861.088054	2528.214271
861.400869	2532.368182
861.713642	2530.429858
862.026373	2532.733666
862.339062	2534.682072
862.651708	2532.791639
862.964312	2533.038655
863.276873	2535.307175
863.589392	2533.608306
863.901869	2534.409849
864.214303	2531.117976
864.526696	2532.312729
864.839045	2533.280631
865.151353	2531.299457
865.463619	2535.244160
865.775842	2533.502442
866.088023	2534.077133
866.400162	2534.246012
866.712258	2534.659386
867.024313	2531.990095
867.336325	2532.993285
867.648296	2532.443799
867.960224	2531.082688
868.272110	2534.097298
868.583954	2532.988244
868.895755	2534.382123
869.207515	2533.512524
869.519233	2534.447658
869.830909	2532.658048
870.142542	2533.729293
870.454134	2534.898841
870.765684	2533.971269
871.077191	2533.492359
871.388657	2533.396577
871.700081	2535.332380
872.011463	2533.573018
872.322803	2532.683254
872.634101	2535.569315
872.945357	2534.218285
873.256571	2537.600900
873.567744	2532.834489
873.878874	2535.962525
874.189963	2535.304654
874.501010	2535.828934
874.812015	2533.794828
875.122979	2536.340611
875.433900	2533.603265
875.744780	2538.026877
876.055618	2532.998326
876.366415	2535.697864
876.677169	2535.246681
876.987882	2534.193080
877.298554	2530.379447
877.609183	2535.415559
877.919771	2532.166536
878.230317	2530.654190
878.540822	2538.543595
878.851285	2540.358411
879.161707	2539.216589
879.472087	2540.171888
879.782425	2543.206663
880.092722	2546.793444
880.402977	2554.420709
880.713191	2567.777247
881.023363	2582.071438
881.333494	2594.349168
881.643583	2593.542584
881.953631	2587.626790
882.263637	2587.757860
882.573602	2582.988928
882.883526	2577.995665
883.193408	2569.594583
883.503248	2562.098387
883.813048	2558.430947
884.122806	2555.557490
884.432522	2553.830894
884.742197	2549.245965
885.051831	2545.402085
885.361424	2540.935623
885.670975	2539.955118
885.980485	2541.832948
886.289954	2539.924872
886.599382	2538.311702
886.908768	2538.437731
887.218113	2538.788091
887.527417	2540.605427
887.836680	2538.064686
888.145901	2536.222144
888.455082	2540.998637
888.764221	2535.322298
889.073319	2536.817000
889.382376	2535.082843
889.691392	2534.987061
890.000366	2536.905220
890.309300	2532.479087
890.618193	2535.690302
890.927044	2536.882535
891.235855	2537.948739
891.544625	2535.060158
891.853353	2537.643749
892.162041	2538.654501
892.470687	2539.556867
892.779293	2534.994623
893.087858	2536.171733
893.396381	2534.238450
893.704864	2541.374203
894.013306	2539.019984
894.321707	2550.385266
894.630068	2549.069525
894.938387	2551.857283
895.246665	2552.013558
895.554903	2551.519525
895.863100	2546.962322
896.171256	2547.438711
896.479371	2544.454348
896.787446	2542.211035
897.095480	2543.960315
897.403473	2536.111239
897.711425	2535.778522
898.019336	2536.396064
898.327207	2538.276414
898.635038	2538.155427
898.942827	2537.686599
899.250576	2537.253060
899.558284	2537.976466
899.865952	2538.621733
900.173579	2532.766433
900.481165	2534.866074
900.788711	2535.453368
901.096216	2532.710980
901.403681	2534.251053
901.711105	2534.679551
902.018489	2532.423635
902.325832	2538.286497
902.633135	2534.601413
902.940397	2538.717515
903.247619	2538.485622
903.554800	2543.390665
903.861941	2548.550286
904.169041	2554.801317
904.476101	2561.506051
904.783121	2561.720300
905.090100	2558.201575
905.397039	2551.789227
905.703938	2547.123639
906.010796	2548.736808
906.317614	2542.568957
906.624391	2538.389840
906.931129	2539.556867
907.237826	2537.338760
907.544483	2536.464119
907.851099	2533.714170
908.157675	2534.913965
908.464211	2534.961856
908.770707	2530.129910
909.077163	2530.308871
909.383578	2529.033459
909.689954	2527.838705
909.996289	2528.695701
910.302584	2533.182328
910.608839	2535.067720
910.915054	2533.091587
911.221229	2534.669469
911.527363	2534.246012
911.833458	2532.945394
912.139513	2532.088398
912.445527	2534.054448
912.751502	2532.557225
913.057436	2531.571680
913.363331	2532.138809
913.669186	2535.856660
913.975000	2536.222144
914.280775	2534.258615
914.586510	2540.161806
914.892205	2538.493184
915.197859	2544.134235
915.503475	2547.053063
915.809050	2554.355174
916.114585	2560.170145
916.420081	2560.611246
916.725536	2558.803993
917.030952	2555.008004
917.336328	2550.934752
917.641665	2551.968188
917.946961	2547.058104
918.252218	2547.032898
918.557435	2543.060469
918.862612	2543.120963
919.167750	2539.919830
919.472848	2540.212217
919.777906	2538.858668
920.082925	2535.231557
920.387904	2534.624098
920.692843	2534.266176
920.997743	2533.701567
921.302603	2533.694005
921.607423	2533.308357
921.912204	2533.699047
922.216946	2535.241640
922.521647	2530.424817
922.826310	2532.368182
923.130932	2533.459592
923.435516	2533.797349
923.740059	2533.210055
924.044564	2533.852802
924.349028	2533.951104
924.653454	2528.436082
924.957840	2531.138140
925.262186	2529.459436
925.566493	2527.468180
925.870761	2529.146885
926.174989	2533.215096
926.479178	2531.438089
926.783328	2533.225178
927.087438	2530.303829
927.391509	2529.812317
927.695541	2528.070598
927.999533	2530.339117
928.303486	2530.679395
928.607400	2528.786442
928.911275	2529.146885
929.215110	2531.929602
929.518906	2528.249559
929.822663	2532.269879
930.126381	2528.577234
930.430060	2530.316432
930.733699	2528.657893
931.037299	2529.371216
931.340861	2529.222502
931.644383	2527.218643
931.947866	2529.555218
932.251309	2531.480939
932.554714	2529.701412
932.858080	2531.859025
933.161407	2530.727286
933.464694	2529.998840
933.767943	2530.349200
934.071153	2531.891793
934.374323	2529.512368
934.677455	2530.659231
934.980548	2526.913653
935.283602	2530.518078
935.586617	2527.828623
935.889593	2532.327853
936.192530	2528.357944
936.495428	2529.184693
936.798287	2530.689478
937.101108	2528.456247
937.403890	2528.534384
937.706632	2529.406504
938.009336	2529.454395
938.312002	2531.493542
938.614628	2532.521937
938.917216	2534.238450
939.219765	2529.184693
939.522275	2532.640404
939.824747	2530.893644
940.127179	2529.373737
940.429573	2528.030269
940.731929	2529.630835
941.034246	2524.153622
941.336524	2531.170908
941.638763	2531.438089
941.940964	2529.320804
942.243126	2531.720394
942.545250	2531.662420
942.847335	2528.065557
943.149381	2530.220650
943.451389	2527.720238
943.753359	2529.356093
944.055290	2529.162008
944.357182	2529.416586
944.659036	2531.218799
944.960851	2529.519930
945.262628	2528.017666
945.564367	2531.511186
945.866067	2531.123017
946.167729	2530.071936
946.469352	2529.532533
946.770937	2529.194776
947.072484	2528.352903
947.373992	2529.895496
947.675462	2529.981196
947.976893	2528.945238
948.278286	2528.715866
948.579641	2527.614374
948.880958	2527.261493
949.182236	2530.485311
949.483476	2530.381967
949.784678	2529.058664
950.085841	2530.376926
950.386967	2531.637215
950.688054	2529.323325
950.989103	2527.611853
951.290114	2527.924405
951.591087	2528.678057
951.892021	2528.841895
952.192917	2530.805424
952.493776	2530.024045
952.794596	2529.855167
953.095378	2529.628315
953.396122	2529.335928
953.696828	2531.470857
953.997496	2529.656041
954.298126	2530.286185
954.598718	2530.510517
954.899272	2529.096473
955.199788	2528.559590
955.500266	2527.674868
955.800706	2524.534229
956.101108	2523.994825
956.401472	2525.892820
956.701798	2524.824095
957.002087	2523.783097
957.302337	2529.819879
957.602550	2527.979858
957.902724	2528.983047
958.202861	2527.589168
958.502960	2529.368695
958.803022	2529.698891
959.103045	2528.032790
959.403031	2528.163860
959.702979	2531.312060
960.002889	2526.225536
960.302762	2528.176463
960.602596	2528.967924
960.902393	2525.494569
961.202153	2527.647141
961.501875	2527.770650
961.801559	2529.895496
962.101205	2526.996833
962.400814	2526.807789
962.700385	2527.475742
962.999918	2529.129241
963.299414	2529.073788
963.598873	2529.081350
963.898293	2528.264683
964.197677	2527.266534
964.497022	2528.826771
964.796331	2527.974816
965.095601	2527.001874
965.394835	2528.995650
965.694030	2526.525485
965.993189	2528.708304
966.292309	2527.195958
966.591393	2526.326359
966.890439	2525.676050
967.189447	2525.663447
967.488419	2527.740403
967.787353	2528.461288
968.086249	2525.953314
968.385108	2527.458098
968.683930	2527.130423
968.982714	2526.969106
969.281462	2527.074970
969.580172	2527.614374
969.878844	2525.474404
970.177480	2530.364323
970.476078	2527.611853
970.774639	2529.658562
971.073162	2527.904240
971.371649	2521.123888
971.670098	2525.484486
971.968510	2524.466173
972.266885	2522.389218
972.565223	2526.306194
972.863524	2525.255114
973.161788	2528.206709
973.460014	2526.381812
973.758204	2526.772501
974.056356	2526.028931
974.354471	2527.253931
974.652550	2528.221833
974.950591	2525.849970
975.248595	2528.279806
975.546563	2526.558252
975.844493	2527.226205
976.142386	2531.148223
976.440243	2528.368026
976.738062	2524.768643
977.035845	2527.954652
977.333590	2526.127233
977.631299	2528.259642
977.928971	2525.824764
978.226606	2526.480114
978.524204	2523.999867
978.821765	2527.866432
979.119290	2526.263345
979.416777	2525.126564
979.714228	2527.518592
980.011642	2524.433406
980.309020	2529.368695
980.606360	2526.686802
980.903664	2528.395753
981.200931	2526.336441
981.498162	2526.588499
981.795356	2527.818541
982.092513	2528.930115
982.389633	2525.386184
982.686717	2528.037831
982.983764	2528.844415
983.280775	2529.517409
983.577749	2526.235618
983.874686	2530.011442
984.171587	2526.764939
984.468451	2528.221833
984.765279	2527.080012
985.062070	2526.616225
985.358824	2526.434744
985.655543	2528.496576
985.952224	2528.226874
986.248869	2526.026410
986.545478	2523.198323
986.842050	2525.035824
987.138586	2524.428365
987.435086	2525.366019
987.731549	2521.330576
988.027975	2526.991791
988.324366	2525.146729
988.620719	2525.182017
988.917037	2529.295599
989.213318	2524.773684
989.509563	2526.701925
989.805772	2529.507327
990.101944	2525.096318
990.398080	2526.154960
990.694180	2527.816020
990.990244	2526.283509
991.286271	2527.243849
991.582262	2527.087573
991.878217	2527.732841
992.174136	2524.206554
992.470019	2527.652182
992.765865	2528.204189
993.061676	2527.755526
993.357450	2527.246370
993.653188	2525.366019
993.948890	2525.481966
994.244556	2524.877027
994.540186	2528.851977
994.835780	2526.301153
995.131337	2528.758716
995.426859	2527.135464
995.722345	2527.543798
996.017795	2527.168232
996.313208	2526.217974
996.608586	2528.385670
996.903928	2528.095804
997.199234	2525.907943
997.494504	2528.060516
997.789738	2525.975999
998.084936	2527.405166
998.380099	2525.665968
998.675225	2526.613705
998.970316	2526.550690
999.265371	2526.054137
999.560390	2525.028262
999.855373	2525.408869
1000.150320	2526.429703
1000.445232	2527.644621
1000.740108	2525.950793
1001.034948	2528.015146
1001.329752	2523.664630
1001.624521	2526.223015
1001.919254	2523.392407
1002.213951	2524.708149
1002.508613	2521.960720
1002.803239	2524.206554
1003.097829	2521.237314
1003.392384	2525.945752
1003.686903	2524.743437
1003.981386	2527.001874
1004.275834	2526.593540
1004.570246	2524.509023
1004.864623	2527.594209
1005.158964	2524.612367
1005.453270	2523.967099
1005.747540	2525.340813
1006.041775	2526.482635
1006.335974	2524.430885
1006.630138	2526.074301
1006.924266	2526.308715
1007.218359	2526.669158
1007.512416	2526.699404
1007.806438	2527.238808
1008.100425	2526.525485
1008.394376	2528.637728
1008.688292	2527.342152
1008.982172	2527.178314
1009.276017	2525.721421
1009.569827	2525.887779
1009.863602	2527.148067
1010.157341	2524.733354
1010.451045	2523.452901
1010.744714	2529.396422
1011.038347	2525.665968
1011.331945	2522.369053
1011.625508	2528.143695
1011.919036	2524.264527
1012.212528	2527.967255
1012.505986	2524.645134
1012.799408	2526.671678
1013.092795	2526.643952
1013.386147	2524.662778
1013.679464	2524.221677
1013.972745	2525.325690
1014.265992	2525.766791
1014.559204	2527.742923
1014.852380	2526.628828
1015.145521	2527.253931
1015.438628	2527.465660
1015.731699	2524.113292
1016.024736	2526.709487
1016.317737	2523.601615
1016.610703	2526.843077
1016.903635	2526.127233
1017.196531	2519.442663
1017.489393	2524.307377
1017.782219	2518.530215
1018.075011	2524.682943
1018.367768	2524.559435
1018.660490	2523.604136
1018.953177	2523.604136
1019.245829	2523.604136
