Dividing Wavelength (nm)	Counts (n)	Blue Motor Position (mm): 0.000000	Red Motor Position (mm): 42.800000	
326.493990	2125.007663
326.888308	2125.007663
327.282561	2125.007663
327.676750	2095.063209
328.070874	2093.260997
328.464933	2096.343662
328.858929	2101.803232
329.252859	2113.460900
329.646726	2123.979268
330.040528	2137.361011
330.434265	2153.747281
330.827938	2175.580518
331.221547	2190.832529
331.615091	2208.597556
332.008571	2226.004660
332.401986	2247.338823
332.795338	2265.565115
333.188625	2286.037240
333.581847	2304.744962
333.975006	2322.464618
334.368100	2340.053204
334.761129	2357.984588
335.154095	2377.574512
335.546996	2397.330794
335.939833	2418.221335
336.332606	2432.588624
336.725315	2448.727878
337.117960	2455.281378
337.510540	2463.737913
337.903056	2476.260140
338.295508	2482.294401
338.687896	2489.621718
339.080220	2498.181597
339.472480	2506.668380
339.864676	2510.892867
340.256807	2515.079545
340.648875	2514.973681
341.040879	2520.158507
341.432818	2520.150946
341.824694	2524.299815
342.216506	2524.657737
342.608253	2522.371574
342.999937	2523.011800
343.391557	2524.887110
343.783113	2522.845442
344.174605	2521.398631
344.566033	2520.506347
344.957397	2518.439474
345.348697	2514.983763
345.739934	2518.981398
346.131106	2514.043588
346.522215	2509.357835
346.913260	2509.635099
347.304241	2509.277177
347.695159	2505.087978
348.086012	2504.440190
348.476802	2503.641167
348.867528	2501.324757
349.258191	2500.334170
349.648789	2499.706546
350.039324	2499.328460
350.429796	2495.910557
350.820203	2495.429127
351.210548	2496.442399
351.600828	2494.254538
351.991045	2494.778818
352.381198	2494.756133
352.771288	2493.652120
353.161314	2492.311173
353.551276	2490.864362
353.941175	2491.577686
354.331010	2493.372336
354.720782	2494.055413
355.110490	2491.444095
355.500135	2496.218068
355.889717	2493.301760
356.279235	2496.248315
356.668689	2495.494662
357.058080	2495.078767
357.447408	2493.105155
357.836672	2491.239928
358.225873	2491.754126
358.615010	2489.180617
359.004084	2494.511637
359.393095	2495.106493
359.782043	2496.260917
360.170927	2497.329642
360.559748	2499.237719
360.948505	2499.361227
361.337199	2500.712256
361.725830	2501.786022
362.114398	2502.953049
362.502903	2502.522031
362.891344	2500.913902
363.279722	2502.988337
363.668037	2503.333656
364.056289	2505.501353
364.444478	2504.412463
364.832603	2505.332474
365.220665	2505.723163
365.608665	2505.657628
365.996601	2506.892711
366.384474	2508.967146
366.772284	2511.288597
367.160031	2512.306910
367.547715	2512.430418
367.935336	2516.428053
368.322893	2520.418127
368.710388	2522.472397
369.097820	2529.129241
369.485189	2528.496576
369.872495	2535.614685
370.259738	2542.105171
370.646918	2550.780996
371.034035	2558.683005
371.421090	2570.781774
371.808081	2577.884760
372.195010	2588.395566
372.581875	2602.450303
372.968678	2614.223917
373.355418	2625.193468
373.742096	2643.581077
374.128710	2657.499703
374.515262	2671.562001
374.901751	2685.883919
375.288177	2701.796322
375.674540	2720.877089
376.060841	2739.771333
376.447079	2760.407297
376.833254	2783.704989
377.219367	2795.299643
377.605417	2829.304746
377.991404	2840.047445
378.377329	2862.599047
378.763191	2879.456665
379.148991	2917.177099
379.534727	2942.687858
379.920402	2971.475367
380.306013	2981.073724
380.691563	3035.324101
381.077049	3053.265568
381.462474	3072.631160
381.847835	3109.502159
382.233134	3132.522588
382.618371	3133.508134
383.003545	3198.370140
383.388657	3207.169474
383.773706	3242.797829
384.158693	3255.529263
384.543618	3285.009931
384.928480	3319.471258
385.313280	3365.343238
385.698017	3367.415152
386.082692	3418.376176
386.467305	3422.961106
386.851856	3452.857668
387.236344	3475.736945
387.620770	3505.875483
388.005133	3534.100904
388.389435	3561.597877
388.773674	3571.279413
389.157851	3616.266670
389.541965	3629.381232
389.926018	3595.729010
390.310008	3668.324146
390.693936	3684.044984
391.077802	3724.510326
391.461606	3712.298131
391.845348	3776.451854
392.229027	3776.925723
392.612645	3787.577681
392.996200	3870.124055
393.379694	3907.385743
393.763125	3970.989981
394.146494	3940.380095
394.529801	4002.799662
394.913047	4051.139286
395.296230	4017.043442
395.679351	4073.204417
396.062410	4090.314093
396.445408	4074.643666
396.828343	4109.946867
397.211217	4131.044095
397.594028	4055.240265
397.976778	4117.947178
398.359466	4144.529182
398.742092	4174.138399
399.124656	4095.501440
399.507158	4177.936908
399.889598	4201.373233
400.271977	4262.414044
400.654294	4231.274837
401.036549	4245.332094
401.418742	4213.812280
401.800874	4313.967404
402.182944	4335.145291
402.564952	4400.743306
402.946898	4390.406420
403.328783	4381.276890
403.710606	4297.707162
404.092367	4495.721165
404.474067	4456.813539
404.855705	4467.722596
405.237282	4390.988673
405.618797	4497.856093
406.000250	4534.901012
406.381642	4613.043938
406.762972	4581.612344
407.144240	4586.550154
407.525447	4587.054269
407.906593	4647.439731
408.287677	4688.099157
408.668700	4615.559474
409.049661	4667.606867
409.430560	4709.456005
409.811399	4635.255262
410.192176	4799.775838
410.572891	4735.443153
410.953545	4838.927960
411.334138	4722.109302
411.714669	4789.852327
412.095139	4684.986245
412.475547	4828.986804
412.855894	4804.325480
413.236180	4814.475843
413.616405	4771.999081
413.996568	4855.057131
414.376670	4802.712310
414.756711	4755.701030
415.136691	4786.951143
415.516609	4863.294377
415.896466	4903.507661
416.276262	4931.745684
416.655997	4912.816152
417.035670	5097.818936
417.415283	5190.969377
417.794834	5134.503413
418.174324	5084.326288
418.553753	4990.510415
418.933121	5177.582593
419.312428	5245.512141
419.691674	5186.195404
420.070859	5309.433972
420.449983	5223.638574
420.829045	5337.689639
421.208047	5243.344445
421.586988	5313.499662
421.965867	5325.190098
422.344686	5457.424604
422.723444	5312.249456
423.102141	5132.524760
423.480777	5433.108599
423.859352	5200.905491
424.237866	5460.492147
424.616319	5452.696002
424.994712	5561.776489
425.373044	5437.716213
425.751314	5575.468263
426.129524	5382.381988
426.507673	5573.260237
426.885762	5660.784751
427.263789	5592.769503
427.641756	5472.046471
428.019662	5594.095326
428.397508	5605.511019
428.775292	5549.861722
429.153016	5649.351414
429.530679	5574.840639
429.908282	5659.973125
430.285824	5532.406727
430.663305	5807.840249
431.040726	5540.782604
431.418086	5538.148601
431.795385	5643.634745
432.172624	5656.734183
432.549802	5650.689840
432.926920	5664.852962
433.303977	5672.422254
433.680974	5711.400456
434.057910	5730.234207
434.434786	5736.157562
434.811601	5705.862748
435.188355	5940.208347
435.565050	5812.092463
435.941683	5795.484381
436.318257	6010.028327
436.694770	5993.516028
437.071222	6025.832345
437.447614	5960.362880
437.823946	5869.455752
438.200218	6025.935688
438.576429	5889.015429
438.952580	5988.570656
439.328670	6032.700917
439.704700	5946.595488
440.080670	5927.998672
440.456580	6198.643098
440.832429	6078.913174
441.208218	5922.554226
441.583947	6079.480304
441.959616	6086.890800
442.335224	6008.634448
442.710773	6149.224667
443.086261	6179.897568
443.461689	5973.021217
443.837057	6120.434638
444.212365	6277.874913
444.587612	6171.123440
444.962800	6321.296892
445.337927	6303.254602
445.712995	5912.396301
446.088002	6493.457337
446.462949	6315.655841
446.837837	6254.453713
447.212664	6423.612151
447.587431	6567.791671
447.962139	7108.571368
448.336786	8029.915330
448.711374	7778.013913
449.085901	6852.306833
449.460369	6767.033195
449.834776	6706.020110
450.209124	7091.363389
450.583412	7246.570434
450.957640	7391.425469
451.331808	7155.159191
451.705917	6708.160079
452.079965	6633.019161
452.453954	6845.324834
452.827883	6721.103242
453.201752	6811.856614
453.575562	6612.973013
453.949311	6822.899262
454.323001	6704.139759
454.696632	6782.464167
455.070202	6921.473984
455.443713	7072.627941
455.817164	7177.809095
456.190556	7258.671723
456.563888	7328.587486
456.937160	7381.875003
457.310373	7031.842486
457.683526	7057.254942
458.056619	6947.413241
458.429653	6935.725326
458.802628	6873.968671
459.175542	6980.405072
459.548398	7335.357756
459.921194	7494.854822
460.293930	7497.395564
460.666607	8030.300978
461.039224	8336.210796
461.411782	8459.406514
461.784280	8479.518197
462.156719	8379.784010
462.529099	8251.463959
462.901419	7838.830393
463.273680	7734.032367
463.645882	7747.179696
464.018024	7610.405630
464.390106	7782.568596
464.762130	8169.865322
465.134094	8627.970096
465.505999	9654.165017
465.877845	10874.547704
466.249631	11520.821107
466.621358	11145.590382
466.993026	10518.891780
467.364634	10261.538356
467.736184	9899.812882
468.107674	9567.245442
468.479105	9594.843239
468.850477	9358.468576
469.221790	9137.572776
469.593043	8805.738824
469.964238	8669.922578
470.335373	8676.196294
470.706449	8739.979493
471.077467	8714.327582
471.448425	10026.174444
471.819324	11103.451377
472.190164	11124.662032
472.560945	9879.184480
472.931667	9089.134850
473.302330	8950.263664
473.672934	8596.067154
474.043479	8957.840518
474.413965	8895.836847
474.784393	8770.664997
475.154761	8936.536602
475.525070	9026.611939
475.895321	8851.673818
476.265513	9027.912557
476.635645	9194.386580
477.005719	9192.382722
477.375734	9309.322367
477.745691	9545.467657
478.115588	9679.262401
478.485427	9921.313403
478.855207	10455.184198
479.224928	11269.638055
479.594591	11894.529403
479.964194	11709.650127
480.333739	11656.783547
480.703226	11567.275340
481.072653	11659.011737
481.442022	11901.415619
481.811333	12088.160123
482.180584	11888.691747
482.549777	11600.085689
482.918912	11428.389031
483.287988	11448.772936
483.657005	11461.847169
484.025964	11139.268775
484.394864	11277.444282
484.763706	11246.950342
485.132489	10994.239820
485.501213	10962.440222
485.869879	11039.360668
486.238487	10882.384178
486.607036	10990.995838
486.975527	10770.455439
487.343959	10960.443925
487.712333	11004.468321
488.080648	10937.988105
488.448905	10977.218364
488.817104	10914.650083
489.185244	11188.230982
489.553326	11341.804693
489.921350	11877.036599
490.289315	12935.510028
490.657222	13282.961475
491.025070	13196.041900
491.392861	13066.229668
491.760593	12689.869725
492.128267	12328.202225
492.495883	12014.879390
492.863440	11672.819457
493.230939	11332.307159
493.598380	11272.350196
493.965763	11137.753908
494.333088	11037.911336
494.700354	10956.945364
495.067563	11018.954077
495.434713	10848.938643
495.801805	10982.383026
496.168839	10901.596015
496.535815	10841.810451
496.902733	10837.764925
497.269593	10767.113154
497.636395	10866.544873
498.003139	10851.668428
498.369825	10727.393903
498.736453	10888.045394
499.103023	10806.789556
499.469535	10840.434216
499.835989	10830.571199
500.202385	10794.940323
500.568723	10635.188679
500.935003	10866.381035
501.301226	10666.824440
501.667390	10921.541341
502.033497	11022.813080
502.399546	10881.202028
502.765537	10794.148862
503.131470	10859.875426
503.497345	11041.336800
503.863163	10645.949022
504.228923	10959.276898
504.594625	11027.110664
504.960269	10768.708679
505.325856	10996.525983
505.691385	10792.291197
506.056856	10946.255597
506.422270	10966.228649
506.787625	10856.936433
507.152924	10968.141767
507.518164	10955.866557
507.883347	10874.429237
508.248472	10785.974631
508.613540	11027.009841
508.978550	10901.916129
509.343503	10881.229754
509.708398	11000.866417
510.073236	11114.912440
510.438016	11121.050045
510.802738	11063.338916
511.167403	11122.320416
511.532010	11018.225630
511.896561	11250.222051
512.261053	11322.124028
512.625488	11187.011023
512.989866	11170.060143
513.354186	11161.265850
513.718449	11062.502084
514.082655	11257.115829
514.446803	11151.571711
514.810894	11273.388673
515.174927	11138.406738
515.538904	11163.380614
515.902822	11314.980713
516.266684	11207.341996
516.630488	11144.869497
516.994235	11202.983919
517.357925	11266.260482
517.721558	11351.196362
518.085133	11364.809998
518.448651	11378.335414
518.812112	11262.237641
519.175516	11275.390011
519.538863	11396.244113
519.902152	11314.958028
520.265385	11475.140691
520.628560	11383.734490
520.991678	11363.383352
521.354739	11427.353073
521.717743	11361.306396
522.080690	11339.112717
522.443580	11473.882923
522.806413	11431.532190
523.169189	11458.774585
523.531908	11512.193172
523.894569	11335.430154
524.257174	11333.922849
524.619722	11453.224275
524.982213	11401.827191
525.344647	11457.441200
525.707025	11403.238714
526.069345	11495.635502
526.431608	11418.641960
526.793815	11523.389575
527.155964	11314.537092
527.518057	11368.500123
527.880093	11311.956021
528.242072	11381.468491
528.603995	11285.900817
528.965860	11212.509179
529.327669	11264.218814
529.689421	11211.959693
530.051117	11176.785042
530.412755	11289.043977
530.774337	11181.821155
531.135862	11156.421301
531.497331	11180.737307
531.858743	11035.526870
532.220098	11203.543487
532.581396	11073.048178
532.942638	11051.429190
533.303824	11011.105000
533.664953	11026.508246
534.026025	10947.140320
534.387040	11040.079032
534.747999	11045.631863
535.108902	11101.795358
535.469748	10860.044305
535.830537	10958.634151
536.191270	10939.510533
536.551947	10961.121960
536.912567	10955.496032
537.273131	10883.072296
537.633638	10867.812723
537.994089	10849.473005
538.354483	10799.938627
538.714821	10946.525299
539.075103	10956.390837
539.435328	10928.669532
539.795497	10744.891748
540.155609	10902.228680
540.515665	10987.482153
540.875665	10727.819881
541.235609	10794.297576
541.595496	10794.824377
541.955328	10942.804928
542.315102	10830.256127
542.674821	10784.961359
543.034483	10782.682758
543.394090	10785.261308
543.753640	10708.184586
544.113134	10944.718045
544.472571	10787.723912
544.831953	10930.590212
545.191278	10739.308670
545.550548	10774.385019
545.909761	10903.206664
546.268918	10880.629857
546.628019	10961.343771
546.987064	10821.492081
547.346053	10749.887532
547.704986	10845.757675
548.063863	10829.381487
548.422684	10826.626496
548.781449	10745.988199
549.140158	10842.130565
549.498811	10723.945754
549.857408	10572.025542
550.215949	10805.824175
550.574434	10653.225927
550.932864	10758.215518
551.291237	10815.919085
551.649555	10761.189798
552.007817	10776.048599
552.366022	10737.171221
552.724173	10722.655218
553.082267	10713.432427
553.440305	10849.092398
553.798288	10650.763323
554.156215	10803.482559
554.514086	10784.684096
554.871902	10632.370674
555.229661	10674.270224
555.587365	10647.524382
555.945014	10545.766171
556.302606	10672.210913
556.660143	10560.980373
557.017625	10714.826307
557.375050	10617.116142
557.732421	10746.976265
558.089735	10662.761270
558.446994	10654.289611
558.804197	10701.487413
559.161345	10701.590757
559.518437	10552.594414
559.875474	10639.140943
560.232455	10671.754688
560.589381	10623.072265
560.946251	10619.447676
561.303065	10726.105888
561.659825	10655.502008
562.016528	10588.157234
562.373177	10469.450664
562.729770	10583.829403
563.086307	10498.770014
563.442789	10590.345095
563.799216	10471.149532
564.155587	10517.946564
564.511904	10468.749943
564.868164	10458.014806
565.224370	10472.810593
565.580520	10395.295291
565.936615	10404.558411
566.292654	10277.218865
566.648638	10402.766281
567.004567	10359.099806
567.360441	10342.441313
567.716260	10256.003169
568.072023	10352.143014
568.427732	10298.772318
568.783385	10208.444923
569.138982	10282.806984
569.494525	10295.251072
569.850013	10177.625829
570.205445	10260.532645
570.560823	10152.352004
570.916145	10066.939735
571.271412	10150.789247
571.626625	10086.572508
571.981782	10058.795751
572.336884	10039.147854
572.691931	10040.730776
573.046923	9987.803702
573.401860	9943.877608
573.756743	9877.581393
574.111570	9924.055791
574.466342	9907.969469
574.821059	9940.709243
575.175722	9829.151028
575.530330	9845.000416
575.884882	9828.984670
576.239380	9756.540769
576.593823	9735.294826
576.948211	9753.669832
577.302544	9632.745154
577.656823	9647.752669
578.011047	9652.824070
578.365216	9627.905646
578.719330	9542.831134
579.073389	9556.744719
579.427394	9500.545936
579.781344	9478.208583
580.135239	9425.460470
580.489080	9442.860012
580.842866	9339.904527
581.196597	9343.660187
581.550273	9384.901866
581.903895	9354.851548
582.257463	9417.898739
582.610975	9292.260582
582.964434	9328.246859
583.317837	9245.214014
583.671186	9227.804389
584.024481	9218.382473
584.377721	9141.542685
584.730906	9120.016958
585.084037	9145.358838
585.437113	9078.379548
585.790135	9106.625133
586.143103	9005.915482
586.496016	8980.689548
586.848874	9040.099546
587.201679	9024.401393
587.554428	8909.417715
587.907124	8958.334551
588.259765	8931.850850
588.612352	8927.172659
588.964884	8807.215883
589.317362	8816.957912
589.669786	8819.377666
590.022155	8874.001089
590.374470	8886.425012
590.726731	8828.706321
591.078937	8676.506325
591.431090	8785.344837
591.783188	8659.091659
592.135232	8649.889033
592.487222	8655.724168
592.839157	8702.440541
593.191038	8640.273032
593.542866	8582.763549
593.894639	8484.624886
594.246358	8531.575672
594.598022	8554.507881
594.949633	8455.870145
595.301190	8422.119620
595.652692	8447.297663
596.004141	8560.232112
596.355535	8334.121238
596.706876	8314.838825
597.058162	8248.340964
597.409395	8322.889547
597.760573	8386.473621
598.111698	8293.333262
598.462768	8287.114999
598.813785	8249.996983
599.164748	8214.545069
599.515657	8205.017288
599.866511	8115.839277
600.217312	8242.102536
600.568060	8101.103984
600.918753	8201.324643
601.269392	8177.230448
601.619978	8082.242507
601.970510	8146.600397
602.320988	8141.710478
602.671412	8201.080147
603.021783	8138.819376
603.372100	8108.030529
603.722363	8114.271478
604.072572	8085.909946
604.422728	8100.678006
604.772830	8033.401288
605.122878	8034.918675
605.472872	8032.579580
605.822813	8058.728045
606.172701	8001.684868
606.522534	8078.431394
606.872314	8079.512722
607.222041	8042.074593
607.571714	8099.453006
607.921333	8059.627891
608.270899	8064.111997
608.620411	8152.773290
608.969870	8049.414513
609.319276	8049.555665
609.668627	8066.141061
610.017926	8099.218592
610.367171	8138.945405
610.716362	8123.675750
611.065500	8106.871064
611.414585	8134.602451
611.763616	8124.870504
612.112594	8104.332843
612.461518	8113.006148
612.810389	8177.679111
613.159207	8112.065973
613.507971	8059.993374
613.856682	8179.274636
614.205340	8130.572049
614.553945	8204.891259
614.902496	8100.085671
615.250994	8154.283116
615.599439	8140.714850
615.947830	8150.156931
616.296169	8124.338662
616.644454	8138.055642
616.992686	8130.325032
617.340864	8186.425513
617.688990	8085.373063
618.037063	8174.493102
618.385082	8115.299873
618.733048	8197.939508
619.080961	8139.026064
619.428821	8154.746902
619.776628	8158.515164
620.124382	8099.576514
620.472083	8087.873476
620.819731	8111.070345
621.167326	8007.852720
621.514868	8018.587857
621.862357	7902.643839
622.209793	7920.731499
622.557176	7848.090993
622.904506	7821.261972
623.251783	7753.040037
623.599007	7709.459262
623.946179	7707.248716
624.293297	7665.339084
624.640363	7578.391783
624.987376	7558.403608
625.334336	7510.132039
625.681243	7451.483255
626.028097	7439.190402
626.374899	7417.203409
626.721647	7402.382417
627.068343	7333.663928
627.414987	7304.886501
627.761577	7256.551918
628.108115	7288.774974
628.454600	7181.690784
628.801032	7226.040335
629.147412	7185.887544
629.493739	7171.106881
629.840014	7107.295956
630.186236	7159.003071
630.532405	7039.933537
630.878521	7084.961124
631.224585	7033.190994
631.570597	6961.281455
631.916556	6986.792214
632.262462	6979.162428
632.608316	6934.258350
632.954117	6906.587457
633.299866	6890.624643
633.645562	6875.433126
633.991206	6802.049049
634.336797	6740.229380
634.682336	6697.182967
635.027823	6661.284910
635.373257	6656.087481
635.718639	6582.388332
636.063968	6591.550629
636.409245	6491.042624
636.754470	6479.579041
637.099642	6440.948679
637.444762	6385.443054
637.789829	6385.528754
638.134845	6324.644218
638.479808	6304.323327
638.824719	6305.192926
639.169577	6238.997535
639.514383	6249.364668
639.859137	6176.000756
640.203839	6179.519481
640.548489	6156.352859
640.893086	6134.570033
641.237632	6101.232883
641.582125	6120.832889
641.926566	6080.218833
642.270955	6089.118990
642.615292	6080.302012
642.959576	6089.703764
643.303809	6074.451753
643.647990	6073.556948
643.992118	6063.920783
644.336195	6013.531929
644.680219	6020.662641
645.024192	6010.817268
645.368112	6091.889104
645.711981	6096.584939
646.055797	6166.810732
646.399562	6120.041428
646.743274	6221.562704
647.086935	6263.623572
647.430544	6245.004070
647.774101	6256.840699
648.117606	6262.078458
648.461059	6247.267548
648.804460	6202.270209
649.147810	6116.552949
649.491108	6086.711839
649.834354	6064.694600
650.177548	5980.048585
650.520690	5896.529269
650.863781	5870.426174
651.206820	5880.939501
651.549807	5813.128420
651.892742	5749.413276
652.235626	5749.796404
652.578458	5729.296552
652.921238	5641.467049
653.263967	5672.117264
653.606644	5612.407318
653.949269	5603.849959
654.291843	5548.004057
654.634365	5587.677937
654.976836	5532.578126
655.319255	5535.605339
655.661622	5501.045709
656.003938	5488.919213
656.346203	5455.168688
656.688416	5472.835412
657.030577	5427.528042
657.372687	5400.051233
657.714746	5386.014140
658.056753	5411.845012
658.398708	5347.880331
658.740612	5348.013922
659.082465	5368.717941
659.424266	5362.860120
659.766016	5354.398543
660.107715	5324.348225
660.449362	5330.017003
660.790958	5319.102905
661.132503	5294.774296
661.473996	5321.406712
661.815438	5301.509278
662.156829	5300.397703
662.498168	5282.206700
662.839456	5264.499647
663.180693	5278.748468
663.521879	5279.280310
663.863013	5259.486219
664.204097	5256.799284
664.545129	5290.701044
664.886110	5273.462818
665.227040	5292.765396
665.567918	5265.459987
665.908746	5267.703300
666.249522	5268.252786
666.590248	5251.889200
666.930922	5269.732364
667.271545	5267.035347
667.612118	5265.457466
667.952639	5237.945369
668.293109	5240.307149
668.633528	5200.194688
668.973896	5200.872723
669.314213	5184.665414
669.654480	5156.891177
669.994695	5152.230630
670.334859	5142.014732
670.674973	5114.928612
671.015035	5117.610506
671.355047	5102.597950
671.695008	5085.405095
672.034918	5063.221497
672.374777	5060.418616
672.714585	5041.978075
673.054342	5034.040778
673.394049	5017.503273
673.733705	5036.669740
674.073310	5008.925750
674.412864	4988.693079
674.752368	4964.893791
675.091820	4954.120846
675.431223	4907.374226
675.770574	4901.549173
676.109875	4862.681877
676.449125	4854.610989
676.788324	4826.574612
677.127473	4781.695740
677.466571	4764.994397
677.805619	4748.088888
678.144616	4727.881423
678.483562	4708.530954
678.822458	4679.783774
679.161303	4666.139891
679.500098	4655.460207
679.838842	4641.526457
680.177535	4631.461794
680.516179	4642.350686
680.854771	4642.711128
681.193314	4691.423798
681.531805	4759.096247
681.870247	4844.085060
682.208638	4908.027055
682.546978	4915.666924
682.885268	4892.459972
683.223508	4823.247451
683.561697	4784.102891
683.899836	4753.387141
684.237925	4712.679823
684.575963	4686.543961
684.913951	4655.682017
685.251889	4675.690357
685.589776	4654.189836
685.927614	4638.489162
686.265401	4662.560672
686.603137	4652.014578
686.940824	4690.896997
687.278460	4704.167835
687.616046	4698.667936
687.953582	4736.095983
688.291068	4717.607551
688.628504	4741.192589
688.965889	4716.964804
689.303224	4674.944266
689.640510	4631.711331
689.977745	4575.898196
690.314930	4504.896065
690.652065	4467.936845
690.989150	4407.445520
691.326185	4345.104091
691.663170	4295.007624
692.000105	4245.621961
692.336990	4192.725133
692.673825	4165.472656
693.010610	4120.860965
693.347345	4079.707505
693.684030	4045.901527
694.020665	4023.251623
694.357251	3969.641473
694.693786	3961.996563
695.030272	3939.785239
695.366707	3911.315323
695.703093	3889.008217
696.039429	3895.075246
696.375716	3867.900906
696.711952	3856.669215
697.048139	3843.660517
697.384276	3828.413548
697.720363	3828.957992
698.056400	3819.941889
698.392388	3794.025317
698.728326	3779.768934
699.064214	3769.116976
699.400053	3754.623658
699.735842	3724.585943
700.071581	3710.074982
700.407270	3689.018082
700.742910	3670.015453
701.078501	3643.398160
701.414042	3628.493989
701.749533	3610.607975
702.084974	3579.743511
702.420366	3592.890840
702.755709	3562.018814
703.091002	3530.710728
703.426246	3541.702964
703.761440	3524.376518
704.096584	3506.818179
704.431679	3504.247191
704.766725	3494.764780
705.101721	3482.671052
705.436668	3489.678256
705.771565	3465.740337
706.106413	3476.029332
706.441212	3480.180722
706.775961	3483.119715
707.110661	3477.234168
707.445311	3490.610870
707.779913	3485.055518
708.114465	3495.657065
708.448967	3510.878829
708.783421	3529.503372
709.117825	3547.543141
709.452180	3551.276115
709.786485	3574.714960
710.120742	3615.442442
710.454949	3605.526492
710.789107	3633.598157
711.123216	3666.284999
711.457275	3664.518074
711.791286	3692.640151
712.125247	3698.971840
712.459159	3662.005059
712.793023	3697.787169
713.126837	3651.239675
713.460602	3645.407060
713.794318	3617.007720
714.127985	3604.452726
714.461602	3550.842576
714.795171	3540.553581
715.128691	3497.391222
715.462162	3463.532312
715.795584	3436.068106
716.128957	3417.967843
716.462281	3397.644431
716.795556	3378.649363
717.128782	3352.541228
717.461960	3317.921103
717.795088	3316.370949
718.128167	3294.759522
718.461198	3267.426386
718.794180	3259.857093
719.127113	3243.538878
719.459997	3230.124368
719.792833	3209.135524
720.125619	3204.989175
720.458357	3183.602080
720.791046	3177.890452
721.123686	3168.879390
721.456278	3149.712923
721.788821	3152.311638
722.121315	3140.200266
722.453761	3128.199799
722.786158	3125.190230
723.118506	3132.328504
723.450805	3117.242851
723.783056	3125.681743
724.115259	3118.422481
724.447412	3115.586832
724.779518	3117.401647
725.111574	3116.774024
725.443582	3125.081845
725.775542	3119.982718
726.107453	3137.520892
726.439315	3130.785911
726.771129	3144.538179
727.102895	3157.806496
727.434612	3173.779392
727.766281	3174.210410
728.097901	3177.782068
728.429473	3171.480625
728.760996	3171.291582
729.092471	3166.741941
729.423897	3157.597288
729.755276	3152.109992
730.086606	3148.871050
730.417887	3168.695388
730.749120	3190.009386
731.080305	3204.139741
731.411442	3215.547872
731.742530	3201.558670
732.073570	3201.286447
732.404562	3211.618292
732.735506	3209.982438
733.066401	3194.453163
733.397249	3165.993329
733.728048	3127.862042
734.058798	3087.656319
734.389501	3053.094168
734.720156	3033.380736
735.050762	3016.278622
735.381320	3003.310254
735.711831	2987.019765
736.042293	2977.441573
736.372707	2977.648260
736.703073	2966.421610
737.033391	2971.891262
737.363661	2971.009060
737.693883	2976.113229
738.024056	2977.991058
738.354182	2981.315699
738.684260	2998.710201
739.014290	3008.152282
739.344272	3010.511542
739.674207	3020.893798
740.004093	3023.295908
740.333931	3021.856659
740.663722	3019.174765
740.993464	3011.726460
741.323159	3002.652383
741.652806	2988.796772
741.982405	2976.675317
742.311956	2963.134778
742.641460	2954.406020
742.970915	2943.708692
743.300323	2923.798655
743.629683	2910.800039
743.958996	2906.159657
744.288260	2891.852863
744.617477	2881.659650
744.946647	2871.196735
745.275768	2863.803883
745.604842	2854.959178
745.933869	2845.824607
746.262847	2838.114163
746.591778	2843.304031
746.920662	2838.419152
747.249498	2832.941939
747.578286	2837.562156
747.907027	2843.427539
748.235720	2846.421984
748.564365	2850.371728
748.892963	2845.756552
749.221514	2843.488033
749.550017	2836.783298
749.878473	2833.027638
750.206881	2820.684373
750.535242	2819.648416
750.863555	2819.255206
751.191821	2811.670790
751.520039	2809.944195
751.848210	2804.719039
752.176334	2807.411015
752.504411	2808.411684
752.832440	2799.279634
753.160421	2797.260652
753.488356	2792.053140
753.816243	2794.598923
754.144082	2785.933179
754.471875	2783.296656
754.799620	2781.416305
755.127318	2780.450924
755.454969	2777.937909
755.782572	2780.574433
756.110129	2775.734925
756.437638	2773.536982
756.765100	2771.407094
757.092515	2774.121756
757.419882	2773.141251
757.747203	2765.879469
758.074477	2769.947680
758.401703	2770.421549
758.728882	2773.849533
759.056014	2776.831376
759.383099	2777.993362
759.710138	2780.287087
760.037129	2783.442849
760.364073	2785.154321
760.690970	2778.931017
761.017820	2775.626540
761.344623	2782.086779
761.671379	2783.921759
761.998088	2789.068777
762.324751	2820.029023
762.651366	2888.742471
762.977935	3025.302287
763.304456	3127.604943
763.630931	3135.058289
763.957359	3039.147816
764.283740	2950.380659
764.610074	2891.618449
764.936362	2847.599094
765.262602	2811.380924
765.588796	2785.315638
765.914943	2763.852925
766.241044	2745.137642
766.567097	2734.135323
766.893104	2721.078735
767.219064	2715.934237
767.544978	2706.270346
767.870845	2695.812472
768.196665	2692.457584
768.522438	2690.042871
768.848165	2685.105061
769.173846	2679.945440
769.499479	2677.077024
769.825066	2671.932526
770.150607	2666.664520
770.476101	2665.918430
770.801548	2664.012873
771.126949	2657.068684
771.452303	2654.553148
771.777611	2651.301604
772.102872	2652.181285
772.428087	2648.284473
772.753256	2644.690131
773.078378	2642.151910
773.403453	2637.060344
773.728482	2636.188225
774.053465	2633.070271
774.378401	2631.391567
774.703291	2627.300671
775.028135	2627.514920
775.352932	2625.967285
775.677683	2622.009980
776.002388	2621.001749
776.327046	2623.930659
776.651658	2617.966974
776.976224	2615.038064
777.300743	2616.552931
777.625216	2616.724330
777.949643	2612.779627
778.274024	2611.279884
778.598359	2606.142948
778.922647	2607.902311
779.246889	2609.202928
779.571086	2603.768564
779.895236	2607.937599
780.219339	2609.979266
780.543397	2611.244596
780.867409	2612.938423
781.191374	2611.093361
781.515294	2609.782661
781.839167	2608.918103
782.162995	2606.916765
782.486776	2606.836107
782.810511	2605.658997
783.134201	2604.854933
783.457844	2605.051538
783.781441	2599.844026
784.104993	2598.629108
784.428498	2600.441403
784.751958	2600.063316
785.075372	2597.328490
785.398739	2594.974272
785.722061	2597.817482
786.045337	2596.448809
786.368568	2595.150712
786.691752	2597.429313
787.014891	2600.736310
787.337983	2607.652773
787.661030	2619.368415
787.984031	2629.007101
788.306987	2634.824593
788.629897	2631.598254
788.952760	2625.793366
789.275579	2619.053343
789.598351	2612.671242
789.921078	2603.929881
790.243759	2601.694130
790.566395	2594.444950
790.888984	2594.981833
791.211529	2590.059147
791.534027	2588.458580
791.856480	2586.679053
792.178888	2585.748960
792.501249	2586.336254
792.823566	2584.022365
793.145836	2583.160327
793.468062	2583.878692
793.790241	2581.095975
794.112375	2581.748804
794.434464	2584.488672
794.756507	2586.056470
795.078505	2585.658219
795.400457	2589.227356
795.722364	2593.532502
796.044226	2597.880497
796.366042	2594.538212
796.687812	2597.189859
797.009538	2597.807400
797.331218	2597.119282
797.652852	2594.336566
797.974442	2591.490834
798.295986	2589.797007
798.617484	2586.976481
798.938938	2588.420772
799.260346	2584.922211
799.581709	2584.160997
799.903026	2585.098651
800.224299	2581.945409
800.545526	2579.293763
800.866708	2575.971642
801.187845	2578.968608
801.508936	2576.367373
801.829983	2578.862744
802.150984	2573.919892
802.471940	2574.693710
802.792851	2574.189594
803.113717	2574.187074
803.434538	2574.867629
803.755314	2571.651373
804.076045	2573.078020
804.396731	2574.728998
804.717372	2573.141034
805.037967	2574.688668
805.358518	2572.629357
805.679024	2575.641447
805.999485	2575.868298
806.319901	2576.367373
806.640272	2574.469378
806.960598	2573.166240
807.280879	2576.465675
807.601115	2575.941395
807.921306	2573.703123
808.241453	2573.279666
808.561554	2572.715057
808.881611	2575.220510
809.201623	2573.173802
809.521590	2571.769840
809.841513	2570.731363
810.161390	2576.609348
810.481223	2568.596434
810.801011	2570.345714
811.120755	2568.170457
811.440453	2571.878225
811.760107	2570.355797
812.079716	2566.559808
812.399281	2564.901268
812.718801	2564.707184
813.038276	2562.181566
813.357707	2566.821948
813.677093	2565.697771
813.996434	2566.436300
814.315731	2565.244067
814.634983	2565.569221
814.954191	2567.194993
815.273354	2569.985272
815.592473	2567.283213
815.911547	2566.849674
816.230577	2567.126938
816.549562	2571.747155
816.868502	2568.485529
817.187399	2568.263718
817.506250	2570.985941
817.825058	2572.825962
818.143821	2573.992989
818.462539	2576.639595
818.781213	2579.129925
819.099843	2582.172261
819.418429	2589.091245
819.736970	2597.769591
820.055466	2605.779985
820.373919	2614.987652
820.692327	2626.604991
821.010691	2647.024185
821.329011	2710.704040
821.647286	2863.614839
821.965517	3096.833740
822.283704	3222.378635
822.601847	3208.381872
822.919945	3077.561409
823.237999	2965.478915
823.556010	2873.233361
823.873976	2799.713173
824.191897	2740.651015
824.509775	2705.582228
824.827609	2674.422856
825.145398	2661.106648
825.463144	2656.050371
825.780845	2663.738131
826.098502	2681.694721
826.416116	2716.924824
826.733685	2755.734147
827.051210	2766.439037
827.368692	2741.888618
827.686129	2707.008875
828.003522	2671.677948
828.320872	2639.154944
828.638177	2620.744650
828.955439	2602.291506
829.272656	2593.686257
829.589830	2583.457756
829.906960	2581.700913
830.224046	2576.420305
830.541088	2575.205387
830.858086	2573.614903
831.175041	2572.074830
831.491952	2570.199521
831.808819	2572.301682
832.125642	2568.457802
832.442421	2576.495922
832.759157	2589.875144
833.075849	2610.773248
833.392497	2637.544295
833.709101	2654.727068
834.025662	2654.613642
834.342179	2637.037659
834.658653	2617.092334
834.975083	2599.705394
835.291469	2594.979313
835.607811	2579.558423
835.924110	2577.385686
836.240366	2569.140879
836.556578	2566.746331
836.872746	2561.629559
837.188871	2561.495969
837.504952	2560.371792
837.820990	2555.280226
838.136984	2554.902140
838.452935	2553.561193
838.768842	2553.261244
839.084706	2556.966492
839.400526	2565.730538
839.716303	2578.101530
840.032037	2591.390011
840.347727	2590.013776
840.663373	2581.194278
840.978977	2569.796229
841.294537	2566.020404
841.610054	2559.204764
841.925527	2556.217881
842.240957	2554.387942
842.556344	2552.011038
842.871687	2547.852086
843.186987	2551.214536
843.502244	2548.688917
843.817458	2548.905687
844.132629	2545.412168
844.447756	2548.225131
844.762840	2540.618030
845.077881	2543.433515
845.392879	2542.188350
845.707833	2545.946530
846.022745	2541.394368
846.337613	2543.494008
846.652438	2545.286139
846.967221	2544.529966
847.281960	2544.532486
847.596656	2547.060625
847.911309	2545.054246
848.225919	2541.137269
848.540485	2543.650284
848.855009	2544.771941
849.169490	2543.849410
849.483928	2544.870243
849.798323	2545.255892
850.112675	2548.310831
850.426984	2545.192877
850.741251	2544.335881
851.055474	2542.707588
851.369654	2544.966025
851.683792	2543.947712
851.997887	2545.689431
852.311938	2544.227496
852.625947	2542.894111
852.939914	2542.654656
853.253837	2545.213042
853.567718	2543.655325
853.881555	2543.836807
854.195350	2543.544420
854.509103	2545.364277
854.822812	2545.757487
855.136479	2542.326981
855.450103	2545.608773
855.763685	2544.164482
856.077224	2542.727753
856.390720	2542.516025
856.704173	2541.714481
857.017584	2543.559543
857.330953	2545.334030
857.644278	2543.783875
857.957561	2545.412168
858.270802	2544.290511
858.584000	2544.517363
858.897155	2543.486447
859.210268	2543.824204
859.523339	2545.918803
859.836367	2539.879501
860.149352	2544.464431
860.462295	2544.693803
860.775195	2540.068544
861.088054	2539.017464
861.400869	2541.175078
861.713642	2539.899666
862.026373	2542.200953
862.339062	2544.615665
862.651708	2542.536189
862.964312	2544.051056
863.276873	2544.116591
863.589392	2546.357384
863.901869	2541.669111
864.214303	2544.466951
864.526696	2544.686241
864.839045	2545.709596
865.151353	2547.390820
865.463619	2544.918134
865.775842	2544.834955
866.088023	2544.787064
866.400162	2545.162630
866.712258	2544.101468
867.024313	2544.582898
867.336325	2545.152548
867.648296	2546.944678
867.960224	2544.661036
868.272110	2543.105840
868.583954	2545.326468
868.895755	2545.664225
869.207515	2545.608772
869.519233	2545.419729
869.830909	2545.364277
870.142542	2547.627755
870.454134	2546.745553
870.765684	2547.262271
871.077191	2547.907539
871.388657	2546.798485
871.700081	2544.429143
872.011463	2549.009031
872.322803	2547.849565
872.634101	2549.601366
872.945357	2549.687066
873.256571	2547.897456
873.567744	2549.631613
873.878874	2548.270502
874.189963	2548.202446
874.501010	2550.344937
874.812015	2548.240255
875.122979	2552.366439
875.433900	2547.335368
875.744780	2551.484237
876.055618	2548.023485
876.366415	2550.644885
876.677169	2550.105482
876.987882	2550.014741
877.298554	2547.279915
877.609183	2548.688918
877.919771	2549.666901
878.230317	2548.996428
878.540822	2553.767880
878.851285	2555.539846
879.161707	2560.031514
879.472087	2562.191648
879.782425	2573.501477
880.092722	2581.663105
880.402977	2604.713781
880.713191	2639.366672
881.023363	2686.529187
881.333494	2717.038250
881.643583	2730.994685
881.953631	2720.826677
882.263637	2700.762885
882.573602	2681.462827
882.883526	2661.232677
883.193408	2646.033598
883.503248	2625.173304
883.813048	2612.119236
884.122806	2602.417535
884.432522	2592.226843
884.742197	2583.540935
885.051831	2578.582960
885.361424	2570.718760
885.670975	2567.898234
885.980485	2562.337842
886.289954	2561.006977
886.599382	2556.928683
886.908768	2557.810885
887.218113	2556.066646
887.527417	2558.614949
887.836680	2554.352654
888.145901	2551.728733
888.455082	2550.113043
888.764221	2551.275029
889.073319	2551.048178
889.382376	2551.073383
889.691392	2550.090358
890.000366	2550.372663
890.309300	2549.619010
890.618193	2552.086655
890.927044	2550.450801
891.235855	2550.382745
891.544625	2549.876109
891.853353	2551.368291
892.162041	2552.343754
892.470687	2555.214691
892.779293	2555.277706
893.087858	2554.944989
893.396381	2556.868190
893.704864	2563.401525
894.013306	2568.014181
894.321707	2583.684607
894.630068	2592.952769
894.938387	2596.327821
895.246665	2594.719693
895.554903	2587.173086
895.863100	2578.313258
896.171256	2574.665983
896.479371	2568.664490
896.787446	2566.728687
897.095480	2562.330280
897.403473	2561.299364
897.711425	2555.968344
898.019336	2557.853735
898.327207	2555.938097
898.635038	2553.228477
898.942827	2552.900802
899.250576	2555.965823
899.558284	2551.083466
899.865952	2549.437529
900.173579	2548.217570
900.481165	2546.944678
900.788711	2548.704041
901.096216	2547.917621
901.403681	2548.015923
901.711105	2546.591797
902.018489	2547.163968
902.325832	2550.352498
902.633135	2548.567930
902.940397	2549.649257
903.247619	2553.286450
903.554800	2565.372616
903.861941	2580.410378
904.169041	2601.114397
904.476101	2609.873402
904.783121	2610.112857
905.090100	2601.071547
905.397039	2592.345310
905.703938	2580.039853
906.010796	2571.026270
906.317614	2564.452606
906.624391	2558.365412
906.931129	2556.767367
907.237826	2552.598332
907.544483	2548.966181
907.851099	2551.527087
908.157675	2547.650440
908.464211	2547.007693
908.770707	2541.348997
909.077163	2541.711961
909.383578	2537.021167
909.689954	2542.505942
909.996289	2538.730118
910.302584	2543.476364
910.608839	2541.240613
910.915054	2544.076262
911.221229	2541.843031
911.527363	2545.102137
911.833458	2545.255892
912.139513	2542.596683
912.445527	2542.619368
912.751502	2539.768596
913.057436	2545.752445
913.363331	2544.172044
913.669186	2548.003321
913.975000	2549.636654
914.280775	2550.186140
914.586510	2557.410114
914.892205	2563.918243
915.197859	2572.951991
915.503475	2584.176120
915.809050	2593.280444
916.114585	2597.681371
916.420081	2601.651280
916.725536	2602.523399
917.030952	2594.966710
917.336328	2586.616038
917.641665	2583.850966
917.946961	2577.809143
918.252218	2570.731363
918.557435	2564.606361
918.862612	2561.044786
919.167750	2557.596636
919.472848	2557.969682
919.777906	2552.673950
920.082925	2551.348126
920.387904	2550.105482
920.692843	2549.989535
920.997743	2546.185985
921.302603	2546.584236
921.607423	2546.861499
921.912204	2545.354194
922.216946	2547.015254
922.521647	2545.432332
922.826310	2543.562064
923.130932	2543.859492
923.435516	2544.393854
923.740059	2544.015768
924.044564	2542.962167
924.349028	2541.583411
924.653454	2539.529141
924.957840	2537.369007
925.262186	2538.772968
925.566493	2539.120807
925.870761	2535.894469
926.174989	2540.860006
926.479178	2536.252391
926.783328	2537.215251
927.087438	2540.136600
927.391509	2538.304141
927.695541	2538.452855
927.999533	2538.399923
928.303486	2538.989737
928.607400	2537.182484
928.911275	2538.394881
929.215110	2537.719367
929.518906	2537.164840
929.822663	2535.639891
930.126381	2536.794315
930.430060	2538.639377
930.733699	2534.561084
931.037299	2537.865560
931.340861	2535.634850
931.644383	2538.238606
931.947866	2536.050745
932.251309	2537.605941
932.554714	2538.147865
932.858080	2538.689789
933.161407	2540.610468
933.464694	2536.204500
933.767943	2536.877494
934.071153	2537.414377
934.374323	2536.418749
934.677455	2537.956301
934.980548	2537.434542
935.283602	2538.079809
935.586617	2537.520241
935.889593	2536.300282
936.192530	2537.956301
936.495428	2538.193235
936.798287	2535.864222
937.101108	2537.084181
937.403890	2536.567463
937.706632	2539.524100
938.009336	2537.369007
938.312002	2542.745397
938.614628	2538.699871
938.917216	2541.850592
939.219765	2541.623740
939.522275	2540.461754
939.824747	2541.628782
940.127179	2538.742721
940.429573	2536.181815
940.731929	2537.358924
941.034246	2534.770292
941.336524	2541.094419
941.638763	2539.370345
941.940964	2541.394368
942.243126	2538.384799
942.545250	2540.287835
942.847335	2539.035108
943.149381	2538.294058
943.451389	2536.176774
943.753359	2539.587114
944.055290	2537.729449
944.357182	2538.548637
944.659036	2535.738193
944.960851	2538.868750
945.262628	2538.299099
945.564367	2535.402957
945.866067	2537.361445
946.167729	2535.990251
946.469352	2536.562422
946.770937	2536.277597
947.072484	2537.792463
947.373992	2540.892773
947.675462	2538.130221
947.976893	2539.130890
948.278286	2535.347504
948.579641	2537.621064
948.880958	2537.139634
949.182236	2535.100487
949.483476	2533.310878
949.784678	2535.796167
950.085841	2536.554860
950.386967	2536.272556
950.688054	2537.918492
950.989103	2535.097967
951.290114	2532.910106
951.591087	2536.199459
951.892021	2534.503111
952.192917	2535.697864
952.493776	2536.622916
952.794596	2537.258101
953.095378	2535.891948
953.396122	2537.873122
953.696828	2536.186856
953.997496	2536.375899
954.298126	2536.968235
954.598718	2535.213913
954.899272	2532.645445
955.199788	2535.796167
955.500266	2537.192566
955.800706	2533.880528
956.101108	2529.010773
956.401472	2532.269879
956.701798	2529.895496
957.002087	2531.034797
957.302337	2535.342463
957.602550	2531.143182
957.902724	2536.799356
958.202861	2533.094108
958.502960	2532.852133
958.803022	2533.134437
959.103045	2532.927750
959.403031	2533.741896
959.702979	2533.086546
960.002889	2532.227030
960.302762	2531.231402
960.602596	2532.302647
960.902393	2532.688295
961.202153	2531.299457
961.501875	2533.557894
961.801559	2531.110414
962.101205	2531.120496
962.400814	2533.023532
962.700385	2531.244005
962.999918	2535.733152
963.299414	2531.916999
963.598873	2532.158974
963.898293	2532.239633
964.197677	2532.557225
964.497022	2532.053110
964.796331	2531.627132
965.095601	2533.215096
965.394835	2531.057482
965.694030	2531.748120
965.993189	2533.691485
966.292309	2528.725948
966.591393	2532.388347
966.890439	2530.971782
967.189447	2532.083357
967.488419	2532.249715
967.787353	2532.627801
968.086249	2530.891124
968.385108	2533.104190
968.683930	2531.538912
968.982714	2529.550177
969.281462	2531.261649
969.580172	2530.795342
969.878844	2529.572862
970.177480	2531.130579
970.476078	2531.727955
970.774639	2534.969417
971.073162	2531.249046
971.371649	2531.206196
971.670098	2526.124713
971.968510	2530.460105
972.266885	2526.585978
972.565223	2535.213913
972.863524	2530.681916
973.161788	2529.726617
973.460014	2531.105373
973.758204	2530.674354
974.056356	2531.780888
974.354471	2530.671834
974.652550	2530.823068
974.950591	2530.374406
975.248595	2529.555218
975.546563	2530.432379
975.844493	2530.571011
976.142386	2532.723583
976.440243	2528.836854
976.738062	2531.112935
977.035845	2530.775177
977.333590	2530.520599
977.631299	2532.073274
977.928971	2531.186031
978.226606	2531.498583
978.524204	2529.275434
978.821765	2532.254756
979.119290	2530.719725
979.416777	2529.217461
979.714228	2533.441948
980.011642	2530.361803
980.309020	2532.133768
980.606360	2533.036135
980.903664	2528.824251
981.200931	2529.819879
981.498162	2531.743079
981.795356	2530.777698
982.092513	2531.322143
982.389633	2533.401618
982.686717	2532.526978
982.983764	2533.182328
983.280775	2534.291382
983.577749	2535.430683
983.874686	2534.732483
984.171587	2529.472039
984.468451	2533.288192
984.765279	2530.129910
985.062070	2532.574869
985.358824	2531.551515
985.655543	2532.027904
985.952224	2530.465146
986.248869	2529.809796
986.545478	2527.528674
986.842050	2527.712676
987.138586	2528.418438
987.435086	2527.926925
987.731549	2521.726306
988.027975	2530.505476
988.324366	2529.078829
988.620719	2529.393901
988.917037	2531.052441
989.213318	2529.318284
989.509563	2529.035979
989.805772	2531.065044
990.101944	2528.960362
990.398080	2531.750641
990.694180	2529.308202
990.990244	2529.146885
991.286271	2528.506658
991.582262	2529.078829
991.878217	2530.999509
992.174136	2528.146216
992.470019	2527.536236
992.765865	2528.035310
993.061676	2526.961544
993.357450	2530.946577
993.653188	2527.861390
993.948890	2530.487832
994.244556	2530.621422
994.540186	2529.035979
994.835780	2530.777698
995.131337	2530.230733
995.426859	2532.809283
995.722345	2530.233253
996.017795	2529.756864
996.313208	2529.865249
996.608586	2529.454395
996.903928	2531.614529
997.199234	2528.776360
997.494504	2531.364992
997.789738	2526.694363
998.084936	2527.959693
998.380099	2529.799714
998.675225	2528.060516
998.970316	2529.338448
999.265371	2530.911288
999.560390	2530.311391
999.855373	2530.480270
1000.150320	2527.057326
1000.445232	2531.559077
1000.740108	2529.673685
1001.034948	2526.933818
1001.329752	2529.300640
1001.624521	2530.389529
1001.919254	2523.967099
1002.213951	2525.607995
1002.508613	2526.419620
1002.803239	2527.195958
1003.097829	2524.052799
1003.392384	2528.247039
1003.686903	2526.505320
1003.981386	2528.587317
1004.275834	2527.886596
1004.570246	2527.024559
1004.864623	2526.129754
1005.158964	2529.887934
1005.453270	2525.413910
1005.747540	2527.616894
1006.041775	2524.728313
1006.335974	2527.989940
1006.630138	2525.479445
1006.924266	2530.697039
1007.218359	2526.666637
1007.512416	2528.615043
1007.806438	2527.790814
1008.100425	2532.857174
1008.394376	2527.258973
1008.688292	2529.174611
1008.982172	2528.851977
1009.276017	2527.919364
1009.569827	2529.194776
1009.863602	2532.925229
1010.157341	2524.992974
1010.451045	2526.729651
1010.744714	2524.153622
1011.038347	2526.051616
1011.331945	2526.028931
1011.625508	2527.276617
1011.919036	2530.203006
1012.212528	2528.546987
1012.505986	2527.984899
1012.799408	2528.567152
1013.092795	2524.801410
1013.386147	2528.385670
1013.679464	2530.092101
1013.972745	2527.866432
1014.265992	2528.252080
1014.559204	2529.882893
1014.852380	2527.145547
1015.145521	2528.065557
1015.438628	2526.401976
1015.731699	2527.115300
1016.024736	2527.352234
1016.317737	2525.920546
1016.610703	2529.658562
1016.903635	2522.900895
1017.196531	2523.394928
1017.489393	2527.851308
1017.782219	2522.089269
1018.075011	2527.137985
1018.367768	2525.076153
1018.660490	2527.511030
1018.953177	2527.511030
1019.245829	2527.511030
