Dividing Wavelength (nm)	Counts (n)	Blue Motor Position (mm): 0.000000	Red Motor Position (mm): 40.200000	
326.493990	2128.070164
326.888308	2128.070164
327.282561	2128.070164
327.676750	2095.050606
328.070874	2093.644124
328.464933	2096.933477
328.858929	2103.376072
329.252859	2112.329161
329.646726	2121.985491
330.040528	2137.504683
330.434265	2154.445481
330.827938	2172.616320
331.221547	2190.504854
331.615091	2206.182843
332.008571	2227.423745
332.401986	2247.348905
332.795338	2263.523447
333.188625	2285.197888
333.581847	2303.497277
333.975006	2323.240956
334.368100	2341.116887
334.761129	2359.280165
335.154095	2375.500077
335.546996	2395.473129
335.939833	2416.560275
336.332606	2432.432348
336.725315	2446.272836
337.117960	2453.401028
337.510540	2461.976030
337.903056	2474.588997
338.295508	2483.012765
338.687896	2487.698518
339.080220	2495.756802
339.472480	2502.713594
339.864676	2507.805160
340.256807	2512.798423
340.648875	2517.612725
341.040879	2518.363857
341.432818	2520.282016
341.824694	2523.523477
342.216506	2519.856038
342.608253	2522.593385
342.999937	2521.123888
343.391557	2523.891482
343.783113	2520.115658
344.174605	2521.033148
344.566033	2518.467200
344.957397	2516.440656
345.348697	2517.930317
345.739934	2512.566530
346.131106	2514.514936
346.522215	2512.062414
346.913260	2509.052845
347.304241	2509.085613
347.695159	2504.808194
348.086012	2502.403563
348.476802	2502.456496
348.867528	2500.727380
349.258191	2500.409787
349.648789	2497.974910
350.039324	2493.231184
350.429796	2498.448778
350.820203	2494.282265
351.210548	2493.079949
351.600828	2492.356544
351.991045	2489.883858
352.381198	2492.011225
352.771288	2490.254383
353.161314	2490.410658
353.551276	2490.955103
353.941175	2489.757829
354.331010	2490.856801
354.720782	2490.592140
355.110490	2491.252531
355.500135	2490.798827
355.889717	2489.810761
356.279235	2491.625577
356.668689	2492.906030
357.058080	2492.240597
357.447408	2489.541059
357.836672	2489.072232
358.225873	2487.391007
358.615010	2489.543580
359.004084	2493.899137
359.393095	2496.704539
359.782043	2496.465084
360.170927	2495.166987
360.559748	2499.714108
360.948505	2498.794097
361.337199	2498.607575
361.725830	2499.033552
362.114398	2500.329129
362.502903	2502.083450
362.891344	2501.659993
363.279722	2500.860970
363.668037	2502.350631
364.056289	2502.930364
364.444478	2502.237205
364.832603	2504.455313
365.220665	2506.552433
365.608665	2505.398009
365.996601	2507.109481
366.384474	2506.620489
366.772284	2507.419512
367.160031	2509.740963
367.547715	2510.139214
367.935336	2512.977384
368.322893	2517.390914
368.710388	2518.794875
369.097820	2525.970958
369.485189	2529.323325
369.872495	2536.448996
370.259738	2541.291024
370.646918	2551.345606
371.034035	2555.096224
371.421090	2567.994016
371.808081	2579.399627
372.195010	2586.237952
372.581875	2600.201948
372.968678	2612.845162
373.355418	2622.904784
373.742096	2640.891621
374.128710	2656.254538
374.515262	2671.541837
374.901751	2685.314269
375.288177	2698.912782
375.674540	2718.840463
376.060841	2738.541292
376.447079	2758.637852
376.833254	2777.491767
377.219367	2792.627832
377.605417	2831.512772
377.991404	2839.303875
378.377329	2863.335055
378.763191	2879.139073
379.148991	2916.940165
379.534727	2939.527055
379.920402	2968.624595
380.306013	2984.252172
380.691563	3033.597506
381.077049	3053.709189
381.462474	3071.693506
381.847835	3111.790843
382.233134	3132.424286
382.618371	3133.213227
383.003545	3199.252342
383.388657	3206.350287
383.773706	3239.621902
384.158693	3255.146135
384.543618	3284.662091
384.928480	3319.375476
385.313280	3365.275182
385.698017	3365.081098
386.082692	3417.882143
386.467305	3421.206784
386.851856	3452.630817
387.236344	3476.921616
387.620770	3510.616689
388.005133	3532.613763
388.389435	3562.653999
388.773674	3571.564239
389.157851	3615.427318
389.541965	3633.174700
389.926018	3594.516612
390.310008	3666.053106
390.693936	3685.433822
391.077802	3727.179617
391.461606	3714.687638
391.845348	3779.380765
392.229027	3777.548305
392.612645	3787.396199
392.996200	3868.215978
393.379694	3909.266094
393.763125	3974.440651
394.146494	3939.079477
394.529801	4001.675485
394.913047	4049.518555
395.296230	4015.576467
395.679351	4071.646700
396.062410	4095.423302
396.445408	4073.857246
396.828343	4107.312864
397.211217	4131.633910
397.594028	4052.273546
397.976778	4118.007672
398.359466	4147.019512
398.742092	4176.094367
399.124656	4096.267696
399.507158	4178.672917
399.889598	4200.639745
400.271977	4268.163480
400.654294	4236.023604
401.036549	4242.015015
401.418742	4209.766754
401.800874	4315.941016
402.182944	4334.447091
402.564952	4402.636259
402.946898	4390.159403
403.328783	4383.570615
403.710606	4299.088438
404.092367	4489.122294
404.474067	4454.771872
404.855705	4465.136484
405.237282	4392.881626
405.618797	4501.115199
406.000250	4534.293553
406.381642	4618.001913
406.762972	4578.345676
407.144240	4590.026030
407.525447	4588.899332
407.906593	4649.425945
408.287677	4687.738715
408.668700	4616.842447
409.049661	4668.927649
409.430560	4711.006160
409.811399	4641.425634
410.192176	4797.489675
410.572891	4739.408021
410.953545	4843.681768
411.334138	4720.891863
411.714669	4788.619765
412.095139	4683.058003
412.475547	4828.407072
412.855894	4807.168690
413.236180	4815.973066
413.616405	4768.331641
413.996568	4856.965208
414.376670	4798.974295
414.756711	4753.840844
415.136691	4785.113642
415.516609	4865.875447
415.896466	4901.846601
416.276262	4936.202064
416.655997	4913.688271
417.035670	5095.512608
417.415283	5185.918141
417.794834	5135.572137
418.174324	5085.246298
418.553753	4992.947813
418.933121	5178.061502
419.312428	5245.612964
419.691674	5183.120300
420.070859	5312.171318
420.449983	5225.183688
420.829045	5340.676522
421.208047	5244.123303
421.586988	5316.526875
421.965867	5327.279656
422.344686	5459.171364
422.723444	5314.308767
423.102141	5133.868227
423.480777	5431.566006
423.859352	5202.586716
424.237866	5460.096416
424.616319	5450.414880
424.994712	5563.072066
425.373044	5440.267037
425.751314	5581.084108
426.129524	5384.106063
426.507673	5582.591413
426.885762	5660.515049
427.263789	5594.891829
427.641756	5473.974712
428.019662	5598.271922
428.397508	5604.240648
428.775292	5548.392226
429.153016	5648.320498
429.530679	5574.076904
429.908282	5659.700902
430.285824	5532.709196
430.663305	5806.282533
431.040726	5537.243714
431.418086	5546.597575
431.795385	5648.794366
432.172624	5659.113608
432.549802	5648.844778
432.926920	5668.187685
433.303977	5671.527449
433.680974	5712.043203
434.057910	5731.814608
434.434786	5736.142439
434.811601	5699.964598
435.188355	5941.501403
435.565050	5810.706145
435.941683	5794.100585
436.318257	6006.504561
436.694770	5994.045349
437.071222	6024.975348
437.447614	5959.672242
437.823946	5871.646134
438.200218	6028.247057
438.576429	5894.608589
438.952580	5991.663404
439.328670	6034.162851
439.704700	5940.631803
440.080670	5925.173105
440.456580	6201.299787
440.832429	6081.716056
441.208218	5930.302479
441.583947	6078.051137
441.959616	6091.193425
442.335224	6019.830851
442.710773	6152.443444
443.086261	6175.458832
443.461689	5976.741588
443.837057	6121.034535
444.212365	6279.969513
444.587612	6175.249624
444.962800	6325.546585
445.337927	6305.092103
445.712995	5914.080046
446.088002	6490.571277
446.462949	6322.277397
446.837837	6250.433392
447.212664	6428.023160
447.587431	6563.015178
447.962139	7107.540452
448.336786	8036.383130
448.711374	7775.826052
449.085901	6852.558890
449.460369	6773.190964
449.834776	6707.716458
450.209124	7093.079902
450.583412	7247.190496
450.957640	7396.184318
451.331808	7158.083060
451.705917	6712.455143
452.079965	6635.552341
452.453954	6848.909095
452.827883	6721.796401
453.201752	6819.519168
453.575562	6616.572396
453.949311	6820.471946
454.323001	6706.209153
454.696632	6781.269413
455.070202	6921.476504
455.443713	7075.236738
455.817164	7180.001997
456.190556	7257.950838
456.563888	7335.705595
456.937160	7376.977522
457.310373	7033.574122
457.683526	7059.989768
458.056619	6952.305681
458.429653	6937.129287
458.802628	6868.315017
459.175542	6981.168807
459.548398	7339.423446
459.921194	7496.024370
460.293930	7497.337591
460.666607	8025.053137
461.039224	8339.989141
461.411782	8473.257084
461.784280	8483.641861
462.156719	8378.064976
462.529099	8255.882530
462.901419	7841.023295
463.273680	7734.113025
463.645882	7744.699448
464.018024	7613.677339
464.390106	7782.767721
464.762130	8164.499014
465.134094	8635.766240
465.505999	9658.376901
465.877845	10884.748479
466.249631	11530.898373
466.621358	11145.565176
466.993026	10513.079330
467.364634	10260.424261
467.736184	9899.868335
468.107674	9558.592302
468.479105	9599.985216
468.850477	9358.501344
469.221790	9129.847208
469.593043	8796.226167
469.964238	8665.985437
470.335373	8681.562602
470.706449	8734.827434
471.077467	8716.303714
471.448425	10024.899032
471.819324	11105.480442
472.190164	11126.376024
472.560945	9875.375889
472.931667	9086.551258
473.302330	8952.000342
473.672934	8590.315197
474.043479	8950.354405
474.413965	8891.725786
474.784393	8779.469372
475.154761	8938.237992
475.525070	9022.775621
475.895321	8847.403961
476.265513	9025.676805
476.635645	9193.222074
477.005719	9192.425571
477.375734	9305.208786
477.745691	9544.620744
478.115588	9676.396505
478.485427	9924.867417
478.855207	10454.690165
479.224928	11271.352047
479.594591	11902.996021
479.964194	11713.045344
480.333739	11656.445789
480.703226	11569.793396
481.072653	11663.417705
481.442022	11904.841083
481.811333	12091.303282
482.180584	11892.202911
482.549777	11601.285484
482.918912	11427.272415
483.287988	11445.922164
483.657005	11460.312137
484.025964	11143.536112
484.394864	11272.957655
484.763706	11248.261042
485.132489	11001.385656
485.501213	10958.863523
485.869879	11031.652743
486.238487	10878.875535
486.607036	10985.768161
486.975527	10764.401013
487.343959	10958.545930
487.712333	11001.824236
488.080648	10940.491038
488.448905	10977.742644
488.817104	10917.337018
489.185244	11180.278562
489.553326	11342.825526
489.921350	11879.360571
490.289315	12943.911111
490.657222	13284.839305
491.025070	13198.577601
491.392861	13064.177919
491.760593	12689.121114
492.128267	12333.797905
492.495883	12006.533759
492.863440	11672.963130
493.230939	11339.803355
493.598380	11263.752508
493.965763	11139.840946
494.333088	11039.325380
494.700354	10958.419902
495.067563	11023.828873
495.434713	10853.211021
495.801805	10980.762295
496.168839	10903.579709
496.535815	10843.975627
496.902733	10833.255613
497.269593	10765.852866
497.636395	10867.878258
498.003139	10856.422236
498.369825	10724.555733
498.736453	10879.752696
499.103023	10808.397684
499.469535	10830.893833
499.835989	10820.398150
500.202385	10793.609459
500.568723	10637.051385
500.935003	10856.883501
501.301226	10664.712196
501.667390	10927.575602
502.033497	11024.917762
502.399546	10877.902592
502.765537	10785.906576
503.131470	10855.847544
503.497345	11041.573734
503.863163	10646.876594
504.228923	10959.284459
504.594625	11023.370128
504.960269	10775.902406
505.325856	11001.519246
505.691385	10787.648294
506.056856	10942.079001
506.422270	10964.978443
506.787625	10857.432987
507.152924	10969.583537
507.518164	10953.771958
507.883347	10872.639628
508.248472	10789.725250
508.613540	11028.295335
508.978550	10911.524568
509.343503	10883.604137
509.708398	11002.920687
510.073236	11115.464447
510.438016	11121.637340
510.802738	11071.399721
511.167403	11113.631987
511.532010	11022.664366
511.896561	11247.525033
512.261053	11322.776858
512.625488	11188.089830
512.989866	11173.639362
513.354186	11164.456900
513.718449	11063.827908
514.082655	11251.436969
514.446803	11155.571867
514.810894	11270.915987
515.174927	11135.898764
515.538904	11160.459265
515.902822	11318.587659
516.266684	11188.563698
516.630488	11142.623663
516.994235	11198.209946
517.357925	11254.575087
517.721558	11350.861126
518.085133	11361.964267
518.448651	11368.578261
518.812112	11261.347877
519.175516	11275.637028
519.538863	11398.603373
519.902152	11310.461319
520.265385	11471.379991
520.628560	11381.357586
520.991678	11364.764628
521.354739	11420.635736
521.717743	11349.686537
522.080690	11336.700524
522.443580	11466.288425
522.806413	11423.761251
523.169189	11446.181783
523.531908	11505.952224
523.894569	11327.989411
524.257174	11333.537200
524.619722	11451.666558
524.982213	11398.840307
525.344647	11440.860845
525.707025	11396.145811
526.069345	11493.394709
526.431608	11412.020404
526.793815	11522.189780
527.155964	11315.431896
527.518057	11365.341840
527.880093	11307.093828
528.242072	11382.708615
528.603995	11278.865887
528.965860	11207.457943
529.327669	11258.918041
529.689421	11199.646675
530.051117	11174.705566
530.412755	11281.482246
530.774337	11171.171717
531.135862	11153.812504
531.497331	11175.628097
531.858743	11026.157886
532.220098	11194.426560
532.581396	11063.081817
532.942638	11046.461133
533.303824	11007.543425
533.664953	11023.493636
534.026025	10941.756367
534.387040	11038.060050
534.747999	11041.392253
535.108902	11098.029616
535.469748	10845.072078
535.830537	10959.065169
536.191270	10930.806981
536.551947	10954.417225
536.912567	10956.864706
537.273131	10882.636236
537.633638	10864.137722
537.994089	10848.129538
538.354483	10790.494026
538.714821	10939.825606
539.075103	10944.337438
539.435328	10913.074723
539.795497	10741.922508
540.155609	10894.586291
540.515665	10987.978707
540.875665	10722.088089
541.235609	10789.412698
541.595496	10791.109047
541.955328	10935.669174
542.315102	10826.354274
542.674821	10769.908474
543.034483	10777.177818
543.394090	10782.823910
543.753640	10712.789680
544.113134	10929.294635
544.472571	10785.929261
544.831953	10929.213977
545.191278	10735.835315
545.550548	10758.066804
545.909761	10902.440409
546.268918	10871.838084
546.628019	10955.501073
546.987064	10821.383696
547.346053	10740.919319
547.704986	10841.674340
548.063863	10824.930148
548.422684	10815.485546
548.781449	10728.182844
549.140158	10833.817702
549.498811	10714.249094
549.857408	10568.070756
550.215949	10791.184664
550.574434	10649.823148
550.932864	10748.725546
551.291237	10797.022320
551.649555	10745.010215
552.007817	10761.456980
552.366022	10722.725795
552.724173	10714.909486
553.082267	10702.218381
553.440305	10842.785915
553.798288	10642.515996
554.156215	10794.201794
554.514086	10770.609194
554.871902	10620.899528
555.229661	10656.202728
555.587365	10629.678697
555.945014	10521.893787
556.302606	10652.585701
556.660143	10548.206090
557.017625	10695.427947
557.375050	10595.698800
557.732421	10732.046888
558.089735	10643.988013
558.446994	10649.235854
558.804197	10682.220123
559.161345	10680.067551
559.518437	10530.441063
559.875474	10619.787954
560.232455	10648.444393
560.589381	10591.318037
560.946251	10593.062277
561.303065	10703.816427
561.659825	10633.812444
562.016528	10560.362832
562.373177	10442.858577
562.729770	10558.061545
563.086307	10472.581220
563.442789	10564.287370
563.799216	10437.025962
564.155587	10480.198404
564.511904	10434.797772
564.868164	10426.484909
565.224370	10441.830182
565.580520	10362.595846
565.936615	10366.507782
566.292654	10238.553215
566.648638	10366.638852
567.004567	10323.975567
567.360441	10305.671137
567.716260	10210.673113
568.072023	10304.017638
568.427732	10255.597356
568.783385	10167.863635
569.138982	10231.505682
569.494525	10244.161498
569.850013	10127.267223
570.205445	10199.930414
570.560823	10091.797664
570.916145	10012.724646
571.271412	10083.893135
571.626625	10021.962560
571.981782	9996.643365
572.336884	9966.792173
572.691931	9968.065064
573.046923	9917.910624
573.401860	9868.671154
573.756743	9801.598602
574.111570	9842.366413
574.466342	9826.136418
574.821059	9860.219660
575.175722	9739.393284
575.530330	9747.960725
575.884882	9733.570752
576.239380	9664.562397
576.593823	9636.205906
576.948211	9644.927102
577.302544	9528.312611
577.656823	9537.162357
578.011047	9537.583293
578.365216	9502.796811
578.719330	9426.577085
579.073389	9432.407180
579.427394	9375.104384
579.781344	9349.661680
580.135239	9296.422055
580.489080	9299.923136
580.842866	9196.697949
581.196597	9198.381695
581.550273	9232.351510
581.903895	9193.232156
582.257463	9255.283719
582.610975	9132.309812
582.964434	9154.541300
583.317837	9064.188700
583.671186	9048.402327
584.024481	9035.854895
584.377721	8952.249879
584.730906	8923.820292
585.084037	8946.840721
585.437113	8875.737766
585.790135	8897.775170
586.143103	8785.906925
586.496016	8762.889017
586.848874	8805.199421
587.201679	8788.122512
587.554428	8665.241867
587.907124	8708.058907
588.259765	8674.053804
588.612352	8659.094180
588.964884	8539.462558
589.317362	8546.661325
589.669786	8535.447279
590.022155	8576.210049
590.374470	8578.707940
590.726731	8514.982715
591.078937	8364.710960
591.431090	8453.684804
591.783188	8337.173657
592.135232	8314.884195
592.487222	8308.436559
592.839157	8349.257303
593.191038	8280.742981
593.542866	8218.036068
593.894639	8112.623020
594.246358	8148.881519
594.598022	8150.361098
594.949633	8049.112044
595.301190	8011.936055
595.652692	8036.388171
596.004141	8124.774722
596.355535	7905.610558
596.706876	7875.719037
597.058162	7809.117833
597.409395	7867.564970
597.760573	7915.345026
598.111698	7819.631159
598.462768	7794.967314
598.813785	7749.249089
599.164748	7706.686628
599.515657	7687.762136
599.866511	7589.305881
600.217312	7702.351235
600.568060	7555.106693
600.918753	7638.328581
601.269392	7592.343176
601.619978	7504.112901
601.970510	7543.965743
602.320988	7527.443361
602.671412	7570.106646
603.021783	7495.810121
603.372100	7462.649411
603.722363	7444.523942
604.072572	7407.705875
604.422728	7413.074704
604.772830	7330.729977
605.122878	7317.038203
605.472872	7305.456152
605.822813	7315.019221
606.172701	7254.865652
606.522534	7301.264432
606.872314	7288.064171
607.222041	7243.119764
607.571714	7277.709641
607.921333	7223.857515
608.270899	7216.106741
608.620411	7277.704600
608.969870	7171.752149
609.319276	7155.900241
609.668627	7148.817419
610.017926	7169.997827
610.367171	7181.829415
610.716362	7155.940570
611.065500	7125.479398
611.414585	7126.722042
611.763616	7102.713547
612.112594	7066.679379
612.461518	7056.390384
612.810389	7089.467915
613.159207	7023.033069
613.507971	6964.159954
613.856682	7039.426902
614.205340	6990.600806
614.553945	7029.354676
614.902496	6931.415139
615.250994	6949.419620
615.599439	6922.015908
615.947830	6902.501601
616.296169	6866.626230
616.644454	6850.887748
616.992686	6834.372928
617.340864	6854.451843
617.688990	6762.939778
618.037063	6810.848383
618.385082	6748.552325
618.733048	6788.937008
619.080961	6724.609364
619.428821	6715.631069
619.776628	6694.738007
620.124382	6644.928887
620.472083	6609.534946
620.819731	6610.228104
621.167326	6515.204875
621.514868	6502.813719
621.862357	6405.065746
622.209793	6401.284880
622.557176	6336.881619
622.904506	6295.665145
623.251783	6236.161886
623.599007	6180.084091
623.946179	6166.246123
624.293297	6118.138392
624.640363	6049.976951
624.987376	6016.612074
625.334336	5965.656091
625.681243	5909.878244
626.028097	5884.579214
626.374899	5861.062231
626.721647	5830.996790
627.068343	5771.357419
627.414987	5737.070011
627.761577	5683.684192
628.108115	5693.433783
628.454600	5606.413386
628.801032	5614.499397
629.147412	5577.915743
629.493739	5547.978851
629.840014	5495.472713
630.186236	5506.722048
630.532405	5421.249284
630.878521	5432.120533
631.224585	5386.268718
631.570597	5325.759748
631.916556	5323.135828
632.262462	5304.856604
632.608316	5264.756746
632.954117	5232.765583
633.299866	5218.012647
633.645562	5188.930230
633.991206	5127.382783
634.336797	5077.855967
634.682336	5040.022107
635.027823	5003.229246
635.373257	4985.887677
635.718639	4927.609418
636.063968	4922.611113
636.409245	4849.196790
636.754470	4825.473120
637.099642	4792.012461
637.444762	4742.379781
637.789829	4732.602463
638.134845	4688.983880
638.479808	4660.793747
638.824719	4653.020288
639.169577	4602.815437
639.514383	4596.387966
639.859137	4541.769584
640.203839	4536.715828
640.548489	4512.667003
640.893086	4488.784537
641.237632	4459.008962
641.582125	4454.915545
641.926566	4421.724588
642.270955	4421.149896
642.615292	4403.331938
642.959576	4389.688055
643.303809	4376.765057
643.647990	4365.805589
643.992118	4347.722970
644.336195	4314.539575
644.680219	4305.475580
645.024192	4296.051143
645.368112	4323.180113
645.711981	4318.128876
646.055797	4342.686857
646.399562	4310.743586
646.743274	4352.592725
647.086935	4365.765260
647.430544	4355.020040
647.774101	4344.970500
648.117606	4335.702339
648.461059	4320.548630
648.804460	4285.673928
649.147810	4236.157194
649.491108	4205.474211
649.834354	4185.322199
650.177548	4136.239004
650.520690	4083.122887
650.863781	4064.009352
651.206820	4052.558371
651.549807	4011.294006
651.892742	3973.732369
652.235626	3965.303560
652.578458	3943.281279
652.921238	3899.009866
653.263967	3904.434148
653.606644	3871.530537
653.949269	3859.638455
654.291843	3828.516891
654.634365	3834.321780
654.976836	3804.306750
655.319255	3799.603353
655.661622	3775.635188
656.003938	3761.411572
656.346203	3740.745362
656.688416	3743.064293
657.030577	3715.834500
657.372687	3693.600491
657.714746	3676.768078
658.056753	3684.571784
658.398708	3646.667349
658.740612	3645.613747
659.082465	3642.140393
659.424266	3633.492293
659.766016	3621.849748
660.107715	3604.306533
660.449362	3601.256635
660.790958	3588.542845
661.132503	3575.004826
661.473996	3575.650094
661.815438	3562.101993
662.156829	3551.689490
662.498168	3537.755740
662.839456	3527.479348
663.180693	3522.231507
663.521879	3517.011392
663.863013	3502.344155
664.204097	3496.453567
664.545129	3501.968589
664.886110	3492.536590
665.227040	3487.324037
665.567918	3478.166781
665.908746	3475.200062
666.249522	3464.724545
666.590248	3453.891105
666.930922	3458.012248
667.271545	3446.460444
667.612118	3443.491205
667.952639	3427.639296
668.293109	3418.487082
668.633528	3401.626943
668.973896	3390.929614
669.314213	3380.985938
669.654480	3365.812065
669.994695	3355.412165
670.334859	3347.936133
670.674973	3333.026921
671.015035	3331.078515
671.355047	3316.141576
671.695008	3306.903662
672.034918	3298.386632
672.374777	3286.451701
672.714585	3281.765948
673.054342	3278.279990
673.394049	3268.719442
673.733705	3265.417486
674.073310	3253.830394
674.412864	3245.986359
674.752368	3230.633525
675.091820	3225.854511
675.431223	3207.091336
675.770574	3193.908719
676.109875	3174.331398
676.449125	3170.381654
676.788324	3155.590908
677.127473	3139.703712
677.466571	3126.667288
677.805619	3119.914663
678.144616	3107.551233
678.483562	3100.516303
678.822458	3091.235538
679.161303	3081.576688
679.500098	3073.127714
679.838842	3066.727969
680.177535	3062.760581
680.516179	3060.305539
680.854771	3057.689180
681.193314	3066.911971
681.531805	3083.673808
681.870247	3108.564505
682.208638	3122.147894
682.546978	3119.967595
682.885268	3106.008640
683.223508	3085.407965
683.561697	3067.176632
683.899836	3057.268244
684.237925	3046.535627
684.575963	3035.631612
684.913951	3029.635159
685.251889	3032.435520
685.589776	3025.549304
685.927614	3018.322810
686.265401	3021.309693
686.603137	3020.203160
686.940824	3024.162987
687.278460	3030.164480
687.616046	3030.401414
687.953582	3040.251829
688.291068	3033.962990
688.628504	3036.778474
688.965889	3030.053575
689.303224	3018.421112
689.640510	3000.948473
689.977745	2981.809733
690.314930	2961.259469
690.652065	2947.834876
690.989150	2929.948862
691.326185	2913.108888
691.663170	2897.393091
692.000105	2882.468755
692.336990	2867.804038
692.673825	2857.935980
693.010610	2850.046574
693.347345	2831.974037
693.684030	2822.990701
694.020665	2816.933755
694.357251	2803.347845
694.693786	2803.468833
695.030272	2802.115283
695.366707	2791.929632
695.703093	2783.803292
696.039429	2783.699948
696.375716	2779.198198
696.711952	2773.496653
697.048139	2771.896086
697.384276	2769.856940
697.720363	2767.371651
698.056400	2765.864346
698.392388	2759.706576
698.728326	2757.306987
699.064214	2751.552510
699.400053	2744.663773
699.735842	2738.218658
700.071581	2733.031311
700.407270	2729.066443
700.742910	2723.531256
701.078501	2717.620503
701.414042	2713.968187
701.749533	2707.404605
702.084974	2701.909747
702.420366	2705.403267
702.755709	2699.563090
703.091002	2692.787780
703.426246	2690.080680
703.761440	2688.011286
704.096584	2684.215297
704.431679	2680.474761
704.766725	2680.164730
705.101721	2675.405881
705.436668	2676.179698
705.771565	2668.507062
706.106413	2672.862619
706.441212	2671.030160
706.775961	2674.412774
707.110661	2669.651404
707.445311	2673.616272
707.779913	2671.186435
708.114465	2674.208607
708.448967	2673.490243
708.783421	2674.332115
709.117825	2676.736746
709.452180	2679.259843
709.786485	2679.211952
710.120742	2685.405010
710.454949	2687.476924
710.789107	2688.989270
711.123216	2694.237111
711.457275	2695.830116
711.791286	2700.886393
712.125247	2701.269521
712.459159	2695.885569
712.793023	2701.009902
713.126837	2694.469004
713.460602	2690.763756
713.794318	2684.563137
714.127985	2681.291428
714.461602	2673.107115
714.795171	2669.316167
715.128691	2661.431803
715.462162	2656.451143
715.795584	2652.261944
716.128957	2647.170378
716.462281	2644.455717
716.795556	2641.078144
717.128782	2635.575725
717.461960	2630.658079
717.795088	2632.455250
718.128167	2630.229581
718.461198	2626.229425
718.794180	2621.833539
719.127113	2618.108127
719.459997	2619.902777
719.792833	2617.341871
720.125619	2618.135853
720.458357	2612.477158
720.791046	2611.489092
721.123686	2613.482868
721.456278	2608.303082
721.788821	2608.411467
722.121315	2610.427929
722.453761	2604.313009
722.786158	2606.740325
723.118506	2603.952567
723.450805	2604.658328
723.783056	2600.632967
724.115259	2603.274531
724.447412	2602.031887
724.779518	2600.287648
725.111574	2602.780498
725.443582	2604.101281
725.775542	2603.844182
726.107453	2606.765530
726.439315	2605.104470
726.771129	2611.821808
727.102895	2609.195367
727.434612	2610.674945
727.766281	2609.260902
728.097901	2608.343412
728.429473	2606.558843
728.760996	2607.153699
729.092471	2601.963831
729.423897	2606.901642
729.755276	2603.924840
730.086606	2607.015067
730.417887	2606.707557
730.749120	2611.153855
731.080305	2609.349122
731.411442	2610.543875
731.742530	2611.489092
732.073570	2609.041611
732.404562	2610.687548
732.735506	2608.552619
733.066401	2609.278546
733.397249	2605.144799
733.728048	2600.852257
734.058798	2594.548294
734.389501	2590.890937
734.720156	2591.415217
735.050762	2585.683425
735.381320	2584.408013
735.711831	2586.704259
736.042293	2583.974474
736.372707	2585.081007
736.703073	2582.865420
737.033391	2582.358784
737.363661	2583.787951
737.693883	2583.891295
738.024056	2586.858014
738.354182	2585.259968
738.684260	2588.859352
739.014290	2589.295412
739.344272	2588.753488
739.674207	2587.843559
740.004093	2591.553849
740.333931	2588.834146
740.663722	2588.816502
740.993464	2586.220308
741.323159	2585.330544
741.652806	2583.931624
741.982405	2587.861203
742.311956	2579.576067
742.641460	2580.561613
742.970915	2578.572877
743.300323	2579.558423
743.629683	2577.574729
743.958996	2576.072465
744.288260	2577.121025
744.617477	2575.785119
744.946647	2571.061558
745.275768	2570.396126
745.604842	2571.079202
745.933869	2569.866805
746.262847	2570.819583
746.591778	2571.704305
746.920662	2568.203224
747.249498	2569.113152
747.578286	2569.798749
747.907027	2569.874367
748.235720	2571.628688
748.564365	2570.837227
748.892963	2568.498132
749.221514	2571.328739
749.550017	2570.552402
749.878473	2569.796229
750.206881	2571.051476
750.535242	2567.295816
750.863555	2567.588203
751.191821	2569.092988
751.520039	2568.651887
751.848210	2567.036197
752.176334	2567.641135
752.504411	2567.726835
752.832440	2565.879252
753.160421	2567.142061
753.488356	2568.200703
753.816243	2567.646177
754.144082	2566.481670
754.471875	2563.857749
754.799620	2563.441854
755.127318	2565.123079
755.454969	2565.044941
755.782572	2564.359344
756.110129	2564.208110
756.437638	2567.341187
756.765100	2563.267934
757.092515	2562.602502
757.419882	2564.787842
757.747203	2566.189283
758.074477	2564.939077
758.401703	2563.973696
758.728882	2565.533933
759.056014	2566.953018
759.383099	2566.839592
759.710138	2568.349418
760.037129	2568.087277
760.364073	2567.515107
760.690970	2564.838254
761.017820	2566.428738
761.344623	2565.523851
761.671379	2568.500652
761.998088	2564.787842
762.324751	2570.033163
762.651366	2577.826787
762.977935	2595.886720
763.304456	2601.363934
763.630931	2607.362907
763.957359	2599.861670
764.283740	2592.310022
764.610074	2581.279977
764.936362	2575.205387
765.262602	2574.343349
765.588796	2567.789849
765.914943	2566.708522
766.241044	2564.180383
766.567097	2563.540157
766.893104	2559.643345
767.219064	2563.013356
767.544978	2560.210475
767.870845	2559.088818
768.196665	2560.775084
768.522438	2556.772408
768.848165	2557.818447
769.173846	2556.205278
769.499479	2556.346430
769.825066	2557.422717
770.150607	2556.051523
770.476101	2557.407593
770.801548	2555.416337
771.126949	2555.081101
771.452303	2555.033210
771.777611	2551.590102
772.102872	2554.584547
772.428087	2553.626728
772.753256	2554.685370
773.078378	2552.000956
773.403453	2553.656975
773.728482	2550.783517
774.053465	2551.093548
774.378401	2550.907025
774.703291	2550.942313
775.028135	2549.634134
775.352932	2552.951213
775.677683	2550.526418
776.002388	2549.608928
776.327046	2552.656306
776.651658	2551.244782
776.976224	2550.881819
777.300743	2551.078424
777.625216	2550.962478
777.949643	2549.644216
778.274024	2549.777807
778.598359	2546.110367
778.922647	2545.999462
779.246889	2550.362581
779.571086	2543.166333
779.895236	2549.613969
780.219339	2546.848896
780.543397	2549.639175
780.867409	2549.276212
781.191374	2551.111192
781.515294	2551.280071
781.839167	2549.419885
782.162995	2550.120605
782.486776	2549.460214
782.810511	2547.887374
783.134201	2550.869217
783.457844	2548.557847
783.781441	2552.822664
784.104993	2547.862168
784.428498	2549.447611
784.751958	2548.152035
785.075372	2546.112888
785.398739	2548.676315
785.722061	2549.127498
786.045337	2546.352343
786.368568	2547.506767
786.691752	2546.911911
787.014891	2548.968702
787.337983	2550.909546
787.661030	2550.425595
787.984031	2551.968188
788.306987	2551.254865
788.629897	2554.027499
788.952760	2555.040771
789.275579	2552.777293
789.598351	2552.537838
789.921078	2551.832077
790.243759	2548.265461
790.566395	2549.432488
790.888984	2548.615821
791.211529	2549.097251
791.534027	2550.352498
791.856480	2548.139432
792.178888	2547.179092
792.501249	2548.923331
792.823566	2549.349309
793.145836	2546.914431
793.468062	2546.412837
793.790241	2548.043650
794.112375	2545.520552
794.434464	2547.053063
794.756507	2547.476520
795.078505	2547.345450
795.400457	2547.998279
795.722364	2545.129863
796.044226	2548.603218
796.366042	2546.725388
796.687812	2547.937786
797.009538	2548.300749
797.331218	2550.198743
797.652852	2551.327962
797.974442	2548.429298
798.295986	2547.789072
798.617484	2550.019782
798.938938	2549.268650
799.260346	2548.204967
799.581709	2548.759494
799.903026	2549.014072
800.224299	2546.858979
800.545526	2547.138763
800.866708	2546.952240
801.187845	2545.830583
801.508936	2544.950902
801.829983	2548.699000
802.150984	2544.996272
802.471940	2546.808567
802.792851	2546.586756
803.113717	2544.585418
803.434538	2545.281098
803.755314	2544.925696
804.076045	2546.685059
804.396731	2545.717157
804.717372	2547.312682
805.037967	2541.898483
805.358518	2545.631458
805.679024	2546.198588
805.999485	2544.726571
806.319901	2545.775131
806.640272	2545.898639
806.960598	2546.995090
807.280879	2546.276725
807.601115	2546.828732
807.921306	2545.696993
808.241453	2545.959133
808.561554	2547.133722
808.881611	2546.611962
809.201623	2546.803526
809.521590	2547.267312
809.841513	2543.967877
810.161390	2544.509801
810.481223	2544.653474
810.801011	2544.877805
811.120755	2545.896118
811.440453	2545.689431
811.760107	2543.693134
812.079716	2542.125335
812.399281	2542.894111
812.718801	2544.164482
813.038276	2541.477547
813.357707	2544.913093
813.677093	2547.126160
813.996434	2548.706562
814.315731	2544.439225
814.634983	2547.121119
814.954191	2544.867723
815.273354	2547.209339
815.592473	2543.451159
815.911547	2545.875954
816.230577	2547.736139
816.549562	2546.501057
816.868502	2545.341591
817.187399	2545.202960
817.506250	2548.467107
817.825058	2547.479041
818.143821	2548.479710
818.462539	2550.055070
818.781213	2550.148332
819.099843	2552.951213
819.418429	2553.195709
819.736970	2559.098900
820.055466	2561.866494
820.373919	2562.758778
820.692327	2566.978224
821.010691	2579.417271
821.329011	2597.197420
821.647286	2636.841054
821.965517	2687.295442
822.283704	2715.036912
822.601847	2720.826677
822.919945	2700.727597
823.237999	2674.758093
823.556010	2648.607107
823.873976	2626.733541
824.191897	2611.209307
824.509775	2596.521906
824.827609	2589.429002
825.145398	2583.208218
825.463144	2583.636717
825.780845	2582.575554
826.098502	2586.490010
826.416116	2598.099787
826.733685	2613.931531
827.051210	2620.147273
827.368692	2615.128805
827.686129	2598.603902
828.003522	2589.451687
828.320872	2574.166909
828.638177	2568.626681
828.955439	2560.686864
829.272656	2556.633776
829.589830	2553.596481
829.906960	2554.254351
830.224046	2552.149670
830.541088	2549.109854
830.858086	2549.881150
831.175041	2550.833928
831.491952	2549.896274
831.808819	2550.435677
832.125642	2550.201264
832.442421	2554.584547
832.759157	2556.381718
833.075849	2569.637432
833.392497	2575.394430
833.709101	2582.709144
834.025662	2582.394072
834.342179	2577.315110
834.658653	2572.347052
834.975083	2564.087122
835.291469	2562.486556
835.607811	2553.034392
835.924110	2553.384752
836.240366	2551.645554
836.556578	2548.411654
836.872746	2548.671273
837.188871	2546.148176
837.504952	2543.166333
837.820990	2545.886036
838.136984	2541.669111
838.452935	2544.451828
838.768842	2545.767569
839.084706	2543.531817
839.400526	2547.335368
839.716303	2553.442726
840.032037	2560.591082
840.347727	2559.867676
840.663373	2553.351985
840.978977	2551.108671
841.294537	2548.741850
841.610054	2547.005172
841.925527	2546.203629
842.240957	2543.602393
842.556344	2545.076931
842.871687	2540.958308
843.186987	2541.616179
843.502244	2541.054090
843.817458	2542.405119
844.132629	2540.013092
844.447756	2539.645088
844.762840	2536.282638
845.077881	2535.743234
845.392879	2538.392361
845.707833	2536.499407
846.022745	2534.382123
846.337613	2537.505118
846.652438	2537.739531
846.967221	2539.219110
847.281960	2539.057793
847.596656	2542.642053
847.911309	2539.980324
848.225919	2538.881353
848.540485	2538.039480
848.855009	2539.758513
849.169490	2537.845396
849.483928	2540.860006
849.798323	2539.115766
850.112675	2536.426311
850.426984	2538.654501
850.741251	2536.532175
851.055474	2539.682896
851.369654	2537.144675
851.683792	2540.678524
851.997887	2540.549975
852.311938	2539.408153
852.625947	2539.657690
852.939914	2537.691640
853.253837	2543.741025
853.567718	2536.154088
853.881555	2538.208359
854.195350	2540.892773
854.509103	2539.589635
854.822812	2538.271373
855.136479	2539.824048
855.450103	2538.009233
855.763685	2542.062321
856.077224	2539.902186
856.390720	2538.793133
856.704173	2542.579039
857.017584	2539.040149
857.330953	2538.475540
857.644278	2540.607948
857.957561	2540.998637
858.270802	2538.727598
858.584000	2540.103832
858.897155	2540.776827
859.210268	2537.752134
859.523339	2540.466796
859.836367	2538.190715
860.149352	2538.697351
860.462295	2540.781868
860.775195	2533.822555
861.088054	2534.157792
861.400869	2539.559388
861.713642	2531.856505
862.026373	2537.026208
862.339062	2539.750952
862.651708	2537.711805
862.964312	2535.017308
863.276873	2537.200128
863.589392	2542.926879
863.901869	2538.467978
864.214303	2541.427135
864.526696	2540.207176
864.839045	2540.844882
865.151353	2540.796991
865.463619	2540.373534
865.775842	2539.103163
866.088023	2539.786240
866.400162	2539.546785
866.712258	2538.992258
867.024313	2539.624923
867.336325	2540.779347
867.648296	2541.888401
867.960224	2539.362783
868.272110	2538.999820
868.583954	2542.909235
868.895755	2540.655839
869.207515	2539.214069
869.519233	2539.302289
869.830909	2541.848072
870.142542	2540.010571
870.454134	2540.184491
870.765684	2542.513504
871.077191	2541.182639
871.388657	2542.079965
871.700081	2540.577701
872.011463	2541.417053
872.322803	2544.013247
872.634101	2540.305479
872.945357	2542.604245
873.256571	2543.352856
873.567744	2543.120963
873.878874	2545.132383
874.189963	2540.809594
874.501010	2543.380582
874.812015	2542.112732
875.122979	2544.845038
875.433900	2542.377393
875.744780	2544.958464
876.055618	2541.147351
876.366415	2545.437373
876.677169	2542.211035
876.987882	2541.109543
877.298554	2540.847403
877.609183	2541.003678
877.919771	2541.848072
878.230317	2544.613145
878.540822	2548.404092
878.851285	2549.414844
879.161707	2550.478527
879.472087	2552.295863
879.782425	2556.205278
880.092722	2564.303892
880.402977	2578.819894
880.713191	2599.307143
881.023363	2621.100051
881.333494	2636.621764
881.643583	2642.013278
881.953631	2641.073103
882.263637	2635.353914
882.573602	2624.522995
882.883526	2615.020420
883.193408	2602.198245
883.503248	2591.642069
883.813048	2583.361974
884.122806	2576.233782
884.432522	2572.825962
884.742197	2568.299006
885.051831	2562.504200
885.361424	2558.062943
885.670975	2558.501523
885.980485	2554.924825
886.289954	2552.245452
886.599382	2553.092365
886.908768	2549.581202
887.218113	2549.848383
887.527417	2547.839483
887.836680	2545.946530
888.145901	2547.063145
888.455082	2545.633978
888.764221	2545.278577
889.073319	2546.208670
889.382376	2545.795295
889.691392	2544.366128
890.000366	2545.429812
890.309300	2544.408978
890.618193	2545.858310
890.927044	2544.555171
891.235855	2545.931406
891.544625	2544.981149
891.853353	2548.598177
892.162041	2546.435522
892.470687	2547.872251
892.779293	2545.457538
893.087858	2544.744215
893.396381	2547.400903
893.704864	2553.152859
894.013306	2553.851059
894.321707	2568.210786
894.630068	2573.267063
894.938387	2578.567836
895.246665	2576.304358
895.554903	2571.449727
895.863100	2566.211968
896.171256	2563.966134
896.479371	2559.035886
896.787446	2556.275854
897.095480	2554.352654
897.403473	2550.193702
897.711425	2551.879968
898.019336	2550.314690
898.327207	2549.160265
898.635038	2546.745553
898.942827	2546.059956
899.250576	2546.581715
899.558284	2545.303783
899.865952	2547.116077
900.173579	2544.182126
900.481165	2543.516694
900.788711	2545.644061
901.096216	2543.297403
901.403681	2543.665408
901.711105	2542.672300
902.018489	2539.589635
902.325832	2544.202291
902.633135	2543.589790
902.940397	2547.932744
903.247619	2549.097251
903.554800	2554.957592
903.861941	2567.116855
904.169041	2580.440625
904.476101	2588.607294
904.783121	2588.597212
905.090100	2582.925914
905.397039	2573.970304
905.703938	2567.999057
906.010796	2561.816082
906.317614	2553.939279
906.624391	2550.332334
906.931129	2547.713454
907.237826	2545.578526
907.544483	2543.095757
907.851099	2544.630789
908.157675	2543.335212
908.464211	2541.112063
908.770707	2537.830272
909.077163	2537.432021
909.383578	2536.365817
909.689954	2538.876312
909.996289	2536.748945
910.302584	2541.462423
910.608839	2537.542926
910.915054	2538.601569
911.221229	2537.696682
911.527363	2539.486291
911.833458	2538.457896
912.139513	2540.980993
912.445527	2537.454706
912.751502	2539.493853
913.057436	2542.205994
913.363331	2541.096940
913.669186	2540.234903
913.975000	2542.563916
914.280775	2547.559699
914.586510	2549.077086
914.892205	2553.898950
915.197859	2561.337172
915.503475	2566.426217
915.809050	2577.431056
916.114585	2581.385841
916.420081	2586.618559
916.725536	2584.279464
917.030952	2579.190419
917.336328	2573.284707
917.641665	2571.142217
917.946961	2563.905640
918.252218	2560.782646
918.557435	2554.082952
918.862612	2554.672767
919.167750	2550.970040
919.472848	2550.735626
919.777906	2545.565923
920.082925	2550.206305
920.387904	2545.979297
920.692843	2545.949050
920.997743	2543.332692
921.302603	2542.309337
921.607423	2541.283463
921.912204	2541.129707
922.216946	2540.376055
922.521647	2540.302958
922.826310	2540.676003
923.130932	2542.362269
923.435516	2539.907227
923.740059	2542.881508
924.044564	2534.727442
924.349028	2538.967052
924.653454	2536.043183
924.957840	2532.529499
925.262186	2532.544622
925.566493	2533.303316
925.870761	2533.383974
926.174989	2535.387833
926.479178	2536.998482
926.783328	2535.259284
927.087438	2536.368338
927.391509	2535.397915
927.695541	2533.540250
927.999533	2538.044521
928.303486	2535.753317
928.607400	2535.397915
928.911275	2535.208872
929.215110	2533.570497
929.518906	2536.023018
929.822663	2536.113759
930.126381	2535.828934
930.430060	2537.668955
930.733699	2535.097967
931.037299	2535.370189
931.340861	2536.640560
931.644383	2535.281969
931.947866	2533.658717
932.251309	2533.872966
932.554714	2535.970086
932.858080	2533.411701
933.161407	2534.682072
933.464694	2534.964376
933.767943	2535.516383
934.071153	2535.405477
934.374323	2534.525796
934.677455	2534.997144
934.980548	2533.656197
935.283602	2537.134593
935.586617	2534.240971
935.889593	2534.863553
936.192530	2535.402957
936.495428	2531.942204
936.798287	2535.846578
937.101108	2533.162164
937.403890	2534.351876
937.706632	2537.595858
938.009336	2536.572504
938.312002	2536.731301
938.614628	2536.479243
938.917216	2538.523431
939.219765	2537.487474
939.522275	2537.515200
939.824747	2538.692309
940.127179	2535.521424
940.429573	2531.871628
940.731929	2534.044366
941.034246	2534.530837
941.336524	2535.463450
941.638763	2536.416228
941.940964	2537.421939
942.243126	2535.347504
942.545250	2535.208872
942.847335	2537.346321
943.149381	2536.466640
943.451389	2533.280631
943.753359	2535.455889
944.055290	2535.332380
944.357182	2534.450178
944.659036	2534.694674
944.960851	2537.424459
945.262628	2534.417411
945.564367	2536.360776
945.866067	2534.752648
946.167729	2534.004036
946.469352	2535.067720
946.770937	2534.046886
947.072484	2536.333049
947.373992	2537.570653
947.675462	2537.497556
947.976893	2533.399098
948.278286	2535.213913
948.579641	2532.285003
948.880958	2533.386495
949.182236	2536.358255
949.483476	2534.540919
949.784678	2533.744417
950.085841	2533.757020
950.386967	2535.841537
950.688054	2534.460261
950.989103	2536.083512
951.290114	2531.667462
951.591087	2534.107380
951.892021	2536.590148
952.192917	2535.592000
952.493776	2534.944212
952.794596	2535.493697
953.095378	2530.651669
953.396122	2537.590817
953.696828	2533.436907
953.997496	2534.664428
954.298126	2534.215765
954.598718	2532.015301
954.899272	2533.590662
955.199788	2533.704088
955.500266	2533.812472
955.800706	2529.736700
956.101108	2528.080681
956.401472	2532.574869
956.701798	2531.385157
957.002087	2532.479087
957.302337	2530.618902
957.602550	2532.834489
957.902724	2530.195445
958.202861	2531.299457
958.502960	2531.680064
958.803022	2532.612678
959.103045	2530.891124
959.403031	2530.838192
959.702979	2531.627132
960.002889	2533.774664
960.302762	2531.995137
960.602596	2531.692667
960.902393	2530.082019
961.202153	2533.326001
961.501875	2529.741741
961.801559	2528.700743
962.101205	2532.234591
962.400814	2530.253418
962.700385	2530.349200
962.999918	2531.675023
963.299414	2528.844415
963.598873	2531.054961
963.898293	2528.738551
964.197677	2532.002698
964.497022	2528.204189
964.796331	2529.918181
965.095601	2529.378778
965.394835	2531.796011
965.694030	2530.417255
965.993189	2533.986392
966.292309	2529.915661
966.591393	2533.562935
966.890439	2528.332738
967.189447	2530.936494
967.488419	2530.248377
967.787353	2531.828778
968.086249	2527.019518
968.385108	2529.731658
968.683930	2531.710311
968.982714	2530.278624
969.281462	2529.232584
969.580172	2529.726617
969.878844	2529.492204
970.177480	2529.323325
970.476078	2529.945907
970.774639	2530.349200
971.073162	2529.028418
971.371649	2527.195958
971.670098	2526.195289
971.968510	2527.773170
972.266885	2525.139167
972.565223	2530.129910
972.863524	2531.712832
973.161788	2530.054292
973.460014	2532.300126
973.758204	2530.762574
974.056356	2529.300640
974.354471	2528.680578
974.652550	2530.865918
974.950591	2532.234591
975.248595	2528.917512
975.546563	2529.981196
975.844493	2531.349869
976.142386	2531.831299
976.440243	2529.892975
976.738062	2531.223840
977.035845	2530.182842
977.333590	2527.710156
977.631299	2529.250228
977.928971	2528.831813
978.226606	2527.054806
978.524204	2531.526309
978.821765	2529.666123
979.119290	2531.201155
979.416777	2530.157636
979.714228	2530.583613
980.011642	2530.565969
980.309020	2532.184180
980.606360	2528.282327
980.903664	2529.242667
981.200931	2532.305167
981.498162	2529.630835
981.795356	2528.526823
982.092513	2533.444468
982.389633	2528.564631
982.686717	2531.496062
982.983764	2532.305168
983.280775	2532.443799
983.577749	2534.077133
983.874686	2531.435568
984.171587	2532.632843
984.468451	2530.780218
984.765279	2534.737524
985.062070	2530.944056
985.358824	2527.899199
985.655543	2530.258459
985.952224	2530.243336
986.248869	2528.153777
986.545478	2525.552542
986.842050	2527.291740
987.138586	2527.001874
987.435086	2524.945083
987.731549	2524.680422
988.027975	2530.762574
988.324366	2530.760054
988.620719	2527.357275
988.917037	2528.988088
989.213318	2529.792152
989.509563	2528.410876
989.805772	2528.211751
990.101944	2526.656555
990.398080	2527.082532
990.694180	2529.018335
990.990244	2528.118489
991.286271	2526.318797
991.582262	2530.296268
991.878217	2528.932636
992.174136	2527.914323
992.470019	2527.921884
992.765865	2530.984385
993.061676	2528.025228
993.357450	2530.308871
993.653188	2526.442306
993.948890	2527.258973
994.244556	2524.428365
994.540186	2528.395753
994.835780	2526.250742
995.131337	2527.256452
995.426859	2526.601102
995.722345	2527.790814
996.017795	2531.591844
996.313208	2528.042872
996.608586	2529.076308
996.903928	2527.435413
997.199234	2531.238963
997.494504	2530.749972
997.789738	2528.730989
998.084936	2527.697553
998.380099	2531.029756
998.675225	2526.124713
998.970316	2529.711494
999.265371	2529.167049
999.560390	2526.772501
999.855373	2529.981196
1000.150320	2528.647810
1000.445232	2529.298119
1000.740108	2527.208561
1001.034948	2527.904240
1001.329752	2528.778880
1001.624521	2526.646472
1001.919254	2525.305525
1002.213951	2526.447347
1002.508613	2524.851822
1002.803239	2525.204702
1003.097829	2523.934332
1003.392384	2527.969775
1003.686903	2528.420958
1003.981386	2529.530012
1004.275834	2527.866432
1004.570246	2525.227387
1004.864623	2528.781401
1005.158964	2526.132275
1005.453270	2527.188396
1005.747540	2529.154446
1006.041775	2528.347862
1006.335974	2524.088087
1006.630138	2526.021369
1006.924266	2528.259642
1007.218359	2527.049765
1007.512416	2526.820392
1007.806438	2528.184024
1008.100425	2526.512882
1008.394376	2525.726462
1008.688292	2527.032121
1008.982172	2524.730834
1009.276017	2528.557070
1009.569827	2525.928108
1009.863602	2526.835516
1010.157341	2526.706966
1010.451045	2526.313756
1010.744714	2528.141174
1011.038347	2528.136133
1011.331945	2528.660413
1011.625508	2527.130423
1011.919036	2526.727131
1012.212528	2527.095135
1012.505986	2525.791997
1012.799408	2527.911802
1013.092795	2526.210412
1013.386147	2527.778211
1013.679464	2526.860721
1013.972745	2526.401976
1014.265992	2529.101514
1014.559204	2525.711338
1014.852380	2527.377440
1015.145521	2527.964734
1015.438628	2528.252080
1015.731699	2529.658562
1016.024736	2528.310053
1016.317737	2527.541277
1016.610703	2528.557070
1016.903635	2523.387366
1017.196531	2524.488858
1017.489393	2523.210926
1017.782219	2524.148581
1018.075011	2525.923067
1018.367768	2528.685619
1018.660490	2525.620597
1018.953177	2525.620597
1019.245829	2525.620597
