Dividing Wavelength (nm)	Counts (n)	Blue Motor Position (mm): 0.000000	Red Motor Position (mm): 17.200000	
326.493990	2127.553446
326.888308	2127.553446
327.282561	2127.553446
327.676750	2094.296954
328.070874	2096.237798
328.464933	2096.769640
328.858929	2104.346494
329.252859	2113.387803
329.646726	2125.650410
330.040528	2138.154992
330.434265	2154.992446
330.827938	2172.593635
331.221547	2190.356140
331.615091	2209.757021
332.008571	2227.345607
332.401986	2248.258833
332.795338	2265.920516
333.188625	2286.811058
333.581847	2306.718574
333.975006	2322.890596
334.368100	2341.779799
334.761129	2362.342666
335.154095	2374.244830
335.546996	2395.606719
335.939833	2408.133987
336.332606	2424.416913
336.725315	2437.833944
337.117960	2442.733946
337.510540	2454.263065
337.903056	2464.967955
338.295508	2473.028760
338.687896	2482.291880
339.080220	2489.397387
339.472480	2495.305619
339.864676	2502.983296
340.256807	2505.733246
340.648875	2507.631240
341.040879	2510.983607
341.432818	2510.620644
341.824694	2512.541324
342.216506	2514.131808
342.608253	2512.319513
342.999937	2510.943278
343.391557	2512.480830
343.783113	2511.270953
344.174605	2511.268432
344.566033	2510.925634
344.957397	2508.067300
345.348697	2507.079234
345.739934	2506.433966
346.131106	2505.602176
346.522215	2503.041269
346.913260	2498.731083
347.304241	2497.937101
347.695159	2495.754282
348.086012	2493.974754
348.476802	2492.328818
348.867528	2492.061636
349.258191	2488.172386
349.648789	2490.733292
350.039324	2486.491161
350.429796	2486.075266
350.820203	2485.382108
351.210548	2483.630307
351.600828	2483.040492
351.991045	2482.518732
352.381198	2481.860862
352.771288	2479.942703
353.161314	2479.418423
353.551276	2481.490337
353.941175	2480.555203
354.331010	2481.558392
354.720782	2483.327837
355.110490	2483.015286
355.500135	2480.877837
355.889717	2482.493526
356.279235	2479.932620
356.668689	2482.372539
357.058080	2482.201139
357.447408	2480.648464
357.836672	2480.933289
358.225873	2480.961016
358.615010	2479.400778
359.004084	2483.892447
359.393095	2485.160297
359.782043	2486.067704
360.170927	2486.135760
360.559748	2487.517036
360.948505	2487.874958
361.337199	2490.357726
361.725830	2487.658188
362.114398	2490.448467
362.502903	2489.808241
362.891344	2490.942500
363.279722	2492.248159
363.668037	2494.977944
364.056289	2492.638848
364.444478	2491.416369
364.832603	2491.900319
365.220665	2493.901658
365.608665	2491.771770
365.996601	2496.460043
366.384474	2497.001967
366.772284	2500.482884
367.160031	2498.650424
367.547715	2500.014057
367.935336	2504.636795
368.322893	2510.053514
368.710388	2509.405726
369.097820	2517.005266
369.485189	2518.210101
369.872495	2525.580268
370.259738	2532.534540
370.646918	2539.579552
371.034035	2544.739173
371.421090	2556.169990
371.808081	2566.461505
372.195010	2575.613720
372.581875	2590.424630
372.968678	2602.016763
373.355418	2612.293156
373.742096	2631.762092
374.128710	2645.801705
374.515262	2659.221257
374.901751	2673.969152
375.288177	2687.368539
375.674540	2712.889381
376.060841	2729.232801
376.447079	2750.297263
376.833254	2769.544388
377.219367	2782.606018
377.605417	2819.560196
377.991404	2828.394818
378.377329	2852.892305
378.763191	2866.407639
379.148991	2907.288876
379.534727	2930.213523
379.920402	2957.904581
380.306013	2970.946046
380.691563	3022.784231
381.077049	3041.857437
381.462474	3061.870817
381.847835	3095.586054
382.233134	3118.684621
382.618371	3120.522122
383.003545	3189.250693
383.388657	3192.519881
383.773706	3227.087073
384.158693	3243.856471
384.543618	3271.131634
384.928480	3304.708239
385.313280	3349.012420
385.698017	3350.539889
386.082692	3405.775812
386.467305	3408.767737
386.851856	3440.247222
387.236344	3460.041313
387.620770	3495.127743
388.005133	3516.653470
388.389435	3549.047925
388.773674	3561.093762
389.157851	3600.936522
389.541965	3615.422277
389.926018	3581.485229
390.310008	3650.065086
390.693936	3671.502593
391.077802	3711.456258
391.461606	3696.531922
391.845348	3763.843929
392.229027	3761.099020
392.612645	3773.338942
392.996200	3851.557485
393.379694	3891.304462
393.763125	3955.987507
394.146494	3925.541459
394.529801	3981.994820
394.913047	4032.073642
395.296230	3998.804548
395.679351	4054.980646
396.062410	4075.893872
396.445408	4053.372518
396.828343	4088.516922
397.211217	4114.662866
397.594028	4029.026265
397.976778	4094.689814
398.359466	4122.721150
398.742092	4153.041170
399.124656	4070.981268
399.507158	4151.884225
399.889598	4172.908358
400.271977	4234.193665
400.654294	4200.281823
401.036549	4207.881362
401.418742	4170.907019
401.800874	4267.092235
402.182944	4279.130510
402.564952	4334.787369
402.946898	4316.402281
403.328783	4303.391063
403.710606	4210.376733
404.092367	4381.977610
404.474067	4335.772915
404.855705	4333.882482
405.237282	4248.671859
405.618797	4333.726206
406.000250	4346.530737
406.381642	4402.563162
406.762972	4349.086602
407.144240	4336.861804
407.525447	4318.610307
407.906593	4346.306406
408.287677	4359.131101
408.668700	4276.516672
409.049661	4290.241213
409.430560	4293.896050
409.811399	4205.391032
410.192176	4300.623470
410.572891	4224.675966
410.953545	4270.318573
411.334138	4150.177795
411.714669	4161.101975
412.095139	4055.078948
412.475547	4117.690079
412.855894	4065.254517
413.236180	4032.113972
413.616405	3963.892037
413.996568	3980.656394
414.376670	3904.605547
414.756711	3840.406453
415.136691	3819.052125
415.516609	3819.964574
415.896466	3798.915236
416.276262	3779.037966
416.655997	3721.473031
417.035670	3766.044392
417.415283	3768.582613
417.794834	3693.242569
418.174324	3630.679329
418.553753	3548.344684
418.933121	3578.211000
419.312428	3563.140471
419.691674	3485.894870
420.070859	3487.878564
420.449983	3413.347625
420.829045	3408.140113
421.208047	3338.040348
421.586988	3311.934733
421.965867	3276.061882
422.344686	3263.080911
422.723444	3196.366281
423.102141	3117.225207
423.480777	3144.374341
423.859352	3059.743450
424.237866	3074.950091
424.616319	3040.816438
424.994712	3026.217257
425.373044	2977.580204
425.751314	2963.633852
426.129524	2905.867270
426.507673	2902.721590
426.885762	2887.527553
427.263789	2848.924917
427.641756	2817.029537
428.019662	2805.613844
428.397508	2783.735236
428.775292	2757.380084
429.153016	2746.052611
429.530679	2724.567213
429.908282	2710.698999
430.285824	2690.005063
430.663305	2688.323838
431.040726	2661.855260
431.418086	2648.975112
431.795385	2642.630819
432.172624	2632.503141
432.549802	2622.645165
432.926920	2611.950357
433.303977	2608.295521
433.680974	2597.303285
434.057910	2590.051585
434.434786	2586.805082
434.811601	2581.521952
435.188355	2578.938361
435.565050	2572.599110
435.941683	2568.082236
436.318257	2567.101732
436.694770	2556.301060
437.071222	2560.596123
437.447614	2554.216543
437.823946	2550.244113
438.200218	2553.591440
438.576429	2551.781665
438.952580	2551.174206
439.328670	2552.593291
439.704700	2546.493495
440.080670	2544.426622
440.456580	2547.337888
440.832429	2548.439380
441.208218	2543.317568
441.583947	2542.778165
441.959616	2542.475695
442.335224	2542.359749
442.710773	2540.938143
443.086261	2543.930068
443.461689	2543.562064
443.837057	2544.179605
444.212365	2538.185673
444.587612	2541.840510
444.962800	2541.694317
445.337927	2539.314892
445.712995	2540.035777
446.088002	2542.397557
446.462949	2539.403112
446.837837	2539.082999
447.212664	2541.016281
447.587431	2539.798843
447.962139	2543.040305
448.336786	2548.169679
448.711374	2546.233876
449.085901	2542.425284
449.460369	2541.230530
449.834776	2541.308668
450.209124	2543.604914
450.583412	2542.455531
450.957640	2543.423432
451.331808	2543.854451
451.705917	2541.253216
452.079965	2540.605427
452.453954	2540.234902
452.827883	2541.419574
453.201752	2541.492670
453.575562	2542.158103
453.949311	2542.793288
454.323001	2543.446117
454.696632	2542.427804
455.070202	2545.969215
455.443713	2541.971580
455.817164	2539.952598
456.190556	2539.733308
456.563888	2541.845551
456.937160	2541.903524
457.310373	2544.426622
457.683526	2543.551982
458.056619	2545.772610
458.429653	2541.830428
458.802628	2545.097095
459.175542	2544.232538
459.548398	2544.963505
459.921194	2548.441901
460.293930	2546.801005
460.666607	2550.476007
461.039224	2549.881150
461.411782	2550.425595
461.784280	2551.184289
462.156719	2550.256716
462.529099	2550.715461
462.901419	2549.404761
463.273680	2552.643703
463.645882	2547.070707
464.018024	2552.220246
464.390106	2548.429298
464.762130	2549.351829
465.134094	2551.282591
465.505999	2556.974054
465.877845	2562.703325
466.249631	2563.363716
466.621358	2565.186093
466.993026	2564.003943
467.364634	2564.220713
467.736184	2560.752399
468.107674	2558.322563
468.479105	2558.246945
468.850477	2557.662171
469.221790	2555.625545
469.593043	2556.333827
469.964238	2558.388097
470.335373	2557.722665
470.706449	2555.449105
471.077467	2556.202757
471.448425	2562.567214
471.819324	2567.636094
472.190164	2569.897052
472.560945	2562.237018
472.931667	2560.218036
473.302330	2556.555638
473.672934	2555.900288
474.043479	2558.685526
474.413965	2558.468756
474.784393	2552.855431
475.154761	2556.288457
475.525070	2555.673436
475.895321	2557.072356
476.265513	2554.226625
476.635645	2559.978582
477.005719	2560.659137
477.375734	2562.373130
477.745691	2562.037893
478.115588	2563.608212
478.485427	2562.942780
478.855207	2568.404870
479.224928	2568.525858
479.594591	2574.033318
479.964194	2573.214131
480.333739	2572.992320
480.703226	2571.984089
481.072653	2572.306723
481.442022	2573.577094
481.811333	2572.349573
482.180584	2574.618092
482.549777	2571.873184
482.918912	2569.788667
483.287988	2572.589028
483.657005	2571.399316
484.025964	2566.917730
484.394864	2567.888152
484.763706	2568.780436
485.132489	2566.322874
485.501213	2569.899572
485.869879	2567.931002
486.238487	2565.881773
486.607036	2563.376319
486.975527	2566.582493
487.343959	2564.744992
487.712333	2566.264900
488.080648	2568.760272
488.448905	2566.103583
488.817104	2565.148285
489.185244	2566.753892
489.553326	2567.832699
489.921350	2568.425035
490.289315	2571.726991
490.657222	2571.190108
491.025070	2573.272104
491.392861	2577.695717
491.760593	2570.948132
492.128267	2570.128945
492.495883	2569.665159
492.863440	2570.622978
493.230939	2565.060065
493.598380	2565.977555
493.965763	2560.848181
494.333088	2565.980075
494.700354	2560.054199
495.067563	2562.436144
495.434713	2560.076884
495.801805	2567.908317
496.168839	2564.283727
496.535815	2563.721638
496.902733	2567.351269
497.269593	2565.372616
497.636395	2564.808007
498.003139	2563.230126
498.369825	2566.635425
498.736453	2566.678275
499.103023	2566.479149
499.469535	2564.545867
499.835989	2565.912020
500.202385	2566.136351
500.568723	2564.984447
500.935003	2565.420507
501.301226	2562.471432
501.667390	2565.405384
502.033497	2567.147102
502.399546	2566.443861
502.765537	2563.966134
503.131470	2565.266752
503.497345	2566.763975
503.863163	2569.743297
504.228923	2566.816907
504.594625	2565.533933
504.960269	2564.956721
505.325856	2569.894531
505.691385	2564.891186
506.056856	2567.426886
506.422270	2566.010322
506.787625	2567.494942
507.152924	2565.092832
507.518164	2568.798080
507.883347	2567.580642
508.248472	2568.568708
508.613540	2567.147102
508.978550	2565.556618
509.343503	2565.876732
509.708398	2572.377299
510.073236	2568.868656
510.438016	2568.770354
510.802738	2568.354459
511.167403	2568.795560
511.532010	2567.290775
511.896561	2569.783626
512.261053	2571.696744
512.625488	2566.416135
512.989866	2566.811866
513.354186	2566.025446
513.718449	2564.422359
514.082655	2567.242884
514.446803	2567.593244
514.810894	2570.396126
515.174927	2568.790518
515.538904	2568.099880
515.902822	2566.915209
516.266684	2568.722463
516.630488	2568.702298
516.994235	2567.068964
517.357925	2568.906465
517.721558	2569.156002
518.085133	2569.062741
518.448651	2570.897721
518.812112	2569.758420
519.175516	2568.021742
519.538863	2568.283882
519.902152	2570.592731
520.265385	2567.552915
520.628560	2570.194480
520.991678	2568.001578
521.354739	2568.740107
521.717743	2570.149109
522.080690	2567.386557
522.443580	2570.030642
522.806413	2571.663976
523.169189	2569.879408
523.531908	2570.617937
523.894569	2568.309088
524.257174	2569.382854
524.619722	2569.045097
524.982213	2571.142217
525.344647	2569.715570
525.707025	2571.971487
526.069345	2570.249933
526.431608	2568.286403
526.793815	2570.960735
527.155964	2571.147258
527.518057	2567.835220
527.880093	2569.246743
528.242072	2571.154820
528.603995	2569.410580
528.965860	2569.113152
529.327669	2569.730694
529.689421	2569.516445
530.051117	2568.825807
530.412755	2569.944943
530.774337	2568.505693
531.135862	2568.036866
531.497331	2567.991496
531.858743	2565.813717
532.220098	2567.668862
532.581396	2565.110476
532.942638	2564.843295
533.303824	2567.983934
533.664953	2570.335632
534.026025	2566.900086
534.387040	2570.063410
534.747999	2566.343038
535.108902	2569.178687
535.469748	2566.937894
535.830537	2569.077864
536.191270	2569.216496
536.551947	2568.309088
536.912567	2566.826989
537.273131	2568.051989
537.633638	2567.817576
537.994089	2571.129614
538.354483	2569.181208
538.714821	2566.816907
539.075103	2567.880590
539.435328	2568.157854
539.795497	2568.336815
540.155609	2568.790518
540.515665	2569.372772
540.875665	2566.801783
541.235609	2569.513924
541.595496	2567.119376
541.955328	2567.938563
542.315102	2568.924109
542.674821	2565.881773
543.034483	2569.667679
543.394090	2570.645663
543.753640	2570.582649
544.113134	2567.845302
544.472571	2568.543502
544.831953	2568.626681
545.191278	2567.711712
545.550548	2570.199521
545.909761	2567.401681
546.268918	2568.856053
546.628019	2566.942936
546.987064	2566.549726
547.346053	2566.436300
547.704986	2567.220199
548.063863	2567.472257
548.422684	2570.378482
548.781449	2565.289437
549.140158	2567.497462
549.498811	2569.188770
549.857408	2565.949828
550.215949	2567.449572
550.574434	2563.797256
550.932864	2563.920764
551.291237	2563.414128
551.649555	2567.462174
552.007817	2567.920919
552.366022	2569.904613
552.724173	2567.923440
553.082267	2569.302196
553.440305	2568.505693
553.798288	2565.906978
554.156215	2567.726835
554.514086	2567.026115
554.871902	2568.977041
555.229661	2564.601320
555.587365	2567.963769
555.945014	2566.622822
556.302606	2565.196176
556.660143	2566.970662
557.017625	2567.414283
557.375050	2568.019222
557.732421	2564.893707
558.089735	2568.283882
558.446994	2570.023081
558.804197	2567.704150
559.161345	2567.648697
559.518437	2565.992678
559.875474	2568.510734
560.232455	2565.964952
560.589381	2567.522668
560.946251	2571.467371
561.303065	2567.406722
561.659825	2569.798749
562.016528	2568.026784
562.373177	2564.044272
562.729770	2566.995868
563.086307	2567.051320
563.442789	2567.177349
563.799216	2567.010991
564.155587	2566.703481
564.511904	2566.007802
564.868164	2564.540826
565.224370	2565.680127
565.580520	2565.927143
565.936615	2569.715570
566.292654	2566.605178
566.648638	2566.630384
567.004567	2568.140210
567.360441	2567.971331
567.716260	2566.975703
568.072023	2566.017884
568.427732	2563.580486
568.783385	2563.646021
569.138982	2564.465208
569.494525	2563.343552
569.850013	2564.200548
570.205445	2565.780950
570.560823	2566.320353
570.916145	2564.553429
571.271412	2563.973696
571.626625	2569.299675
571.981782	2566.466547
572.336884	2568.029304
572.691931	2567.005950
573.046923	2565.191135
573.401860	2563.613253
573.756743	2567.184911
574.111570	2565.007132
574.466342	2566.312791
574.821059	2564.256001
575.175722	2566.451423
575.530330	2564.578634
575.884882	2563.209961
576.239380	2567.671382
576.593823	2565.531412
576.948211	2561.450598
577.302544	2562.700805
577.656823	2561.838767
578.011047	2563.426731
578.365216	2564.150136
578.719330	2562.615105
579.073389	2562.022769
579.427394	2561.778273
579.781344	2562.899930
580.135239	2564.629046
580.489080	2564.147616
580.842866	2565.281875
581.196597	2567.399160
581.550273	2564.724828
581.903895	2564.034190
582.257463	2562.335321
582.610975	2561.143088
582.964434	2564.835733
583.317837	2560.407080
583.671186	2565.929664
584.024481	2560.770043
584.377721	2562.045455
584.730906	2562.010167
585.084037	2561.687533
585.437113	2561.649724
585.790135	2563.956052
586.143103	2562.789025
586.496016	2561.435475
586.848874	2561.785835
587.201679	2559.718962
587.554428	2555.328117
587.907124	2558.320042
588.259765	2556.616132
588.612352	2559.819785
588.964884	2559.804662
589.317362	2560.666699
589.669786	2561.266596
590.022155	2561.049827
590.374470	2564.029149
590.726731	2562.715928
591.078937	2558.962789
591.431090	2559.381205
591.783188	2558.357851
592.135232	2560.825495
592.487222	2560.601164
592.839157	2563.870352
593.191038	2563.187276
593.542866	2560.603685
593.894639	2559.154353
594.246358	2557.117727
594.598022	2559.935732
594.949633	2558.884651
595.301190	2560.868345
595.652692	2558.801472
596.004141	2559.935732
596.355535	2562.368088
596.706876	2558.433468
597.058162	2558.569579
597.409395	2558.577141
597.760573	2561.390105
598.111698	2562.952862
598.462768	2558.473797
598.813785	2557.740309
599.164748	2560.432285
599.515657	2561.594271
599.866511	2558.483879
600.217312	2561.541339
600.568060	2558.947666
600.918753	2561.866494
601.269392	2558.478838
601.619978	2558.262069
601.970510	2561.173335
602.320988	2560.490259
602.671412	2560.722152
603.021783	2560.507903
603.372100	2559.671071
603.722363	2557.979764
604.072572	2560.747357
604.422728	2563.174673
604.772830	2555.854918
605.122878	2554.700493
605.472872	2553.977088
605.822813	2555.302911
606.172701	2555.680998
606.522534	2561.551422
606.872314	2559.701318
607.222041	2557.281564
607.571714	2557.616801
607.921333	2559.383725
608.270899	2557.689898
608.620411	2561.218705
608.969870	2563.141906
609.319276	2563.295661
609.668627	2562.789025
610.017926	2564.848336
610.367171	2566.219530
610.716362	2567.530230
611.065500	2565.712894
611.414585	2562.988150
611.763616	2561.306926
612.112594	2563.043603
612.461518	2560.797769
612.810389	2560.954045
613.159207	2558.125957
613.507971	2559.688715
613.856682	2560.984292
614.205340	2562.012687
614.553945	2561.730382
614.902496	2559.114024
615.250994	2559.920608
615.599439	2557.921791
615.947830	2561.092677
616.296169	2560.747358
616.644454	2558.549414
616.992686	2556.505227
617.340864	2560.898592
617.688990	2556.371636
618.037063	2559.272820
618.385082	2560.051678
618.733048	2561.816082
619.080961	2559.988664
619.428821	2558.317521
619.776628	2557.823488
620.124382	2557.909188
620.472083	2556.969013
620.819731	2560.757440
621.167326	2557.337017
621.514868	2558.400700
621.862357	2559.015721
622.209793	2558.864487
622.557176	2557.498334
622.904506	2554.791234
623.251783	2554.284598
623.599007	2554.052705
623.946179	2550.904505
624.293297	2555.560010
624.640363	2554.650082
624.987376	2558.027655
625.334336	2559.217367
625.681243	2559.106462
626.028097	2558.541853
626.374899	2553.288970
626.721647	2558.027655
627.068343	2553.863662
627.414987	2558.274672
627.761577	2554.370298
628.108115	2556.699311
628.454600	2554.962633
628.801032	2552.994063
629.147412	2556.565720
629.493739	2556.578323
629.840014	2555.496996
630.186236	2556.222922
630.532405	2552.512633
630.878521	2554.869372
631.224585	2553.891388
631.570597	2555.053374
631.916556	2555.587737
632.262462	2556.180072
632.608316	2556.727037
632.954117	2552.973898
633.299866	2552.875596
633.645562	2553.818292
633.991206	2555.335679
634.336797	2553.808209
634.682336	2554.251831
635.027823	2553.213353
635.373257	2551.486758
635.718639	2555.771739
636.063968	2551.010369
636.409245	2550.667570
636.754470	2554.103117
637.099642	2551.814433
637.444762	2552.187478
637.789829	2553.445246
638.134845	2551.819474
638.479808	2549.944165
638.824719	2550.896943
639.169577	2550.803682
639.514383	2549.067004
639.859137	2551.464073
640.203839	2550.087838
640.548489	2550.186140
640.893086	2548.588094
641.237632	2547.829401
641.582125	2548.336037
641.926566	2546.412837
642.270955	2551.857283
642.615292	2552.094217
642.959576	2552.000956
643.303809	2551.360729
643.647990	2551.731254
643.992118	2550.503733
644.336195	2552.719320
644.680219	2551.864844
645.024192	2551.481717
645.368112	2552.207643
645.711981	2550.980122
646.055797	2550.032385
646.399562	2551.118754
646.743274	2552.419371
647.086935	2552.074052
647.430544	2551.179248
647.774101	2552.694114
648.117606	2552.946172
648.461059	2553.125133
648.804460	2550.395348
649.147810	2553.490617
649.491108	2551.501881
649.834354	2551.091027
650.177548	2552.328631
650.520690	2553.135215
650.863781	2551.698486
651.206820	2550.652447
651.549807	2552.447098
651.892742	2547.857127
652.235626	2550.448280
652.578458	2549.709751
652.921238	2549.016593
653.263967	2550.201264
653.606644	2550.896943
653.949269	2551.806871
654.291843	2551.890050
654.634365	2549.422405
654.976836	2547.980635
655.319255	2549.999617
655.661622	2549.245965
656.003938	2548.565409
656.346203	2549.482899
656.688416	2549.976932
657.030577	2548.706562
657.372687	2551.191850
657.714746	2546.430481
658.056753	2547.920142
658.398708	2547.700851
658.740612	2546.944678
659.082465	2549.006510
659.424266	2545.570964
659.766016	2547.368135
660.107715	2550.576830
660.449362	2549.845862
660.790958	2550.309648
661.132503	2550.539021
661.473996	2549.198074
661.815438	2546.493495
662.156829	2550.302087
662.498168	2550.158414
662.839456	2547.365615
663.180693	2548.782179
663.521879	2548.252858
663.863013	2552.555482
664.204097	2548.908208
664.545129	2548.595656
664.886110	2549.896274
665.227040	2546.828732
665.567918	2546.821170
665.908746	2550.332334
666.249522	2549.130018
666.590248	2549.419885
666.930922	2547.877292
667.271545	2549.795451
667.612118	2550.896943
667.952639	2547.204298
668.293109	2551.874927
668.633528	2546.254040
668.973896	2550.120605
669.314213	2548.353681
669.654480	2546.619524
669.994695	2550.483568
670.334859	2546.957281
670.674973	2551.244783
671.015035	2548.893084
671.355047	2548.386448
671.695008	2551.055739
672.034918	2548.509957
672.374777	2550.231511
672.714585	2547.655481
673.054342	2550.113043
673.394049	2549.606407
673.733705	2548.774617
674.073310	2550.483568
674.412864	2548.615821
674.752368	2547.305121
675.091820	2546.649771
675.431223	2549.646737
675.770574	2548.704041
676.109875	2542.218597
676.449125	2545.714637
676.788324	2542.921837
677.127473	2547.781510
677.466571	2542.526107
677.805619	2549.346788
678.144616	2544.923176
678.483562	2548.144473
678.822458	2546.652291
679.161303	2548.688918
679.500098	2548.701520
679.838842	2546.110367
680.177535	2546.979966
680.516179	2548.167158
680.854771	2547.289997
681.193314	2548.605738
681.531805	2547.302600
681.870247	2550.377704
682.208638	2548.799823
682.546978	2548.593136
682.885268	2549.293856
683.223508	2548.315872
683.561697	2548.681356
683.899836	2548.535162
684.237925	2546.080120
684.575963	2551.355688
684.913951	2549.631613
685.251889	2550.186140
685.589776	2544.189688
685.927614	2547.872251
686.265401	2546.506098
686.603137	2547.390820
686.940824	2545.896118
687.278460	2547.882333
687.616046	2547.209339
687.953582	2550.481048
688.291068	2546.947199
688.628504	2550.720503
688.965889	2547.025337
689.303224	2548.704041
689.640510	2549.566078
689.977745	2548.212528
690.314930	2547.249668
690.652065	2546.513660
690.989150	2548.371325
691.326185	2547.262271
691.663170	2546.102806
692.000105	2546.425439
692.336990	2542.528628
692.673825	2546.329657
693.010610	2546.148176
693.347345	2541.437218
693.684030	2540.595345
694.020665	2545.087013
694.357251	2541.391847
694.693786	2543.867054
695.030272	2544.744215
695.366707	2547.665563
695.703093	2548.210008
696.039429	2543.511653
696.375716	2545.548279
696.711952	2544.121632
697.048139	2545.994421
697.384276	2547.000131
697.720363	2543.546941
698.056400	2544.988711
698.392388	2544.262784
698.728326	2546.269164
699.064214	2547.302600
699.400053	2545.192877
699.735842	2541.996786
700.071581	2544.386293
700.407270	2546.044832
700.742910	2544.807229
701.078501	2543.829245
701.414042	2543.395706
701.749533	2544.401416
702.084974	2543.499050
702.420366	2542.717671
702.755709	2542.609286
703.091002	2543.229348
703.426246	2543.516694
703.761440	2542.727753
704.096584	2546.755635
704.431679	2542.604245
704.766725	2542.631971
705.101721	2545.686910
705.436668	2542.321940
705.771565	2543.221786
706.106413	2541.613658
706.441212	2542.495860
706.775961	2544.141797
707.110661	2545.880995
707.445311	2542.266487
707.779913	2543.045346
708.114465	2544.111550
708.448967	2545.704554
708.783421	2544.913093
709.117825	2541.177598
709.452180	2544.419060
709.786485	2542.190870
710.120742	2547.393341
710.454949	2544.766900
710.789107	2540.154244
711.123216	2541.338915
711.457275	2544.212373
711.791286	2540.902855
712.125247	2543.463762
712.459159	2543.700696
712.793023	2546.256561
713.126837	2545.268495
713.460602	2545.782692
713.794318	2543.683052
714.127985	2545.069369
714.461602	2543.672969
714.795171	2546.692621
715.128691	2547.090872
715.462162	2544.235058
715.795584	2540.262629
716.128957	2545.744884
716.462281	2541.255736
716.795556	2542.158103
717.128782	2539.819007
717.461960	2546.246478
717.795088	2542.924358
718.128167	2542.707588
718.461198	2543.070552
718.794180	2541.381765
719.127113	2542.780685
719.459997	2538.692309
719.792833	2542.054759
720.125619	2541.215407
720.458357	2540.242464
720.791046	2543.040305
721.123686	2541.071734
721.456278	2542.659697
721.788821	2541.046528
722.121315	2543.241951
722.453761	2543.564585
722.786158	2541.918648
723.118506	2541.480067
723.450805	2540.025695
723.783056	2540.786909
724.115259	2539.491332
724.447412	2541.273380
724.779518	2541.008720
725.111574	2542.556354
725.443582	2540.681045
725.775542	2540.923020
726.107453	2544.582898
726.439315	2543.602393
726.771129	2549.813095
727.102895	2541.656508
727.434612	2543.425953
727.766281	2543.199101
728.097901	2541.812784
728.429473	2537.875643
728.760996	2539.932433
729.092471	2540.325643
729.423897	2541.348997
729.755276	2541.585932
730.086606	2542.581560
730.417887	2540.532331
730.749120	2542.833617
731.080305	2541.928730
731.411442	2544.454348
731.742530	2540.461754
732.073570	2541.059131
732.404562	2544.361087
732.735506	2542.805891
733.066401	2541.406971
733.397249	2547.310162
733.728048	2542.200952
734.058798	2542.705068
734.389501	2540.184491
734.720156	2543.176416
735.050762	2543.246992
735.381320	2540.257588
735.711831	2541.981662
736.042293	2540.983514
736.372707	2540.781868
736.703073	2538.634336
737.033391	2539.203987
737.363661	2541.722043
737.693883	2538.049562
738.024056	2542.720191
738.354182	2543.945192
738.684260	2538.639377
739.014290	2541.797660
739.344272	2541.601055
739.674207	2541.394368
740.004093	2543.201622
740.333931	2539.753472
740.663722	2540.539892
740.993464	2540.146682
741.323159	2543.325130
741.652806	2540.824718
741.982405	2541.878319
742.311956	2539.498894
742.641460	2540.643236
742.970915	2539.294727
743.300323	2541.522917
743.629683	2539.713143
743.958996	2541.054090
744.288260	2538.442772
744.617477	2543.355377
744.946647	2537.968904
745.275768	2536.827083
745.604842	2536.895138
745.933869	2535.362627
746.262847	2537.263142
746.591778	2538.997299
746.920662	2540.144162
747.249498	2541.217927
747.578286	2539.418236
747.907027	2540.355890
748.235720	2540.166847
748.564365	2541.142310
748.892963	2537.547968
749.221514	2539.166178
749.550017	2539.859337
749.878473	2540.691127
750.206881	2542.110212
750.535242	2540.345808
750.863555	2541.807742
751.191821	2539.148534
751.520039	2538.034439
751.848210	2538.062165
752.176334	2539.773637
752.504411	2539.498894
752.832440	2536.509490
753.160421	2539.652649
753.488356	2538.057124
753.816243	2540.116435
754.144082	2537.946219
754.471875	2541.812784
754.799620	2540.028215
755.127318	2536.149047
755.454969	2539.342618
755.782572	2538.861188
756.110129	2538.921682
756.437638	2540.013092
756.765100	2538.465457
757.092515	2538.586445
757.419882	2538.679707
757.747203	2540.728936
758.074477	2536.196938
758.401703	2540.204656
758.728882	2538.495704
759.056014	2537.520241
759.383099	2540.010571
759.710138	2542.604245
760.037129	2539.067875
760.364073	2540.086188
760.690970	2537.237937
761.017820	2539.539223
761.344623	2538.505787
761.671379	2538.084850
761.998088	2535.486136
762.324751	2538.233564
762.651366	2538.790612
762.977935	2545.170192
763.304456	2541.331353
763.630931	2548.162117
763.957359	2546.818649
764.283740	2541.777496
764.610074	2544.192208
764.936362	2542.314378
765.262602	2537.081661
765.588796	2539.433359
765.914943	2540.610468
766.241044	2537.905889
766.567097	2544.010727
766.893104	2539.340098
767.219064	2538.447813
767.544978	2538.412525
767.870845	2538.989737
768.196665	2536.822041
768.522438	2537.936136
768.848165	2534.379602
769.173846	2537.580735
769.499479	2537.323636
769.825066	2538.679707
770.150607	2536.159130
770.476101	2535.894469
770.801548	2538.019315
771.126949	2535.544109
771.452303	2536.161650
771.777611	2539.604758
772.102872	2537.800025
772.428087	2536.706095
772.753256	2537.802546
773.078378	2537.469830
773.403453	2536.156609
773.728482	2537.242978
774.053465	2537.893287
774.378401	2533.615868
774.703291	2536.428831
775.028135	2536.433873
775.352932	2535.123173
775.677683	2534.135106
776.002388	2535.274407
776.327046	2536.363296
776.651658	2537.663914
776.976224	2536.678368
777.300743	2536.602751
777.625216	2536.378420
777.949643	2539.148534
778.274024	2535.700385
778.598359	2534.364479
778.922647	2533.076464
779.246889	2532.511855
779.571086	2534.545960
779.895236	2535.239119
780.219339	2536.479243
780.543397	2536.975797
780.867409	2537.963863
781.191374	2536.955632
781.515294	2535.266845
781.839167	2534.593851
782.162995	2536.000333
782.486776	2532.615198
782.810511	2533.744417
783.134201	2535.649973
783.457844	2535.972607
783.781441	2534.379602
784.104993	2535.632329
784.428498	2536.227185
784.751958	2535.559232
785.075372	2535.418080
785.398739	2535.755837
785.722061	2536.494366
786.045337	2534.987061
786.368568	2537.104346
786.691752	2534.616537
787.014891	2538.538554
787.337983	2536.043183
787.661030	2536.723739
787.984031	2536.448996
788.306987	2536.817000
788.629897	2536.078471
788.952760	2537.210210
789.275579	2537.961342
789.598351	2537.767258
789.921078	2537.820190
790.243759	2536.423790
790.566395	2536.416228
790.888984	2536.194418
791.211529	2537.573173
791.534027	2533.439427
791.856480	2537.182484
792.178888	2537.996630
792.501249	2535.143337
792.823566	2536.287679
793.145836	2535.597041
793.468062	2535.990251
793.790241	2533.399098
794.112375	2534.790456
794.434464	2534.029242
794.756507	2534.329191
795.078505	2535.818852
795.400457	2533.575538
795.722364	2531.768285
796.044226	2533.109232
796.366042	2533.542771
796.687812	2533.285672
797.009538	2535.982689
797.331218	2536.713657
797.652852	2535.397915
797.974442	2536.968235
798.295986	2534.717360
798.617484	2533.852802
798.938938	2535.281969
799.260346	2536.794315
799.581709	2534.309026
799.903026	2538.243647
800.224299	2534.329191
800.545526	2533.300795
800.866708	2535.690302
801.187845	2536.446475
801.508936	2536.814480
801.829983	2534.674510
802.150984	2532.988244
802.471940	2534.566125
802.792851	2533.673841
803.113717	2537.502597
803.434538	2535.778522
803.755314	2535.372710
804.076045	2533.663758
804.396731	2535.307175
804.717372	2533.804911
805.037967	2535.844057
805.358518	2534.666948
805.679024	2535.828934
805.999485	2534.775333
806.319901	2535.856660
806.640272	2532.053110
806.960598	2535.415559
807.280879	2534.097298
807.601115	2532.015301
807.921306	2535.153419
808.241453	2538.266332
808.561554	2535.453368
808.881611	2536.146527
809.201623	2535.176105
809.521590	2536.784233
809.841513	2533.625950
810.161390	2534.251053
810.481223	2536.660724
810.801011	2534.263656
811.120755	2536.796836
811.440453	2533.595703
811.760107	2534.409849
812.079716	2529.204858
812.399281	2532.116124
812.718801	2531.024714
813.038276	2527.982378
813.357707	2535.574356
813.677093	2532.615198
813.996434	2538.886394
814.315731	2536.945550
814.634983	2535.289531
814.954191	2532.141330
815.273354	2532.317770
815.592473	2531.853984
815.911547	2536.995961
816.230577	2536.577545
816.549562	2534.939170
816.868502	2537.681558
817.187399	2535.365148
817.506250	2535.173584
817.825058	2536.116280
818.143821	2535.760878
818.462539	2533.331042
818.781213	2538.543595
819.099843	2537.958822
819.418429	2534.855991
819.736970	2537.724408
820.055466	2537.401774
820.373919	2537.394212
820.692327	2541.555685
821.010691	2543.161292
821.329011	2547.375697
821.647286	2564.840774
821.965517	2577.229410
822.283704	2583.853486
822.601847	2586.895822
822.919945	2580.667477
823.237999	2572.137845
823.556010	2565.322205
823.873976	2559.232491
824.191897	2552.545400
824.509775	2548.381407
824.827609	2546.304452
825.145398	2544.640871
825.463144	2545.870912
825.780845	2545.991900
826.098502	2545.586087
826.416116	2551.189330
826.733685	2553.236038
827.051210	2554.834084
827.368692	2553.755277
827.686129	2547.451314
828.003522	2546.178423
828.320872	2537.822710
828.638177	2539.874460
828.955439	2534.273738
829.272656	2535.115611
829.589830	2533.381454
829.906960	2539.193904
830.224046	2539.138452
830.541088	2537.371527
830.858086	2534.258615
831.175041	2537.734490
831.491952	2535.652494
831.808819	2537.608461
832.125642	2535.201310
832.442421	2538.473019
832.759157	2534.117462
833.075849	2542.024512
833.392497	2543.519214
833.709101	2546.034750
834.025662	2547.045501
834.342179	2540.544933
834.658653	2541.258257
834.975083	2539.294727
835.291469	2540.587783
835.607811	2536.602751
835.924110	2535.738193
836.240366	2532.736186
836.556578	2535.110570
836.872746	2536.275076
837.188871	2532.852133
837.504952	2533.257946
837.820990	2536.264994
838.136984	2533.651156
838.452935	2535.276928
838.768842	2532.879859
839.084706	2533.651156
839.400526	2532.799201
839.716303	2537.185004
840.032037	2539.226672
840.347727	2540.156765
840.663373	2538.251208
840.978977	2535.075282
841.294537	2537.061496
841.610054	2534.014119
841.925527	2535.440765
842.240957	2532.184180
842.556344	2533.878007
842.871687	2531.629653
843.186987	2533.147040
843.502244	2532.262318
843.817458	2533.000847
844.132629	2531.707791
844.447756	2534.341794
844.762840	2529.383819
845.077881	2529.789632
845.392879	2529.774508
845.707833	2531.659900
846.022745	2526.495238
846.337613	2531.579241
846.652438	2533.895652
846.967221	2533.058820
847.281960	2531.755682
847.596656	2532.184180
847.911309	2530.182842
848.225919	2529.731658
848.540485	2532.537061
848.855009	2529.643438
849.169490	2531.397760
849.483928	2530.810465
849.798323	2531.939684
850.112675	2532.206865
850.426984	2531.947246
850.741251	2529.247708
851.055474	2532.572349
851.369654	2532.143851
851.683792	2532.315250
851.997887	2534.140147
852.311938	2532.070754
852.625947	2533.283151
852.939914	2530.646628
853.253837	2532.942873
853.567718	2531.422966
853.881555	2533.406660
854.195350	2531.475898
854.509103	2532.022863
854.822812	2530.858356
855.136479	2531.019673
855.450103	2529.620753
855.763685	2531.359951
856.077224	2528.403314
856.390720	2533.257946
856.704173	2532.123686
857.017584	2534.845909
857.330953	2533.126876
857.644278	2531.879190
857.957561	2535.617206
858.270802	2534.359438
858.584000	2533.121834
858.897155	2532.348017
859.210268	2533.615868
859.523339	2530.739889
859.836367	2533.668800
860.149352	2528.899868
860.462295	2532.484128
860.775195	2528.791483
861.088054	2526.782583
861.400869	2528.002543
861.713642	2529.033459
862.026373	2530.475229
862.339062	2530.500434
862.651708	2533.419263
862.964312	2530.417255
863.276873	2530.591175
863.589392	2532.254756
863.901869	2530.492873
864.214303	2531.516227
864.526696	2531.856505
864.839045	2531.440610
865.151353	2531.680064
865.463619	2532.274921
865.775842	2532.874818
866.088023	2532.743748
866.400162	2533.136958
866.712258	2530.538243
867.024313	2533.767102
867.336325	2531.148223
867.648296	2533.187369
867.960224	2532.630322
868.272110	2532.595034
868.583954	2531.314581
868.895755	2532.582431
869.207515	2531.876669
869.519233	2531.959848
869.830909	2532.703419
870.142542	2533.250384
870.454134	2535.312216
870.765684	2531.773326
871.077191	2533.177287
871.388657	2531.097811
871.700081	2534.087215
872.011463	2530.848274
872.322803	2531.990095
872.634101	2533.217616
872.945357	2532.141330
873.256571	2534.596372
873.567744	2532.133768
873.878874	2532.201824
874.189963	2529.744261
874.501010	2535.450848
874.812015	2532.975641
875.122979	2532.020342
875.433900	2531.876669
875.744780	2533.459592
876.055618	2532.773995
876.366415	2531.274252
876.677169	2530.966741
876.987882	2528.887265
877.298554	2528.264683
877.609183	2528.453726
877.919771	2525.575227
878.230317	2531.798532
878.540822	2535.281969
878.851285	2534.369520
879.161707	2533.971269
879.472087	2535.440765
879.782425	2535.491177
880.092722	2541.638864
880.402977	2539.763555
880.713191	2550.274360
881.023363	2560.298695
881.333494	2562.252142
881.643583	2562.930177
881.953631	2561.634601
882.263637	2560.336503
882.573602	2557.210988
882.883526	2555.892726
883.193408	2550.181099
883.503248	2546.450645
883.813048	2542.470654
884.122806	2541.134748
884.432522	2540.930582
884.742197	2536.607792
885.051831	2539.183822
885.361424	2535.561753
885.670975	2537.996630
885.980485	2536.421270
886.289954	2537.452186
886.599382	2532.577390
886.908768	2535.155940
887.218113	2533.434386
887.527417	2536.630477
887.836680	2532.456402
888.145901	2531.032276
888.455082	2532.194262
888.764221	2533.941022
889.073319	2533.174767
889.382376	2533.268028
889.691392	2532.726104
890.000366	2531.982534
890.309300	2533.268028
890.618193	2533.494880
890.927044	2529.633356
891.235855	2532.645445
891.544625	2534.591331
891.853353	2533.497400
892.162041	2533.104190
892.470687	2532.194262
892.779293	2531.768285
893.087858	2529.242667
893.396381	2529.338448
893.704864	2533.386495
894.013306	2532.423635
894.321707	2539.042670
894.630068	2542.815973
894.938387	2538.636857
895.246665	2539.934954
895.554903	2540.244985
895.863100	2536.940508
896.171256	2537.525282
896.479371	2539.047711
896.787446	2534.054448
897.095480	2538.094933
897.403473	2534.397246
897.711425	2533.245343
898.019336	2535.687782
898.327207	2534.487987
898.635038	2532.305168
898.942827	2531.344828
899.250576	2535.133255
899.558284	2531.909437
899.865952	2532.988244
900.173579	2530.661751
900.481165	2534.707277
900.788711	2530.094622
901.096216	2530.991947
901.403681	2533.741896
901.711105	2533.545291
902.018489	2532.484128
902.325832	2534.445137
902.633135	2534.180477
902.940397	2530.820548
903.247619	2533.116793
903.554800	2534.427493
903.861941	2536.305323
904.169041	2542.926879
904.476101	2547.252189
904.783121	2544.983669
905.090100	2542.168185
905.397039	2542.079965
905.703938	2541.999306
906.010796	2539.284645
906.317614	2536.156609
906.624391	2535.549150
906.931129	2533.184849
907.237826	2532.978162
907.544483	2532.413552
907.851099	2532.375744
908.157675	2530.515558
908.464211	2529.547656
908.770707	2525.028262
909.077163	2528.846936
909.383578	2527.629497
909.689954	2528.305012
909.996289	2526.427182
910.302584	2528.158818
910.608839	2532.716022
910.915054	2529.807276
911.221229	2530.568490
911.527363	2530.369364
911.833458	2531.846422
912.139513	2532.373223
912.445527	2532.484128
912.751502	2531.022194
913.057436	2531.334745
913.363331	2528.766277
913.669186	2531.591844
913.975000	2531.236443
914.280775	2535.377751
914.586510	2534.760209
914.892205	2534.372041
915.197859	2534.745086
915.503475	2538.712474
915.809050	2543.337733
916.114585	2544.615665
916.420081	2545.949050
916.725536	2544.366128
917.030952	2542.183308
917.336328	2541.260777
917.641665	2538.863709
917.946961	2537.842875
918.252218	2538.898997
918.557435	2536.776671
918.862612	2535.322298
919.167750	2535.612164
919.472848	2535.440765
919.777906	2532.443799
920.082925	2533.595703
920.387904	2531.143182
920.692843	2530.349200
920.997743	2532.380785
921.302603	2533.121834
921.607423	2534.127545
921.912204	2531.997657
922.216946	2529.257790
922.521647	2532.405991
922.826310	2532.509334
923.130932	2533.872966
923.435516	2530.432379
923.740059	2530.177801
924.044564	2529.550177
924.349028	2530.424817
924.653454	2523.909126
924.957840	2529.053623
925.262186	2523.531039
925.566493	2526.999353
925.870761	2526.414579
926.174989	2530.155115
926.479178	2528.007584
926.783328	2530.790301
927.087438	2529.134282
927.391509	2532.012781
927.695541	2529.605630
927.999533	2527.793335
928.303486	2531.438089
928.607400	2528.557070
928.911275	2529.477080
929.215110	2531.548994
929.518906	2527.662265
929.822663	2528.564631
930.126381	2527.838705
930.430060	2530.006401
930.733699	2527.768129
931.037299	2529.522451
931.340861	2528.156298
931.644383	2526.502799
931.947866	2529.209899
932.251309	2529.368695
932.554714	2526.714528
932.858080	2527.654703
933.161407	2529.393901
933.464694	2531.017153
933.767943	2530.364323
934.071153	2527.899199
934.374323	2530.271062
934.677455	2529.570342
934.980548	2529.474560
935.283602	2529.822399
935.586617	2529.207378
935.889593	2530.780218
936.192530	2526.850639
936.495428	2528.244518
936.798287	2529.005732
937.101108	2528.471370
937.403890	2529.393901
937.706632	2529.721576
938.009336	2528.279806
938.312002	2531.249046
938.614628	2533.285672
938.917216	2532.647966
939.219765	2530.351720
939.522275	2530.460105
939.824747	2530.926412
940.127179	2528.937677
940.429573	2525.247552
940.731929	2527.511030
941.034246	2522.830319
941.336524	2528.035310
941.638763	2528.438602
941.940964	2530.129910
942.243126	2532.126207
942.545250	2527.826102
942.847335	2529.613191
943.149381	2530.800383
943.451389	2528.073119
943.753359	2530.586134
944.055290	2527.921884
944.357182	2528.289888
944.659036	2530.245856
944.960851	2531.153264
945.262628	2530.175280
945.564367	2529.098994
945.866067	2527.906761
946.167729	2531.548994
946.469352	2527.702594
946.770937	2528.221833
947.072484	2527.553880
947.373992	2529.698891
947.675462	2528.287368
947.976893	2528.970444
948.278286	2527.291740
948.579641	2530.533202
948.880958	2526.245701
949.182236	2529.910619
949.483476	2527.374919
949.784678	2528.839374
950.085841	2530.260980
950.386967	2529.444313
950.688054	2528.083201
950.989103	2527.574045
951.290114	2528.655372
951.591087	2529.625794
951.892021	2528.481452
952.192917	2528.534384
952.493776	2526.979188
952.794596	2529.804755
953.095378	2528.380629
953.396122	2527.853829
953.696828	2530.939015
953.997496	2530.119827
954.298126	2526.228057
954.598718	2529.988757
954.899272	2527.551359
955.199788	2526.401976
955.500266	2528.337779
955.800706	2525.045906
956.101108	2524.385515
956.401472	2524.319980
956.701798	2523.765453
957.002087	2523.336955
957.302337	2527.957172
957.602550	2527.387522
957.902724	2527.339631
958.202861	2528.940197
958.502960	2528.244518
958.803022	2527.916843
959.103045	2526.661596
959.403031	2523.402490
959.702979	2526.522964
960.002889	2528.499096
960.302762	2529.187214
960.602596	2526.989271
960.902393	2524.955165
961.202153	2526.507841
961.501875	2527.485824
961.801559	2527.974816
962.101205	2526.134795
962.400814	2528.531864
962.700385	2527.034641
962.999918	2530.684437
963.299414	2527.735362
963.598873	2526.349044
963.898293	2525.731503
964.197677	2530.394570
964.497022	2526.747295
964.796331	2526.359127
965.095601	2527.226205
965.394835	2527.193438
965.694030	2528.390712
965.993189	2528.877183
966.292309	2528.937677
966.591393	2527.284178
966.890439	2525.882738
967.189447	2528.851977
967.488419	2523.218488
967.787353	2526.497758
968.086249	2528.126051
968.385108	2526.540608
968.683930	2529.812317
968.982714	2527.707635
969.281462	2526.291071
969.580172	2526.694363
969.878844	2525.144208
970.177480	2525.512213
970.476078	2526.507841
970.774639	2530.066895
971.073162	2528.612522
971.371649	2526.533046
971.670098	2521.743950
971.968510	2526.533046
972.266885	2521.938035
972.565223	2525.297964
972.863524	2527.100176
973.161788	2526.311236
973.460014	2526.021369
973.758204	2527.251411
974.056356	2527.727800
974.354471	2527.750485
974.652550	2527.160670
974.950591	2526.772501
975.248595	2527.808458
975.546563	2526.898530
975.844493	2527.440454
976.142386	2527.400125
976.440243	2526.457429
976.738062	2524.365350
977.035845	2526.681760
977.333590	2524.022552
977.631299	2527.604292
977.928971	2526.081863
978.226606	2525.144208
978.524204	2525.696215
978.821765	2527.485824
979.119290	2527.347193
979.416777	2528.368026
979.714228	2526.507841
980.011642	2526.850639
980.309020	2528.899868
980.606360	2525.774353
980.903664	2526.898530
981.200931	2526.661596
981.498162	2527.632018
981.795356	2523.604136
982.092513	2526.293592
982.389633	2526.785104
982.686717	2529.298119
982.983764	2527.894158
983.280775	2528.420958
983.577749	2528.115969
983.874686	2528.743592
984.171587	2526.160001
984.468451	2529.489683
984.765279	2528.010104
985.062070	2526.588499
985.358824	2527.258972
985.655543	2525.411390
985.952224	2525.900382
986.248869	2525.703777
986.545478	2520.962571
986.842050	2523.921729
987.138586	2523.876358
987.435086	2526.321318
987.731549	2523.767973
988.027975	2527.067409
988.324366	2524.798889
988.620719	2525.749147
988.917037	2524.937521
989.213318	2529.663603
989.509563	2524.672861
989.805772	2527.969775
990.101944	2526.800227
990.398080	2524.929959
990.694180	2525.519774
990.990244	2525.479445
991.286271	2528.322656
991.582262	2524.509023
991.878217	2525.978519
992.174136	2529.109076
992.470019	2524.204033
992.765865	2526.341483
993.061676	2523.347037
993.357450	2526.487676
993.653188	2525.736544
993.948890	2527.291740
994.244556	2526.028931
994.540186	2527.337110
994.835780	2525.260155
995.131337	2527.261493
995.426859	2524.052799
995.722345	2527.649662
996.017795	2528.816689
996.313208	2526.563293
996.608586	2526.626308
996.903928	2528.602440
997.199234	2526.817872
997.494504	2526.283509
997.789738	2528.310053
998.084936	2527.274096
998.380099	2527.876514
998.675225	2527.372398
998.970316	2528.962883
999.265371	2526.293592
999.560390	2525.476925
999.855373	2525.456760
1000.150320	2526.812830
1000.445232	2527.082532
1000.740108	2525.234949
1001.034948	2527.642100
1001.329752	2526.540608
1001.624521	2527.143026
1001.919254	2520.569361
1002.213951	2523.087418
1002.508613	2522.369053
1002.803239	2526.258303
1003.097829	2519.699762
1003.392384	2525.207223
1003.686903	2527.455578
1003.981386	2527.629497
1004.275834	2524.836698
1004.570246	2527.702594
1004.864623	2527.594209
1005.158964	2526.031452
1005.453270	2526.787625
1005.747540	2526.066740
1006.041775	2524.982892
1006.335974	2526.275947
1006.630138	2525.728982
1006.924266	2525.318128
1007.218359	2526.681760
1007.512416	2526.054137
1007.806438	2525.308046
1008.100425	2526.492717
1008.394376	2524.569517
1008.688292	2525.623118
1008.982172	2524.347706
1009.276017	2525.398787
1009.569827	2525.774353
1009.863602	2529.151926
1010.157341	2523.407531
1010.451045	2527.866432
1010.744714	2525.499610
1011.038347	2525.345855
1011.331945	2525.396266
1011.625508	2524.020031
1011.919036	2524.682943
1012.212528	2526.843077
1012.505986	2526.338962
1012.799408	2522.384177
1013.092795	2525.325690
1013.386147	2524.718231
1013.679464	2523.866276
1013.972745	2527.032121
1014.265992	2528.814168
1014.559204	2527.465660
1014.852380	2524.032634
1015.145521	2528.746113
1015.438628	2524.657737
1015.731699	2524.551873
1016.024736	2527.357275
1016.317737	2526.611184
1016.610703	2525.648324
1016.903635	2523.495751
1017.196531	2521.345699
1017.489393	2523.110103
1017.782219	2521.595236
1018.075011	2523.846111
1018.367768	2527.223684
1018.660490	2527.442975
1018.953177	2527.442975
1019.245829	2527.442975
