Dividing Wavelength (nm)	Counts (n)	Blue Motor Position (mm): 0.000000	Red Motor Position (mm): 11.500000	
326.493990	2126.290637
326.888308	2126.290637
327.282561	2126.290637
327.676750	2092.409042
328.070874	2093.550863
328.464933	2096.424321
328.858929	2101.152923
329.252859	2113.045005
329.646726	2121.980450
330.040528	2138.946453
330.434265	2155.486479
330.827938	2170.584735
331.221547	2187.212981
331.615091	2207.700230
332.008571	2227.350648
332.401986	2246.494430
332.795338	2266.543098
333.188625	2287.501696
333.581847	2302.786474
333.975006	2323.014104
334.368100	2341.573112
334.761129	2355.910153
335.154095	2374.547299
335.546996	2392.191338
335.939833	2407.569377
336.332606	2418.982550
336.725315	2433.506114
337.117960	2442.983483
337.510540	2451.177879
337.903056	2462.517954
338.295508	2470.838379
338.687896	2481.255923
339.080220	2486.624752
339.472480	2493.442912
339.864676	2498.398367
340.256807	2501.372647
340.648875	2504.029336
341.040879	2508.032012
341.432818	2507.658966
341.824694	2509.577125
342.216506	2508.107629
342.608253	2512.289266
342.999937	2512.208608
343.391557	2511.039060
343.783113	2508.284069
344.174605	2506.063441
344.566033	2508.984790
344.957397	2504.064624
345.348697	2503.031187
345.739934	2506.244923
346.131106	2500.823162
346.522215	2500.150168
346.913260	2497.758140
347.304241	2496.482728
347.695159	2494.902327
348.086012	2490.743375
348.476802	2492.974085
348.867528	2488.512664
349.258191	2489.604074
349.648789	2485.848414
350.039324	2487.053250
350.429796	2484.031078
350.820203	2481.699545
351.210548	2482.407827
351.600828	2481.220635
351.991045	2480.104019
352.381198	2479.423464
352.771288	2478.816005
353.161314	2480.194760
353.551276	2482.213742
353.941175	2479.398258
354.331010	2479.383134
354.720782	2480.671149
355.110490	2478.379945
355.500135	2479.120994
355.889717	2479.688124
356.279235	2481.593680
356.668689	2482.291880
357.058080	2481.366828
357.447408	2480.522435
357.836672	2477.737198
358.225873	2478.873978
358.615010	2479.972949
359.004084	2482.831284
359.393095	2480.046046
359.782043	2482.760708
360.170927	2486.602067
360.559748	2482.256592
360.948505	2486.281953
361.337199	2485.273723
361.725830	2485.818167
362.114398	2485.997128
362.502903	2486.042499
362.891344	2491.313025
363.279722	2487.774135
363.668037	2489.094917
364.056289	2489.523415
364.444478	2490.783704
364.832603	2493.684888
365.220665	2491.368478
365.608665	2491.832264
365.996601	2492.026348
366.384474	2492.389311
366.772284	2493.155567
367.160031	2497.609426
367.547715	2498.247132
367.935336	2500.399705
368.322893	2504.021774
368.710388	2504.001609
369.097820	2512.422857
369.485189	2516.743126
369.872495	2520.246728
370.259738	2526.477594
370.646918	2534.235929
371.034035	2542.755479
371.421090	2551.146480
371.808081	2560.535629
372.195010	2570.275138
372.581875	2582.512539
372.968678	2596.405959
373.355418	2605.603544
373.742096	2622.655247
374.128710	2639.921199
374.515262	2654.611122
374.901751	2671.133503
375.288177	2682.995338
375.674540	2704.677341
376.060841	2725.555280
376.447079	2744.656212
376.833254	2763.384098
377.219367	2775.787857
377.605417	2812.595842
377.991404	2819.998776
378.377329	2841.257322
378.763191	2861.374047
379.148991	2899.656569
379.534727	2924.206988
379.920402	2951.890484
380.306013	2964.395067
380.691563	3015.154445
381.077049	3033.579862
381.462474	3051.932183
381.847835	3088.483068
382.233134	3110.074330
382.618371	3108.320009
383.003545	3175.692509
383.388657	3177.174609
383.773706	3205.808362
384.158693	3220.442832
384.543618	3238.349011
384.928480	3271.388733
385.313280	3306.303764
385.698017	3297.421251
386.082692	3337.052282
386.467305	3333.047086
386.851856	3351.424612
387.236344	3361.053216
387.620770	3376.738766
388.005133	3384.633213
388.389435	3393.702249
388.773674	3387.705796
389.157851	3404.069382
389.541965	3398.451016
389.926018	3353.020137
390.310008	3388.875344
390.693936	3383.370404
391.077802	3390.299470
391.461606	3359.876106
391.845348	3380.963253
392.229027	3355.616331
392.612645	3339.043538
392.996200	3359.727392
393.379694	3353.521732
393.763125	3367.808362
394.146494	3312.169147
394.529801	3317.570743
394.913047	3310.888694
395.296230	3261.346754
395.679351	3251.766042
396.062410	3227.583627
396.445408	3189.263296
396.828343	3169.426355
397.211217	3146.408447
397.594028	3079.245154
397.976778	3068.605799
398.359466	3047.410267
398.742092	3021.581916
399.124656	2972.080306
399.507158	2963.074284
399.889598	2945.140379
400.271977	2928.812082
400.654294	2895.043913
401.036549	2865.182638
401.418742	2834.633246
401.800874	2827.605877
402.182944	2805.971766
402.564952	2792.340486
402.946898	2768.084974
403.328783	2746.455903
403.710606	2714.749566
404.092367	2715.057077
404.474067	2695.625949
404.855705	2679.811850
405.237282	2659.463232
405.618797	2649.491830
406.000250	2639.805253
406.381642	2632.346866
406.762972	2617.977057
407.144240	2603.521548
407.525447	2597.320929
407.906593	2587.445308
408.287677	2578.043556
408.668700	2572.460478
409.049661	2565.055023
409.430560	2559.812223
409.811399	2554.085473
410.192176	2548.058773
410.572891	2545.896118
410.953545	2542.493339
411.334138	2538.800694
411.714669	2539.269522
412.095139	2534.467823
412.475547	2532.075795
412.855894	2530.044210
413.236180	2527.193438
413.616405	2526.374250
413.996568	2527.989940
414.376670	2525.703777
414.756711	2523.747809
415.136691	2524.819054
415.516609	2520.977695
415.896466	2527.357275
416.276262	2526.447347
416.655997	2522.784948
417.035670	2520.019876
417.415283	2523.493231
417.794834	2519.793024
418.174324	2520.566841
418.553753	2522.137160
418.933121	2522.868127
419.312428	2524.249404
419.691674	2521.133971
420.070859	2521.940555
420.449983	2524.065402
420.829045	2524.342665
421.208047	2526.016328
421.586988	2524.554393
421.965867	2528.708304
422.344686	2526.654034
422.723444	2523.291584
423.102141	2523.268899
423.480777	2523.944414
423.859352	2523.876358
424.237866	2522.069105
424.616319	2524.846780
424.994712	2526.059178
425.373044	2522.530370
425.751314	2527.896678
426.129524	2525.781914
426.507673	2526.190248
426.885762	2524.423323
427.263789	2525.229908
427.641756	2525.650844
428.019662	2524.574558
428.397508	2524.720752
428.775292	2526.422141
429.153016	2525.741585
429.530679	2527.137985
429.908282	2530.321473
430.285824	2528.410876
430.663305	2525.726462
431.040726	2527.137985
431.418086	2527.720238
431.795385	2527.682429
432.172624	2524.640093
432.549802	2527.538757
432.926920	2525.088756
433.303977	2529.096473
433.680974	2524.098169
434.057910	2527.518592
434.434786	2527.448016
434.811601	2526.545649
435.188355	2526.081863
435.565050	2528.690660
435.941683	2525.033303
436.318257	2525.935670
436.694770	2522.018693
437.071222	2527.211082
437.447614	2522.474918
437.823946	2524.375433
438.200218	2526.578417
438.576429	2526.119672
438.952580	2527.397604
439.328670	2528.761236
439.704700	2527.700073
440.080670	2531.213758
440.456580	2527.586647
440.832429	2527.906761
441.208218	2528.025228
441.583947	2528.420958
441.959616	2529.194776
442.335224	2529.610671
442.710773	2528.184024
443.086261	2530.586134
443.461689	2528.123530
443.837057	2530.298788
444.212365	2528.884745
444.587612	2529.242667
444.962800	2530.515558
445.337927	2530.437420
445.712995	2527.521113
446.088002	2530.510517
446.462949	2530.550846
446.837837	2528.491535
447.212664	2530.303829
447.587431	2530.331556
447.962139	2532.027904
448.336786	2535.599562
448.711374	2531.470857
449.085901	2532.554705
449.460369	2532.153933
449.834776	2531.947246
450.209124	2532.552184
450.583412	2532.486649
450.957640	2532.978162
451.331808	2534.571166
451.705917	2531.924560
452.079965	2533.767102
452.453954	2534.780374
452.827883	2531.072605
453.201752	2531.818696
453.575562	2533.018491
453.949311	2533.857843
454.323001	2532.695857
454.696632	2534.608975
455.070202	2532.617719
455.443713	2535.705426
455.817164	2534.084695
456.190556	2530.485311
456.563888	2533.595703
456.937160	2533.084026
457.310373	2535.919675
457.683526	2534.941691
458.056619	2533.731814
458.429653	2534.689633
458.802628	2534.954294
459.175542	2535.667617
459.548398	2535.743234
459.921194	2536.227185
460.293930	2534.921526
460.666607	2536.897659
461.039224	2538.336908
461.411782	2537.230375
461.784280	2538.772968
462.156719	2535.712988
462.529099	2536.607792
462.901419	2539.503935
463.273680	2533.814993
463.645882	2537.908410
464.018024	2537.737011
464.390106	2537.469830
464.762130	2538.934285
465.134094	2539.861857
465.505999	2540.802032
465.877845	2544.043494
466.249631	2545.356715
466.621358	2544.708927
466.993026	2546.359904
467.364634	2546.841335
467.736184	2542.142979
468.107674	2542.795809
468.479105	2540.817156
468.850477	2542.127856
469.221790	2544.650953
469.593043	2541.119625
469.964238	2542.647095
470.335373	2538.495704
470.706449	2543.284801
471.077467	2539.587114
471.448425	2542.876467
471.819324	2545.858310
472.190164	2546.385110
472.560945	2542.934440
472.931667	2540.552495
473.302330	2543.012578
473.672934	2538.835982
474.043479	2542.004348
474.413965	2541.890922
474.784393	2537.918492
475.154761	2539.140972
475.525070	2538.304141
475.895321	2542.445448
476.265513	2538.034439
476.635645	2541.114584
477.005719	2538.780530
477.375734	2543.141128
477.745691	2542.349667
478.115588	2541.291024
478.485427	2542.097609
478.855207	2542.402599
479.224928	2546.987528
479.594591	2544.971067
479.964194	2545.129863
480.333739	2544.247661
480.703226	2545.195398
481.072653	2546.097764
481.442022	2547.375697
481.811333	2548.767055
482.180584	2545.152548
482.549777	2547.726057
482.918912	2543.504091
483.287988	2546.987528
483.657005	2544.167002
484.025964	2546.427960
484.394864	2543.420912
484.763706	2546.208670
485.132489	2545.833104
485.501213	2545.449976
485.869879	2543.559543
486.238487	2543.695655
486.607036	2545.223124
486.975527	2543.834286
487.343959	2545.303783
487.712333	2545.409647
488.080648	2548.605738
488.448905	2546.158258
488.817104	2544.056097
489.185244	2545.061807
489.553326	2546.536345
489.921350	2547.816798
490.289315	2548.220090
490.657222	2549.344268
491.025070	2551.695966
491.392861	2550.274360
491.760593	2547.431150
492.128267	2547.607590
492.495883	2546.919472
492.863440	2547.935265
493.230939	2545.490305
493.598380	2548.109185
493.965763	2540.381096
494.333088	2543.504091
494.700354	2547.400903
495.067563	2542.342105
495.434713	2542.727753
495.801805	2543.735984
496.168839	2547.272353
496.535815	2547.161448
496.902733	2544.550130
497.269593	2547.370656
497.636395	2546.639688
498.003139	2543.604914
498.369825	2545.558361
498.736453	2544.366128
499.103023	2546.430481
499.469535	2544.071221
499.835989	2546.702703
500.202385	2542.712630
500.568723	2544.519883
500.935003	2548.026006
501.301226	2543.352856
501.667390	2545.167672
502.033497	2545.951571
502.399546	2544.915614
502.765537	2546.909390
503.131470	2546.473330
503.497345	2545.848227
503.863163	2546.362425
504.228923	2547.647919
504.594625	2547.821839
504.960269	2546.606921
505.325856	2546.707744
505.691385	2547.983156
506.056856	2544.015768
506.422270	2546.672456
506.787625	2545.036602
507.152924	2544.897970
507.518164	2544.613145
507.883347	2548.174720
508.248472	2545.916283
508.613540	2544.497198
508.978550	2546.304452
509.343503	2547.405944
509.708398	2549.182951
510.073236	2545.810419
510.438016	2548.555327
510.802738	2547.221942
511.167403	2547.675646
511.532010	2547.607590
511.896561	2548.845193
512.261053	2547.239586
512.625488	2544.716488
512.989866	2544.822353
513.354186	2544.918134
513.718449	2543.509132
514.082655	2548.756973
514.446803	2548.278063
514.810894	2548.058773
515.174927	2550.778476
515.538904	2549.152704
515.902822	2547.302600
516.266684	2547.844524
516.630488	2547.501726
516.994235	2548.847714
517.357925	2547.589946
517.721558	2550.297046
518.085133	2545.238248
518.448651	2548.575492
518.812112	2547.501726
519.175516	2546.659853
519.538863	2550.077755
519.902152	2546.246478
520.265385	2550.397869
520.628560	2549.243444
520.991678	2549.215718
521.354739	2550.347457
521.717743	2549.162786
522.080690	2548.210008
522.443580	2549.429967
522.806413	2548.749411
523.169189	2546.795964
523.531908	2550.357539
523.894569	2548.071376
524.257174	2549.276212
524.619722	2546.158258
524.982213	2549.187992
525.344647	2547.040460
525.707025	2549.772766
526.069345	2547.244627
526.431608	2548.083979
526.793815	2552.454659
527.155964	2549.119936
527.518057	2550.067673
527.880093	2549.780327
528.242072	2547.741181
528.603995	2549.863506
528.965860	2549.089689
529.327669	2547.905018
529.689421	2548.152035
530.051117	2549.167827
530.412755	2547.537014
530.774337	2549.649257
531.135862	2548.567930
531.497331	2543.569626
531.858743	2546.364946
532.220098	2545.399565
532.581396	2544.683721
532.942638	2542.821014
533.303824	2550.155893
533.664953	2548.116747
534.026025	2549.435008
534.387040	2549.261088
534.747999	2549.291335
535.108902	2549.361912
535.469748	2547.922662
535.830537	2549.505584
536.191270	2548.507436
536.551947	2551.612787
536.912567	2548.988866
537.273131	2549.319062
537.633638	2549.248486
537.994089	2549.218239
538.354483	2546.856458
538.714821	2550.380225
539.075103	2548.837632
539.435328	2546.942158
539.795497	2551.411141
540.155609	2549.036757
540.515665	2548.817467
540.875665	2548.101623
541.235609	2546.692621
541.595496	2548.888043
541.955328	2549.709751
542.315102	2548.174720
542.674821	2549.896274
543.034483	2552.121943
543.394090	2547.100954
543.753640	2549.838301
544.113134	2549.193033
544.472571	2550.349978
544.831953	2548.351160
545.191278	2545.691952
545.550548	2550.692776
545.909761	2551.885009
546.268918	2552.162272
546.628019	2553.382232
546.987064	2546.869061
547.346053	2547.295038
547.704986	2547.574823
548.063863	2550.765873
548.422684	2549.452652
548.781449	2547.000131
549.140158	2551.040616
549.498811	2550.203784
549.857408	2550.082797
550.215949	2545.893598
550.574434	2544.285470
550.932864	2548.330996
551.291237	2545.515511
551.649555	2550.221428
552.007817	2547.990718
552.366022	2550.075235
552.724173	2548.278063
553.082267	2547.211859
553.440305	2550.838970
553.798288	2549.825698
554.156215	2550.120605
554.514086	2551.063301
554.871902	2549.704710
555.229661	2551.345606
555.587365	2547.738660
555.945014	2550.591953
556.302606	2548.792261
556.660143	2550.269319
557.017625	2548.023485
557.375050	2546.821170
557.732421	2550.866696
558.089735	2551.902653
558.446994	2551.459032
558.804197	2549.772766
559.161345	2549.951727
559.518437	2548.981304
559.875474	2547.413506
560.232455	2550.397869
560.589381	2548.154555
560.946251	2552.394166
561.303065	2551.632951
561.659825	2549.185471
562.016528	2548.948537
562.373177	2546.596839
562.729770	2548.948537
563.086307	2550.964998
563.442789	2549.061963
563.799216	2551.832077
564.155587	2551.028013
564.511904	2549.140101
564.868164	2549.934082
565.224370	2550.077755
565.580520	2550.680173
565.936615	2552.036244
566.292654	2548.454504
566.648638	2549.009031
567.004567	2550.677653
567.360441	2551.451470
567.716260	2547.148845
568.072023	2548.441901
568.427732	2544.300593
568.783385	2547.889895
569.138982	2543.826725
569.494525	2547.020296
569.850013	2544.091385
570.205445	2548.303269
570.560823	2548.595656
570.916145	2549.724875
571.271412	2548.439380
571.626625	2546.155738
571.981782	2550.639844
572.336884	2550.770914
572.691931	2552.162273
573.046923	2549.671943
573.401860	2549.510626
573.756743	2551.655637
574.111570	2549.790410
574.466342	2550.569268
574.821059	2551.779145
575.175722	2551.542211
575.530330	2549.074566
575.884882	2551.083466
576.239380	2549.001469
576.593823	2549.119936
576.948211	2549.006510
577.302544	2550.307128
577.656823	2546.737991
578.011047	2550.284443
578.365216	2552.318548
578.719330	2550.266799
579.073389	2548.469627
579.427394	2547.456355
579.781344	2547.625234
580.135239	2548.320913
580.489080	2551.663198
580.842866	2549.573640
581.196597	2550.042467
581.550273	2549.818136
581.903895	2549.636654
582.257463	2551.040616
582.610975	2544.454348
582.964434	2549.989535
583.317837	2547.620193
583.671186	2549.603887
584.024481	2547.068187
584.377721	2548.484751
584.730906	2548.152035
585.084037	2550.082797
585.437113	2547.408464
585.790135	2548.220090
586.143103	2546.730429
586.496016	2549.346788
586.848874	2546.165820
587.201679	2546.828732
587.554428	2545.913762
587.907124	2546.662374
588.259765	2543.965356
588.612352	2549.329144
588.964884	2548.986346
589.317362	2549.145142
589.669786	2548.099103
590.022155	2550.511295
590.374470	2548.026006
590.726731	2549.659340
591.078937	2549.379556
591.431090	2549.989535
591.783188	2547.902497
592.135232	2549.419885
592.487222	2547.194215
592.839157	2549.583722
593.191038	2547.816798
593.542866	2548.986346
593.894639	2546.357384
594.246358	2547.105995
594.598022	2545.281097
594.949633	2547.237065
595.301190	2547.204298
595.652692	2547.574822
596.004141	2549.729916
596.355535	2549.646737
596.706876	2543.418391
597.058162	2546.032229
597.409395	2545.581046
597.760573	2545.079451
598.111698	2546.453166
598.462768	2545.860830
598.813785	2547.211859
599.164748	2547.312682
599.515657	2546.601880
599.866511	2549.422405
600.217312	2547.302600
600.568060	2543.461241
600.918753	2548.242775
601.269392	2548.381407
601.619978	2544.900490
601.970510	2546.750594
602.320988	2546.624565
602.671412	2546.329658
603.021783	2544.212373
603.372100	2550.778476
603.722363	2544.918134
604.072572	2546.516180
604.422728	2549.702189
604.772830	2543.335212
605.122878	2541.056611
605.472872	2544.267826
605.822813	2543.602393
606.172701	2543.763710
606.522534	2547.446273
606.872314	2548.895605
607.222041	2545.031560
607.571714	2546.964843
607.921333	2547.768907
608.270899	2545.661705
608.620411	2544.719009
608.969870	2546.760676
609.319276	2547.161448
609.668627	2554.055226
610.017926	2552.520194
610.367171	2554.667726
610.716362	2553.795606
611.065500	2550.728064
611.414585	2551.121274
611.763616	2549.896274
612.112594	2549.177909
612.461518	2548.822508
612.810389	2548.157076
613.159207	2548.993907
613.507971	2547.466438
613.856682	2551.383414
614.205340	2546.722868
614.553945	2546.806047
614.902496	2546.077600
615.250994	2546.768238
615.599439	2547.126160
615.947830	2547.839483
616.296169	2547.277394
616.644454	2549.477858
616.992686	2547.741181
617.340864	2544.199770
617.688990	2545.079451
618.037063	2546.932075
618.385082	2547.332847
618.733048	2550.493651
619.080961	2545.240768
619.428821	2545.780172
619.776628	2545.119781
620.124382	2548.756973
620.472083	2545.036602
620.819731	2547.746222
621.167326	2545.066848
621.514868	2545.339071
621.862357	2546.097764
622.209793	2546.498536
622.557176	2547.932744
622.904506	2544.567774
623.251783	2542.286652
623.599007	2544.464431
623.946179	2542.274049
624.293297	2541.384286
624.640363	2547.867209
624.987376	2546.692621
625.334336	2543.501570
625.681243	2545.719678
626.028097	2545.260933
626.374899	2544.784544
626.721647	2547.751263
627.068343	2545.167672
627.414987	2544.340922
627.761577	2544.494677
628.108115	2544.600542
628.454600	2543.776313
628.801032	2545.071890
629.147412	2546.453166
629.493739	2544.270346
629.840014	2546.009544
630.186236	2545.442414
630.532405	2545.639019
630.878521	2542.110212
631.224585	2550.365101
631.570597	2543.347815
631.916556	2544.598021
632.262462	2544.477033
632.608316	2540.214738
632.954117	2541.699358
633.299866	2543.463762
633.645562	2543.670449
633.991206	2544.146838
634.336797	2543.494008
634.682336	2544.232537
635.027823	2543.403268
635.373257	2541.890922
635.718639	2541.379244
636.063968	2542.647095
636.409245	2542.226158
636.754470	2543.471323
637.099642	2544.159441
637.444762	2543.453679
637.789829	2540.234903
638.134845	2543.950233
638.479808	2541.666590
638.824719	2543.088196
639.169577	2545.069369
639.514383	2540.759183
639.859137	2541.613658
640.203839	2543.814122
640.548489	2541.280942
640.893086	2536.930426
641.237632	2538.475540
641.582125	2540.426466
641.926566	2539.108205
642.270955	2543.451159
642.615292	2541.046528
642.959576	2543.262115
643.303809	2540.449152
643.647990	2544.048535
643.992118	2543.330171
644.336195	2541.911086
644.680219	2542.047197
645.024192	2541.913607
645.368112	2540.902855
645.711981	2540.708771
646.055797	2540.481919
646.399562	2541.674152
646.743274	2541.704399
647.086935	2544.214893
647.430544	2544.207332
647.774101	2543.357897
648.117606	2541.137269
648.461059	2542.027033
648.804460	2540.953267
649.147810	2542.498381
649.491108	2539.819007
649.834354	2543.015099
650.177548	2541.502753
650.520690	2543.741025
650.863781	2541.575849
651.206820	2543.703216
651.549807	2542.125335
651.892742	2542.011909
652.235626	2538.830941
652.578458	2542.808412
652.921238	2542.601724
653.263967	2543.607434
653.606644	2541.593493
653.949269	2542.984852
654.291843	2539.609799
654.634365	2542.205994
654.976836	2541.727084
655.319255	2541.104502
655.661622	2540.854964
656.003938	2541.374203
656.346203	2541.190201
656.688416	2540.524769
657.030577	2540.907897
657.372687	2539.587114
657.714746	2540.013092
658.056753	2540.610468
658.398708	2535.460930
658.740612	2539.645087
659.082465	2535.844057
659.424266	2537.769778
659.766016	2537.371527
660.107715	2537.789943
660.449362	2540.383617
660.790958	2540.945705
661.132503	2541.144831
661.473996	2541.724563
661.815438	2541.225489
662.156829	2543.627599
662.498168	2541.711961
662.839456	2538.480581
663.180693	2540.580222
663.521879	2542.344625
663.863013	2541.296065
664.204097	2541.258257
664.545129	2543.153731
664.886110	2542.763041
665.227040	2539.912269
665.567918	2542.717671
665.908746	2539.272042
666.249522	2544.557692
666.590248	2539.246836
666.930922	2541.492670
667.271545	2541.704399
667.612118	2540.055942
667.952639	2541.137269
668.293109	2542.662218
668.633528	2541.853113
668.973896	2540.907897
669.314213	2542.886549
669.654480	2539.559388
669.994695	2539.786240
670.334859	2542.437887
670.674973	2540.330684
671.015035	2541.933771
671.355047	2538.994779
671.695008	2540.270191
672.034918	2539.811446
672.374777	2540.000489
672.714585	2542.213555
673.054342	2540.880170
673.394049	2542.589121
673.733705	2542.352187
674.073310	2541.646426
674.412864	2542.624409
674.752368	2541.356559
675.091820	2540.219779
675.431223	2537.255581
675.770574	2541.180119
676.109875	2537.174922
676.449125	2539.019984
676.788324	2535.092926
677.127473	2538.357073
677.466571	2536.035621
677.805619	2539.965201
678.144616	2536.920344
678.483562	2539.849254
678.822458	2539.698020
679.161303	2541.502753
679.500098	2539.692978
679.838842	2542.654656
680.177535	2538.858668
680.516179	2537.958822
680.854771	2540.744059
681.193314	2542.049718
681.531805	2540.166847
681.870247	2541.895963
682.208638	2540.809594
682.546978	2541.321271
682.885268	2542.495860
683.223508	2536.602751
683.561697	2539.607279
683.899836	2541.885880
684.237925	2540.310520
684.575963	2540.345808
684.913951	2540.973432
685.251889	2542.160623
685.589776	2540.998637
685.927614	2541.293545
686.265401	2539.047711
686.603137	2539.995448
686.940824	2540.192053
687.278460	2537.205169
687.616046	2540.986034
687.953582	2540.741538
688.291068	2541.185160
688.628504	2541.659028
688.965889	2540.166847
689.303224	2541.490150
689.640510	2540.423946
689.977745	2540.943185
690.314930	2539.718184
690.652065	2542.306817
690.989150	2541.003678
691.326185	2539.032587
691.663170	2537.154757
692.000105	2539.075437
692.336990	2539.526620
692.673825	2538.004192
693.010610	2541.157434
693.347345	2533.701567
693.684030	2534.881197
694.020665	2534.964376
694.357251	2534.331711
694.693786	2539.569470
695.030272	2537.452186
695.366707	2539.708102
695.703093	2536.146527
696.039429	2539.892104
696.375716	2541.124666
696.711952	2536.020498
697.048139	2535.791125
697.384276	2538.372196
697.720363	2540.144162
698.056400	2538.581404
698.392388	2538.130221
698.728326	2538.246167
699.064214	2540.398740
699.400053	2539.458565
699.735842	2537.686599
700.071581	2536.690971
700.407270	2538.553678
700.742910	2536.827083
701.078501	2537.608461
701.414042	2538.924202
701.749533	2536.164171
702.084974	2537.111908
702.420366	2536.020498
702.755709	2538.450334
703.091002	2540.681045
703.426246	2537.832793
703.761440	2537.056455
704.096584	2537.721887
704.431679	2534.548481
704.766725	2538.830941
705.101721	2536.199459
705.436668	2538.253729
705.771565	2536.380940
706.106413	2538.173071
706.441212	2536.111239
706.775961	2537.275745
707.110661	2535.075282
707.445311	2536.091074
707.779913	2536.005374
708.114465	2539.781199
708.448967	2537.610982
708.783421	2537.053934
709.117825	2536.973276
709.452180	2537.411856
709.786485	2535.997813
710.120742	2538.132741
710.454949	2539.420756
710.789107	2536.872453
711.123216	2534.422452
711.457275	2534.188038
711.791286	2536.151568
712.125247	2533.930940
712.459159	2538.755324
712.793023	2536.491846
713.126837	2537.510159
713.460602	2540.028215
713.794318	2538.362114
714.127985	2537.174922
714.461602	2537.996630
714.795171	2536.103677
715.128691	2537.288348
715.462162	2536.635519
715.795584	2534.684592
716.128957	2539.819007
716.462281	2536.083512
716.795556	2536.927906
717.128782	2535.007226
717.461960	2536.774150
717.795088	2534.553522
718.128167	2537.215251
718.461198	2536.940508
718.794180	2536.839685
719.127113	2536.900179
719.459997	2539.907227
719.792833	2536.456558
720.125619	2536.726259
720.458357	2535.448327
720.791046	2536.912782
721.123686	2533.840199
721.456278	2537.643749
721.788821	2536.128883
722.121315	2538.392361
722.453761	2537.714326
722.786158	2535.241640
723.118506	2535.627288
723.450805	2536.380940
723.783056	2536.070909
724.115259	2537.898328
724.447412	2533.721732
724.779518	2533.714170
725.111574	2536.829603
725.443582	2536.068389
725.775542	2535.942360
726.107453	2536.948070
726.439315	2535.319778
726.771129	2541.661549
727.102895	2536.068389
727.434612	2539.836651
727.766281	2534.674510
728.097901	2535.975128
728.429473	2532.920188
728.760996	2536.196938
729.092471	2531.543953
729.423897	2535.791125
729.755276	2535.690302
730.086606	2537.580735
730.417887	2536.761548
730.749120	2535.203831
731.080305	2535.218954
731.411442	2536.822041
731.742530	2536.030580
732.073570	2538.909079
732.404562	2537.006043
732.735506	2536.287679
733.066401	2538.543595
733.397249	2537.285828
733.728048	2535.264325
734.058798	2534.140148
734.389501	2535.511341
734.720156	2536.708615
735.050762	2534.571166
735.381320	2535.430683
735.711831	2536.648122
736.042293	2536.572504
736.372707	2536.310364
736.703073	2535.380271
737.033391	2533.867925
737.363661	2536.640560
737.693883	2536.080992
738.024056	2534.225847
738.354182	2535.113090
738.684260	2538.447813
739.014290	2537.061496
739.344272	2537.091743
739.674207	2536.791794
740.004093	2537.792463
740.333931	2536.862371
740.663722	2534.296423
740.993464	2538.568801
741.323159	2534.412370
741.652806	2536.411187
741.982405	2537.759696
742.311956	2534.099818
742.641460	2536.532175
742.970915	2535.937319
743.300323	2537.600900
743.629683	2535.723070
743.958996	2535.501259
744.288260	2535.723070
744.617477	2537.185004
744.946647	2530.336597
745.275768	2534.808100
745.604842	2532.106042
745.933869	2532.466484
746.262847	2530.868439
746.591778	2534.089736
746.920662	2532.663089
747.249498	2536.007895
747.578286	2534.024201
747.907027	2535.065199
748.235720	2534.283820
748.564365	2536.925385
748.892963	2533.867925
749.221514	2535.067720
749.550017	2536.985879
749.878473	2534.324150
750.206881	2533.026052
750.535242	2534.034283
750.863555	2534.422452
751.191821	2535.158461
751.520039	2535.188708
751.848210	2536.098636
752.176334	2534.069571
752.504411	2535.637370
752.832440	2534.487987
753.160421	2532.123686
753.488356	2536.862371
753.816243	2533.827596
754.144082	2531.768285
754.471875	2535.692823
754.799620	2535.801208
755.127318	2531.140661
755.454969	2534.268697
755.782572	2536.227185
756.110129	2535.849099
756.437638	2533.898172
756.765100	2535.292051
757.092515	2535.728111
757.419882	2534.843388
757.747203	2533.484798
758.074477	2538.359593
758.401703	2535.801208
758.728882	2534.208203
759.056014	2534.311547
759.383099	2534.551002
759.710138	2535.090405
760.037129	2536.328008
760.364073	2534.424973
760.690970	2534.188038
761.017820	2534.883718
761.344623	2533.560415
761.671379	2534.480425
761.998088	2532.148892
762.324751	2532.098480
762.651366	2533.147040
762.977935	2534.558563
763.304456	2532.469005
763.630931	2540.255067
763.957359	2538.389840
764.283740	2537.565612
764.610074	2537.603420
764.936362	2536.726259
765.262602	2535.418080
765.588796	2533.189890
765.914943	2533.167205
766.241044	2536.184335
766.567097	2534.253573
766.893104	2534.540919
767.219064	2533.784746
767.544978	2533.361289
767.870845	2532.035466
768.196665	2531.599406
768.522438	2533.620909
768.848165	2533.391536
769.173846	2535.057637
769.499479	2535.488656
769.825066	2532.879859
770.150607	2535.433203
770.476101	2532.844571
770.801548	2533.875487
771.126949	2534.046886
771.452303	2532.605116
771.777611	2532.438758
772.102872	2532.332894
772.428087	2530.996988
772.753256	2534.498069
773.078378	2533.078985
773.403453	2532.761392
773.728482	2530.906247
774.053465	2533.414221
774.378401	2532.388347
774.703291	2532.509334
775.028135	2532.675692
775.352932	2532.859694
775.677683	2533.273069
776.002388	2532.509334
776.327046	2532.247194
776.651658	2533.661238
776.976224	2534.190559
777.300743	2534.876156
777.625216	2531.937163
777.949643	2532.264838
778.274024	2533.502442
778.598359	2527.485824
778.922647	2531.022194
779.246889	2529.277955
779.571086	2526.666637
779.895236	2531.685106
780.219339	2532.902544
780.543397	2534.838347
780.867409	2532.416073
781.191374	2532.970600
781.515294	2531.924560
781.839167	2532.736186
782.162995	2532.849612
782.486776	2530.787780
782.810511	2531.367513
783.134201	2533.104190
783.457844	2531.155784
783.781441	2533.320960
784.104993	2534.261135
784.428498	2532.229550
784.751958	2531.788449
785.075372	2532.247194
785.398739	2532.728624
785.722061	2533.058820
786.045337	2531.024714
786.368568	2532.433717
786.691752	2533.615867
787.014891	2534.906403
787.337983	2532.811803
787.661030	2532.363141
787.984031	2533.099149
788.306987	2534.709798
788.629897	2530.931453
788.952760	2532.894983
789.275579	2529.267872
789.598351	2535.304654
789.921078	2531.417924
790.243759	2532.259797
790.566395	2535.216434
790.888984	2531.997657
791.211529	2534.200641
791.534027	2532.494211
791.856480	2532.559746
792.178888	2530.893644
792.501249	2531.249046
792.823566	2534.919006
793.145836	2532.285003
793.468062	2531.024714
793.790241	2531.090249
794.112375	2533.416742
794.434464	2530.760054
794.756507	2533.026052
795.078505	2531.523789
795.400457	2529.038500
795.722364	2529.696370
796.044226	2529.799714
796.366042	2528.630166
796.687812	2528.766277
797.009538	2529.434230
797.331218	2531.301978
797.652852	2533.262987
797.974442	2531.435568
798.295986	2531.813655
798.617484	2531.062523
798.938938	2531.372554
799.260346	2534.031763
799.581709	2530.069416
799.903026	2532.534540
800.224299	2531.440610
800.545526	2531.140661
800.866708	2528.957841
801.187845	2530.631504
801.508936	2531.594365
801.829983	2532.166536
802.150984	2530.686957
802.471940	2532.269879
802.792851	2532.446320
803.113717	2530.850795
803.434538	2531.712832
803.755314	2533.051258
804.076045	2534.114942
804.396731	2531.415404
804.717372	2533.245343
805.037967	2529.822399
805.358518	2530.268541
805.679024	2531.730476
805.999485	2531.211237
806.319901	2533.885569
806.640272	2529.162008
806.960598	2530.460105
807.280879	2529.106555
807.601115	2529.910619
807.921306	2530.288706
808.241453	2532.027904
808.561554	2532.111083
808.881611	2531.251566
809.201623	2529.877852
809.521590	2530.996988
809.841513	2529.189734
810.161390	2530.863397
810.481223	2530.833151
810.801011	2531.027235
811.120755	2532.547143
811.440453	2530.790301
811.760107	2531.291896
812.079716	2531.029756
812.399281	2529.018335
812.718801	2530.238294
813.038276	2527.253931
813.357707	2530.102183
813.677093	2530.475229
813.996434	2530.578572
814.315731	2532.206865
814.634983	2530.414735
814.954191	2530.639066
815.273354	2529.421627
815.592473	2531.362472
815.911547	2531.223840
816.230577	2533.247863
816.549562	2533.255425
816.868502	2531.415404
817.187399	2531.488501
817.506250	2532.295085
817.825058	2529.214940
818.143821	2532.141330
818.462539	2532.653007
818.781213	2530.172759
819.099843	2533.250384
819.418429	2534.402288
819.736970	2533.799870
820.055466	2531.052441
820.373919	2534.253573
820.692327	2533.915816
821.010691	2536.086033
821.329011	2536.882535
821.647286	2544.724050
821.965517	2546.589277
822.283704	2552.888199
822.601847	2549.951727
822.919945	2548.298228
823.237999	2547.063145
823.556010	2546.163299
823.873976	2540.131559
824.191897	2537.182484
824.509775	2537.537885
824.827609	2535.415559
825.145398	2536.615354
825.463144	2536.401105
825.780845	2535.483615
826.098502	2535.034952
826.416116	2536.522093
826.733685	2541.182639
827.051210	2538.392361
827.368692	2539.332536
827.686129	2537.101825
828.003522	2536.857329
828.320872	2528.615043
828.638177	2531.475898
828.955439	2529.305681
829.272656	2531.506145
829.589830	2526.762419
829.906960	2532.912627
830.224046	2529.608150
830.541088	2532.673172
830.858086	2531.289375
831.175041	2532.262318
831.491952	2530.689478
831.808819	2531.352389
832.125642	2531.916999
832.442421	2530.243336
832.759157	2532.915147
833.075849	2531.967410
833.392497	2536.249870
833.709101	2533.948584
834.025662	2533.396577
834.342179	2537.986548
834.658653	2534.195600
834.975083	2532.879859
835.291469	2534.147709
835.607811	2533.739376
835.924110	2527.816020
836.240366	2532.027904
836.556578	2532.141330
836.872746	2529.451874
837.188871	2527.485824
837.504952	2528.226874
837.820990	2531.783408
838.136984	2529.502286
838.452935	2528.993129
838.768842	2529.219981
839.084706	2530.475229
839.400526	2529.749303
839.716303	2528.698222
840.032037	2532.116124
840.347727	2532.128727
840.663373	2529.953469
840.978977	2529.371216
841.294537	2531.276772
841.610054	2531.707791
841.925527	2530.359282
842.240957	2532.073274
842.556344	2530.162677
842.871687	2530.636546
843.186987	2531.337266
843.502244	2531.445651
843.817458	2530.248377
844.132629	2528.042872
844.447756	2528.504138
844.762840	2527.364837
845.077881	2527.664785
845.392879	2526.470032
845.707833	2527.556401
846.022745	2526.016328
846.337613	2531.662420
846.652438	2529.900537
846.967221	2529.855167
847.281960	2529.958510
847.596656	2531.364992
847.911309	2531.584282
848.225919	2529.479601
848.540485	2529.177132
848.855009	2531.541433
849.169490	2528.708304
849.483928	2528.297450
849.798323	2528.249559
850.112675	2528.466329
850.426984	2530.258459
850.741251	2531.138140
851.055474	2528.231915
851.369654	2528.519261
851.683792	2530.049251
851.997887	2529.313243
852.311938	2529.038500
852.625947	2532.428676
852.939914	2530.482790
853.253837	2529.817358
853.567718	2530.276103
853.881555	2529.532533
854.195350	2530.321473
854.509103	2530.928932
854.822812	2529.056144
855.136479	2531.082688
855.450103	2528.914992
855.763685	2529.860208
856.077224	2527.952131
856.390720	2529.577903
856.704173	2531.143182
857.017584	2529.812317
857.330953	2530.210568
857.644278	2528.370547
857.957561	2530.646628
858.270802	2529.605630
858.584000	2530.805424
858.897155	2531.644776
859.210268	2529.051103
859.523339	2528.975485
859.836367	2529.343490
860.149352	2529.230064
860.462295	2531.238963
860.775195	2524.032634
861.088054	2524.382994
861.400869	2528.947759
861.713642	2527.178314
862.026373	2528.799045
862.339062	2529.184693
862.651708	2529.068747
862.964312	2529.378778
863.276873	2531.070085
863.589392	2530.626463
863.901869	2528.819210
864.214303	2531.533871
864.526696	2529.403983
864.839045	2529.487162
865.151353	2532.181659
865.463619	2527.836185
865.775842	2529.666123
866.088023	2529.706453
866.400162	2530.255938
866.712258	2527.879034
867.024313	2529.552697
867.336325	2529.666123
867.648296	2527.984899
867.960224	2529.245187
868.272110	2531.372554
868.583954	2528.345341
868.895755	2530.815507
869.207515	2527.523633
869.519233	2531.012112
869.830909	2529.565300
870.142542	2531.052441
870.454134	2530.724766
870.765684	2527.695032
871.077191	2529.535053
871.388657	2530.137471
871.700081	2527.632018
872.011463	2528.181504
872.322803	2527.296781
872.634101	2530.550846
872.945357	2525.597912
873.256571	2532.463964
873.567744	2529.840043
873.878874	2529.648479
874.189963	2528.884745
874.501010	2529.615712
874.812015	2529.363654
875.122979	2532.663089
875.433900	2527.657224
875.744780	2531.569159
876.055618	2529.623274
876.366415	2531.097811
876.677169	2529.000691
876.987882	2528.718387
877.298554	2523.813344
877.609183	2528.844415
877.919771	2525.597912
878.230317	2528.307533
878.540822	2532.073274
878.851285	2532.330373
879.161707	2530.313912
879.472087	2532.353058
879.782425	2531.700229
880.092722	2533.159643
880.402977	2534.621578
880.713191	2535.455889
881.023363	2537.883204
881.333494	2541.646426
881.643583	2540.784388
881.953631	2541.475026
882.263637	2536.998482
882.573602	2538.384799
882.883526	2537.338760
883.193408	2534.760209
883.503248	2534.750127
883.813048	2533.762061
884.122806	2531.511186
884.432522	2531.037317
884.742197	2533.119314
885.051831	2531.070085
885.361424	2529.078829
885.670975	2529.653521
885.980485	2530.195445
886.289954	2529.764426
886.599382	2531.259128
886.908768	2531.327184
887.218113	2529.822399
887.527417	2532.292565
887.836680	2530.664272
888.145901	2527.994981
888.455082	2529.504807
888.764221	2528.983047
889.073319	2529.751823
889.382376	2529.015815
889.691392	2529.618233
890.000366	2529.545136
890.309300	2531.813655
890.618193	2531.503624
890.927044	2527.269055
891.235855	2529.950949
891.544625	2528.413397
891.853353	2528.771319
892.162041	2528.882224
892.470687	2531.589324
892.779293	2531.473377
893.087858	2527.332069
893.396381	2524.350227
893.704864	2526.240659
894.013306	2525.565145
894.321707	2531.874149
894.630068	2532.547143
894.938387	2533.131917
895.246665	2531.233922
895.554903	2533.136958
895.863100	2532.859694
896.171256	2533.436907
896.479371	2529.348531
896.787446	2531.944725
897.095480	2532.378264
897.403473	2530.497914
897.711425	2531.750641
898.019336	2528.166380
898.327207	2529.272913
898.635038	2529.071267
898.942827	2528.471370
899.250576	2527.125382
899.558284	2526.283509
899.865952	2531.438089
900.173579	2528.597399
900.481165	2528.118489
900.788711	2527.500948
901.096216	2529.023376
901.403681	2529.882893
901.711105	2527.382481
902.018489	2529.479601
902.325832	2528.834333
902.633135	2529.096473
902.940397	2531.601927
903.247619	2526.341482
903.554800	2530.021525
903.861941	2529.035979
904.169041	2533.497400
904.476101	2530.621422
904.783121	2532.698377
905.090100	2531.980013
905.397039	2534.493028
905.703938	2531.352389
906.010796	2532.670651
906.317614	2529.358613
906.624391	2528.015146
906.931129	2531.884231
907.237826	2529.328366
907.544483	2528.778880
907.851099	2526.906092
908.157675	2529.993798
908.464211	2528.161339
908.770707	2524.088087
909.077163	2524.201513
909.383578	2524.826616
909.689954	2525.734023
909.996289	2523.100021
910.302584	2530.676875
910.608839	2528.108407
910.915054	2528.715866
911.221229	2531.052441
911.527363	2530.601258
911.833458	2526.712007
912.139513	2527.009435
912.445527	2526.117151
912.751502	2529.651000
913.057436	2526.563293
913.363331	2530.200486
913.669186	2528.708304
913.975000	2528.904909
914.280775	2530.591175
914.586510	2527.843746
914.892205	2529.116638
915.197859	2529.189734
915.503475	2529.459436
915.809050	2533.154602
916.114585	2532.053110
916.420081	2535.506300
916.725536	2529.512368
917.030952	2534.281300
917.336328	2527.412728
917.641665	2531.289375
917.946961	2531.034797
918.252218	2527.521113
918.557435	2526.911133
918.862612	2527.357275
919.167750	2528.862059
919.472848	2529.121679
919.777906	2528.413397
920.082925	2526.712007
920.387904	2524.635052
920.692843	2528.685619
920.997743	2528.327697
921.302603	2528.685619
921.607423	2530.941535
921.912204	2526.933818
922.216946	2528.564631
922.521647	2528.047913
922.826310	2526.979188
923.130932	2527.616894
923.435516	2525.912984
923.740059	2528.995650
924.044564	2527.884076
924.349028	2529.109076
924.653454	2523.278982
924.957840	2527.193438
925.262186	2523.684794
925.566493	2526.064219
925.870761	2523.142870
926.174989	2526.976668
926.479178	2526.901051
926.783328	2526.835516
927.087438	2524.569517
927.391509	2528.854498
927.695541	2527.163191
927.999533	2528.393232
928.303486	2527.606812
928.607400	2528.151257
928.911275	2526.838036
929.215110	2524.594723
929.518906	2527.029600
929.822663	2526.313756
930.126381	2526.855680
930.430060	2528.874662
930.733699	2527.760567
931.037299	2526.520443
931.340861	2528.002543
931.644383	2525.280320
931.947866	2526.384332
932.251309	2527.934487
932.554714	2529.693850
932.858080	2531.274252
933.161407	2526.641431
933.464694	2528.302491
933.767943	2526.412059
934.071153	2529.134282
934.374323	2526.777542
934.677455	2528.897347
934.980548	2523.604136
935.283602	2524.892151
935.586617	2527.485824
935.889593	2527.304343
936.192530	2527.284178
936.495428	2527.372398
936.798287	2528.836854
937.101108	2526.338962
937.403890	2524.201513
937.706632	2528.312574
938.009336	2526.666637
938.312002	2530.835671
938.614628	2524.821575
938.917216	2526.628828
939.219765	2525.993643
939.522275	2527.790814
939.824747	2527.914323
940.127179	2522.542973
940.429573	2522.525329
940.731929	2523.619259
941.034246	2521.824609
941.336524	2524.327542
941.638763	2528.536905
941.940964	2526.006246
942.243126	2528.234436
942.545250	2525.769312
942.847335	2527.379960
943.149381	2526.538088
943.451389	2526.696884
943.753359	2525.408869
944.055290	2527.327028
944.357182	2525.819723
944.659036	2526.953983
944.960851	2526.883407
945.262628	2527.329549
945.564367	2528.020187
945.866067	2525.902902
946.167729	2525.910464
946.469352	2525.119003
946.770937	2522.671522
947.072484	2527.879034
947.373992	2526.948942
947.675462	2526.291071
947.976893	2527.959693
948.278286	2527.385001
948.579641	2523.810823
948.880958	2524.332583
949.182236	2524.947603
949.483476	2527.324507
949.784678	2526.865763
950.085841	2522.900895
950.386967	2529.177132
950.688054	2524.960206
950.989103	2526.132275
951.290114	2526.316277
951.591087	2526.535567
951.892021	2527.258972
952.192917	2529.300640
952.493776	2524.975330
952.794596	2527.914322
953.095378	2526.674199
953.396122	2530.291227
953.696828	2527.430372
953.997496	2527.468180
954.298126	2528.688140
954.598718	2527.740403
954.899272	2527.505989
955.199788	2529.091432
955.500266	2526.517923
955.800706	2525.313087
956.101108	2519.397293
956.401472	2523.039527
956.701798	2523.747809
957.002087	2523.735206
957.302337	2527.387522
957.602550	2525.275278
957.902724	2525.262676
958.202861	2525.575227
958.502960	2524.022552
958.803022	2527.891637
959.103045	2523.674712
959.403031	2526.979188
959.702979	2525.991122
960.002889	2527.541277
960.302762	2521.559948
960.602596	2526.986750
960.902393	2525.708818
961.202153	2524.778725
961.501875	2527.460619
961.801559	2526.510361
962.101205	2525.560104
962.400814	2526.344003
962.700385	2525.497089
962.999918	2523.783097
963.299414	2524.385515
963.598873	2528.115969
963.898293	2524.304856
964.197677	2526.081863
964.497022	2525.300484
964.796331	2528.751154
965.095601	2524.773684
965.394835	2525.156811
965.694030	2525.103879
965.993189	2528.710825
966.292309	2525.224867
966.591393	2525.875176
966.890439	2523.894002
967.189447	2526.699404
967.488419	2524.078004
967.787353	2525.802079
968.086249	2525.618077
968.385108	2526.172604
968.683930	2524.040196
968.982714	2528.156298
969.281462	2525.718900
969.580172	2525.050947
969.878844	2523.528519
970.177480	2525.716379
970.476078	2522.212777
970.774639	2524.083046
971.073162	2526.215454
971.371649	2523.304187
971.670098	2520.397962
971.968510	2522.812675
972.266885	2522.414424
972.565223	2525.285361
972.863524	2526.810310
973.161788	2524.342665
973.460014	2526.134795
973.758204	2523.367202
974.056356	2523.765453
974.354471	2524.612367
974.652550	2526.961544
974.950591	2526.517923
975.248595	2524.193951
975.546563	2526.754857
975.844493	2526.006246
976.142386	2527.773170
976.440243	2528.037831
976.738062	2523.110103
977.035845	2525.734023
977.333590	2526.848118
977.631299	2526.913653
977.928971	2525.696215
978.226606	2523.047088
978.524204	2523.646986
978.821765	2526.165042
979.119290	2525.207223
979.416777	2526.525485
979.714228	2522.106913
980.011642	2526.890968
980.309020	2527.039682
980.606360	2524.380474
980.903664	2526.157480
981.200931	2527.236287
981.498162	2525.391225
981.795356	2525.749147
982.092513	2525.875176
982.389633	2528.519261
982.686717	2524.534229
982.983764	2526.386853
983.280775	2525.192099
983.577749	2523.891482
983.874686	2526.641431
984.171587	2523.205885
984.468451	2523.412572
984.765279	2526.762419
985.062070	2526.122192
985.358824	2526.858201
985.655543	2522.777387
985.952224	2526.858201
986.248869	2522.411903
986.545478	2515.460152
986.842050	2523.314270
987.138586	2521.570030
987.435086	2522.520288
987.731549	2520.960051
988.027975	2525.872655
988.324366	2525.053468
988.620719	2524.231760
988.917037	2526.785104
989.213318	2525.179497
989.509563	2523.886441
989.805772	2526.611184
990.101944	2524.012469
990.398080	2523.538601
990.694180	2527.695032
990.990244	2525.315608
991.286271	2523.989784
991.582262	2524.924918
991.878217	2524.234280
992.174136	2525.736544
992.470019	2521.317973
992.765865	2525.310567
993.061676	2523.200844
993.357450	2523.349558
993.653188	2522.376615
993.948890	2525.166894
994.244556	2524.942562
994.540186	2525.166894
994.835780	2524.279651
995.131337	2523.515916
995.426859	2525.481966
995.722345	2523.173117
996.017795	2523.785617
996.313208	2526.089425
996.608586	2525.156811
996.903928	2523.450381
997.199234	2524.912315
997.494504	2525.595392
997.789738	2523.180679
998.084936	2525.867614
998.380099	2525.040865
998.675225	2524.778725
998.970316	2524.375432
999.265371	2527.596730
999.560390	2521.575072
999.855373	2525.315608
1000.150320	2524.750998
1000.445232	2524.423323
1000.740108	2523.102541
1001.034948	2524.950124
1001.329752	2525.043385
1001.624521	2523.757891
1001.919254	2520.634896
1002.213951	2521.990967
1002.508613	2520.292098
1002.803239	2524.067922
1003.097829	2519.404855
1003.392384	2522.570699
1003.686903	2523.326873
1003.981386	2528.476411
1004.275834	2526.240659
1004.570246	2524.103210
1004.864623	2524.796369
1005.158964	2524.377953
1005.453270	2525.784435
1005.747540	2525.401307
1006.041775	2524.869466
1006.335974	2525.348375
1006.630138	2524.435926
1006.924266	2524.599764
1007.218359	2523.238652
1007.512416	2525.010618
1007.806438	2524.599764
1008.100425	2527.155629
1008.394376	2523.707480
1008.688292	2524.677902
1008.982172	2523.563807
1009.276017	2524.877027
1009.569827	2523.894002
1009.863602	2527.705115
1010.157341	2521.474248
1010.451045	2525.504651
1010.744714	2523.319311
1011.038347	2524.680422
1011.331945	2524.846780
1011.625508	2524.919877
1011.919036	2522.979033
1012.212528	2522.946265
1012.505986	2525.292923
1012.799408	2522.711852
1013.092795	2523.478107
1013.386147	2524.970289
1013.679464	2524.662778
1013.972745	2524.821575
1014.265992	2521.927952
1014.559204	2525.199661
1014.852380	2525.953314
1015.145521	2525.368540
1015.438628	2526.578417
1015.731699	2524.322500
1016.024736	2523.069774
1016.317737	2523.306708
1016.610703	2525.018180
1016.903635	2521.305370
1017.196531	2523.349558
1017.489393	2522.371574
1017.782219	2520.029958
1018.075011	2523.231091
1018.367768	2521.875020
1018.660490	2526.046575
1018.953177	2526.046575
1019.245829	2526.046575
