Dividing Wavelength (nm)	Counts (n)	Blue Motor Position (mm): 0.000000	Red Motor Position (mm): 46.200000	
326.493990	2129.781636
326.888308	2129.781636
327.282561	2129.781636
327.676750	2093.883579
328.070874	2095.380802
328.464933	2099.736359
328.858929	2103.406319
329.252859	2112.800509
329.646726	2125.647890
330.040528	2137.040897
330.434265	2157.157622
330.827938	2174.728563
331.221547	2191.815554
331.615091	2211.231558
332.008571	2228.494990
332.401986	2247.863103
332.795338	2269.834972
333.188625	2287.993208
333.581847	2307.941054
333.975006	2323.866059
334.368100	2343.428256
334.761129	2360.429548
335.154095	2376.367156
335.546996	2397.335835
335.939833	2424.900864
336.332606	2439.636157
336.725315	2451.659309
337.117960	2459.631894
337.510540	2468.703450
337.903056	2480.078814
338.295508	2486.014772
338.687896	2496.908706
339.080220	2505.040087
339.472480	2512.909328
339.864676	2516.037364
340.256807	2517.292611
340.648875	2522.227901
341.040879	2524.771163
341.432818	2526.233098
341.824694	2526.210412
342.216506	2526.270906
342.608253	2529.449354
342.999937	2530.076977
343.391557	2528.420958
343.783113	2532.713501
344.174605	2527.531195
344.566033	2523.934332
344.957397	2520.332427
345.348697	2522.764784
345.739934	2523.946934
346.131106	2519.271264
346.522215	2519.344361
346.913260	2514.308248
347.304241	2514.522497
347.695159	2510.315654
348.086012	2510.232475
348.476802	2509.584687
348.867528	2507.911024
349.258191	2504.593945
349.648789	2505.849192
350.039324	2503.056393
350.429796	2504.077227
350.820203	2503.868019
351.210548	2500.558501
351.600828	2498.975579
351.991045	2498.292502
352.381198	2498.660507
352.771288	2496.807883
353.161314	2499.802328
353.551276	2498.526916
353.941175	2498.731083
354.331010	2499.114211
354.720782	2496.265959
355.110490	2497.314519
355.500135	2498.673110
355.889717	2497.609426
356.279235	2496.752430
356.668689	2497.808552
357.058080	2499.905672
357.447408	2496.565907
357.836672	2495.666061
358.225873	2498.320229
358.615010	2494.040289
359.004084	2502.148985
359.393095	2500.155209
359.782043	2505.002278
360.170927	2497.942142
360.559748	2506.386075
360.948505	2505.990344
361.337199	2504.909017
361.725830	2506.968328
362.114398	2507.885818
362.502903	2507.129645
362.891344	2507.961436
363.279722	2504.699809
363.668037	2508.674759
364.056289	2507.507732
364.444478	2509.735922
364.832603	2510.814729
365.220665	2511.641478
365.608665	2512.780779
365.996601	2512.238855
366.384474	2512.465707
366.772284	2515.508043
367.160031	2518.232787
367.547715	2520.118178
367.935336	2519.528363
368.322893	2524.531708
368.710388	2526.588499
369.097820	2534.460261
369.485189	2535.826413
369.872495	2541.553164
370.259738	2549.717313
370.646918	2556.540515
371.034035	2561.932029
371.421090	2570.438976
371.808081	2581.837025
372.195010	2593.514857
372.581875	2606.513473
372.968678	2618.093003
373.355418	2630.365692
373.742096	2649.469145
374.128710	2660.993222
374.515262	2675.736077
374.901751	2688.565813
375.288177	2702.562577
375.674540	2727.082749
376.060841	2743.859709
376.447079	2766.512134
376.833254	2787.982408
377.219367	2794.803089
377.605417	2834.686178
377.991404	2844.523990
378.377329	2867.385623
378.763191	2884.021430
379.148991	2922.780342
379.534727	2944.600976
379.920402	2973.945533
380.306013	2984.201760
380.691563	3036.004657
381.077049	3057.444684
381.462474	3073.057138
381.847835	3113.920731
382.233134	3135.935450
382.618371	3133.742548
383.003545	3205.573949
383.388657	3210.163919
383.773706	3243.856471
384.158693	3258.967330
384.543618	3285.574540
384.928480	3322.460663
385.313280	3365.265100
385.698017	3364.367774
386.082692	3420.974891
386.467305	3425.917742
386.851856	3458.549131
387.236344	3480.112667
387.620770	3509.018643
388.005133	3538.406049
388.389435	3563.732806
388.773674	3576.648242
389.157851	3619.188019
389.541965	3636.993374
389.926018	3598.214298
390.310008	3670.086029
390.693936	3686.595808
391.077802	3732.319073
391.461606	3720.573185
391.845348	3780.343625
392.229027	3778.480919
392.612645	3795.204947
392.996200	3874.247718
393.379694	3911.590066
393.763125	3975.146413
394.146494	3945.418728
394.529801	4005.821834
394.913047	4052.278587
395.296230	4019.647198
395.679351	4073.030497
396.062410	4097.361626
396.445408	4081.424018
396.828343	4114.657825
397.211217	4135.150115
397.594028	4057.763362
397.976778	4122.355667
398.359466	4152.055625
398.742092	4178.075540
399.124656	4103.043006
399.507158	4182.821787
399.889598	4204.352555
400.271977	4266.305815
400.654294	4238.430755
401.036549	4244.533071
401.418742	4216.337898
401.800874	4319.802539
402.182944	4340.239377
402.564952	4404.239346
402.946898	4391.689393
403.328783	4387.122108
403.710606	4305.067247
404.092367	4492.711596
404.474067	4457.146255
404.855705	4465.784272
405.237282	4394.310793
405.618797	4504.356661
406.000250	4534.883368
406.381642	4617.439824
406.762972	4580.788115
407.144240	4590.807408
407.525447	4591.553499
407.906593	4648.185822
408.287677	4691.723747
408.668700	4620.671204
409.049661	4676.214637
409.430560	4711.671592
409.811399	4639.736848
410.192176	4800.552176
410.572891	4738.120006
410.953545	4841.955172
411.334138	4724.937389
411.714669	4794.248213
412.095139	4687.040515
412.475547	4830.380683
412.855894	4810.568949
413.236180	4820.658818
413.616405	4773.400521
413.996568	4858.306155
414.376670	4804.280109
414.756711	4756.205146
415.136691	4784.344866
415.516609	4864.569789
415.896466	4903.051437
416.276262	4936.537301
416.655997	4917.194394
417.035670	5097.382876
417.415283	5190.059448
417.794834	5132.837311
418.174324	5088.979273
418.553753	4997.086600
418.933121	5181.744065
419.312428	5249.325774
419.691674	5186.971742
420.070859	5311.334487
420.449983	5224.969439
420.829045	5339.552345
421.208047	5247.566411
421.586988	5318.031659
421.965867	5332.280481
422.344686	5461.951561
422.723444	5314.873377
423.102141	5138.800996
423.480777	5433.610194
423.859352	5202.115368
424.237866	5461.971725
424.616319	5454.493173
424.994712	5563.114915
425.373044	5440.292243
425.751314	5584.310447
426.129524	5386.863574
426.507673	5582.155353
426.885762	5662.851624
427.263789	5592.764462
427.641756	5479.530064
428.019662	5593.336633
428.397508	5606.486482
428.775292	5550.620416
429.153016	5649.782432
429.530679	5575.538839
429.908282	5662.413043
430.285824	5537.402510
430.663305	5807.726823
431.040726	5546.471546
431.418086	5547.598244
431.795385	5649.308564
432.172624	5659.408516
432.549802	5652.703781
432.926920	5669.969733
433.303977	5678.549777
433.680974	5713.817689
434.057910	5734.536831
434.434786	5738.201750
434.811601	5709.303336
435.188355	5941.634993
435.565050	5819.482794
435.941683	5796.548065
436.318257	6012.163256
436.694770	5993.962170
437.071222	6030.722264
437.447614	5962.772551
437.823946	5874.678388
438.200218	6026.533065
438.576429	5892.990379
438.952580	5990.193908
439.328670	6032.758890
439.704700	5945.373009
440.080670	5926.819042
440.456580	6202.055960
440.832429	6082.709163
441.208218	5927.849958
441.583947	6082.893165
441.959616	6089.703764
442.335224	6016.491087
442.710773	6149.093597
443.086261	6184.661458
443.461689	5973.623635
443.837057	6126.612572
444.212365	6279.863649
444.587612	6173.868348
444.962800	6326.088509
445.337927	6308.880530
445.712995	5918.438124
446.088002	6493.943808
446.462949	6320.583569
446.837837	6256.190390
447.212664	6425.316061
447.587431	6571.728812
447.962139	7112.715196
448.336786	8039.170888
448.711374	7782.901312
449.085901	6855.444951
449.460369	6769.838597
449.834776	6709.443053
450.209124	7102.605162
450.583412	7246.525063
450.957640	7393.598206
451.331808	7159.751682
451.705917	6710.015224
452.079965	6638.461086
452.453954	6849.410690
452.827883	6723.916206
453.201752	6817.583365
453.575562	6614.427385
453.949311	6823.448747
454.323001	6708.434822
454.696632	6783.505165
455.070202	6924.095384
455.443713	7074.919145
455.817164	7179.883530
456.190556	7259.339676
456.563888	7335.524114
456.937160	7377.542131
457.310373	7034.542023
457.683526	7056.309726
458.056619	6946.936852
458.429653	6938.868485
458.802628	6874.984463
459.175542	6984.886658
459.548398	7334.248702
459.921194	7497.829103
460.293930	7496.707446
460.666607	8030.726956
461.039224	8334.895055
461.411782	8471.195252
461.784280	8484.317376
462.156719	8377.777630
462.529099	8260.870752
462.901419	7845.726692
463.273680	7730.054896
463.645882	7747.499809
464.018024	7608.353881
464.390106	7779.843852
464.762130	8163.263931
465.134094	8637.281107
465.505999	9656.262137
465.877845	10872.231294
466.249631	11533.449197
466.621358	11144.289764
466.993026	10514.344659
467.364634	10263.547255
467.736184	9898.182069
468.107674	9567.721831
468.479105	9593.262837
468.850477	9358.612249
469.221790	9140.703333
469.593043	8806.903331
469.964238	8665.791352
470.335373	8679.886419
470.706449	8735.676868
471.077467	8715.653405
471.448425	10030.177120
471.819324	11097.369225
472.190164	11129.632610
472.560945	9879.398729
472.931667	9082.984642
473.302330	8947.818704
473.672934	8599.240560
474.043479	8952.895146
474.413965	8891.592195
474.784393	8780.026419
475.154761	8936.599617
475.525070	9024.275364
475.895321	8850.441256
476.265513	9022.672277
476.635645	9198.273310
477.005719	9191.203092
477.375734	9315.938882
477.745691	9540.630670
478.115588	9678.894397
478.485427	9919.554040
478.855207	10457.006575
479.224928	11275.498396
479.594591	11900.079714
479.964194	11715.518030
480.333739	11653.854636
480.703226	11566.405741
481.072653	11660.592138
481.442022	11903.396793
481.811333	12089.803539
482.180584	11891.504711
482.549777	11604.103489
482.918912	11433.478075
483.287988	11447.530292
483.657005	11464.163579
484.025964	11140.355144
484.394864	11275.347162
484.763706	11247.915723
485.132489	11002.882878
485.501213	10968.565224
485.869879	11037.341686
486.238487	10884.546833
486.607036	10991.189922
486.975527	10774.513568
487.343959	10967.746036
487.712333	11007.256079
488.080648	10946.943715
488.448905	10981.596606
488.817104	10925.581825
489.185244	11190.658298
489.553326	11345.938439
489.921350	11880.371323
490.289315	12950.136936
490.657222	13291.168473
491.025070	13196.961911
491.392861	13060.313874
491.760593	12698.517824
492.128267	12343.653361
492.495883	12017.972137
492.863440	11675.340034
493.230939	11339.793272
493.598380	11277.285485
493.965763	11136.634772
494.333088	11042.420648
494.700354	10961.237907
495.067563	11018.306289
495.434713	10850.463592
495.801805	10983.509724
496.168839	10908.877962
496.535815	10841.891110
496.902733	10837.681746
497.269593	10773.974165
497.636395	10870.731551
498.003139	10860.414830
498.369825	10729.516229
498.736453	10882.343849
499.103023	10809.204268
499.469535	10838.891623
499.835989	10818.359004
500.202385	10793.233893
500.568723	10637.714297
500.935003	10862.093534
501.301226	10671.300984
501.667390	10923.731722
502.033497	11022.515652
502.399546	10889.376258
502.765537	10799.111878
503.131470	10868.236180
503.497345	11040.802438
503.863163	10644.159412
504.228923	10959.750766
504.594625	11033.817919
504.960269	10780.010946
505.325856	11003.167704
505.691385	10786.551843
506.056856	10943.994640
506.422270	10965.951385
506.787625	10853.586587
507.152924	10970.712755
507.518164	10960.423760
507.883347	10874.976202
508.248472	10795.152052
508.613540	11032.948320
508.978550	10906.332179
509.343503	10886.323840
509.708398	11007.734989
510.073236	11117.732966
510.438016	11120.805549
510.802738	11074.615977
511.167403	11125.650098
511.532010	11021.414160
511.896561	11247.673748
512.261053	11322.045890
512.625488	11190.179388
512.989866	11174.435864
513.354186	11162.276601
513.718449	11067.790255
514.082655	11257.834193
514.446803	11157.643781
514.810894	11268.392890
515.174927	11146.192800
515.538904	11172.454691
515.902822	11324.609317
516.266684	11205.817047
516.630488	11147.248922
516.994235	11205.960720
517.357925	11266.089082
517.721558	11350.346928
518.085133	11378.161494
518.448651	11384.057124
518.812112	11262.572878
519.175516	11279.145671
519.538863	11395.185471
519.902152	11317.042545
520.265385	11480.484314
520.628560	11386.980993
520.991678	11361.853362
521.354739	11428.401633
521.717743	11357.422187
522.080690	11341.958448
522.443580	11470.969137
522.806413	11436.462438
523.169189	11462.631068
523.531908	11515.457319
523.894569	11341.222439
524.257174	11344.529436
524.619722	11464.324896
524.982213	11406.966647
525.344647	11462.515122
525.707025	11405.514795
526.069345	11506.453818
526.431608	11416.509552
526.793815	11531.556244
527.155964	11321.693009
527.518057	11371.716379
527.880093	11320.727628
528.242072	11394.242775
528.603995	11297.848352
528.965860	11221.351363
529.327669	11275.737851
529.689421	11223.072917
530.051117	11195.079389
530.412755	11292.361056
530.774337	11181.758140
531.135862	11168.527632
531.497331	11193.806498
531.858743	11044.555577
532.220098	11209.234949
532.581396	11072.904505
532.942638	11061.791282
533.303824	11025.661332
533.664953	11038.785976
534.026025	10950.575866
534.387040	11054.847092
534.747999	11053.987576
535.108902	11108.658889
535.469748	10870.061078
535.830537	10976.263066
536.191270	10951.647111
536.551947	10977.268776
536.912567	10969.515481
537.273131	10900.393700
537.633638	10875.079546
537.994089	10871.593588
538.354483	10807.802827
538.714821	10967.718310
539.075103	10969.061777
539.435328	10933.340161
539.795497	10762.422361
540.155609	10918.539333
540.515665	11007.591316
540.875665	10742.966027
541.235609	10810.477160
541.595496	10806.192179
541.955328	10962.500716
542.315102	10843.912613
542.674821	10804.531119
543.034483	10793.939654
543.394090	10803.860645
543.753640	10726.098327
544.113134	10948.171236
544.472571	10806.124123
544.831953	10948.541761
545.191278	10753.325598
545.550548	10779.726121
545.909761	10926.859758
546.268918	10895.435725
546.628019	10982.110804
546.987064	10836.754174
547.346053	10765.235324
547.704986	10862.819460
548.063863	10850.040135
548.422684	10844.005874
548.781449	10759.125446
549.140158	10857.697648
549.498811	10737.733310
549.857408	10592.888357
550.215949	10818.364045
550.574434	10669.695377
550.932864	10772.789493
551.291237	10830.057001
551.649555	10780.136975
552.007817	10788.832966
552.366022	10759.541341
552.724173	10743.094577
553.082267	10733.392876
553.440305	10862.600170
553.798288	10669.092959
554.156215	10821.572739
554.514086	10802.363423
554.871902	10646.569083
555.229661	10684.450834
555.587365	10661.448049
555.945014	10558.729498
556.302606	10684.677686
556.660143	10574.523433
557.017625	10725.085055
557.375050	10627.165682
557.732421	10761.537638
558.089735	10679.601244
558.446994	10674.509679
558.804197	10711.214320
559.161345	10712.131810
559.518437	10570.518237
559.875474	10655.958232
560.232455	10683.278766
560.589381	10630.921342
560.946251	10630.621393
561.303065	10737.014945
561.659825	10672.599081
562.016528	10597.896743
562.373177	10484.914403
562.729770	10597.261558
563.086307	10514.493373
563.442789	10604.757753
563.799216	10484.735442
564.155587	10526.619869
564.511904	10486.880453
564.868164	10467.923194
565.224370	10490.936061
565.580520	10413.433362
565.936615	10417.032746
566.292654	10285.135997
566.648638	10418.121635
567.004567	10368.685560
567.360441	10360.511329
567.716260	10272.167628
568.072023	10364.070384
568.427732	10313.953753
568.783385	10225.607532
569.138982	10294.608325
569.494525	10313.351335
569.850013	10189.596049
570.205445	10276.077043
570.560823	10161.723509
570.916145	10077.309388
571.271412	10154.360904
571.626625	10099.581206
571.981782	10077.838709
572.336884	10051.067662
572.691931	10058.447911
573.046923	10003.985806
573.401860	9960.465524
573.756743	9895.462366
574.111570	9941.382237
574.466342	9926.888919
574.821059	9954.839597
575.175722	9841.940436
575.530330	9851.758083
575.884882	9842.079068
576.239380	9770.030897
576.593823	9753.059852
576.948211	9764.846070
577.302544	9640.115321
577.656823	9662.235904
578.011047	9660.554679
578.365216	9634.708683
578.719330	9553.127691
579.073389	9570.255011
579.427394	9517.043112
579.781344	9492.628803
580.135239	9438.910268
580.489080	9452.488616
580.842866	9351.794088
581.196597	9354.695273
581.550273	9397.976099
581.903895	9365.841264
582.257463	9436.372047
582.610975	9310.070979
582.964434	9339.942336
583.317837	9264.952652
583.671186	9241.443231
584.024481	9232.200275
584.377721	9150.750352
584.730906	9133.514648
585.084037	9160.688987
585.437113	9095.408566
585.790135	9114.426318
586.143103	9016.559878
586.496016	8994.272937
586.848874	9055.220487
587.201679	9036.495121
587.554428	8924.757946
587.907124	8970.256880
588.259765	8942.833003
588.612352	8946.298797
588.964884	8824.396135
589.317362	8839.615378
589.669786	8839.741407
590.022155	8886.122543
590.374470	8906.133403
590.726731	8837.608999
591.078937	8692.330507
591.431090	8809.131521
591.783188	8676.463475
592.135232	8666.101383
592.487222	8669.012650
592.839157	8718.617604
593.191038	8656.926483
593.542866	8596.909026
593.894639	8492.955393
594.246358	8550.114516
594.598022	8566.858708
594.949633	8467.411866
595.301190	8439.655273
595.652692	8470.650808
596.004141	8582.627438
596.355535	8354.437088
596.706876	8331.530085
597.058162	8267.462061
597.409395	8343.767486
597.760573	8408.243844
598.111698	8316.356212
598.462768	8303.309706
598.813785	8263.691278
599.164748	8232.773881
599.515657	8219.843322
599.866511	8136.407184
600.217312	8264.260928
600.568060	8119.045450
600.918753	8222.459680
601.269392	8192.611008
601.619978	8104.461392
601.970510	8169.734252
602.320988	8168.247112
602.671412	8221.607725
603.021783	8156.856625
603.372100	8136.243347
603.722363	8135.524982
604.072572	8114.672249
604.422728	8129.480639
604.772830	8052.968526
605.122878	8064.643839
605.472872	8052.650934
605.822813	8087.215605
606.172701	8029.078498
606.522534	8108.043132
606.872314	8100.917461
607.222041	8072.782782
607.571714	8127.776729
607.921333	8084.800892
608.270899	8093.915298
608.620411	8179.453597
608.969870	8082.582785
609.319276	8082.023217
609.668627	8093.895134
610.017926	8136.019015
610.367171	8180.628186
610.716362	8154.502406
611.065500	8146.713823
611.414585	8171.599479
611.763616	8160.987850
612.112594	8144.162999
612.461518	8159.160432
612.810389	8216.707724
613.159207	8156.407962
613.507971	8104.816794
613.856682	8220.044968
614.205340	8176.983432
614.553945	8261.417717
614.902496	8154.109196
615.250994	8215.066828
615.599439	8191.708642
615.947830	8209.393010
616.296169	8176.262547
616.644454	8188.210081
616.992686	8190.478600
617.340864	8247.247034
617.688990	8147.901015
618.037063	8241.646312
618.385082	8189.417437
618.733048	8278.978577
619.080961	8217.479020
619.428821	8232.978048
619.776628	8230.646514
620.124382	8187.864762
620.472083	8169.482195
620.819731	8203.031073
621.167326	8096.183818
621.514868	8102.828058
621.862357	7985.890933
622.209793	8005.763162
622.557176	7942.058101
622.904506	7909.950992
623.251783	7844.433636
623.599007	7796.237684
623.946179	7801.596431
624.293297	7760.256449
624.640363	7677.344592
624.987376	7657.361458
625.334336	7608.784899
625.681243	7556.639204
626.028097	7545.278964
626.374899	7521.928339
626.721647	7514.641351
627.068343	7449.358409
627.414987	7417.647031
627.761577	7371.086934
628.108115	7408.940958
628.454600	7301.440873
628.801032	7352.938780
629.147412	7316.261865
629.493739	7303.434649
629.840014	7238.136583
630.186236	7296.679503
630.532405	7179.540732
630.878521	7228.578556
631.224585	7188.085487
631.570597	7106.529700
631.916556	7148.250290
632.262462	7140.776779
632.608316	7104.596418
632.954117	7077.805206
633.299866	7066.775161
633.645562	7060.067906
633.991206	6977.332489
634.336797	6915.177583
634.682336	6877.936059
635.027823	6841.531366
635.373257	6837.742939
635.718639	6768.169975
636.063968	6782.260000
636.409245	6674.926273
636.754470	6673.592888
637.099642	6630.269211
637.444762	6576.250727
637.789829	6586.703560
638.134845	6526.360948
638.479808	6509.284040
638.824719	6514.231932
639.169577	6443.386077
639.514383	6465.398275
639.859137	6394.297841
640.203839	6403.316465
640.548489	6388.881121
640.893086	6367.640219
641.237632	6336.266598
641.582125	6355.440627
641.926566	6327.288303
642.270955	6338.923287
642.615292	6335.155024
642.959576	6350.016346
643.303809	6339.447567
643.647990	6347.178176
643.992118	6337.937741
644.336195	6285.431603
644.680219	6303.403317
645.024192	6299.143542
645.368112	6394.809518
645.711981	6416.541932
646.055797	6492.451627
646.399562	6456.755217
646.743274	6580.523105
647.086935	6635.133925
647.430544	6625.412060
647.774101	6650.206975
648.117606	6651.033724
648.461059	6644.235728
648.804460	6605.844821
649.147810	6512.694380
649.491108	6484.847046
649.834354	6459.164888
650.177548	6372.724223
650.520690	6289.603158
650.863781	6269.950220
651.206820	6286.696933
651.549807	6210.515016
651.892742	6151.649462
652.235626	6154.228012
652.578458	6137.461135
652.921238	6046.677516
653.263967	6084.163536
653.606644	6031.075145
653.949269	6031.871647
654.291843	5969.419313
654.634365	6019.483011
654.976836	5976.171938
655.319255	5973.626155
655.661622	5951.707218
656.003938	5945.153718
656.346203	5906.477986
656.688416	5940.530980
657.030577	5893.711264
657.372687	5862.627509
657.714746	5850.836251
658.056753	5893.002982
658.398708	5830.996790
658.740612	5823.445141
659.082465	5868.500454
659.424266	5866.047932
659.766016	5864.064238
660.107715	5840.658161
660.449362	5852.991344
660.790958	5852.908165
661.132503	5836.141287
661.473996	5871.079004
661.815438	5860.500143
662.156829	5857.888825
662.498168	5851.967990
662.839456	5825.363300
663.180693	5862.546851
663.521879	5862.161203
663.863013	5854.912023
664.204097	5870.988263
664.545129	5912.545015
664.886110	5910.155508
665.227040	5937.710455
665.567918	5909.555611
665.908746	5932.371873
666.249522	5935.946051
666.590248	5922.788639
666.930922	5957.267611
667.271545	5961.630730
667.612118	5968.156503
667.952639	5940.283964
668.293109	5962.510411
668.633528	5916.323360
668.973896	5919.282517
669.314213	5911.423358
669.654480	5893.406274
669.994695	5887.140120
670.334859	5879.946393
670.674973	5871.779724
671.015035	5874.174272
671.355047	5872.286360
671.695008	5856.094174
672.034918	5827.036963
672.374777	5838.682029
672.714585	5826.492519
673.054342	5829.655843
673.394049	5821.237116
673.733705	5854.851530
674.073310	5837.651113
674.412864	5799.482016
674.752368	5789.901303
675.091820	5794.415657
675.431223	5731.716306
675.770574	5731.713785
676.109875	5679.333676
676.449125	5685.297361
676.788324	5653.815355
677.127473	5597.062045
677.466571	5585.971507
677.805619	5579.614612
678.144616	5562.520059
678.483562	5543.086411
678.822458	5515.307133
679.161303	5505.759187
679.500098	5492.460624
679.838842	5480.898737
680.177535	5485.082895
680.516179	5499.074617
680.854771	5510.049209
681.193314	5592.683803
681.531805	5698.167427
681.870247	5845.159911
682.208638	5950.547753
682.546978	5957.295337
682.885268	5940.387308
683.223508	5854.813721
683.561697	5801.478313
683.899836	5770.805413
684.237925	5724.923351
684.575963	5690.439338
684.913951	5644.312780
685.251889	5704.428540
685.589776	5675.875445
685.927614	5649.585827
686.265401	5714.936825
686.603137	5697.202046
686.940824	5775.637359
687.278460	5798.206604
687.616046	5809.518954
687.953582	5872.762749
688.291068	5851.355489
688.628504	5911.536784
688.965889	5878.381115
689.303224	5824.796170
689.640510	5778.772956
689.977745	5694.540317
690.314930	5600.600935
690.652065	5542.095824
690.989150	5451.110559
691.326185	5377.970979
691.663170	5322.092309
692.000105	5243.846039
692.336990	5170.661088
692.673825	5144.726873
693.010610	5077.808076
693.347345	5009.475235
693.684030	4992.862113
694.020665	4949.311585
694.357251	4856.272049
694.693786	4873.963979
695.030272	4842.028269
695.366707	4797.724089
695.703093	4767.499851
696.039429	4791.662101
696.375716	4770.254841
696.711952	4747.680554
697.048139	4735.917022
697.384276	4709.869380
697.720363	4725.123912
698.056400	4729.776897
698.392388	4678.284031
698.728326	4657.176719
699.064214	4636.260972
699.400053	4634.693173
699.735842	4597.645734
700.071581	4576.785439
700.407270	4546.709915
700.742910	4532.990415
701.078501	4476.660562
701.414042	4475.135613
701.749533	4446.340542
702.084974	4384.904000
702.420366	4437.710087
702.755709	4380.314030
703.091002	4324.211028
703.426246	4370.317422
703.761440	4331.147656
704.096584	4290.493271
704.431679	4315.409174
704.766725	4298.690187
705.101721	4281.817445
705.436668	4311.945901
705.771565	4259.192747
706.106413	4286.878764
706.441212	4318.885049
706.775961	4323.283456
707.110661	4305.004232
707.445311	4334.812575
707.779913	4352.990976
708.114465	4364.542780
708.448967	4385.745873
708.783421	4447.588228
709.117825	4488.040967
709.452180	4494.891895
709.786485	4535.460580
710.120742	4614.740286
710.454949	4602.071867
710.789107	4663.891536
711.123216	4735.543977
711.457275	4730.359150
711.791286	4799.783400
712.125247	4813.049196
712.459159	4718.590576
712.793023	4790.059014
713.126837	4749.523096
713.460602	4743.080502
713.794318	4662.137215
714.127985	4670.364378
714.461602	4588.188529
714.795171	4560.321031
715.128691	4494.546576
715.462162	4438.995581
715.795584	4391.996904
716.128957	4369.601578
716.462281	4324.901667
716.795556	4293.515443
717.128782	4255.696707
717.461960	4189.985266
717.795088	4199.674364
718.128167	4155.647447
718.461198	4103.179118
718.794180	4098.468159
719.127113	4075.281372
719.459997	4053.685069
719.792833	4008.440713
720.125619	4008.216382
720.458357	3968.378664
720.791046	3973.528202
721.123686	3945.511990
721.456278	3908.565373
721.788821	3918.083072
722.121315	3894.926532
722.453761	3870.247563
722.786158	3883.226013
723.118506	3903.128489
723.450805	3858.569730
723.783056	3881.559912
724.115259	3891.334709
724.447412	3895.486100
724.779518	3889.779513
725.111574	3889.053587
725.443582	3920.023916
725.775542	3907.012698
726.107453	3949.350828
726.439315	3949.991055
726.771129	3967.922439
727.102895	4001.574662
727.434612	4043.990930
727.766281	4053.551478
728.097901	4057.536511
728.429473	4061.387952
728.760996	4064.460535
729.092471	4063.333837
729.423897	4050.206673
729.755276	4047.829769
730.086606	4047.887742
730.417887	4087.987600
730.749120	4146.538082
731.080305	4203.694684
731.411442	4229.676791
731.742530	4206.595868
732.073570	4208.655179
732.404562	4255.079165
732.735506	4247.582969
733.066401	4215.501066
733.397249	4152.287518
733.728048	4076.924788
734.058798	3997.249352
734.389501	3929.057664
734.720156	3870.615567
735.050762	3826.951613
735.381320	3814.126918
735.711831	3770.581431
736.042293	3740.314343
736.372707	3760.695728
736.703073	3729.163311
737.033391	3725.609297
737.363661	3739.089343
737.693883	3765.169752
738.024056	3771.224178
738.354182	3766.382150
738.684260	3827.059998
739.014290	3846.826362
739.344272	3843.264787
739.674207	3876.158316
740.004093	3884.408164
740.333931	3880.397926
740.663722	3874.436762
740.993464	3874.696381
741.323159	3853.427753
741.652806	3816.927279
741.982405	3796.805513
742.311956	3764.317797
742.641460	3758.706993
742.970915	3730.925194
743.300323	3695.690049
743.629683	3662.478928
743.958996	3649.603821
744.288260	3626.843011
744.617477	3596.575923
744.946647	3586.244079
745.275768	3558.981519
745.604842	3554.179820
745.933869	3514.657173
746.262847	3503.460771
746.591778	3530.350285
746.920662	3506.372037
747.249498	3480.594097
747.578286	3521.462731
747.907027	3535.535112
748.235720	3537.516286
748.564365	3558.016138
748.892963	3555.934141
749.221514	3542.922923
749.550017	3519.650436
749.878473	3516.275384
750.206881	3489.312772
750.535242	3481.589725
750.863555	3484.599294
751.191821	3480.964622
751.520039	3464.578351
751.848210	3443.924744
752.176334	3470.252170
752.504411	3476.982110
752.832440	3442.563632
753.160421	3426.353802
753.488356	3429.197013
753.816243	3440.133796
754.144082	3405.735483
754.471875	3391.804254
754.799620	3404.613826
755.127318	3400.006212
755.454969	3395.310377
755.782572	3402.350348
756.110129	3381.381669
756.437638	3371.445554
756.765100	3379.672718
757.092515	3388.356105
757.419882	3396.610994
757.747203	3371.679968
758.074477	3372.670555
758.401703	3387.549520
758.728882	3404.838158
759.056014	3414.557502
759.383099	3417.604880
759.710138	3416.594128
760.037129	3430.127106
760.364073	3455.126188
760.690970	3443.864250
761.017820	3427.258689
761.344623	3439.065072
761.671379	3481.171309
761.998088	3524.598329
762.324751	3643.617451
762.651366	3873.312584
762.977935	4315.585614
763.304456	4716.919434
763.630931	4794.051608
763.957359	4469.892813
764.283740	4152.390861
764.610074	3968.945793
764.936362	3782.546609
765.262602	3642.866319
765.588796	3534.194165
765.914943	3458.425623
766.241044	3374.346738
766.567097	3348.606607
766.893104	3306.679330
767.219064	3279.172274
767.544978	3251.831577
767.870845	3206.922457
768.196665	3188.756660
768.522438	3190.510981
768.848165	3186.263809
769.173846	3153.181237
769.499479	3138.816469
769.825066	3122.551186
770.150607	3110.316306
770.476101	3118.205712
770.801548	3112.698251
771.126949	3076.981676
771.452303	3061.028945
771.777611	3061.301167
772.102872	3066.488514
772.428087	3041.297868
772.753256	3033.698329
773.078378	3026.013090
773.403453	2996.363544
773.728482	2986.462718
774.053465	3004.232785
774.378401	2993.923625
774.703291	2968.417907
775.028135	2969.988227
775.352932	2961.539253
775.677683	2951.953499
776.002388	2950.380659
776.327046	2950.461317
776.651658	2938.859102
776.976224	2929.931218
777.300743	2931.178904
777.625216	2922.984508
777.949643	2915.301790
778.274024	2918.533169
778.598359	2905.519431
778.922647	2910.084196
779.246889	2905.476581
779.571086	2897.332597
779.895236	2891.129457
780.219339	2897.745972
780.543397	2909.171747
780.867409	2913.791964
781.191374	2906.948598
781.515294	2900.538771
781.839167	2904.266704
782.162995	2897.539284
782.486776	2905.393402
782.810511	2901.108421
783.134201	2889.118037
783.457844	2893.644993
783.781441	2887.535114
784.104993	2873.903834
784.428498	2871.169008
784.751958	2880.122098
785.075372	2874.828886
785.398739	2864.199613
785.722061	2875.028012
786.045337	2884.255844
786.368568	2874.405429
786.691752	2864.373533
787.014891	2906.910789
787.337983	2932.219902
787.661030	2962.623101
787.984031	3019.890609
788.306987	3059.448543
788.629897	3055.778583
788.952760	3036.239071
789.275579	3022.401103
789.598351	2971.740028
789.921078	2931.241918
790.243759	2922.737492
790.566395	2908.284504
790.888984	2885.372459
791.211529	2869.515510
791.534027	2862.546115
791.856480	2851.299301
792.178888	2841.121211
792.501249	2833.841785
792.823566	2829.234170
793.145836	2827.205106
793.468062	2823.008345
793.790241	2824.964313
794.112375	2828.208295
794.434464	2838.716581
794.756507	2841.922754
795.078505	2846.243023
795.400457	2861.923532
795.722364	2893.995353
796.044226	2915.798343
796.366042	2916.735998
796.687812	2906.641088
797.009538	2922.855959
797.331218	2912.365318
797.652852	2897.955179
797.974442	2881.800802
798.295986	2879.484392
798.617484	2874.828886
798.938938	2857.769622
799.260346	2850.028930
799.581709	2840.564163
799.903026	2835.361693
800.224299	2833.065447
800.545526	2822.189158
800.866708	2811.254895
801.187845	2803.184008
801.508936	2803.627629
801.829983	2807.610141
802.150984	2796.955662
802.471940	2785.552572
802.792851	2786.782614
803.113717	2789.318314
803.434538	2792.189251
803.755314	2782.149793
804.076045	2780.377828
804.396731	2779.893877
804.717372	2777.766510
805.037967	2772.453134
805.358518	2780.980246
805.679024	2788.395783
805.999485	2785.731533
806.319901	2791.024745
806.640272	2782.948816
806.960598	2789.088942
807.280879	2794.936680
807.601115	2799.261990
807.921306	2792.043058
808.241453	2786.268416
808.561554	2790.465177
808.881611	2791.614560
809.201623	2787.735392
809.521590	2788.859569
809.841513	2783.994856
810.161390	2787.344702
810.481223	2779.941768
810.801011	2773.728546
811.120755	2772.737959
811.440453	2770.406425
811.760107	2772.112856
812.079716	2769.030190
812.399281	2760.528284
812.718801	2753.379928
813.038276	2752.177613
813.357707	2756.001328
813.677093	2761.889396
813.996434	2757.138108
814.315731	2749.374732
814.634983	2748.316089
814.954191	2747.393558
815.273354	2761.314704
815.592473	2766.565066
815.911547	2769.609923
816.230577	2772.775768
816.549562	2782.265740
816.868502	2781.801954
817.187399	2789.948458
817.506250	2799.655200
817.825058	2797.661424
818.143821	2809.704740
818.462539	2821.153201
818.781213	2840.657425
819.099843	2875.098588
819.418429	2923.322266
819.736970	2979.069865
820.055466	3038.056407
820.373919	3126.029582
820.692327	3238.084350
821.010691	3385.069273
821.329011	3778.811114
821.647286	4599.848718
821.965517	5836.395865
822.283704	6533.247164
822.601847	6503.002762
822.919945	5883.727259
823.237999	5379.992481
823.556010	4863.223801
823.873976	4375.860170
824.191897	4017.575284
824.509775	3761.615739
824.827609	3535.346069
825.145398	3434.684309
825.463144	3423.324069
825.780845	3500.042868
826.098502	3598.380657
826.416116	3843.214375
826.733685	4125.450935
827.051210	4177.127803
827.368692	4074.479829
827.686129	3823.800892
828.003522	3547.676731
828.320872	3324.683811
828.638177	3166.341169
828.955439	3050.664332
829.272656	2984.282418
829.589830	2928.721341
829.906960	2888.571072
830.224046	2852.012624
830.541088	2823.688901
830.858086	2810.697847
831.175041	2795.783594
831.491952	2798.289047
831.808819	2805.409677
832.125642	2823.774601
832.442421	2863.955117
832.759157	2933.240736
833.075849	3082.978128
833.392497	3322.843790
833.709101	3490.341168
834.025662	3443.070268
834.342179	3308.799136
834.658653	3155.951351
834.975083	3031.031559
835.291469	2953.536421
835.607811	2878.657643
835.924110	2834.615602
836.240366	2791.425516
836.556578	2758.781525
836.872746	2741.258474
837.188871	2722.470093
837.504952	2710.290666
837.820990	2704.213555
838.136984	2689.823581
838.452935	2683.837211
838.768842	2685.916687
839.084706	2698.814479
839.400526	2764.377205
839.716303	2877.236037
840.032037	2949.571554
840.347727	2926.770415
840.663373	2874.034904
840.978977	2808.555357
841.294537	2751.779362
841.610054	2712.428115
841.925527	2694.925229
842.240957	2678.019719
842.556344	2660.731082
842.871687	2646.421767
843.186987	2641.799029
843.502244	2636.157978
843.817458	2633.791156
844.132629	2625.410238
844.447756	2616.545369
844.762840	2607.942640
845.077881	2612.613269
845.392879	2611.688217
845.707833	2610.049842
846.022745	2603.587083
846.337613	2604.524737
846.652438	2605.114553
846.967221	2601.462237
847.281960	2603.839141
847.596656	2603.851743
847.911309	2600.907710
848.225919	2600.017946
848.540485	2594.694487
848.855009	2599.730600
849.169490	2596.821854
849.483928	2595.347317
849.798323	2596.216916
850.112675	2595.770774
850.426984	2597.068871
850.741251	2591.568972
851.055474	2590.916143
851.369654	2598.021649
851.683792	2595.818665
851.997887	2595.238932
852.311938	2594.618870
852.625947	2596.027873
852.939914	2597.578027
853.253837	2598.114910
853.567718	2593.577872
853.881555	2594.190372
854.195350	2598.014087
854.509103	2593.958479
854.822812	2592.095773
855.136479	2593.184662
855.450103	2596.393356
855.763685	2596.635332
856.077224	2593.971082
856.390720	2592.531833
856.704173	2593.542584
857.017584	2598.278748
857.330953	2596.181628
857.644278	2599.728080
857.957561	2600.050713
858.270802	2596.758840
858.584000	2598.140116
858.897155	2597.552822
859.210268	2597.726742
859.523339	2594.437389
859.836367	2591.127871
860.149352	2589.250041
860.462295	2592.685588
860.775195	2586.661409
861.088054	2589.111410
861.400869	2590.076791
861.713642	2589.048395
862.026373	2586.530339
862.339062	2588.279619
862.651708	2596.695826
862.964312	2595.241453
863.276873	2592.322625
863.589392	2595.511154
863.901869	2599.322267
864.214303	2603.065323
864.526696	2607.017588
864.839045	2606.122783
865.151353	2609.575974
865.463619	2607.713267
865.775842	2608.149327
866.088023	2606.382403
866.400162	2607.993051
866.712258	2607.161261
867.024313	2604.388626
867.336325	2604.630602
867.648296	2605.958946
867.960224	2609.913731
868.272110	2605.906014
868.583954	2601.999119
868.895755	2604.577670
869.207515	2607.614965
869.519233	2612.346088
869.830909	2608.439193
870.142542	2607.864502
870.454134	2608.781992
870.765684	2611.879781
871.077191	2613.969339
871.388657	2615.000255
871.700081	2616.903291
872.011463	2616.447066
872.322803	2618.597118
872.634101	2618.773559
872.945357	2624.815382
873.256571	2629.281844
873.567744	2628.124899
873.878874	2623.363529
874.189963	2623.507202
874.501010	2629.019704
874.812015	2631.638583
875.122979	2630.519447
875.433900	2624.422172
875.744780	2623.872686
876.055618	2628.523150
876.366415	2630.784108
876.677169	2630.095990
876.987882	2625.274127
877.298554	2624.994343
877.609183	2633.118162
877.919771	2634.945580
878.230317	2642.580408
878.540822	2649.774134
878.851285	2657.603046
879.161707	2672.892866
879.472087	2700.112576
879.782425	2738.344687
880.092722	2826.204437
880.402977	2978.354022
880.713191	3207.565205
881.023363	3470.559680
881.333494	3651.799243
881.643583	3791.892909
881.953631	3770.273920
882.263637	3604.046913
882.573602	3416.584046
882.883526	3298.426962
883.193408	3197.114893
883.503248	3109.522324
883.813048	3014.572191
884.122806	2928.832247
884.432522	2862.772967
884.742197	2812.109371
885.051831	2780.395472
885.361424	2755.721544
885.670975	2728.542163
885.980485	2704.972248
886.289954	2690.471369
886.599382	2683.343178
886.908768	2674.851354
887.218113	2659.808551
887.527417	2654.021307
887.836680	2645.017806
888.145901	2640.805922
888.455082	2631.283182
888.764221	2626.680609
889.073319	2621.614249
889.382376	2617.750205
889.691392	2620.558127
890.000366	2620.643827
890.309300	2618.501337
890.618193	2622.289764
890.927044	2624.563324
891.235855	2621.833539
891.544625	2621.848663
891.853353	2623.487038
892.162041	2630.758902
892.470687	2641.499080
892.779293	2654.149856
893.087858	2662.583706
893.396381	2678.254133
893.704864	2713.002807
894.013306	2763.477359
894.321707	2837.733556
894.630068	2875.494318
894.938387	2893.725651
895.246665	2877.881305
895.554903	2841.771520
895.863100	2805.039152
896.171256	2763.502565
896.479371	2722.467573
896.787446	2691.817357
897.095480	2676.671211
897.403473	2672.660973
897.711425	2657.935762
898.019336	2649.338075
898.327207	2641.113432
898.635038	2638.890283
898.942827	2636.077319
899.250576	2633.776033
899.558284	2620.858076
899.865952	2619.499485
900.173579	2615.063270
900.481165	2612.338526
900.788711	2609.240737
901.096216	2605.482557
901.403681	2603.176229
901.711105	2603.095570
902.018489	2599.264293
902.325832	2602.619181
902.633135	2606.213524
902.940397	2617.054525
903.247619	2640.203504
903.554800	2698.270034
903.861941	2798.886424
904.169041	2899.349058
904.476101	2949.195988
904.783121	2940.555450
905.090100	2889.584343
905.397039	2827.321052
905.703938	2769.173863
906.010796	2716.740822
906.317614	2686.022551
906.624391	2658.550783
906.931129	2638.953298
907.237826	2621.470576
907.544483	2610.133021
907.851099	2600.738831
908.157675	2594.472677
908.464211	2585.234762
908.770707	2577.171437
909.077163	2575.225551
909.383578	2575.220510
909.689954	2574.935685
909.996289	2568.606516
910.302584	2570.449058
910.608839	2568.062072
910.915054	2571.563153
911.221229	2572.775551
911.527363	2571.893349
911.833458	2572.944429
912.139513	2575.243195
912.445527	2574.726477
912.751502	2577.277301
913.057436	2579.291242
913.363331	2585.396079
913.669186	2594.961669
913.975000	2601.053903
914.280775	2617.707355
914.586510	2633.466002
914.892205	2662.528254
915.197859	2710.870398
915.503475	2775.281221
915.809050	2827.336176
916.114585	2847.226048
916.420081	2853.598067
916.725536	2852.375587
917.030952	2830.958245
917.336328	2795.347534
917.641665	2757.049888
917.946961	2719.780638
918.252218	2694.128727
918.557435	2673.994358
918.862612	2660.239570
919.167750	2645.466468
919.472848	2633.652524
919.777906	2621.989815
920.082925	2610.765686
920.387904	2603.004830
920.692843	2600.988368
920.997743	2598.550970
921.302603	2592.126020
921.607423	2586.674012
921.912204	2586.361460
922.216946	2580.337281
922.521647	2578.719071
922.826310	2574.877712
923.130932	2572.987279
923.435516	2572.203380
923.740059	2569.284552
924.044564	2565.186093
924.349028	2563.106618
924.653454	2558.582182
924.957840	2557.415155
925.262186	2558.141081
925.566493	2556.298539
925.870761	2552.195040
926.174989	2555.832232
926.479178	2553.770401
926.783328	2554.350133
927.087438	2550.886861
927.391509	2554.100596
927.695541	2551.847200
927.999533	2552.099258
928.303486	2546.995090
928.607400	2549.301418
928.911275	2549.152704
929.215110	2551.443908
929.518906	2548.091541
929.822663	2549.155224
930.126381	2549.308979
930.430060	2546.516180
930.733699	2549.435008
931.037299	2550.206305
931.340861	2551.126315
931.644383	2547.292518
931.947866	2548.378887
932.251309	2551.504402
932.554714	2550.171017
932.858080	2549.830739
933.161407	2550.337375
933.464694	2548.295707
933.767943	2551.070863
934.071153	2546.420398
934.374323	2548.588094
934.677455	2548.134391
934.980548	2548.799823
935.283602	2549.805533
935.586617	2546.082641
935.889593	2546.506098
936.192530	2543.897301
936.495428	2547.050543
936.798287	2548.522559
937.101108	2547.594987
937.403890	2550.362581
937.706632	2554.937428
938.009336	2555.363405
938.312002	2556.570762
938.614628	2559.739127
938.917216	2561.077553
939.219765	2560.039075
939.522275	2563.719118
939.824747	2565.057544
940.127179	2555.759136
940.429573	2555.950700
940.731929	2556.989177
941.034246	2554.372818
941.336524	2558.025134
941.638763	2558.108313
941.940964	2557.112686
942.243126	2553.793086
942.545250	2552.805020
942.847335	2553.803168
943.149381	2550.985163
943.451389	2549.487940
943.753359	2551.461552
944.055290	2550.304607
944.357182	2550.539021
944.659036	2548.086500
944.960851	2550.584391
945.262628	2547.942827
945.564367	2548.426778
945.866067	2547.894936
946.167729	2548.446942
946.469352	2548.850234
946.770937	2550.985163
947.072484	2547.355532
947.373992	2549.067004
947.675462	2547.567261
947.976893	2547.025337
948.278286	2546.972405
948.579641	2547.433670
948.880958	2545.790254
949.182236	2547.012734
949.483476	2543.007537
949.784678	2545.606252
950.085841	2543.882177
950.386967	2547.312682
950.688054	2549.251006
950.989103	2548.769576
951.290114	2547.489123
951.591087	2550.297046
951.892021	2548.635985
952.192917	2549.717313
952.493776	2551.098589
952.794596	2550.980122
953.095378	2551.695966
953.396122	2551.494320
953.696828	2551.733774
953.997496	2549.714792
954.298126	2548.741850
954.598718	2549.873589
954.899272	2546.919472
955.199788	2547.962991
955.500266	2542.465613
955.800706	2540.423946
956.101108	2540.237423
956.401472	2539.337577
956.701798	2540.282793
957.002087	2535.614685
957.302337	2540.620551
957.602550	2539.554347
957.902724	2540.408822
958.202861	2539.443441
958.502960	2539.327495
958.803022	2540.802032
959.103045	2536.915303
959.403031	2539.148534
959.702979	2537.800025
960.002889	2537.563091
960.302762	2533.449509
960.602596	2538.210879
960.902393	2537.449665
961.202153	2536.088553
961.501875	2532.995806
961.801559	2537.305992
962.101205	2537.593338
962.400814	2537.079140
962.700385	2533.923378
962.999918	2534.634181
963.299414	2533.038655
963.598873	2536.542257
963.898293	2536.605272
964.197677	2536.786753
964.497022	2535.463450
964.796331	2535.082843
965.095601	2538.442772
965.394835	2534.924047
965.694030	2537.356404
965.993189	2534.135106
966.292309	2533.762061
966.591393	2534.982020
966.890439	2532.068233
967.189447	2535.471012
967.488419	2535.259284
967.787353	2533.126876
968.086249	2533.081505
968.385108	2536.832124
968.683930	2534.109901
968.982714	2536.370858
969.281462	2532.201824
969.580172	2537.303472
969.878844	2533.686444
970.177480	2537.764737
970.476078	2536.774150
970.774639	2535.617206
971.073162	2533.230219
971.371649	2535.745755
971.670098	2533.444468
971.968510	2534.500590
972.266885	2530.220650
972.565223	2539.090561
972.863524	2535.813811
973.161788	2536.179294
973.460014	2536.864891
973.758204	2536.133924
974.056356	2534.238450
974.354471	2538.019315
974.652550	2534.349355
974.950591	2535.211393
975.248595	2536.345652
975.546563	2533.378933
975.844493	2533.525127
976.142386	2533.651156
976.440243	2534.906403
976.738062	2534.498069
977.035845	2532.952956
977.333590	2536.436393
977.631299	2534.740045
977.928971	2533.890610
978.226606	2534.198121
978.524204	2533.598223
978.821765	2535.458409
979.119290	2534.223327
979.416777	2535.496218
979.714228	2535.357586
980.011642	2535.884387
980.309020	2536.887576
980.606360	2534.031763
980.903664	2534.208203
981.200931	2532.529499
981.498162	2533.129396
981.795356	2538.478060
982.092513	2536.801877
982.389633	2539.841693
982.686717	2541.268339
982.983764	2543.988042
983.280775	2543.544420
983.577749	2547.786551
983.874686	2545.628937
984.171587	2543.458720
984.468451	2539.808925
984.765279	2536.809438
985.062070	2537.487474
985.358824	2537.550488
985.655543	2536.486805
985.952224	2536.796836
986.248869	2535.201310
986.545478	2530.323994
986.842050	2530.361803
987.138586	2530.427338
987.435086	2531.130579
987.731549	2528.851977
988.027975	2533.648635
988.324366	2531.556556
988.620719	2532.148892
988.917037	2532.582431
989.213318	2531.473377
989.509563	2531.755682
989.805772	2532.970600
990.101944	2533.119314
990.398080	2530.691998
990.694180	2532.554705
990.990244	2531.972451
991.286271	2531.538912
991.582262	2531.407842
991.878217	2532.862215
992.174136	2531.203675
992.470019	2531.904396
992.765865	2532.504293
993.061676	2532.758871
993.357450	2533.691485
993.653188	2531.622091
993.948890	2533.280631
994.244556	2531.821217
994.540186	2533.497400
994.835780	2531.957328
995.131337	2532.650487
995.426859	2533.116793
995.722345	2531.856505
996.017795	2536.305323
996.313208	2533.814993
996.608586	2535.279448
996.903928	2534.480425
997.199234	2532.884900
997.494504	2534.765251
997.789738	2533.477236
998.084936	2529.189734
998.380099	2531.110414
998.675225	2533.767102
998.970316	2531.922040
999.265371	2534.117462
999.560390	2533.031094
999.855373	2534.024201
1000.150320	2532.872297
1000.445232	2530.102183
1000.740108	2531.566638
1001.034948	2530.558408
1001.329752	2526.996833
1001.624521	2532.290044
1001.919254	2524.703107
1002.213951	2527.614374
1002.508613	2524.917357
1002.803239	2528.176462
1003.097829	2527.765608
1003.392384	2531.173428
1003.686903	2528.811648
1003.981386	2530.689478
1004.275834	2530.351720
1004.570246	2530.659231
1004.864623	2529.852646
1005.158964	2532.572349
1005.453270	2530.145033
1005.747540	2527.339631
1006.041775	2533.668800
1006.335974	2530.134951
1006.630138	2530.029087
1006.924266	2529.434230
1007.218359	2530.939015
1007.512416	2531.173428
1007.806438	2530.901206
1008.100425	2531.281813
1008.394376	2527.934487
1008.688292	2531.967410
1008.982172	2530.797862
1009.276017	2529.610671
1009.569827	2530.613860
1009.863602	2529.096473
1010.157341	2533.688964
1010.451045	2530.134951
1010.744714	2531.435568
1011.038347	2529.472039
1011.331945	2526.041534
1011.625508	2530.021525
1011.919036	2531.808614
1012.212528	2528.599919
1012.505986	2531.029756
1012.799408	2529.973634
1013.092795	2528.952800
1013.386147	2529.933305
1013.679464	2529.981196
1013.972745	2529.227543
1014.265992	2529.162008
1014.559204	2529.857687
1014.852380	2529.416586
1015.145521	2531.180990
1015.438628	2528.239477
1015.731699	2527.823582
1016.024736	2530.565969
1016.317737	2527.934487
1016.610703	2527.463139
1016.903635	2524.630011
1017.196531	2526.580937
1017.489393	2527.737882
1017.782219	2526.404497
1018.075011	2527.289219
1018.367768	2530.339118
1018.660490	2531.201155
1018.953177	2531.201155
1019.245829	2531.201155
