Dividing Wavelength (nm)	Counts (n)	Blue Motor Position (mm): 0.000000	Red Motor Position (mm): 17.000000	
326.493990	2129.169136
326.888308	2129.169136
327.282561	2129.169136
327.676750	2097.926585
328.070874	2093.185379
328.464933	2096.878025
328.858929	2102.750969
329.252859	2116.649430
329.646726	2127.540843
330.040528	2135.621813
330.434265	2155.252066
330.827938	2175.482216
331.221547	2190.396470
331.615091	2211.372711
332.008571	2228.515154
332.401986	2249.204050
332.795338	2268.627616
333.188625	2286.420368
333.581847	2305.420477
333.975006	2324.839002
334.368100	2345.787516
334.761129	2361.399970
335.154095	2377.345139
335.546996	2395.163098
335.939833	2412.056004
336.332606	2421.414906
336.725315	2435.300765
337.117960	2446.633278
337.510540	2452.808692
337.903056	2464.113479
338.295508	2472.169243
338.687896	2480.376242
339.080220	2490.498879
339.472480	2496.031545
339.864676	2502.411125
340.256807	2506.318019
340.648875	2508.952022
341.040879	2511.616272
341.432818	2510.764317
341.824694	2514.545183
342.216506	2514.288084
342.608253	2514.106602
342.999937	2514.913187
343.391557	2513.078207
343.783113	2512.604338
344.174605	2512.700120
344.566033	2512.281704
344.957397	2509.335150
345.348697	2507.227948
345.739934	2506.305417
346.131106	2503.157216
346.522215	2503.227792
346.913260	2502.053203
347.304241	2499.532626
347.695159	2497.821155
348.086012	2497.662358
348.476802	2492.780001
348.867528	2491.852428
349.258191	2490.521564
349.648789	2491.928046
350.039324	2485.964361
350.429796	2488.235401
350.820203	2485.460245
351.210548	2484.764566
351.600828	2484.129381
351.991045	2484.018475
352.381198	2483.151397
352.771288	2485.213229
353.161314	2483.090903
353.551276	2482.806078
353.941175	2484.101654
354.331010	2480.961016
354.720782	2481.001345
355.110490	2482.463279
355.500135	2480.451859
355.889717	2483.836994
356.279235	2483.350523
356.668689	2482.460759
357.058080	2482.065028
357.447408	2481.507981
357.836672	2479.705768
358.225873	2483.534525
358.615010	2482.319607
359.004084	2486.501244
359.393095	2486.584423
359.782043	2490.012407
360.170927	2489.919146
360.559748	2490.088025
360.948505	2490.345123
361.337199	2491.549959
361.725830	2490.824033
362.114398	2494.819148
362.502903	2490.917294
362.891344	2492.369147
363.279722	2492.437202
363.668037	2494.463746
364.056289	2492.452326
364.444478	2496.865856
364.832603	2492.956441
365.220665	2496.603716
365.608665	2496.911226
365.996601	2500.046824
366.384474	2495.908037
366.772284	2500.319046
367.160031	2502.166629
367.547715	2503.351300
367.935336	2504.339367
368.322893	2507.021260
368.710388	2511.477640
369.097820	2518.610873
369.485189	2521.761594
369.872495	2524.481297
370.259738	2532.469005
370.646918	2542.498381
371.034035	2548.351160
371.421090	2559.673592
371.808081	2566.484191
372.195010	2577.156313
372.581875	2591.095104
372.968678	2601.484922
373.355418	2613.687035
373.742096	2632.150261
374.128710	2646.066366
374.515262	2658.298726
374.901751	2676.736746
375.288177	2690.549507
375.674540	2710.005841
376.060841	2730.467884
376.447079	2747.653177
376.833254	2770.557660
377.219367	2781.345729
377.605417	2819.915597
377.991404	2828.606547
378.377329	2850.291070
378.763191	2869.470140
379.148991	2906.056314
379.534727	2929.550611
379.920402	2957.476083
380.306013	2970.222640
380.691563	3020.790455
381.077049	3041.791902
381.462474	3058.614232
381.847835	3097.589913
382.233134	3123.231742
382.618371	3118.238479
383.003545	3187.554344
383.388657	3192.933256
383.773706	3226.812330
384.158693	3243.649784
384.543618	3270.950153
384.928480	3306.767551
385.313280	3351.124663
385.698017	3348.422605
386.082692	3405.009557
386.467305	3410.411153
386.851856	3441.058848
387.236344	3463.212198
387.620770	3492.150942
388.005133	3520.835108
388.389435	3546.676062
388.773674	3557.796848
389.157851	3600.755040
389.541965	3612.720219
389.926018	3581.860795
390.310008	3648.114160
390.693936	3667.293230
391.077802	3711.219324
391.461606	3697.494782
391.845348	3761.615739
392.229027	3758.434771
392.612645	3774.334570
392.996200	3849.828369
393.379694	3887.473186
393.763125	3954.727219
394.146494	3920.812857
394.529801	3984.427177
394.913047	4031.156152
395.296230	3994.645596
395.679351	4049.132907
396.062410	4075.664500
396.445408	4055.532652
396.828343	4088.519442
397.211217	4110.582052
397.594028	4032.219836
397.976778	4097.142336
398.359466	4117.803505
398.742092	4146.608658
399.124656	4069.983119
399.507158	4146.074296
399.889598	4167.690763
400.271977	4227.236873
400.654294	4194.350905
401.036549	4199.470197
401.418742	4157.522756
401.800874	4255.197632
402.182944	4270.900827
402.564952	4320.954443
402.946898	4302.355106
403.328783	4282.021612
403.710606	4187.252961
404.092367	4356.139176
404.474067	4309.218637
404.855705	4299.403510
405.237282	4222.157910
405.618797	4301.795538
406.000250	4308.318791
406.381642	4366.387842
406.762972	4309.916837
407.144240	4292.910504
407.525447	4271.190693
407.906593	4294.705155
408.287677	4304.409376
408.668700	4217.424267
409.049661	4227.544383
409.430560	4230.309456
409.811399	4141.746465
410.192176	4232.179724
410.572891	4157.558044
410.953545	4200.060012
411.334138	4076.148451
411.714669	4084.615068
412.095139	3980.253102
412.475547	4035.267213
412.855894	3982.582115
413.236180	3947.157927
413.616405	3882.583266
413.996568	3893.699011
414.376670	3820.380469
414.756711	3751.982094
415.136691	3732.369485
415.516609	3731.908219
415.896466	3706.866287
416.276262	3678.023326
416.655997	3628.350316
417.035670	3666.216943
417.415283	3662.889782
417.794834	3590.455963
418.174324	3532.210471
418.553753	3453.565951
418.933121	3475.989003
419.312428	3454.332206
419.691674	3387.637741
420.070859	3386.281670
420.449983	3316.461689
420.829045	3311.995227
421.208047	3244.995772
421.586988	3221.917370
421.965867	3184.948068
422.344686	3172.975327
422.723444	3108.055348
423.102141	3039.034390
423.480777	3061.797721
423.859352	2989.076556
424.237866	2998.934532
424.616319	2968.450675
424.994712	2955.207564
425.373044	2909.025553
425.751314	2895.301012
426.129524	2845.736387
426.507673	2843.041891
426.885762	2827.689057
427.263789	2797.197637
427.641756	2765.655138
428.019662	2758.453850
428.397508	2740.623288
428.775292	2717.479351
429.153016	2706.141796
429.530679	2687.885257
429.908282	2676.880419
430.285824	2656.325114
430.663305	2654.099444
431.040726	2635.164871
431.418086	2625.480814
431.795385	2618.410596
432.172624	2610.992538
432.549802	2601.530292
432.926920	2595.221288
433.303977	2589.829774
433.680974	2583.072107
434.057910	2580.478434
434.434786	2572.740262
434.811601	2571.154820
435.188355	2567.898234
435.565050	2564.069478
435.941683	2559.096380
436.318257	2560.013870
436.694770	2553.291491
437.071222	2552.479865
437.447614	2550.284443
437.823946	2548.346119
438.200218	2550.397869
438.576429	2549.689587
438.952580	2549.059442
439.328670	2547.537014
439.704700	2542.992414
440.080670	2546.460727
440.456580	2545.344112
440.832429	2545.359235
441.208218	2543.604914
441.583947	2545.097095
441.959616	2541.182639
442.335224	2541.989224
442.710773	2543.841848
443.086261	2540.504604
443.461689	2540.073586
443.837057	2541.734646
444.212365	2543.821683
444.587612	2538.790612
444.962800	2541.049049
445.337927	2542.231199
445.712995	2539.168698
446.088002	2540.716333
446.462949	2538.538554
446.837837	2542.717671
447.212664	2540.895294
447.587431	2541.379244
447.962139	2543.259595
448.336786	2547.842004
448.711374	2547.214380
449.085901	2542.014430
449.460369	2543.743546
449.834776	2542.803370
450.209124	2541.797660
450.583412	2544.867723
450.957640	2542.637012
451.331808	2543.592311
451.705917	2543.191539
452.079965	2543.917465
452.453954	2542.127856
452.827883	2543.844369
453.201752	2543.771272
453.575562	2542.407640
453.949311	2545.626417
454.323001	2541.134748
454.696632	2544.000644
455.070202	2545.248330
455.443713	2546.148176
455.817164	2544.701365
456.190556	2541.328833
456.563888	2544.890408
456.937160	2540.799512
457.310373	2544.537527
457.683526	2544.724050
458.056619	2547.300080
458.429653	2544.219935
458.802628	2545.414688
459.175542	2544.512322
459.548398	2544.265305
459.921194	2546.692621
460.293930	2547.531973
460.666607	2547.408464
461.039224	2550.140770
461.411782	2549.906356
461.784280	2552.706717
462.156719	2551.184289
462.529099	2551.131357
462.901419	2551.660678
463.273680	2550.556665
463.645882	2550.765873
464.018024	2548.091541
464.390106	2550.594474
464.762130	2552.399207
465.134094	2556.601008
465.505999	2557.470607
465.877845	2562.302553
466.249631	2564.503017
466.621358	2563.880435
466.993026	2563.583007
467.364634	2564.268603
467.736184	2559.792059
468.107674	2561.654765
468.479105	2559.973540
468.850477	2559.028324
469.221790	2559.877758
469.593043	2559.998746
469.964238	2554.937428
470.335373	2555.844835
470.706449	2559.832388
471.077467	2556.326266
471.448425	2561.357337
471.819324	2567.855384
472.190164	2566.864798
472.560945	2562.960424
472.931667	2560.724672
473.302330	2559.867676
473.672934	2558.935063
474.043479	2560.051678
474.413965	2556.931204
474.784393	2555.827191
475.154761	2554.685370
475.525070	2557.284085
475.895321	2556.565720
476.265513	2556.991698
476.635645	2562.726010
477.005719	2561.972358
477.375734	2561.024621
477.745691	2562.594940
478.115588	2565.788511
478.485427	2564.984447
478.855207	2568.966959
479.224928	2570.703636
479.594591	2571.721949
479.964194	2572.498287
480.333739	2573.461147
480.703226	2571.628688
481.072653	2573.088102
481.442022	2573.564491
481.811333	2574.524831
482.180584	2573.582135
482.549777	2572.946950
482.918912	2571.086764
483.287988	2573.062896
483.657005	2568.109963
484.025964	2568.914027
484.394864	2568.868656
484.763706	2569.912175
485.132489	2569.156002
485.501213	2568.296485
485.869879	2565.176011
486.238487	2564.944118
486.607036	2567.164746
486.975527	2567.005950
487.343959	2568.271280
487.712333	2566.000240
488.080648	2565.067626
488.448905	2567.469736
488.817104	2565.546536
489.185244	2567.288255
489.553326	2567.431927
489.921350	2570.058369
490.289315	2573.272104
490.657222	2575.366704
491.025070	2574.885273
491.392861	2574.502146
491.760593	2572.084913
492.128267	2571.618606
492.495883	2570.121383
492.863440	2569.397977
493.230939	2566.668193
493.598380	2569.166084
493.965763	2561.846329
494.333088	2567.396639
494.700354	2561.261555
495.067563	2567.399160
495.434713	2559.066133
495.801805	2567.661300
496.168839	2564.407235
496.535815	2566.385888
496.902733	2565.639797
497.269593	2566.559808
497.636395	2566.902606
498.003139	2564.717266
498.369825	2564.692060
498.736453	2567.318502
499.103023	2566.080898
499.469535	2566.169118
499.835989	2566.930333
500.202385	2565.181052
500.568723	2564.893707
500.935003	2563.431772
501.301226	2567.051320
501.667390	2567.804973
502.033497	2566.879921
502.399546	2568.036866
502.765537	2566.189283
503.131470	2566.469067
503.497345	2565.183573
503.863163	2568.137689
504.228923	2565.360013
504.594625	2566.597617
504.960269	2567.247925
505.325856	2567.419325
505.691385	2566.837071
506.056856	2565.680127
506.422270	2569.377813
506.787625	2565.284396
507.152924	2565.233984
507.518164	2567.691547
507.883347	2567.021073
508.248472	2567.129458
508.613540	2565.780950
508.978550	2566.577452
509.343503	2567.706670
509.708398	2572.543657
510.073236	2566.980744
510.438016	2568.283883
510.802738	2568.364541
511.167403	2568.697257
511.532010	2568.044428
511.896561	2569.992834
512.261053	2569.304716
512.625488	2568.460323
512.989866	2566.544684
513.354186	2564.593758
513.718449	2566.317833
514.082655	2567.076526
514.446803	2568.863615
514.810894	2571.492577
515.174927	2567.820096
515.538904	2565.843964
515.902822	2569.776064
516.266684	2569.244222
516.630488	2566.849674
516.994235	2571.613565
517.357925	2567.532751
517.721558	2568.238512
518.085133	2568.115004
518.448651	2569.075344
518.812112	2569.783626
519.175516	2573.370407
519.538863	2570.794377
519.902152	2570.151630
520.265385	2568.409911
520.628560	2567.890672
520.991678	2570.590210
521.354739	2572.931826
521.717743	2570.338153
522.080690	2571.358986
522.443580	2571.356466
522.806413	2570.754048
523.169189	2570.239850
523.531908	2570.575087
523.894569	2568.989644
524.257174	2570.522155
524.619722	2570.023081
524.982213	2571.888307
525.344647	2570.290262
525.707025	2571.227916
526.069345	2568.780436
526.431608	2568.699778
526.793815	2570.365879
527.155964	2573.607341
527.518057	2568.261197
527.880093	2570.035683
528.242072	2571.119532
528.603995	2569.329922
528.965860	2569.435786
529.327669	2571.195149
529.689421	2568.566187
530.051117	2572.246229
530.412755	2568.838409
530.774337	2571.248081
531.135862	2570.842268
531.497331	2568.800601
531.858743	2564.152657
532.220098	2568.210786
532.581396	2565.617112
532.942638	2566.370765
533.303824	2569.062741
533.664953	2567.434448
534.026025	2567.714232
534.387040	2572.221024
534.747999	2567.948646
535.108902	2566.579972
535.469748	2569.158523
535.830537	2568.293965
536.191270	2566.690878
536.551947	2569.365210
536.912567	2564.979406
537.273131	2569.269428
537.633638	2565.551577
537.994089	2568.238512
538.354483	2566.907648
538.714821	2568.977041
539.075103	2566.832030
539.435328	2569.826476
539.795497	2567.694068
540.155609	2572.087433
540.515665	2569.312278
540.875665	2568.392267
541.235609	2568.961918
541.595496	2568.667010
541.955328	2567.124417
542.315102	2569.357648
542.674821	2567.419325
543.034483	2568.704819
543.394090	2568.762792
543.753640	2569.881928
544.113134	2568.498132
544.472571	2569.607185
544.831953	2566.559808
545.191278	2567.502504
545.550548	2566.958059
545.909761	2568.384706
546.268918	2566.398491
546.628019	2569.317319
546.987064	2568.735066
547.346053	2567.177349
547.704986	2570.754048
548.063863	2565.884293
548.422684	2568.377144
548.781449	2567.482339
549.140158	2569.410580
549.498811	2570.197000
549.857408	2568.591393
550.215949	2568.359500
550.574434	2562.224416
550.932864	2565.702812
551.291237	2563.693912
551.649555	2566.484191
552.007817	2567.953687
552.366022	2567.074006
552.724173	2568.387226
553.082267	2568.198183
553.440305	2567.593244
553.798288	2569.032494
554.156215	2567.968810
554.514086	2568.286403
554.871902	2568.591393
555.229661	2569.579459
555.587365	2564.692060
555.945014	2569.423183
556.302606	2567.550395
556.660143	2567.510065
557.017625	2569.453430
557.375050	2568.099880
557.732421	2569.017370
558.089735	2570.537278
558.446994	2569.050138
558.804197	2570.050807
559.161345	2567.159705
559.518437	2569.007288
559.875474	2566.665672
560.232455	2568.853533
560.589381	2569.221537
560.946251	2569.035014
561.303065	2568.593913
561.659825	2568.104922
562.016528	2567.799932
562.373177	2564.997050
562.729770	2568.989644
563.086307	2566.706001
563.442789	2568.714901
563.799216	2569.818914
564.155587	2569.413101
564.511904	2565.241546
564.868164	2567.404201
565.224370	2566.950497
565.580520	2567.061403
565.936615	2567.741958
566.292654	2570.083574
566.648638	2569.546692
567.004567	2567.056362
567.360441	2568.621640
567.716260	2567.678944
568.072023	2569.173646
568.427732	2561.780794
568.783385	2565.554098
569.138982	2563.913202
569.494525	2564.684499
569.850013	2562.705846
570.205445	2567.200034
570.560823	2565.178532
570.916145	2564.732390
571.271412	2567.870508
571.626625	2565.773388
571.981782	2566.774057
572.336884	2566.844633
572.691931	2566.259859
573.046923	2565.601989
573.401860	2564.056875
573.756743	2564.545867
574.111570	2564.024108
574.466342	2565.312122
574.821059	2564.611402
575.175722	2566.350600
575.530330	2564.845816
575.884882	2567.656259
576.239380	2566.350600
576.593823	2564.986968
576.948211	2564.840774
577.302544	2566.295147
577.656823	2564.359344
578.011047	2565.130641
578.365216	2564.576114
578.719330	2564.888665
579.073389	2565.256670
579.427394	2562.645352
579.781344	2562.191648
580.135239	2564.437482
580.489080	2564.916392
580.842866	2565.244067
581.196597	2563.285578
581.550273	2565.952349
581.903895	2564.490414
582.257463	2564.530743
582.610975	2564.722307
582.964434	2566.383367
583.317837	2564.250959
583.671186	2564.863460
584.024481	2565.614592
584.377721	2563.048644
584.730906	2562.531926
585.084037	2563.633418
585.437113	2561.725341
585.790135	2563.404046
586.143103	2563.068809
586.496016	2564.515620
586.848874	2558.652758
587.201679	2560.094528
587.554428	2558.642676
587.907124	2560.288613
588.259765	2557.566389
588.612352	2563.131823
588.964884	2562.239539
589.317362	2563.303222
589.669786	2563.252811
590.022155	2563.048644
590.374470	2562.322718
590.726731	2563.066288
591.078937	2561.816082
591.431090	2563.083932
591.783188	2560.500341
592.135232	2559.441699
592.487222	2560.742316
592.839157	2561.843808
593.191038	2562.249621
593.542866	2562.846998
593.894639	2560.477656
594.246358	2559.255176
594.598022	2563.126782
594.949633	2563.285578
595.301190	2561.858932
595.652692	2562.632749
596.004141	2561.095197
596.355535	2563.141906
596.706876	2559.766853
597.058162	2559.076215
597.409395	2559.207285
597.760573	2561.624518
598.111698	2562.017728
598.462768	2561.385063
598.813785	2561.967317
599.164748	2561.213664
599.515657	2559.146791
599.866511	2561.430434
600.217312	2559.653427
600.568060	2559.219888
600.918753	2561.138047
601.269392	2561.735424
601.619978	2559.494631
601.970510	2560.447409
602.320988	2559.436657
602.671412	2559.303067
603.021783	2560.081925
603.372100	2559.282902
603.722363	2559.361040
604.072572	2559.643345
604.422728	2561.266596
604.772830	2556.482541
605.122878	2554.203940
605.472872	2559.159394
605.822813	2554.980278
606.172701	2558.073025
606.522534	2559.902964
606.872314	2560.893551
607.222041	2560.265927
607.571714	2559.739127
607.921333	2561.679971
608.270899	2560.278530
608.620411	2558.657799
608.969870	2558.869528
609.319276	2561.362378
609.668627	2565.513768
610.017926	2567.348748
610.367171	2568.603996
610.716362	2568.238512
611.065500	2564.261042
611.414585	2563.918243
611.763616	2561.183417
612.112594	2562.118551
612.461518	2561.501010
612.810389	2562.660475
613.159207	2561.243911
613.507971	2560.003787
613.856682	2561.569066
614.205340	2560.656617
614.553945	2560.543191
614.902496	2560.417162
615.250994	2559.078736
615.599439	2563.230126
615.947830	2559.865156
616.296169	2556.971533
616.644454	2559.240052
616.992686	2561.974878
617.340864	2559.610577
617.688990	2558.249466
618.037063	2560.817934
618.385082	2559.603016
618.733048	2564.382029
619.080961	2558.690567
619.428821	2561.332131
619.776628	2560.689384
620.124382	2558.998077
620.472083	2561.556463
620.819731	2556.936245
621.167326	2557.372305
621.514868	2560.671740
621.862357	2557.727706
622.209793	2559.761812
622.557176	2559.063612
622.904506	2555.209650
623.251783	2554.997922
623.599007	2551.562375
623.946179	2554.493806
624.293297	2554.309804
624.640363	2557.722665
624.987376	2557.636966
625.334336	2555.509599
625.681243	2559.658468
626.028097	2558.433468
626.374899	2559.018242
626.721647	2554.403065
627.068343	2558.592264
627.414987	2556.785011
627.761577	2559.081256
628.108115	2556.154866
628.454600	2556.764846
628.801032	2554.783672
629.147412	2554.360216
629.493739	2554.892057
629.840014	2557.805844
630.186236	2556.913560
630.532405	2554.773590
630.878521	2556.238045
631.224585	2557.100083
631.570597	2552.825184
631.916556	2555.751574
632.262462	2553.581357
632.608316	2556.497665
632.954117	2554.897098
633.299866	2557.296688
633.645562	2554.952551
633.991206	2556.540515
634.336797	2554.511450
634.682336	2555.101265
635.027823	2555.693601
635.373257	2555.471790
635.718639	2552.182437
636.063968	2553.581357
636.409245	2554.203940
636.754470	2556.227963
637.099642	2549.666901
637.444762	2554.093034
637.789829	2554.143446
638.134845	2553.004145
638.479808	2550.591953
638.824719	2549.881150
639.169577	2549.666901
639.514383	2551.577499
639.859137	2554.009855
640.203839	2552.046326
640.548489	2552.086655
640.893086	2549.124977
641.237632	2546.622044
641.582125	2550.531459
641.926566	2546.823691
642.270955	2550.649926
642.615292	2552.295863
642.959576	2551.607746
643.303809	2552.063970
643.647990	2551.590102
643.992118	2551.461552
644.336195	2552.036244
644.680219	2551.355688
645.024192	2553.147818
645.368112	2553.815771
645.711981	2549.931562
646.055797	2552.086655
646.399562	2555.423899
646.743274	2550.294525
647.086935	2552.908363
647.430544	2551.655637
647.774101	2552.472303
648.117606	2551.398538
648.461059	2554.932387
648.804460	2554.110678
649.147810	2551.890050
649.491108	2552.782334
649.834354	2552.729402
650.177548	2552.043805
650.520690	2553.581357
650.863781	2548.578012
651.206820	2553.636810
651.549807	2550.859134
651.892742	2552.338713
652.235626	2551.743857
652.578458	2549.409803
652.921238	2549.795451
653.263967	2549.379556
653.606644	2550.221428
653.949269	2549.220759
654.291843	2551.554813
654.634365	2550.193702
654.976836	2549.853424
655.319255	2550.309648
655.661622	2551.053219
656.003938	2548.434339
656.346203	2548.449463
656.688416	2549.107333
657.030577	2551.925338
657.372687	2551.695966
657.714746	2548.330996
658.056753	2549.692107
658.398708	2543.980480
658.740612	2549.654298
659.082465	2546.664894
659.424266	2546.695141
659.766016	2546.455686
660.107715	2550.110523
660.449362	2546.995090
660.790958	2549.235883
661.132503	2550.798640
661.473996	2549.775286
661.815438	2550.407951
662.156829	2551.416182
662.498168	2549.873589
662.839456	2550.057591
663.180693	2550.997766
663.521879	2551.748898
663.863013	2548.363763
664.204097	2549.659340
664.545129	2552.056408
664.886110	2550.697817
665.227040	2549.578681
665.567918	2550.828887
665.908746	2547.821839
666.249522	2550.523897
666.590248	2547.952909
666.930922	2549.208156
667.271545	2550.433157
667.612118	2548.210008
667.952639	2549.924000
668.293109	2549.470296
668.633528	2548.855276
668.973896	2549.177909
669.314213	2551.108671
669.654480	2550.791079
669.994695	2551.562375
670.334859	2548.371325
670.674973	2550.400389
671.015035	2548.782179
671.355047	2551.887530
671.695008	2548.940975
672.034918	2550.153373
672.374777	2549.755122
672.714585	2549.356870
673.054342	2550.372663
673.394049	2549.722354
673.733705	2549.475337
674.073310	2548.028526
674.412864	2550.118085
674.752368	2548.131870
675.091820	2552.411810
675.431223	2550.289484
675.770574	2548.928372
676.109875	2546.594318
676.449125	2548.212528
676.788324	2544.189688
677.127473	2545.263453
677.466571	2544.658515
677.805619	2545.424770
678.144616	2547.438711
678.483562	2548.260419
678.822458	2549.803013
679.161303	2547.932744
679.500098	2547.229503
679.838842	2550.057591
680.177535	2547.882333
680.516179	2547.131201
680.854771	2547.721016
681.193314	2549.732436
681.531805	2549.089689
681.870247	2552.031202
682.208638	2549.122457
682.546978	2552.585729
682.885268	2550.198743
683.223508	2551.035575
683.561697	2548.857796
683.899836	2550.531459
684.237925	2550.748229
684.575963	2551.388455
684.913951	2545.520552
685.251889	2551.821995
685.589776	2549.092210
685.927614	2549.949206
686.265401	2548.779658
686.603137	2550.561706
686.940824	2548.401572
687.278460	2550.372663
687.616046	2549.871068
687.953582	2549.409803
688.291068	2549.137580
688.628504	2550.687735
688.965889	2548.804864
689.303224	2548.893084
689.640510	2548.217570
689.977745	2550.382745
690.314930	2545.351674
690.652065	2548.174720
690.989150	2547.267312
691.326185	2547.350491
691.663170	2546.367466
692.000105	2547.632796
692.336990	2548.893084
692.673825	2548.348640
693.010610	2547.055584
693.347345	2542.700027
693.684030	2542.674821
694.020665	2543.501570
694.357251	2540.686086
694.693786	2545.999462
695.030272	2546.105326
695.366707	2546.967363
695.703093	2544.955943
696.039429	2544.431663
696.375716	2545.999462
696.711952	2542.619368
697.048139	2544.940820
697.384276	2542.848741
697.720363	2545.220604
698.056400	2543.869574
698.392388	2545.414688
698.728326	2547.534493
699.064214	2543.456200
699.400053	2543.567105
699.735842	2543.337733
700.071581	2545.838145
700.407270	2541.752290
700.742910	2545.487785
701.078501	2543.400747
701.414042	2546.296890
701.749533	2544.943340
702.084974	2544.308155
702.420366	2542.120294
702.755709	2543.776313
703.091002	2542.984852
703.426246	2545.409647
703.761440	2541.195242
704.096584	2544.751776
704.431679	2544.466951
704.766725	2546.690100
705.101721	2542.899152
705.436668	2546.198588
705.771565	2543.569626
706.106413	2543.574667
706.441212	2545.470141
706.775961	2546.743032
707.110661	2541.540561
707.445311	2544.600542
707.779913	2544.129194
708.114465	2545.669266
708.448967	2546.087682
708.783421	2543.632640
709.117825	2545.485264
709.452180	2545.933927
709.786485	2543.723381
710.120742	2544.761859
710.454949	2545.296221
710.789107	2542.437887
711.123216	2539.813966
711.457275	2543.587270
711.791286	2542.243802
712.125247	2542.546272
712.459159	2547.247147
712.793023	2544.903011
713.126837	2546.992569
713.460602	2544.945861
713.794318	2544.398896
714.127985	2542.563916
714.461602	2543.748587
714.795171	2544.338402
715.128691	2544.313196
715.462162	2545.379400
715.795584	2543.741025
716.128957	2544.756817
716.462281	2543.037784
716.795556	2544.545089
717.128782	2544.109029
717.461960	2546.264123
717.795088	2542.442928
718.128167	2544.073741
718.461198	2544.973587
718.794180	2542.742877
719.127113	2541.525438
719.459997	2541.714481
719.792833	2545.293700
720.125619	2544.192208
720.458357	2544.199770
720.791046	2543.370500
721.123686	2541.044008
721.456278	2544.862682
721.788821	2542.180788
722.121315	2542.153062
722.453761	2541.633823
722.786158	2543.123484
723.118506	2542.211035
723.450805	2543.120963
723.783056	2543.264636
724.115259	2543.330171
724.447412	2541.016281
724.779518	2544.477033
725.111574	2542.324461
725.443582	2541.069213
725.775542	2542.889070
726.107453	2542.720191
726.439315	2542.634492
726.771129	2546.722867
727.102895	2542.571477
727.434612	2542.329502
727.766281	2544.028371
728.097901	2540.118956
728.429473	2539.882022
728.760996	2539.519059
729.092471	2539.728267
729.423897	2541.306148
729.755276	2541.021323
730.086606	2543.998124
730.417887	2542.936961
730.749120	2543.090716
731.080305	2543.967877
731.411442	2544.754297
731.742530	2542.795809
732.073570	2545.316386
732.404562	2544.419060
732.735506	2544.469472
733.066401	2544.134235
733.397249	2545.220604
733.728048	2542.977290
734.058798	2543.894780
734.389501	2541.717002
734.720156	2541.434697
735.050762	2544.177085
735.381320	2542.568957
735.711831	2543.430994
736.042293	2541.439738
736.372707	2539.735828
736.703073	2541.348998
737.033391	2543.811601
737.363661	2543.025181
737.693883	2542.316899
738.024056	2544.081303
738.354182	2540.313040
738.684260	2544.237579
739.014290	2539.342618
739.344272	2542.256405
739.674207	2542.069883
740.004093	2543.947712
740.333931	2542.216076
740.663722	2543.438556
740.993464	2542.773123
741.323159	2541.933771
741.652806	2542.974770
741.982405	2542.223638
742.311956	2537.293389
742.641460	2543.342774
742.970915	2541.175078
743.300323	2542.969728
743.629683	2539.153575
743.958996	2540.807073
744.288260	2539.730787
744.617477	2541.066693
744.946647	2534.243491
745.275768	2537.996630
745.604842	2536.804397
745.933869	2537.802546
746.262847	2536.416228
746.591778	2541.868236
746.920662	2542.163144
747.249498	2541.530479
747.578286	2542.243802
747.907027	2541.908566
748.235720	2540.000489
748.564365	2542.450490
748.892963	2540.585263
749.221514	2543.070552
749.550017	2542.977290
749.878473	2541.825387
750.206881	2540.146682
750.535242	2539.637526
750.863555	2539.430838
751.191821	2538.750283
751.520039	2540.028215
751.848210	2540.149203
752.176334	2541.845551
752.504411	2539.713143
752.832440	2540.234903
753.160421	2541.033925
753.488356	2540.698689
753.816243	2539.337577
754.144082	2538.599048
754.471875	2542.563916
754.799620	2542.972249
755.127318	2539.065355
755.454969	2539.241795
755.782572	2541.144831
756.110129	2537.583256
756.437638	2538.205838
756.765100	2541.172557
757.092515	2539.647608
757.419882	2539.007382
757.747203	2538.752803
758.074477	2539.451003
758.401703	2539.824048
758.728882	2540.733977
759.056014	2541.343956
759.383099	2537.610982
759.710138	2539.251877
760.037129	2541.054090
760.364073	2543.620037
760.690970	2539.992927
761.017820	2539.108205
761.344623	2543.221786
761.671379	2539.934954
761.998088	2535.009747
762.324751	2539.821528
762.651366	2539.193904
762.977935	2543.960315
763.304456	2544.966025
763.630931	2549.122457
763.957359	2545.225645
764.283740	2544.978628
764.610074	2542.379913
764.936362	2543.670449
765.262602	2545.318906
765.588796	2543.120963
765.914943	2542.092568
766.241044	2544.282949
766.567097	2540.600386
766.893104	2541.895963
767.219064	2538.551157
767.544978	2539.506456
767.870845	2537.968904
768.196665	2538.720036
768.522438	2539.617361
768.848165	2541.197763
769.173846	2539.168698
769.499479	2539.937474
769.825066	2537.404295
770.150607	2539.231713
770.476101	2539.166178
770.801548	2541.137269
771.126949	2539.622402
771.452303	2538.203318
771.777611	2537.941178
772.102872	2536.524613
772.428087	2540.123997
772.753256	2537.535365
773.078378	2538.674665
773.403453	2540.048380
773.728482	2535.881866
774.053465	2536.890097
774.378401	2538.140303
774.703291	2538.528472
775.028135	2536.839685
775.352932	2535.849099
775.677683	2537.197607
776.002388	2539.650129
776.327046	2539.602238
776.651658	2536.917823
776.976224	2537.089223
777.300743	2539.120807
777.625216	2534.787936
777.949643	2536.902700
778.274024	2537.250539
778.598359	2535.700385
778.922647	2531.072605
779.246889	2537.931095
779.571086	2531.612009
779.895236	2535.370189
780.219339	2537.084181
780.543397	2536.718698
780.867409	2534.329191
781.191374	2535.907072
781.515294	2537.200128
781.839167	2535.765920
782.162995	2537.268183
782.486776	2538.178112
782.810511	2537.318595
783.134201	2536.877494
783.457844	2538.243647
783.781441	2536.287679
784.104993	2534.606454
784.428498	2535.965045
784.751958	2537.870601
785.075372	2536.486805
785.398739	2536.834644
785.722061	2539.017464
786.045337	2536.484284
786.368568	2537.248019
786.691752	2536.592669
787.014891	2537.326157
787.337983	2538.417567
787.661030	2538.795653
787.984031	2536.055786
788.306987	2537.986548
788.629897	2537.099305
788.952760	2538.069727
789.275579	2540.892773
789.598351	2538.321785
789.921078	2535.271887
790.243759	2539.927392
790.566395	2535.796167
790.888984	2536.101156
791.211529	2536.237268
791.534027	2537.792463
791.856480	2536.038142
792.178888	2536.239788
792.501249	2537.588297
792.823566	2537.941178
793.145836	2537.119469
793.468062	2536.915303
793.790241	2536.527134
794.112375	2538.825900
794.434464	2537.646270
794.756507	2536.587628
795.078505	2534.384643
795.400457	2534.704757
795.722364	2533.152081
796.044226	2534.866074
796.366042	2534.760209
796.687812	2534.094777
797.009538	2537.147196
797.331218	2534.467823
797.652852	2535.997813
797.974442	2537.285828
798.295986	2535.549150
798.617484	2536.174253
798.938938	2536.398584
799.260346	2537.880684
799.581709	2536.640560
799.903026	2534.649304
800.224299	2536.761547
800.545526	2536.670807
800.866708	2537.401774
801.187845	2536.660724
801.508936	2536.557381
801.829983	2535.861702
802.150984	2535.211393
802.471940	2536.685930
802.792851	2536.771630
803.113717	2535.864222
803.434538	2537.439583
803.755314	2535.836496
804.076045	2536.605272
804.396731	2535.513862
804.717372	2535.491177
805.037967	2533.807431
805.358518	2535.571835
805.679024	2536.002854
805.999485	2534.934129
806.319901	2534.538399
806.640272	2536.070909
806.960598	2534.460261
807.280879	2534.263656
807.601115	2535.710467
807.921306	2534.818183
808.241453	2538.377237
808.561554	2536.242309
808.881611	2535.637370
809.201623	2537.860519
809.521590	2537.845396
809.841513	2536.685930
810.161390	2535.234078
810.481223	2536.343132
810.801011	2535.612164
811.120755	2537.832793
811.440453	2539.214069
811.760107	2535.844058
812.079716	2531.707791
812.399281	2532.335414
812.718801	2534.513193
813.038276	2531.155784
813.357707	2533.058820
813.677093	2536.348173
813.996434	2536.638039
814.315731	2534.311547
814.634983	2536.413708
814.954191	2536.154088
815.273354	2538.281455
815.592473	2535.748276
815.911547	2537.719367
816.230577	2537.774819
816.549562	2535.312216
816.868502	2535.967566
817.187399	2532.474046
817.506250	2538.478060
817.825058	2535.342463
818.143821	2536.842206
818.462539	2537.668955
818.781213	2537.852957
819.099843	2535.534027
819.418429	2538.490663
819.736970	2537.999151
820.055466	2539.725746
820.373919	2541.323792
820.692327	2544.834955
821.010691	2547.035419
821.329011	2552.278219
821.647286	2562.660475
821.965517	2574.300500
822.283704	2582.686459
822.601847	2586.752150
822.919945	2579.424833
823.237999	2569.271949
823.556010	2564.049313
823.873976	2558.735937
824.191897	2555.222253
824.509775	2549.719833
824.827609	2547.093392
825.145398	2546.687579
825.463144	2546.097764
825.780845	2546.538865
826.098502	2546.193546
826.416116	2547.027857
826.733685	2557.619322
827.051210	2556.341389
827.368692	2553.576316
827.686129	2550.662529
828.003522	2548.797302
828.320872	2541.986703
828.638177	2539.803884
828.955439	2537.603420
829.272656	2536.239788
829.589830	2534.833306
829.906960	2538.848585
830.224046	2537.404295
830.541088	2535.929757
830.858086	2535.952442
831.175041	2537.752134
831.491952	2536.494366
831.808819	2536.701054
832.125642	2540.544933
832.442421	2536.630478
832.759157	2540.444110
833.075849	2540.469316
833.392497	2543.844369
833.709101	2545.076931
834.025662	2545.812939
834.342179	2544.653474
834.658653	2542.107691
834.975083	2539.609799
835.291469	2540.544933
835.607811	2539.143493
835.924110	2535.823893
836.240366	2537.696682
836.556578	2536.562422
836.872746	2536.698533
837.188871	2536.486805
837.504952	2535.718029
837.820990	2535.057637
838.136984	2533.255425
838.452935	2534.611495
838.768842	2536.257432
839.084706	2534.435055
839.400526	2536.632998
839.716303	2536.958153
840.032037	2539.980324
840.347727	2536.980838
840.663373	2538.886394
840.978977	2536.133924
841.294537	2535.985210
841.610054	2534.999664
841.925527	2532.768954
842.240957	2535.574356
842.556344	2536.587628
842.871687	2534.006557
843.186987	2534.223327
843.502244	2532.121165
843.817458	2536.927906
844.132629	2531.939684
844.447756	2531.982534
844.762840	2528.599919
845.077881	2529.862728
845.392879	2527.863911
845.707833	2530.951618
846.022745	2528.713345
846.337613	2533.678882
846.652438	2533.310878
846.967221	2534.198121
847.281960	2535.155940
847.596656	2532.471526
847.911309	2533.668800
848.225919	2531.417924
848.540485	2534.561084
848.855009	2531.851464
849.169490	2533.051258
849.483928	2534.551002
849.798323	2530.722245
850.112675	2532.060672
850.426984	2535.791125
850.741251	2532.456402
851.055474	2535.120652
851.369654	2533.449509
851.683792	2531.722914
851.997887	2534.838347
852.311938	2532.857174
852.625947	2534.457740
852.939914	2530.749972
853.253837	2533.545291
853.567718	2533.295754
853.881555	2531.460774
854.195350	2532.342976
854.509103	2534.876156
854.822812	2530.785260
855.136479	2533.983872
855.450103	2535.465971
855.763685	2532.975641
856.077224	2531.899355
856.390720	2531.833820
856.704173	2532.922709
857.017584	2534.059489
857.330953	2530.986906
857.644278	2533.235260
857.957561	2534.203162
858.270802	2533.777184
858.584000	2529.436751
858.897155	2534.122503
859.210268	2533.015970
859.523339	2534.064530
859.836367	2532.176618
860.149352	2534.462781
860.462295	2533.015970
860.775195	2528.577234
861.088054	2528.826771
861.400869	2530.792821
861.713642	2527.518592
862.026373	2530.838192
862.339062	2533.053779
862.651708	2533.136958
862.964312	2531.801052
863.276873	2531.438089
863.589392	2532.602596
863.901869	2533.595703
864.214303	2532.635363
864.526696	2531.652338
864.839045	2531.715353
865.151353	2532.889941
865.463619	2531.901875
865.775842	2529.308202
866.088023	2533.835158
866.400162	2530.412214
866.712258	2535.750796
867.024313	2533.668800
867.336325	2536.330529
867.648296	2533.709129
867.960224	2532.453882
868.272110	2532.660569
868.583954	2531.531350
868.895755	2532.408511
869.207515	2534.004036
869.519233	2534.119983
869.830909	2532.952956
870.142542	2533.000847
870.454134	2532.494211
870.765684	2533.578059
871.077191	2536.015457
871.388657	2534.845909
871.700081	2533.658717
872.011463	2532.199303
872.322803	2534.286341
872.634101	2532.915147
872.945357	2535.647452
873.256571	2535.702905
873.567744	2532.569828
873.878874	2531.949766
874.189963	2534.132586
874.501010	2534.646783
874.812015	2533.426824
875.122979	2534.293903
875.433900	2534.424973
875.744780	2534.026722
876.055618	2534.321629
876.366415	2533.041176
876.677169	2533.996475
876.987882	2533.401618
877.298554	2530.283665
877.609183	2531.667462
877.919771	2530.785260
878.230317	2531.145702
878.540822	2535.024870
878.851285	2535.498738
879.161707	2534.480425
879.472087	2535.914634
879.782425	2536.028060
880.092722	2538.533513
880.402977	2545.079451
880.713191	2550.261757
881.023363	2556.598488
881.333494	2561.793397
881.643583	2564.692060
881.953631	2559.499672
882.263637	2562.519323
882.573602	2558.743499
882.883526	2555.126471
883.193408	2551.083466
883.503248	2548.676315
883.813048	2545.644061
884.122806	2543.020140
884.432522	2543.105840
884.742197	2539.698020
885.051831	2541.210366
885.361424	2538.851106
885.670975	2537.837834
885.980485	2537.734490
886.289954	2537.028729
886.599382	2533.436907
886.908768	2536.612833
887.218113	2534.999664
887.527417	2535.728111
887.836680	2532.728624
888.145901	2534.992102
888.455082	2534.079654
888.764221	2533.958666
889.073319	2536.844727
889.382376	2532.564787
889.691392	2531.528830
890.000366	2533.232740
890.309300	2531.743079
890.618193	2533.068902
890.927044	2534.664427
891.235855	2532.342976
891.544625	2534.704757
891.853353	2535.700385
892.162041	2533.497400
892.470687	2533.457071
892.779293	2531.538912
893.087858	2533.671320
893.396381	2531.874149
893.704864	2532.920188
894.013306	2535.339942
894.321707	2540.960829
894.630068	2540.930582
894.938387	2544.625747
895.246665	2541.008720
895.554903	2540.983514
895.863100	2539.629964
896.171256	2539.761034
896.479371	2538.059645
896.787446	2537.588297
897.095480	2533.114273
897.403473	2535.929757
897.711425	2536.259953
898.019336	2535.710467
898.327207	2534.982020
898.635038	2532.693336
898.942827	2535.090405
899.250576	2533.716691
899.558284	2533.252904
899.865952	2534.397246
900.173579	2535.292051
900.481165	2531.309540
900.788711	2533.804911
901.096216	2530.601258
901.403681	2530.679395
901.711105	2532.494211
902.018489	2534.916485
902.325832	2536.207021
902.633135	2534.344314
902.940397	2534.341794
903.247619	2534.475384
903.554800	2537.913451
903.861941	2539.791281
904.169041	2546.823691
904.476101	2545.684390
904.783121	2546.725388
905.090100	2542.722712
905.397039	2542.054759
905.703938	2538.442772
906.010796	2538.856147
906.317614	2535.891948
906.624391	2538.979655
906.931129	2534.805580
907.237826	2536.307844
907.544483	2534.477905
907.851099	2532.234591
908.157675	2532.564787
908.464211	2532.101001
908.770707	2527.286699
909.077163	2531.140661
909.383578	2530.765095
909.689954	2528.415917
909.996289	2528.025228
910.302584	2532.499252
910.608839	2532.726104
910.915054	2530.969262
911.221229	2532.461443
911.527363	2529.366175
911.833458	2534.049407
912.139513	2531.354910
912.445527	2533.129396
912.751502	2532.973120
913.057436	2530.954138
913.363331	2535.092926
913.669186	2529.285516
913.975000	2530.878521
914.280775	2534.031763
914.586510	2536.264994
914.892205	2536.569984
915.197859	2537.951260
915.503475	2539.579552
915.809050	2543.980480
916.114585	2543.831766
916.420081	2546.392672
916.725536	2543.620037
917.030952	2542.758000
917.336328	2543.342774
917.641665	2542.077444
917.946961	2538.258770
918.252218	2538.586445
918.557435	2537.747093
918.862612	2537.452186
919.167750	2534.578728
919.472848	2533.671320
919.777906	2534.432534
920.082925	2534.104859
920.387904	2534.790456
920.692843	2534.883718
920.997743	2532.748789
921.302603	2532.516896
921.607423	2530.059333
921.912204	2535.576876
922.216946	2532.320291
922.521647	2532.504293
922.826310	2530.848274
923.130932	2533.404139
923.435516	2531.896834
923.740059	2530.175280
924.044564	2531.732997
924.349028	2533.240302
924.653454	2529.774508
924.957840	2530.676875
925.262186	2528.133613
925.566493	2528.778880
925.870761	2527.130423
926.174989	2530.384488
926.479178	2531.299457
926.783328	2530.946577
927.087438	2528.582275
927.391509	2531.014632
927.695541	2531.087729
927.999533	2530.094622
928.303486	2530.538243
928.607400	2529.933305
928.911275	2531.516227
929.215110	2530.049251
929.518906	2527.735362
929.822663	2531.531350
930.126381	2529.582944
930.430060	2530.076977
930.733699	2528.126051
931.037299	2529.114117
931.340861	2531.004550
931.644383	2530.293747
931.947866	2528.027748
932.251309	2529.179652
932.554714	2529.749302
932.858080	2531.952287
933.161407	2530.911288
933.464694	2530.573531
933.767943	2533.444468
934.071153	2529.114117
934.374323	2530.881042
934.677455	2527.140505
934.980548	2529.668644
935.283602	2531.964890
935.586617	2527.412728
935.889593	2529.827440
936.192530	2529.056144
936.495428	2528.693181
936.798287	2531.256608
937.101108	2527.536236
937.403890	2530.001360
937.706632	2530.855836
938.009336	2529.973634
938.312002	2532.337935
938.614628	2530.928933
938.917216	2529.459436
939.219765	2529.162008
939.522275	2532.481608
939.824747	2530.646628
940.127179	2527.087573
940.429573	2528.380629
940.731929	2527.531195
941.034246	2526.137316
941.336524	2529.678726
941.638763	2531.042358
941.940964	2531.117976
942.243126	2530.946577
942.545250	2529.819879
942.847335	2532.620240
943.149381	2530.502955
943.451389	2531.851464
943.753359	2531.226361
944.055290	2531.458254
944.357182	2532.078316
944.659036	2530.939015
944.960851	2530.243336
945.262628	2529.809796
945.564367	2529.892975
945.866067	2530.618902
946.167729	2528.743592
946.469352	2531.564118
946.770937	2530.732327
947.072484	2530.878521
947.373992	2531.354910
947.675462	2528.635207
947.976893	2531.957328
948.278286	2529.013294
948.579641	2531.803573
948.880958	2530.329035
949.182236	2530.384488
949.483476	2529.237625
949.784678	2532.736186
950.085841	2529.358613
950.386967	2530.505476
950.688054	2530.737369
950.989103	2528.652852
951.290114	2527.659744
951.591087	2528.854498
951.892021	2527.558921
952.192917	2527.652183
952.493776	2530.293747
952.794596	2532.234591
953.095378	2529.119158
953.396122	2531.165867
953.696828	2529.265352
953.997496	2528.196627
954.298126	2528.178983
954.598718	2531.894313
954.899272	2527.803417
955.199788	2527.304343
955.500266	2532.141330
955.800706	2527.770650
956.101108	2522.658920
956.401472	2527.228726
956.701798	2525.958355
957.002087	2525.731503
957.302337	2528.065557
957.602550	2528.441123
957.902724	2530.540764
958.202861	2529.799714
958.502960	2528.753675
958.803022	2528.368026
959.103045	2529.295599
959.403031	2529.562780
959.702979	2529.827440
960.002889	2529.792152
960.302762	2528.552028
960.602596	2528.284847
960.902393	2524.672861
961.202153	2530.853315
961.501875	2525.113962
961.801559	2528.952800
962.101205	2529.056144
962.400814	2529.835002
962.700385	2528.776360
962.999918	2529.593027
963.299414	2529.381298
963.598873	2529.789632
963.898293	2528.501617
964.197677	2529.441792
964.497022	2530.039169
964.796331	2531.692667
965.095601	2528.239477
965.394835	2531.934643
965.694030	2528.536905
965.993189	2526.785104
966.292309	2526.759898
966.591393	2525.686132
966.890439	2528.539426
967.189447	2530.099663
967.488419	2527.379960
967.787353	2529.088911
968.086249	2527.180835
968.385108	2528.496576
968.683930	2527.894158
968.982714	2527.354754
969.281462	2528.814168
969.580172	2528.463808
969.878844	2528.476411
970.177480	2527.059847
970.476078	2528.368026
970.774639	2526.918695
971.073162	2527.465660
971.371649	2522.850483
971.670098	2525.045906
971.968510	2521.660771
972.266885	2523.646986
972.565223	2528.252080
972.863524	2528.186545
973.161788	2530.303829
973.460014	2528.980527
973.758204	2527.521113
974.056356	2528.768798
974.354471	2526.848118
974.652550	2526.918695
974.950591	2528.362985
975.248595	2529.091432
975.546563	2528.710825
975.844493	2528.466329
976.142386	2528.909950
976.440243	2528.932636
976.738062	2528.017666
977.035845	2526.515402
977.333590	2526.439785
977.631299	2530.631504
977.928971	2526.356606
978.226606	2529.930784
978.524204	2528.857018
978.821765	2528.163860
979.119290	2527.533715
979.416777	2527.667306
979.714228	2528.272244
980.011642	2529.305681
980.309020	2529.887934
980.606360	2528.297450
980.903664	2531.712832
981.200931	2526.316277
981.498162	2527.490866
981.795356	2527.241328
982.092513	2528.645290
982.389633	2527.707635
982.686717	2526.565814
982.983764	2527.276617
983.280775	2527.236287
983.577749	2527.684950
983.874686	2530.475229
984.171587	2529.507327
984.468451	2525.277799
984.765279	2528.302491
985.062070	2528.637728
985.358824	2527.395084
985.655543	2525.050947
985.952224	2529.792152
986.248869	2526.971627
986.545478	2525.429034
986.842050	2526.306194
987.138586	2522.744619
987.435086	2524.319980
987.731549	2520.372756
988.027975	2527.553880
988.324366	2528.864580
988.620719	2525.184538
988.917037	2528.708304
989.213318	2529.711494
989.509563	2529.744261
989.805772	2528.967924
990.101944	2527.493386
990.398080	2528.448685
990.694180	2524.224198
990.990244	2528.494055
991.286271	2526.853160
991.582262	2531.604447
991.878217	2526.878365
992.174136	2525.562624
992.470019	2526.233098
992.765865	2526.051616
993.061676	2526.404497
993.357450	2528.791483
993.653188	2526.648993
993.948890	2527.931967
994.244556	2525.794517
994.540186	2525.900382
994.835780	2528.186545
995.131337	2527.773170
995.426859	2528.794004
995.722345	2525.396266
996.017795	2528.337779
996.313208	2527.057326
996.608586	2527.563962
996.903928	2527.211082
997.199234	2525.582789
997.494504	2529.381298
997.789738	2526.235618
998.084936	2527.901720
998.380099	2525.786956
998.675225	2526.379291
998.970316	2529.739220
999.265371	2527.321987
999.560390	2525.063550
999.855373	2527.889117
1000.150320	2526.417100
1000.445232	2529.414066
1000.740108	2525.398787
1001.034948	2527.954652
1001.329752	2525.665968
1001.624521	2528.176463
1001.919254	2525.013138
1002.213951	2524.400638
1002.508613	2524.004908
1002.803239	2527.642100
1003.097829	2524.478776
1003.392384	2526.306194
1003.686903	2525.751668
1003.981386	2525.182017
1004.275834	2527.269055
1004.570246	2530.593696
1004.864623	2527.841226
1005.158964	2527.022038
1005.453270	2527.727800
1005.747540	2529.119158
1006.041775	2527.795855
1006.335974	2527.236287
1006.630138	2526.235618
1006.924266	2526.081863
1007.218359	2525.376102
1007.512416	2527.921884
1007.806438	2524.501461
1008.100425	2524.478776
1008.394376	2526.971627
1008.688292	2527.795855
1008.982172	2522.943745
1009.276017	2526.805269
1009.569827	2525.701256
1009.863602	2529.603109
1010.157341	2526.994312
1010.451045	2526.890968
1010.744714	2527.836185
1011.038347	2526.931297
1011.331945	2526.941380
1011.625508	2527.170752
1011.919036	2527.884076
1012.212528	2526.280989
1012.505986	2524.743437
1012.799408	2525.776873
1013.092795	2524.816533
1013.386147	2527.019518
1013.679464	2526.147398
1013.972745	2527.647141
1014.265992	2525.111441
1014.559204	2528.103366
1014.852380	2527.238808
1015.145521	2529.330887
1015.438628	2525.313087
1015.731699	2526.984230
1016.024736	2525.449198
1016.317737	2527.765608
1016.610703	2527.626977
1016.903635	2524.635052
1017.196531	2523.034486
1017.489393	2526.896009
1017.782219	2523.062212
1018.075011	2525.512213
1018.367768	2523.440298
1018.660490	2525.083715
1018.953177	2525.083715
1019.245829	2525.083715
