Dividing Wavelength (nm)	Counts (n)	Blue Motor Position (mm): 0.000000	Red Motor Position (mm): 31.900000	
326.493990	2128.410442
326.888308	2128.410442
327.282561	2128.410442
327.676750	2095.043045
328.070874	2092.585482
328.464933	2095.680751
328.858929	2101.876329
329.252859	2110.579881
329.646726	2124.538836
330.040528	2135.584004
330.434265	2153.795172
330.827938	2172.316371
331.221547	2189.882272
331.615091	2209.446990
332.008571	2227.592623
332.401986	2248.856210
332.795338	2265.923037
333.188625	2286.062446
333.581847	2306.148924
333.975006	2323.654330
334.368100	2342.561178
334.761129	2359.012983
335.154095	2372.697196
335.546996	2395.193345
335.939833	2412.955850
336.332606	2427.668458
336.725315	2439.774789
337.117960	2449.277364
337.510540	2459.868828
337.903056	2470.051959
338.295508	2476.232413
338.687896	2485.719865
339.080220	2493.301760
339.472480	2501.065137
339.864676	2505.115704
340.256807	2505.385406
340.648875	2512.425377
341.040879	2513.688186
341.432818	2513.932682
341.824694	2517.252282
342.216506	2515.702127
342.608253	2516.670029
342.999937	2518.527694
343.391557	2516.818743
343.783113	2516.183558
344.174605	2516.254134
344.566033	2515.170286
344.957397	2512.831190
345.348697	2510.441683
345.739934	2508.387413
346.131106	2508.107629
346.522215	2505.140910
346.913260	2504.873729
347.304241	2501.077740
347.695159	2499.923316
348.086012	2496.903665
348.476802	2492.510299
348.867528	2495.799652
349.258191	2495.751761
349.648789	2494.617501
350.039324	2491.184476
350.429796	2493.604229
350.820203	2489.077273
351.210548	2487.874958
351.600828	2486.413023
351.991045	2489.783035
352.381198	2488.996615
352.771288	2485.803044
353.161314	2484.981336
353.551276	2488.726913
353.941175	2488.651296
354.331010	2488.270689
354.720782	2487.653147
355.110490	2484.141984
355.500135	2487.043168
355.889717	2486.113075
356.279235	2488.787407
356.668689	2488.318580
357.058080	2486.551655
357.447408	2484.179792
357.836672	2484.454535
358.225873	2489.457880
358.615010	2484.827581
359.004084	2490.466111
359.393095	2488.021152
359.782043	2492.308653
360.170927	2492.495176
360.559748	2492.598519
360.948505	2492.601040
361.337199	2494.040289
361.725830	2491.688591
362.114398	2495.051041
362.502903	2494.897285
362.891344	2496.865856
363.279722	2498.647904
363.668037	2497.682523
364.056289	2497.430465
364.444478	2497.773264
364.832603	2499.033552
365.220665	2498.410970
365.608665	2501.662514
365.996601	2502.348111
366.384474	2502.930364
366.772284	2503.832731
367.160031	2506.882629
367.547715	2507.311127
367.935336	2511.467558
368.322893	2510.474451
368.710388	2514.509894
369.097820	2522.855525
369.485189	2524.816533
369.872495	2529.371216
370.259738	2536.761548
370.646918	2543.781354
371.034035	2551.277550
371.421090	2563.209961
371.808081	2572.911662
372.195010	2582.358784
372.581875	2594.691967
372.968678	2608.839965
373.355418	2620.452263
373.742096	2634.827113
374.128710	2651.714979
374.515262	2667.876918
374.901751	2682.047601
375.288177	2693.969930
375.674540	2717.088662
376.060841	2736.418966
376.447079	2753.793303
376.833254	2775.263577
377.219367	2790.732358
377.605417	2826.373315
377.991404	2839.167764
378.377329	2858.112420
378.763191	2874.619678
379.148991	2915.899167
379.534727	2935.284924
379.920402	2966.580407
380.306013	2979.233703
380.691563	3025.481248
381.077049	3049.131822
381.462474	3069.240984
381.847835	3108.539299
382.233134	3129.162659
382.618371	3128.469501
383.003545	3200.384081
383.388657	3203.476829
383.773706	3238.089391
384.158693	3251.559354
384.543618	3282.302831
384.928480	3315.405568
385.313280	3362.126982
385.698017	3363.170500
386.082692	3413.640012
386.467305	3417.758635
386.851856	3450.604273
387.236344	3474.360710
387.620770	3507.004702
388.005133	3534.168959
388.389435	3558.313566
388.773674	3570.359403
389.157851	3613.796505
389.541965	3626.714462
389.926018	3592.676591
390.310008	3663.502282
390.693936	3685.136394
391.077802	3723.300449
391.461606	3713.344170
391.845348	3778.039818
392.229027	3773.298613
392.612645	3787.406282
392.996200	3865.836553
393.379694	3905.880959
393.763125	3971.773881
394.146494	3937.627625
394.529801	3999.412007
394.913047	4048.069224
395.296230	4015.032022
395.679351	4069.632759
396.062410	4093.106892
396.445408	4071.581165
396.828343	4106.652473
397.211217	4133.562152
397.594028	4049.546282
397.976778	4120.364411
398.359466	4144.095643
398.742092	4174.347607
399.124656	4094.198302
399.507158	4174.183769
399.889598	4202.920867
400.271977	4264.750619
400.654294	4234.009663
401.036549	4243.484511
401.418742	4212.216755
401.800874	4314.617713
402.182944	4333.272503
402.564952	4401.683481
402.946898	4387.303589
403.328783	4385.191346
403.710606	4301.109941
404.092367	4492.457018
404.474067	4452.160554
404.855705	4461.302687
405.237282	4389.456162
405.618797	4499.355837
406.000250	4534.195251
406.381642	4611.123258
406.762972	4575.878031
407.144240	4585.189043
407.525447	4587.583591
407.906593	4646.635667
408.287677	4688.933468
408.668700	4614.631902
409.049661	4667.627031
409.430560	4712.815934
409.811399	4636.500427
410.192176	4797.378770
410.572891	4738.911467
410.953545	4840.536088
411.334138	4722.036205
411.714669	4787.785454
412.095139	4683.012633
412.475547	4827.252647
412.855894	4806.026869
413.236180	4814.564063
413.616405	4767.530098
413.996568	4858.477554
414.376670	4799.402793
414.756711	4752.126852
415.136691	4785.312768
415.516609	4861.847566
415.896466	4900.578751
416.276262	4936.378505
416.655997	4915.404784
417.035670	5097.450932
417.415283	5189.096588
417.794834	5135.899812
418.174324	5090.017750
418.553753	4992.252133
418.933121	5176.395401
419.312428	5243.621708
419.691674	5183.170712
420.070859	5306.883148
420.449983	5224.215786
420.829045	5336.769628
421.208047	5244.879476
421.586988	5315.858922
421.965867	5328.766797
422.344686	5462.596828
422.723444	5317.320857
423.102141	5134.745388
423.480777	5431.795378
423.859352	5201.074370
424.237866	5458.989883
424.616319	5453.774809
424.994712	5564.143311
425.373044	5440.962717
425.751314	5582.523358
426.129524	5383.952308
426.507673	5582.455302
426.885762	5661.566129
427.263789	5593.467703
427.641756	5476.260876
428.019662	5596.734370
428.397508	5604.283498
428.775292	5549.375251
429.153016	5647.670189
429.530679	5573.129167
429.908282	5661.810625
430.285824	5529.855903
430.663305	5802.781452
431.040726	5540.147418
431.418086	5541.037182
431.795385	5651.506507
432.172624	5656.303165
432.549802	5652.088760
432.926920	5670.017624
433.303977	5673.450650
433.680974	5714.415066
434.057910	5730.024999
434.434786	5735.613118
434.811601	5705.046081
435.188355	5938.733809
435.565050	5816.543802
435.941683	5794.425739
436.318257	6007.616135
436.694770	5987.249874
437.071222	6029.787130
437.447614	5955.140244
437.823946	5868.533221
438.200218	6025.507190
438.576429	5891.457868
438.952580	5992.815308
439.328670	6034.190578
439.704700	5939.588285
440.080670	5928.764927
440.456580	6198.459096
440.832429	6083.467857
441.208218	5924.873157
441.583947	6085.960707
441.959616	6091.022026
442.335224	6017.043093
442.710773	6152.874463
443.086261	6178.758267
443.461689	5975.345189
443.837057	6122.083095
444.212365	6280.617301
444.587612	6173.870868
444.962800	6329.297203
445.337927	6305.102185
445.712995	5916.729173
446.088002	6495.614951
446.462949	6322.065668
446.837837	6249.823413
447.212664	6424.953097
447.587431	6568.832669
447.962139	7112.813499
448.336786	8039.342287
448.711374	7782.253524
449.085901	6851.633838
449.460369	6771.313134
449.834776	6707.083793
450.209124	7104.057014
450.583412	7254.374140
450.957640	7399.090543
451.331808	7157.183214
451.705917	6717.450926
452.079965	6635.786754
452.453954	6853.557039
452.827883	6726.784622
453.201752	6819.937584
453.575562	6618.702284
453.949311	6821.233160
454.323001	6712.220729
454.696632	6784.702439
455.070202	6922.310815
455.443713	7076.111378
455.817164	7179.941503
456.190556	7259.901765
456.563888	7332.403640
456.937160	7373.680607
457.310373	7035.028495
457.683526	7057.824592
458.056619	6949.701925
458.429653	6934.573422
458.802628	6871.997579
459.175542	6981.572099
459.548398	7340.179619
459.921194	7496.866243
460.293930	7497.105698
460.666607	8029.774177
461.039224	8340.243719
461.411782	8466.065878
461.784280	8488.766194
462.156719	8379.413485
462.529099	8259.045854
462.901419	7843.531269
463.273680	7732.472129
463.645882	7747.643482
464.018024	7608.489992
464.390106	7780.768904
464.762130	8171.448245
465.134094	8629.545456
465.505999	9655.505964
465.877845	10876.181038
466.249631	11534.394414
466.621358	11144.846812
466.993026	10524.316062
467.364634	10259.801678
467.736184	9897.045288
468.107674	9561.553979
468.479105	9595.397766
468.850477	9363.424030
469.221790	9134.185121
469.593043	8805.771592
469.964238	8664.649531
470.335373	8675.094802
470.706449	8735.109738
471.077467	8720.059374
471.448425	10027.449856
471.819324	11093.298493
472.190164	11123.938626
472.560945	9872.406649
472.931667	9081.719312
473.302330	8949.399106
473.672934	8592.906350
474.043479	8945.484650
474.413965	8889.177482
474.784393	8767.491590
475.154761	8919.633613
475.525070	9005.797015
475.895321	8833.427362
476.265513	9003.896500
476.635645	9171.719032
477.005719	9166.743413
477.375734	9282.049725
477.745691	9514.704016
478.115588	9641.363007
478.485427	9879.590293
478.855207	10407.290716
479.224928	11205.605319
479.594591	11830.358035
479.964194	11632.621296
480.333739	11578.360837
480.703226	11484.255097
481.072653	11569.364898
481.442022	11785.211982
481.811333	11969.725775
482.180584	11765.289342
482.549777	11477.003398
482.918912	11293.258381
483.287988	11294.932044
483.657005	11296.850203
484.025964	10976.873045
484.394864	11096.466858
484.763706	11055.736856
485.132489	10803.777466
485.501213	10752.587069
485.869879	10817.706174
486.238487	10645.550770
486.607036	10731.746939
486.975527	10507.690336
487.343959	10676.879021
487.712333	10708.678619
488.080648	10626.749787
488.448905	10645.235698
488.817104	10560.045239
489.185244	10795.167175
489.553326	10924.833214
489.921350	11406.278530
490.289315	12339.812002
490.657222	12652.053509
491.025070	12516.479238
491.392861	12382.825647
491.760593	12014.342507
492.128267	11672.713593
492.495883	11340.398211
492.863440	10996.732671
493.230939	10649.475309
493.598380	10556.627337
493.965763	10394.655064
494.333088	10284.508373
494.700354	10172.554428
495.067563	10192.688797
495.434713	10002.503706
495.801805	10078.773843
496.168839	9973.950611
496.535815	9869.646617
496.902733	9835.391977
497.269593	9737.313808
497.636395	9785.000603
498.003139	9726.850893
498.369825	9571.517820
498.736453	9658.870934
499.103023	9552.711796
499.469535	9520.917238
499.835989	9474.500814
500.202385	9388.143328
500.568723	9211.894508
500.935003	9354.579326
501.301226	9121.625086
501.667390	9296.636304
502.033497	9314.300507
502.399546	9162.728134
502.765537	9026.339717
503.131470	9027.423565
503.497345	9106.151264
503.863163	8757.305939
504.228923	8926.580323
504.594625	8919.552955
504.960269	8676.460955
505.325856	8774.828990
505.691385	8561.179848
506.056856	8611.183053
506.422270	8565.391732
506.787625	8434.687216
507.152924	8439.312475
507.518164	8375.839307
507.883347	8245.850634
508.248472	8135.046073
508.613540	8222.429433
508.978550	8071.923265
509.343503	7992.106676
509.708398	8004.752410
510.073236	8002.549426
510.438016	7939.144314
510.802738	7836.362748
511.167403	7801.321688
511.532010	7656.489338
511.896561	7743.809684
512.261053	7713.474541
512.625488	7550.569655
512.989866	7464.713763
513.354186	7394.765233
513.718449	7266.568691
514.082655	7305.917417
514.446803	7177.345309
514.810894	7172.064700
515.174927	7020.938470
515.538904	6973.367622
515.902822	6971.583053
516.266684	6849.589651
516.630488	6746.941676
516.994235	6714.421193
517.357925	6657.849364
517.721558	6635.141487
518.085133	6565.702113
518.448651	6509.309245
518.812112	6384.223095
519.175516	6313.576365
519.538863	6296.796884
519.902152	6202.668460
520.265385	6179.915212
520.628560	6090.313743
520.991678	6000.533314
521.354739	5964.287418
521.717743	5868.702100
522.080690	5797.649557
522.443580	5770.044198
522.806413	5688.627043
523.169189	5642.979395
523.531908	5590.153144
523.894569	5470.493796
524.257174	5405.916615
524.619722	5374.411924
524.982213	5308.992871
525.344647	5257.918420
525.707025	5185.600548
526.069345	5150.385568
526.431608	5059.012134
526.793815	5034.035737
527.155964	4921.912914
527.518057	4879.829361
527.880093	4811.814114
528.242072	4774.295326
528.603995	4690.478582
528.965860	4620.005772
529.327669	4581.705605
529.689421	4523.324002
530.051117	4462.431905
530.412755	4426.685083
530.774337	4363.123695
531.135862	4305.808296
531.497331	4267.324128
531.858743	4184.860933
532.220098	4173.906506
532.581396	4106.120631
532.942638	4062.149166
533.303824	4017.305582
533.664953	3974.501145
534.026025	3922.035336
534.387040	3895.498702
534.747999	3859.247765
535.108902	3830.871110
535.469748	3759.616921
535.830537	3734.892582
536.191270	3698.762632
536.551947	3662.761232
536.912567	3631.866521
537.273131	3591.849842
537.633638	3556.443298
537.994089	3521.172865
538.354483	3485.413440
538.714821	3474.663179
539.075103	3450.180816
539.435328	3414.030702
539.795497	3369.933208
540.155609	3358.215046
540.515665	3338.486491
540.875665	3292.170890
541.235609	3268.863115
541.595496	3246.679517
541.955328	3233.895151
542.315102	3205.702498
542.674821	3176.670493
543.034483	3154.769200
543.394090	3135.020480
543.753640	3110.996862
544.113134	3099.644183
544.472571	3076.217941
544.831953	3064.850139
545.191278	3036.886859
545.550548	3021.314735
545.909761	3011.040863
546.268918	2992.149139
546.628019	2984.244610
546.987064	2958.570013
547.346053	2945.858744
547.704986	2932.187135
548.063863	2918.727254
548.422684	2907.346849
548.781449	2889.299518
549.140158	2885.443036
549.498811	2865.711959
549.857408	2852.133612
550.215949	2846.351408
550.574434	2831.613595
550.932864	2822.657985
551.291237	2815.590287
551.649555	2806.024698
552.007817	2800.587813
552.366022	2791.420475
552.724173	2783.614248
553.082267	2777.090995
553.440305	2770.824841
553.798288	2760.581217
554.156215	2755.613159
554.514086	2749.841038
554.871902	2738.780747
555.229661	2733.568194
555.587365	2728.290106
555.945014	2722.956565
556.302606	2719.775597
556.660143	2713.731253
557.017625	2712.672611
557.375050	2706.151878
557.732421	2702.781867
558.089735	2699.560570
558.446994	2699.013605
558.804197	2693.075125
559.161345	2688.512881
559.518437	2684.172448
559.875474	2682.483661
560.232455	2680.953671
560.589381	2678.710357
560.946251	2674.942095
561.303065	2672.565191
561.659825	2669.805159
562.016528	2667.700477
562.373177	2663.748213
562.729770	2664.222081
563.086307	2661.709066
563.442789	2660.862152
563.799216	2655.780669
564.155587	2657.822337
564.511904	2652.035092
564.868164	2651.485606
565.224370	2651.856131
565.580520	2646.197436
565.936615	2648.259268
566.292654	2643.691982
566.648638	2647.067035
567.004567	2642.041004
567.360441	2641.247023
567.716260	2637.955149
568.072023	2642.182157
568.427732	2634.811990
568.783385	2635.822741
569.138982	2632.959366
569.494525	2634.282669
569.850013	2629.347379
570.205445	2632.999695
570.560823	2632.876187
570.916145	2629.861577
571.271412	2630.355610
571.626625	2629.775877
571.981782	2628.956690
572.336884	2626.995681
572.691931	2627.015845
573.046923	2622.360340
573.401860	2622.287243
573.756743	2624.026441
574.111570	2623.580299
574.466342	2625.758077
574.821059	2622.561986
575.175722	2619.237345
575.530330	2620.837911
575.884882	2621.788169
576.239380	2618.639968
576.593823	2620.048971
576.948211	2618.150976
577.302544	2617.210801
577.656823	2614.102930
578.011047	2617.770369
578.365216	2613.419853
578.719330	2613.666870
579.073389	2611.849534
579.427394	2613.989504
579.781344	2612.525049
580.135239	2615.700976
580.489080	2614.228959
580.842866	2611.027826
581.196597	2611.746190
581.550273	2612.179730
581.903895	2608.852568
582.257463	2613.129987
582.610975	2608.779471
582.964434	2612.933382
583.317837	2609.780140
583.671186	2610.881632
584.024481	2609.636467
584.377721	2608.078751
584.730906	2607.181426
585.084037	2610.019595
585.437113	2606.450458
585.790135	2606.037084
586.143103	2604.547423
586.496016	2603.329984
586.848874	2601.636156
587.201679	2608.691251
587.554428	2602.326794
587.907124	2603.221599
588.259765	2599.544078
588.612352	2605.948863
588.964884	2601.767226
589.317362	2603.032556
589.669786	2601.495004
590.022155	2605.598503
590.374470	2602.417535
590.726731	2602.150354
591.078937	2601.474839
591.431090	2603.493822
591.783188	2601.618512
592.135232	2601.989037
592.487222	2601.336208
592.839157	2602.460385
593.191038	2600.408635
593.542866	2602.964500
593.894639	2599.977617
594.246358	2598.810590
594.598022	2598.916454
594.949633	2598.377050
595.301190	2597.741865
595.652692	2598.621546
596.004141	2598.268666
596.355535	2598.878645
596.706876	2598.626587
597.058162	2596.350507
597.409395	2596.957966
597.760573	2600.166660
598.111698	2595.992585
598.462768	2593.502255
598.813785	2596.935280
599.164748	2596.166504
599.515657	2595.632142
599.866511	2595.498552
600.217312	2595.014601
600.568060	2596.763881
600.918753	2600.149016
601.269392	2594.722214
601.619978	2594.664241
601.970510	2592.751123
602.320988	2595.876638
602.671412	2592.970413
603.021783	2595.397728
603.372100	2596.534509
603.722363	2591.700042
604.072572	2595.032245
604.422728	2595.559045
604.772830	2590.792634
605.122878	2591.889085
605.472872	2590.752305
605.822813	2589.000504
606.172701	2593.565269
606.522534	2594.591144
606.872314	2595.556525
607.222041	2593.368664
607.571714	2594.419745
607.921333	2596.015270
608.270899	2594.633994
608.620411	2595.526278
608.969870	2595.301947
609.319276	2593.913109
609.668627	2601.767226
610.017926	2601.058944
610.367171	2604.829727
610.716362	2601.845364
611.065500	2600.184304
611.414585	2598.528285
611.763616	2598.868563
612.112594	2596.307657
612.461518	2597.404108
612.810389	2598.354365
613.159207	2597.754468
613.507971	2595.208685
613.856682	2594.442430
614.205340	2595.874118
614.553945	2598.263624
614.902496	2592.277254
615.250994	2593.794642
615.599439	2595.765733
615.947830	2596.663058
616.296169	2595.032245
616.644454	2594.094590
616.992686	2594.313880
617.340864	2596.728593
617.688990	2596.068202
618.037063	2596.897472
618.385082	2592.814137
618.733048	2593.393870
619.080961	2594.389498
619.428821	2594.281113
619.776628	2596.330342
620.124382	2595.044848
620.472083	2593.663572
620.819731	2596.360589
621.167326	2594.074426
621.514868	2594.313880
621.862357	2592.141143
622.209793	2594.591144
622.557176	2592.758684
622.904506	2591.574013
623.251783	2587.430185
623.599007	2586.036306
623.946179	2588.599732
624.293297	2587.173086
624.640363	2591.258941
624.987376	2588.302304
625.334336	2590.671647
625.681243	2591.629466
626.028097	2587.294074
626.374899	2588.841708
626.721647	2588.624938
627.068343	2588.062850
627.414987	2588.695514
627.761577	2588.128385
628.108115	2588.312387
628.454600	2583.808116
628.801032	2587.021851
629.147412	2587.170565
629.493739	2588.874475
629.840014	2585.615369
630.186236	2589.013107
630.532405	2585.549834
630.878521	2586.663929
631.224585	2586.386666
631.570597	2582.527663
631.916556	2586.248034
632.262462	2584.826429
632.608316	2583.777869
632.954117	2581.655543
633.299866	2582.625965
633.645562	2582.406675
633.991206	2582.809967
634.336797	2581.106057
634.682336	2584.899526
635.027823	2581.373238
635.373257	2584.037488
635.718639	2579.439956
636.063968	2583.684607
636.409245	2579.555902
636.754470	2579.646643
637.099642	2580.112950
637.444762	2580.833835
637.789829	2579.460121
638.134845	2579.167734
638.479808	2579.175295
638.824719	2578.056159
639.169577	2575.371745
639.514383	2574.398802
639.859137	2574.726477
640.203839	2579.508012
640.548489	2577.330233
640.893086	2573.622464
641.237632	2572.299162
641.582125	2573.927454
641.926566	2573.108267
642.270955	2574.736559
642.615292	2577.113463
642.959576	2577.877198
643.303809	2578.005748
643.647990	2575.079358
643.992118	2575.454924
644.336195	2577.335274
644.680219	2576.435428
645.024192	2577.080696
645.368112	2577.854513
645.711981	2577.534400
646.055797	2577.178998
646.399562	2576.662280
646.743274	2579.281160
647.086935	2579.974318
647.430544	2579.046746
647.774101	2577.685634
648.117606	2578.870306
648.461059	2581.136304
648.804460	2579.548341
649.147810	2577.975501
649.491108	2576.448031
649.834354	2580.271746
650.177548	2578.393917
650.520690	2577.531879
650.863781	2579.092116
651.206820	2580.624627
651.549807	2573.607341
651.892742	2576.291755
652.235626	2575.545665
652.578458	2575.346539
652.921238	2572.626837
653.263967	2575.475088
653.606644	2577.615058
653.949269	2574.182033
654.291843	2572.054666
654.634365	2576.747980
654.976836	2573.932495
655.319255	2574.615572
655.661622	2575.767475
656.003938	2574.303020
656.346203	2572.483164
656.688416	2573.798905
657.030577	2572.122721
657.372687	2571.701785
657.714746	2571.401836
658.056753	2572.515931
658.398708	2565.070147
658.740612	2568.853533
659.082465	2569.029973
659.424266	2568.435117
659.766016	2568.016701
660.107715	2572.430232
660.449362	2571.290931
660.790958	2572.132803
661.132503	2571.638770
661.473996	2573.793864
661.815438	2573.395612
662.156829	2573.922413
662.498168	2569.569377
662.839456	2571.215313
663.180693	2570.759089
663.521879	2571.157340
663.863013	2573.287228
664.204097	2572.805797
664.545129	2572.246229
664.886110	2573.559450
665.227040	2572.321847
665.567918	2571.437124
665.908746	2573.249419
666.249522	2572.009295
666.590248	2571.167423
666.930922	2574.045921
667.271545	2573.176322
667.612118	2573.698082
667.952639	2574.328226
668.293109	2573.849316
668.633528	2574.981055
668.973896	2569.423183
669.314213	2572.372258
669.654480	2574.103895
669.994695	2574.507187
670.334859	2574.615572
670.674973	2571.943760
671.015035	2575.157496
671.355047	2571.895869
671.695008	2574.416446
672.034918	2571.079202
672.374777	2574.340829
672.714585	2573.927454
673.054342	2573.178843
673.394049	2573.183884
673.733705	2570.958215
674.073310	2574.282856
674.412864	2573.584656
674.752368	2572.992320
675.091820	2571.900910
675.431223	2571.250602
675.770574	2571.157340
676.109875	2570.360838
676.449125	2567.973852
676.788324	2566.839592
677.127473	2567.555436
677.466571	2564.286248
677.805619	2569.476115
678.144616	2569.463512
678.483562	2571.306054
678.822458	2566.010322
679.161303	2571.666497
679.500098	2569.526527
679.838842	2567.772205
680.177535	2569.748338
680.516179	2568.656928
680.854771	2566.791701
681.193314	2570.302865
681.531805	2571.220355
681.870247	2574.494584
682.208638	2573.617423
682.546978	2577.877198
682.885268	2573.221693
683.223508	2572.042063
683.561697	2569.463512
683.899836	2570.338153
684.237925	2568.979562
684.575963	2571.333781
684.913951	2568.026784
685.251889	2572.813359
685.589776	2571.737073
685.927614	2570.683472
686.265401	2570.920406
686.603137	2570.822103
686.940824	2572.122721
687.278460	2573.698082
687.616046	2572.326888
687.953582	2576.833679
688.291068	2573.234296
688.628504	2574.466858
688.965889	2574.182032
689.303224	2572.218503
689.640510	2572.100036
689.977745	2569.942422
690.314930	2569.115673
690.652065	2572.004254
690.989150	2570.358317
691.326185	2569.667679
691.663170	2568.803121
692.000105	2565.801114
692.336990	2567.164746
692.673825	2564.916392
693.010610	2565.266752
693.347345	2562.242060
693.684030	2560.681823
694.020665	2563.852708
694.357251	2558.665361
694.693786	2564.288768
695.030272	2563.625856
695.366707	2562.431103
695.703093	2563.114179
696.039429	2563.393963
696.375716	2560.654096
696.711952	2564.003943
697.048139	2562.471432
697.384276	2561.097718
697.720363	2562.723490
698.056400	2562.448747
698.392388	2561.816082
698.728326	2563.267934
699.064214	2561.561504
699.400053	2561.284240
699.735842	2556.900957
700.071581	2559.943293
700.407270	2560.442368
700.742910	2558.877089
701.078501	2558.743499
701.414042	2559.350958
701.749533	2558.438509
702.084974	2559.708880
702.420366	2559.610577
702.755709	2557.498334
703.091002	2557.095042
703.426246	2556.989177
703.761440	2556.664023
704.096584	2557.863818
704.431679	2555.744012
704.766725	2559.469425
705.101721	2557.503375
705.436668	2559.285423
705.771565	2558.055381
706.106413	2558.103272
706.441212	2558.224260
706.775961	2559.033365
707.110661	2557.997408
707.445311	2557.014383
707.779913	2560.810372
708.114465	2560.356668
708.448967	2558.844322
708.783421	2559.844991
709.117825	2561.858932
709.452180	2558.327604
709.786485	2557.702501
710.120742	2565.707853
710.454949	2564.190466
710.789107	2559.640824
711.123216	2559.471946
711.457275	2560.081925
711.791286	2561.637121
712.125247	2561.095197
712.459159	2563.106617
712.793023	2565.707853
713.126837	2564.750034
713.460602	2564.213151
713.794318	2562.431103
714.127985	2562.292471
714.461602	2563.456978
714.795171	2562.690722
715.128691	2560.419682
715.462162	2560.286092
715.795584	2557.624363
716.128957	2557.158056
716.462281	2560.946483
716.795556	2557.389949
717.128782	2560.628890
717.461960	2556.724517
717.795088	2558.718293
718.128167	2556.280895
718.461198	2556.338868
718.794180	2555.980947
719.127113	2553.435164
719.459997	2556.984136
719.792833	2555.123950
720.125619	2553.730071
720.458357	2553.142777
720.791046	2553.815771
721.123686	2554.181255
721.456278	2555.781821
721.788821	2555.340720
722.121315	2556.008673
722.453761	2554.375339
722.786158	2553.223435
723.118506	2553.893909
723.450805	2554.483724
723.783056	2554.791234
724.115259	2553.523384
724.447412	2553.120092
724.779518	2555.171841
725.111574	2554.178734
725.443582	2555.565051
725.775542	2553.321738
726.107453	2555.350802
726.439315	2553.488096
726.771129	2560.134857
727.102895	2553.772921
727.434612	2558.499003
727.766281	2555.910370
728.097901	2555.640669
728.429473	2552.429454
728.760996	2553.765359
729.092471	2550.423074
729.423897	2556.089331
729.755276	2557.614280
730.086606	2556.026317
730.417887	2558.806513
730.749120	2560.591082
731.080305	2557.185782
731.411442	2560.949004
731.742530	2560.671740
732.073570	2558.196534
732.404562	2559.681153
732.735506	2561.092677
733.066401	2556.414486
733.397249	2559.955896
733.728048	2559.166956
734.058798	2559.013201
734.389501	2553.384752
734.720156	2556.298539
735.050762	2552.255534
735.381320	2552.731923
735.711831	2552.558003
736.042293	2552.545400
736.372707	2553.465411
736.703073	2552.583209
737.033391	2551.511964
737.363661	2554.345092
737.693883	2554.140925
738.024056	2556.946327
738.354182	2556.071687
738.684260	2555.320555
739.014290	2555.033210
739.344272	2555.580175
739.674207	2557.994887
740.004093	2556.210319
740.333931	2558.917419
740.663722	2556.603529
740.993464	2555.849877
741.323159	2555.343241
741.652806	2554.425751
741.982405	2555.683518
742.311956	2553.871224
742.641460	2555.388611
742.970915	2552.290822
743.300323	2551.118754
743.629683	2552.182437
743.958996	2553.939279
744.288260	2550.027344
744.617477	2551.199412
744.946647	2548.509957
745.275768	2550.269319
745.604842	2549.379556
745.933869	2550.264278
746.262847	2543.925027
746.591778	2552.404248
746.920662	2550.967519
747.249498	2550.881819
747.578286	2550.460883
747.907027	2552.563044
748.235720	2550.730585
748.564365	2552.920966
748.892963	2551.171686
749.221514	2552.976419
749.550017	2550.203784
749.878473	2552.321069
750.206881	2551.867365
750.535242	2550.778476
750.863555	2550.435677
751.191821	2550.108002
751.520039	2551.254865
751.848210	2550.919628
752.176334	2547.925183
752.504411	2550.138249
752.832440	2547.289997
753.160421	2550.758311
753.488356	2551.269988
753.816243	2551.852242
754.144082	2549.772766
754.471875	2552.104299
754.799620	2550.604556
755.127318	2546.682538
755.454969	2549.392158
755.782572	2551.469114
756.110129	2550.244113
756.437638	2549.823177
756.765100	2546.866540
757.092515	2547.300080
757.419882	2548.570450
757.747203	2551.605225
758.074477	2548.883002
758.401703	2550.415513
758.728882	2550.584391
759.056014	2552.341233
759.383099	2549.508105
759.710138	2550.428116
760.037129	2551.902653
760.364073	2550.370142
760.690970	2550.019782
761.017820	2553.828374
761.344623	2548.638506
761.671379	2551.219577
761.998088	2549.001469
762.324751	2550.944834
762.651366	2556.127140
762.977935	2565.818758
763.304456	2567.119376
763.630931	2575.769996
763.957359	2570.181877
764.283740	2566.350600
764.610074	2563.096535
764.936362	2558.420865
765.262602	2556.530432
765.588796	2554.766028
765.914943	2550.110523
766.241044	2551.378373
766.567097	2546.352343
766.893104	2548.378887
767.219064	2548.499874
767.544978	2548.328475
767.870845	2549.462735
768.196665	2548.444422
768.522438	2545.830583
768.848165	2550.415513
769.173846	2547.776469
769.499479	2548.441901
769.825066	2546.163299
770.150607	2548.000800
770.476101	2547.373176
770.801548	2547.922662
771.126949	2544.585418
771.452303	2548.119267
771.777611	2542.763041
772.102872	2542.057280
772.428087	2544.547610
772.753256	2544.671118
773.078378	2542.064841
773.403453	2543.488967
773.728482	2544.144317
774.053465	2541.560726
774.378401	2543.594832
774.703291	2544.164482
775.028135	2540.282793
775.352932	2542.647095
775.677683	2543.718340
776.002388	2541.164995
776.327046	2543.960315
776.651658	2541.548123
776.976224	2538.344470
777.300743	2543.047866
777.625216	2540.307999
777.949643	2542.354708
778.274024	2543.415871
778.598359	2539.985365
778.922647	2536.534696
779.246889	2540.008051
779.571086	2539.302289
779.895236	2540.250026
780.219339	2541.142310
780.543397	2544.396375
780.867409	2541.848072
781.191374	2542.021992
781.515294	2540.484440
781.839167	2541.195242
782.162995	2539.841693
782.486776	2545.152548
782.810511	2541.621220
783.134201	2543.635161
783.457844	2544.630789
783.781441	2544.161961
784.104993	2543.355377
784.428498	2541.890922
784.751958	2541.442259
785.075372	2544.172044
785.398739	2541.926210
785.722061	2543.332692
786.045337	2541.233051
786.368568	2544.683721
786.691752	2542.962167
787.014891	2543.252033
787.337983	2543.100798
787.661030	2547.519370
787.984031	2545.051725
788.306987	2547.468958
788.629897	2545.429812
788.952760	2546.067517
789.275579	2545.825542
789.598351	2544.587939
789.921078	2546.097764
790.243759	2543.627599
790.566395	2544.056097
790.888984	2546.175902
791.211529	2542.417722
791.534027	2542.805891
791.856480	2541.530479
792.178888	2540.126518
792.501249	2541.482588
792.823566	2542.526107
793.145836	2540.786909
793.468062	2539.965201
793.790241	2541.863195
794.112375	2539.972762
794.434464	2542.853782
794.756507	2542.657177
795.078505	2543.494008
795.400457	2540.275232
795.722364	2539.755993
796.044226	2540.552495
796.366042	2542.999975
796.687812	2539.052752
797.009538	2543.156251
797.331218	2541.956457
797.652852	2540.219779
797.974442	2543.864533
798.295986	2542.828576
798.617484	2542.042156
798.938938	2542.160623
799.260346	2544.363607
799.581709	2541.873277
799.903026	2543.047866
800.224299	2540.585263
800.545526	2541.916127
800.866708	2540.239944
801.187845	2540.118956
801.508936	2538.750283
801.829983	2541.711961
802.150984	2540.139121
802.471940	2539.977804
802.792851	2538.445293
803.113717	2542.009389
803.434538	2540.587783
803.755314	2539.846734
804.076045	2541.767413
804.396731	2541.114584
804.717372	2540.552495
805.037967	2542.216076
805.358518	2539.718184
805.679024	2542.599204
805.999485	2539.798843
806.319901	2542.453010
806.640272	2542.523586
806.960598	2539.571991
807.280879	2540.557536
807.601115	2541.989224
807.921306	2540.751621
808.241453	2540.567619
808.561554	2540.635674
808.881611	2542.193391
809.201623	2540.549975
809.521590	2539.589635
809.841513	2539.889583
810.161390	2538.276414
810.481223	2539.945036
810.801011	2541.038967
811.120755	2539.254398
811.440453	2542.513504
811.760107	2539.768596
812.079716	2538.775488
812.399281	2536.355735
812.718801	2538.367155
813.038276	2535.506300
813.357707	2540.174409
813.677093	2541.638864
813.996434	2538.684748
814.315731	2542.006868
814.634983	2537.384130
814.954191	2538.276414
815.273354	2537.661393
815.592473	2541.137269
815.911547	2539.561908
816.230577	2542.815973
816.549562	2541.459903
816.868502	2541.810263
817.187399	2540.192053
817.506250	2540.416384
817.825058	2543.373021
818.143821	2543.146169
818.462539	2545.780172
818.781213	2540.796991
819.099843	2544.124153
819.418429	2547.675646
819.736970	2549.800492
820.055466	2551.758980
820.373919	2552.444577
820.692327	2556.112017
821.010691	2566.000240
821.329011	2579.137487
821.647286	2609.921293
821.965517	2645.194246
822.283704	2669.301044
822.601847	2673.538134
822.919945	2659.062460
823.237999	2638.239974
823.556010	2619.126440
823.873976	2601.689088
824.191897	2591.256421
824.509775	2579.775193
824.827609	2573.246898
825.145398	2568.780436
825.463144	2569.511403
825.780845	2567.162226
826.098502	2573.761096
826.416116	2584.075297
826.733685	2591.344641
827.051210	2596.312698
827.368692	2592.680547
827.686129	2583.213260
828.003522	2568.866136
828.320872	2563.240208
828.638177	2556.989177
828.955439	2553.326779
829.272656	2545.402085
829.589830	2542.221117
829.906960	2547.980635
830.224046	2547.060625
830.541088	2545.810419
830.858086	2542.153062
831.175041	2543.075593
831.491952	2544.003165
831.808819	2541.633823
832.125642	2543.163813
832.442421	2547.622713
832.759157	2551.973229
833.075849	2555.970864
833.392497	2562.947821
833.709101	2567.368913
834.025662	2565.561659
834.342179	2565.518810
834.658653	2558.199054
834.975083	2553.629248
835.291469	2555.880123
835.607811	2544.487116
835.924110	2545.170192
836.240366	2542.125335
836.556578	2543.864533
836.872746	2542.821014
837.188871	2538.488143
837.504952	2541.170037
837.820990	2537.192566
838.136984	2539.297248
838.452935	2539.705581
838.768842	2541.689275
839.084706	2538.697351
839.400526	2540.151723
839.716303	2544.043494
840.032037	2551.673281
840.347727	2552.159752
840.663373	2546.009544
840.978977	2541.631302
841.294537	2542.027033
841.610054	2537.253060
841.925527	2540.938143
842.240957	2537.626105
842.556344	2536.184335
842.871687	2535.342463
843.186987	2535.849099
843.502244	2538.833462
843.817458	2536.219623
844.132629	2535.939839
844.447756	2536.161650
844.762840	2532.204344
845.077881	2531.463295
845.392879	2531.927081
845.707833	2535.246681
846.022745	2529.807276
846.337613	2532.819365
846.652438	2535.589479
846.967221	2535.609644
847.281960	2532.600075
847.596656	2536.401105
847.911309	2535.675179
848.225919	2535.029911
848.540485	2533.678882
848.855009	2534.387164
849.169490	2534.228368
849.483928	2534.324150
849.798323	2534.379602
850.112675	2531.896834
850.426984	2534.029242
850.741251	2535.251722
851.055474	2535.256763
851.369654	2536.638039
851.683792	2532.118645
851.997887	2533.366330
852.311938	2532.716022
852.625947	2534.548481
852.939914	2534.568646
853.253837	2535.967566
853.567718	2534.475384
853.881555	2534.737524
854.195350	2534.407329
854.509103	2532.524458
854.822812	2533.683923
855.136479	2533.956145
855.450103	2534.702236
855.763685	2533.787267
856.077224	2534.586290
856.390720	2533.467153
856.704173	2532.824406
857.017584	2535.738193
857.330953	2536.005374
857.644278	2532.408511
857.957561	2539.156096
858.270802	2536.615354
858.584000	2534.442617
858.897155	2534.258615
859.210268	2537.595858
859.523339	2535.241640
859.836367	2534.503111
860.149352	2534.631660
860.462295	2533.787267
860.775195	2530.192924
861.088054	2529.643438
861.400869	2530.991947
861.713642	2527.468180
862.026373	2534.185518
862.339062	2534.641742
862.651708	2534.755168
862.964312	2535.317257
863.276873	2534.208203
863.589392	2536.895138
863.901869	2534.563604
864.214303	2531.881711
864.526696	2536.988399
864.839045	2532.403470
865.151353	2536.910262
865.463619	2534.916485
865.775842	2536.454037
866.088023	2535.264325
866.400162	2535.586959
866.712258	2536.726259
867.024313	2534.576207
867.336325	2538.117618
867.648296	2533.941022
867.960224	2533.570497
868.272110	2537.401774
868.583954	2535.808769
868.895755	2533.013450
869.207515	2534.838347
869.519233	2535.118131
869.830909	2535.097967
870.142542	2538.714995
870.454134	2535.627288
870.765684	2536.585107
871.077191	2535.697864
871.388657	2535.743234
871.700081	2536.796836
872.011463	2535.355066
872.322803	2536.607792
872.634101	2535.108049
872.945357	2538.102494
873.256571	2537.116949
873.567744	2536.103677
873.878874	2538.586445
874.189963	2536.224665
874.501010	2537.472350
874.812015	2538.203318
875.122979	2537.207690
875.433900	2541.202804
875.744780	2536.837165
876.055618	2536.948070
876.366415	2538.931764
876.677169	2537.018646
876.987882	2533.981351
877.298554	2533.567977
877.609183	2536.355735
877.919771	2534.059489
878.230317	2537.036290
878.540822	2540.378575
878.851285	2545.354194
879.161707	2539.755993
879.472087	2545.848227
879.782425	2547.194215
880.092722	2554.680329
880.402977	2565.949828
880.713191	2580.228897
881.023363	2599.249170
881.333494	2613.608897
881.643583	2615.002776
881.953631	2613.802981
882.263637	2611.221910
882.573602	2606.140427
882.883526	2594.311360
883.193408	2584.178641
883.503248	2577.415933
883.813048	2571.066599
884.122806	2564.858418
884.432522	2559.925649
884.742197	2553.362067
885.051831	2554.418189
885.361424	2549.679504
885.670975	2551.748898
885.980485	2544.383772
886.289954	2544.204811
886.599382	2545.308824
886.908768	2543.950233
887.218113	2539.408153
887.527417	2541.089378
887.836680	2539.970242
888.145901	2537.752134
888.455082	2536.229706
888.764221	2540.418905
889.073319	2536.438914
889.382376	2537.610982
889.691392	2537.517721
890.000366	2535.768440
890.309300	2540.277752
890.618193	2539.304810
890.927044	2538.394881
891.235855	2535.718029
891.544625	2540.212217
891.853353	2537.389171
892.162041	2538.833462
892.470687	2540.328164
892.779293	2542.402599
893.087858	2539.899666
893.396381	2541.495191
893.704864	2541.583411
894.013306	2546.077600
894.321707	2557.205947
894.630068	2560.137378
894.938387	2560.555794
895.246665	2562.272307
895.554903	2558.869528
895.863100	2553.634289
896.171256	2551.327962
896.479371	2551.456511
896.787446	2547.108516
897.095480	2544.255223
897.403473	2544.550130
897.711425	2542.707588
898.019336	2541.989224
898.327207	2539.108205
898.635038	2540.023174
898.942827	2543.776313
899.250576	2540.670962
899.558284	2535.370189
899.865952	2536.670807
900.173579	2538.036959
900.481165	2539.115766
900.788711	2536.872453
901.096216	2539.594676
901.403681	2537.588297
901.711105	2536.103677
902.018489	2538.231044
902.325832	2537.880684
902.633135	2539.077958
902.940397	2538.467978
903.247619	2539.045190
903.554800	2546.879143
903.861941	2556.898437
904.169041	2567.590724
904.476101	2574.744121
904.783121	2573.622464
905.090100	2569.559294
905.397039	2559.345917
905.703938	2557.183262
906.010796	2549.629093
906.317614	2549.230842
906.624391	2544.217414
906.931129	2541.424615
907.237826	2539.808925
907.544483	2538.336908
907.851099	2537.842875
908.157675	2535.685261
908.464211	2533.938501
908.770707	2532.310209
909.077163	2531.138140
909.383578	2530.104704
909.689954	2531.823737
909.996289	2529.444313
910.302584	2534.896321
910.608839	2532.847092
910.915054	2534.689633
911.221229	2532.990764
911.527363	2535.808769
911.833458	2534.014119
912.139513	2537.432021
912.445527	2535.085364
912.751502	2535.168543
913.057436	2535.471012
913.363331	2534.823224
913.669186	2536.917823
913.975000	2536.935467
914.280775	2538.586445
914.586510	2544.424101
914.892205	2548.686397
915.197859	2552.762170
915.503475	2557.823488
915.809050	2563.467060
916.114585	2567.900755
916.420081	2572.644481
916.725536	2568.820765
917.030952	2566.559808
917.336328	2559.020762
917.641665	2557.500854
917.946961	2554.922304
918.252218	2549.026675
918.557435	2549.160265
918.862612	2548.262940
919.167750	2542.563916
919.472848	2542.389996
919.777906	2542.263967
920.082925	2542.158103
920.387904	2536.572504
920.692843	2538.505787
920.997743	2536.201979
921.302603	2536.930426
921.607423	2536.385982
921.912204	2535.176105
922.216946	2534.717360
922.521647	2536.330529
922.826310	2530.760054
923.130932	2534.893800
923.435516	2531.233922
923.740059	2533.547812
924.044564	2530.737369
924.349028	2534.291382
924.653454	2529.204858
924.957840	2531.075126
925.262186	2527.813499
925.566493	2531.576721
925.870761	2526.036493
926.174989	2531.864067
926.479178	2532.947915
926.783328	2529.804755
927.087438	2532.564787
927.391509	2531.276772
927.695541	2529.794673
927.999533	2533.371372
928.303486	2529.260311
928.607400	2531.332225
928.911275	2531.581762
929.215110	2530.870959
929.518906	2530.704601
929.822663	2532.438758
930.126381	2530.119827
930.430060	2528.899868
930.733699	2530.868439
931.037299	2531.937163
931.340861	2530.329035
931.644383	2527.054806
931.947866	2529.807276
932.251309	2530.918850
932.554714	2530.001360
932.858080	2533.893131
933.161407	2527.896678
933.464694	2531.604447
933.767943	2529.252749
934.071153	2530.460105
934.374323	2528.158818
934.677455	2531.400280
934.980548	2530.230733
935.283602	2530.442461
935.586617	2532.504293
935.889593	2532.481608
936.192530	2530.092101
936.495428	2530.613860
936.798287	2531.783408
937.101108	2530.296268
937.403890	2529.582944
937.706632	2531.433048
938.009336	2530.203006
938.312002	2530.429858
938.614628	2532.658048
938.917216	2532.710980
939.219765	2533.197452
939.522275	2534.356917
939.824747	2533.121834
940.127179	2530.271062
940.429573	2530.858356
940.731929	2531.493542
941.034246	2527.455578
941.336524	2531.128058
941.638763	2534.785415
941.940964	2531.289375
942.243126	2535.977648
942.545250	2532.824406
942.847335	2529.835002
943.149381	2532.821886
943.451389	2531.634694
943.753359	2534.331711
944.055290	2531.735517
944.357182	2532.632843
944.659036	2532.758871
944.960851	2533.008408
945.262628	2529.524971
945.564367	2528.090763
945.866067	2529.414066
946.167729	2532.428676
946.469352	2529.280475
946.770937	2532.884900
947.072484	2529.771988
947.373992	2528.123530
947.675462	2531.054961
947.976893	2530.495393
948.278286	2529.958510
948.579641	2531.039838
948.880958	2529.172090
949.182236	2528.360465
949.483476	2531.765764
949.784678	2529.827440
950.085841	2528.824251
950.386967	2531.667462
950.688054	2531.619571
950.989103	2531.223840
951.290114	2533.003367
951.591087	2530.671834
951.892021	2529.910619
952.192917	2531.218799
952.493776	2529.630835
952.794596	2532.998326
953.095378	2528.456247
953.396122	2530.298788
953.696828	2530.200486
953.997496	2530.238294
954.298126	2528.652852
954.598718	2528.615043
954.899272	2530.316432
955.199788	2531.959848
955.500266	2530.878521
955.800706	2527.669827
956.101108	2525.330731
956.401472	2527.276617
956.701798	2525.250073
957.002087	2527.687471
957.302337	2528.610002
957.602550	2527.014477
957.902724	2531.314581
958.202861	2529.313243
958.502960	2529.885414
958.803022	2527.901720
959.103045	2529.260311
959.403031	2529.134282
959.702979	2528.340300
960.002889	2528.589837
960.302762	2529.182173
960.602596	2526.522964
960.902393	2529.381298
961.202153	2527.722759
961.501875	2528.176462
961.801559	2527.518592
962.101205	2524.977850
962.400814	2527.947090
962.700385	2528.683098
962.999918	2529.698891
963.299414	2530.155115
963.598873	2528.297450
963.898293	2526.457429
964.197677	2527.115300
964.497022	2526.764939
964.796331	2526.059178
965.095601	2525.877696
965.394835	2527.332069
965.694030	2525.993643
965.993189	2528.899868
966.292309	2528.814168
966.591393	2527.009435
966.890439	2525.918026
967.189447	2525.247552
967.488419	2528.844415
967.787353	2528.110927
968.086249	2527.337110
968.385108	2528.720907
968.683930	2527.959693
968.982714	2527.047244
969.281462	2526.490197
969.580172	2526.971627
969.878844	2527.059847
970.177480	2529.396422
970.476078	2527.236287
970.774639	2528.284847
971.073162	2530.225692
971.371649	2525.512213
971.670098	2523.503313
971.968510	2524.012469
972.266885	2523.042047
972.565223	2527.369878
972.863524	2527.392563
973.161788	2527.843746
973.460014	2526.724610
973.758204	2525.252593
974.056356	2526.858201
974.354471	2528.814168
974.652550	2528.357944
974.950591	2526.477594
975.248595	2525.381143
975.546563	2525.781914
975.844493	2525.539939
976.142386	2526.621267
976.440243	2525.368540
976.738062	2530.137471
977.035845	2527.122861
977.333590	2526.606143
977.631299	2527.057326
977.928971	2528.390712
978.226606	2525.111441
978.524204	2526.764939
978.821765	2526.495238
979.119290	2526.525485
979.416777	2524.380474
979.714228	2527.359796
980.011642	2529.177132
980.309020	2528.020187
980.606360	2524.486338
980.903664	2527.647141
981.200931	2528.516740
981.498162	2523.367202
981.795356	2527.029600
982.092513	2528.541946
982.389633	2528.506658
982.686717	2528.884745
982.983764	2528.647810
983.280775	2529.111597
983.577749	2529.759385
983.874686	2528.408356
984.171587	2529.721576
984.468451	2527.601771
984.765279	2526.079343
985.062070	2526.994312
985.358824	2526.137316
985.655543	2528.594878
985.952224	2524.302336
986.248869	2525.565145
986.545478	2522.679084
986.842050	2523.793179
987.138586	2522.603467
987.435086	2523.810823
987.731549	2522.444671
988.027975	2525.355937
988.324366	2526.533046
988.620719	2528.118489
988.917037	2526.522964
989.213318	2524.982892
989.509563	2524.171266
989.805772	2528.980527
990.101944	2525.983561
990.398080	2525.166894
990.694180	2525.673530
990.990244	2527.866432
991.286271	2525.451719
991.582262	2527.352234
991.878217	2527.148067
992.174136	2525.426513
992.470019	2528.834333
992.765865	2526.573376
993.061676	2526.013807
993.357450	2528.143695
993.653188	2525.292923
993.948890	2526.134795
994.244556	2525.086235
994.540186	2529.323325
994.835780	2522.522808
995.131337	2525.741585
995.426859	2527.894158
995.722345	2527.556401
996.017795	2526.157480
996.313208	2527.611853
996.608586	2529.865249
996.903928	2527.909281
997.199234	2527.856349
997.494504	2526.008766
997.789738	2526.896009
998.084936	2528.688140
998.380099	2525.182017
998.675225	2526.646472
998.970316	2527.422810
999.265371	2527.321987
999.560390	2525.489527
999.855373	2529.610671
1000.150320	2527.110258
1000.445232	2528.708304
1000.740108	2525.968437
1001.034948	2526.648993
1001.329752	2523.629342
1001.624521	2526.459950
1001.919254	2523.281502
1002.213951	2526.971627
1002.508613	2517.635410
1002.803239	2524.942562
1003.097829	2521.126409
1003.392384	2527.808458
1003.686903	2526.235618
1003.981386	2526.812830
1004.275834	2525.466842
1004.570246	2527.987419
1004.864623	2527.190917
1005.158964	2526.286030
1005.453270	2526.530526
1005.747540	2526.956503
1006.041775	2524.511544
1006.335974	2528.078160
1006.630138	2527.594209
1006.924266	2526.346524
1007.218359	2526.568334
1007.512416	2527.596730
1007.806438	2526.114631
1008.100425	2525.091276
1008.394376	2526.923736
1008.688292	2527.195958
1008.982172	2523.568848
1009.276017	2525.943231
1009.569827	2522.142201
1009.863602	2528.521782
1010.157341	2525.544980
1010.451045	2526.192768
1010.744714	2526.104548
1011.038347	2526.941380
1011.331945	2525.799558
1011.625508	2526.129754
1011.919036	2525.653365
1012.212528	2523.750329
1012.505986	2523.813344
1012.799408	2525.446678
1013.092795	2526.079343
1013.386147	2524.050278
1013.679464	2524.456091
1013.972745	2524.249404
1014.265992	2522.875689
1014.559204	2523.495751
1014.852380	2522.898374
1015.145521	2523.115144
1015.438628	2523.793179
1015.731699	2524.859383
1016.024736	2525.413910
1016.317737	2529.340969
1016.610703	2528.244518
1016.903635	2522.459794
1017.196531	2520.448374
1017.489393	2520.939886
1017.782219	2521.383508
1018.075011	2523.359640
1018.367768	2527.042203
1018.660490	2527.309384
1018.953177	2527.309384
1019.245829	2527.309384
