Dividing Wavelength (nm)	Counts (n)	Blue Motor Position (mm): 0.000000	Red Motor Position (mm): 23.100000	
326.493990	2128.334825
326.888308	2128.334825
327.282561	2128.334825
327.676750	2095.348034
328.070874	2093.906264
328.464933	2099.454054
328.858929	2104.031422
329.252859	2114.068359
329.646726	2126.154526
330.040528	2136.980403
330.434265	2153.921201
330.827938	2173.064983
331.221547	2189.045440
331.615091	2209.625951
332.008571	2227.181769
332.401986	2246.116343
332.795338	2266.641401
333.188625	2285.381890
333.581847	2305.037349
333.975006	2321.411017
334.368100	2341.336178
334.761129	2358.216481
335.154095	2376.195756
335.546996	2391.150339
335.939833	2409.711868
336.332606	2425.105031
336.725315	2435.315888
337.117960	2444.266457
337.510540	2454.227777
337.903056	2466.729838
338.295508	2472.098667
338.687896	2482.077631
339.080220	2489.334372
339.472480	2495.842502
339.864676	2500.074550
340.256807	2504.777947
340.648875	2504.188132
341.040879	2513.105933
341.432818	2511.457476
341.824694	2512.632065
342.216506	2513.211797
342.608253	2514.242713
342.999937	2514.535100
343.391557	2513.277332
343.783113	2513.385717
344.174605	2511.782630
344.566033	2512.667353
344.957397	2509.788854
345.348697	2504.006650
345.739934	2506.323061
346.131106	2504.299037
346.522215	2503.187463
346.913260	2498.340393
347.304241	2497.117914
347.695159	2497.992554
348.086012	2495.129178
348.476802	2494.075577
348.867528	2491.723879
349.258191	2490.287150
349.648789	2490.587099
350.039324	2489.281440
350.429796	2487.446460
350.820203	2486.014772
351.210548	2484.197436
351.600828	2482.831284
351.991045	2484.890595
352.381198	2484.683908
352.771288	2483.030409
353.161314	2480.797178
353.551276	2483.068218
353.941175	2481.434884
354.331010	2484.358753
354.720782	2483.423619
355.110490	2485.014103
355.500135	2480.613176
355.889717	2484.454535
356.279235	2480.497229
356.668689	2483.847076
357.058080	2482.407827
357.447408	2481.787765
357.836672	2479.347846
358.225873	2482.198619
358.615010	2482.584267
359.004084	2487.126347
359.393095	2486.957468
359.782043	2487.131388
360.170927	2488.305977
360.559748	2488.081645
360.948505	2491.834784
361.337199	2489.762870
361.725830	2489.099958
362.114398	2489.798158
362.502903	2492.480052
362.891344	2491.093735
363.279722	2495.141781
363.668037	2495.356030
364.056289	2494.161277
364.444478	2493.221102
364.832603	2492.729589
365.220665	2494.436020
365.608665	2495.537512
365.996601	2496.485249
366.384474	2495.746720
366.772284	2502.219561
367.160031	2497.962307
367.547715	2502.141423
367.935336	2505.453462
368.322893	2506.416322
368.710388	2513.030316
369.097820	2518.565503
369.485189	2524.201513
369.872495	2523.278982
370.259738	2533.638553
370.646918	2541.038967
371.034035	2549.230842
371.421090	2556.502706
371.808081	2569.960066
372.195010	2578.623289
372.581875	2590.737182
372.968678	2604.592793
373.355418	2613.137549
373.742096	2633.097997
374.128710	2645.635347
374.515262	2664.622853
374.901751	2676.020902
375.288177	2689.831143
375.674540	2714.268136
376.060841	2731.294633
376.447079	2750.566964
376.833254	2773.037908
377.219367	2787.168262
377.605417	2819.779486
377.991404	2830.164263
378.377329	2851.942048
378.763191	2870.317053
379.148991	2907.238464
379.534727	2932.131682
379.920402	2962.113944
380.306013	2972.959987
380.691563	3023.565610
381.077049	3044.322561
381.462474	3061.023903
381.847835	3099.893720
382.233134	3121.018675
382.618371	3124.837349
383.003545	3190.566434
383.388657	3197.772763
383.773706	3231.021693
384.158693	3245.656163
384.543618	3271.812190
384.928480	3307.087664
385.313280	3351.762369
385.698017	3349.410671
386.082692	3405.654824
386.467305	3413.158582
386.851856	3441.399126
387.236344	3463.212198
387.620770	3498.323835
388.005133	3525.384749
388.389435	3550.950961
388.773674	3561.323135
389.157851	3604.256121
389.541965	3619.006537
389.926018	3583.070672
390.310008	3657.503309
390.693936	3674.683561
391.077802	3717.964388
391.461606	3703.813869
391.845348	3767.982716
392.229027	3763.521295
392.612645	3779.332874
392.996200	3855.247610
393.379694	3891.765728
393.763125	3964.181903
394.146494	3927.331068
394.529801	3991.099144
394.913047	4038.307029
395.296230	4005.053058
395.679351	4060.304104
396.062410	4079.578956
396.445408	4066.381215
396.828343	4096.928087
397.211217	4123.411788
397.594028	4039.912637
397.976778	4108.328656
398.359466	4133.685660
398.742092	4162.735309
399.124656	4083.624482
399.507158	4166.097759
399.889598	4190.234803
400.271977	4248.787805
400.654294	4220.191860
401.036549	4226.843663
401.418742	4199.384498
401.800874	4301.452739
402.182944	4319.769772
402.564952	4387.865678
402.946898	4377.649780
403.328783	4369.707442
403.710606	4283.047487
404.092367	4474.649142
404.474067	4438.035241
404.855705	4447.802477
405.237282	4374.486456
405.618797	4483.778671
406.000250	4523.732336
406.381642	4597.222277
406.762972	4561.281370
407.144240	4573.768308
407.525447	4569.304367
407.906593	4633.795848
408.287677	4674.606509
408.668700	4603.667392
409.049661	4656.027336
409.430560	4691.479251
409.811399	4620.570381
410.192176	4783.699599
410.572891	4723.755238
410.953545	4823.554961
411.334138	4707.374009
411.714669	4769.481024
412.095139	4667.395138
412.475547	4811.113393
412.855894	4787.810660
413.236180	4796.400786
413.616405	4749.427314
413.996568	4838.655737
414.376670	4781.484012
414.756711	4732.733533
415.136691	4764.046660
415.516609	4845.887272
415.896466	4884.137027
416.276262	4915.056944
416.655997	4894.128594
417.035670	5078.370164
417.415283	5163.669008
417.794834	5115.344507
418.174324	5066.485644
418.553753	4970.602898
418.933121	5158.529552
419.312428	5220.339139
419.691674	5160.349408
420.070859	5285.586793
420.449983	5196.759142
420.829045	5311.528571
421.208047	5216.021391
421.586988	5285.274242
421.965867	5300.080111
422.344686	5429.736067
422.723444	5283.199807
423.102141	5103.409576
423.480777	5394.180809
423.859352	5161.271939
424.237866	5410.980454
424.616319	5402.879320
424.994712	5507.165669
425.373044	5381.998861
425.751314	5516.542216
426.129524	5320.020395
426.507673	5498.338609
426.885762	5575.495989
427.263789	5500.521429
427.641756	5379.649683
428.019662	5486.144058
428.397508	5487.618595
428.775292	5419.469757
429.153016	5505.726420
429.530679	5423.966466
429.908282	5489.667824
430.285824	5351.593141
430.663305	5598.241675
431.040726	5333.689483
431.418086	5318.906300
431.795385	5403.557355
432.172624	5393.220469
432.549802	5367.457652
432.926920	5361.667887
433.303977	5352.092215
433.680974	5357.214028
434.057910	5354.103636
434.434786	5335.373229
434.811601	5280.507831
435.188355	5463.035409
435.565050	5322.074665
435.941683	5285.664931
436.318257	5430.565337
436.694770	5381.025918
437.071222	5374.454774
437.447614	5286.216938
437.823946	5183.735321
438.200218	5271.852170
438.576429	5130.402434
438.952580	5165.466179
439.328670	5160.059542
439.704700	5051.034508
440.080670	5001.167414
440.456580	5153.329602
440.832429	5023.403943
441.208218	4876.905492
441.583947	4935.745840
441.959616	4895.963574
442.335224	4803.899502
442.710773	4841.461139
443.086261	4807.319925
443.461689	4634.451198
443.837057	4674.314122
444.212365	4717.511769
444.587612	4605.038586
444.962800	4642.418742
445.337927	4580.836006
445.712995	4315.494873
446.088002	4563.499478
446.462949	4427.504271
446.837837	4336.009849
447.212664	4374.793966
447.587431	4372.792628
447.962139	4560.046288
448.336786	4899.222680
448.711374	4732.680601
449.085901	4286.472951
449.460369	4181.553936
449.834776	4105.987040
450.209124	4194.083724
450.583412	4180.356662
450.957640	4188.125080
451.331808	4044.986558
451.705917	3842.836289
452.079965	3768.895165
452.453954	3775.052934
452.827883	3694.160059
453.201752	3673.322450
453.575562	3576.058427
453.949311	3572.978282
454.323001	3510.357069
454.696632	3481.960250
455.070202	3467.575317
455.443713	3461.311683
455.817164	3438.339145
456.190556	3403.325811
456.563888	3378.926627
456.937160	3342.738704
457.310373	3250.339395
457.683526	3213.075186
458.056619	3158.214829
458.429653	3124.366002
458.802628	3084.155238
459.175542	3064.787125
459.548398	3079.666090
459.921194	3072.164853
460.293930	3050.293808
460.666607	3072.956315
461.039224	3078.035277
461.411782	3060.547514
461.784280	3022.121319
462.156719	2980.741008
462.529099	2935.670572
462.901419	2880.006151
463.273680	2848.400637
463.645882	2823.399035
464.018024	2797.195117
464.390106	2788.302522
464.762130	2788.239507
465.134094	2801.565797
465.505999	2841.494256
465.877845	2877.422560
466.249631	2876.091695
466.621358	2829.246773
466.993026	2783.863786
467.364634	2758.640372
467.736184	2729.527709
468.107674	2710.157075
468.479105	2698.191897
468.850477	2685.054650
469.221790	2669.243071
469.593043	2655.170690
469.964238	2643.908752
470.335373	2638.797022
470.706449	2636.294089
471.077467	2631.502472
471.448425	2645.970584
471.819324	2652.040133
472.190164	2648.808753
472.560945	2627.260341
472.931667	2617.117540
473.302330	2610.627054
473.672934	2604.978441
474.043479	2605.807711
474.413965	2602.926692
474.784393	2595.158274
475.154761	2596.663058
475.525070	2595.022162
475.895321	2591.899168
476.265513	2590.754826
476.635645	2593.703901
477.005719	2595.034765
477.375734	2593.567790
477.745691	2597.630960
478.115588	2597.207503
478.485427	2596.358068
478.855207	2602.488111
479.224928	2605.359048
479.594591	2610.465737
479.964194	2609.243257
480.333739	2606.463061
480.703226	2605.855602
481.072653	2604.192021
481.442022	2608.403905
481.811333	2606.281580
482.180584	2606.707557
482.549777	2602.750251
482.918912	2600.650611
483.287988	2601.552977
483.657005	2598.845878
484.025964	2599.523913
484.394864	2596.405959
484.763706	2597.920826
485.132489	2594.817996
485.501213	2595.105342
485.869879	2594.550815
486.238487	2592.650300
486.607036	2593.015783
486.975527	2593.388829
487.343959	2593.966041
487.712333	2593.479569
488.080648	2591.097624
488.448905	2594.036617
488.817104	2591.397573
489.185244	2592.337748
489.553326	2592.791452
489.921350	2594.815475
490.289315	2603.640015
490.657222	2605.906014
491.025070	2604.875098
491.392861	2605.023812
491.760593	2600.138934
492.128267	2599.256732
492.495883	2597.227667
492.863440	2595.949735
493.230939	2591.790783
493.598380	2591.027048
493.965763	2585.171748
494.333088	2586.777355
494.700354	2585.065884
495.067563	2587.238621
495.434713	2582.603280
495.801805	2589.403797
496.168839	2588.125864
496.535815	2589.670978
496.902733	2587.740216
497.269593	2587.841039
497.636395	2587.352047
498.003139	2588.420772
498.369825	2588.037644
498.736453	2587.097469
499.103023	2581.930286
499.469535	2586.860534
499.835989	2586.222828
500.202385	2585.559917
500.568723	2583.034299
500.935003	2584.876840
501.301226	2586.772314
501.667390	2589.504620
502.033497	2588.088055
502.399546	2584.662591
502.765537	2583.578743
503.131470	2584.720565
503.497345	2584.564289
503.863163	2584.713003
504.228923	2582.573033
504.594625	2586.419433
504.960269	2580.939699
505.325856	2583.820719
505.691385	2584.292067
506.056856	2581.791654
506.422270	2582.875502
506.787625	2580.755697
507.152924	2583.160328
507.518164	2585.756522
507.883347	2583.583784
508.248472	2583.419947
508.613540	2584.705441
508.978550	2581.463979
509.343503	2584.420616
509.708398	2582.404154
510.073236	2582.482292
510.438016	2584.702921
510.802738	2583.876171
511.167403	2586.621080
511.532010	2583.830801
511.896561	2583.929103
512.261053	2585.103692
512.625488	2582.124370
512.989866	2582.056315
513.354186	2582.489854
513.718449	2580.470872
514.082655	2585.970771
514.446803	2585.121336
514.810894	2585.595205
515.174927	2586.774835
515.538904	2583.845924
515.902822	2587.165524
516.266684	2587.465473
516.630488	2583.064546
516.994235	2587.389856
517.357925	2585.489341
517.721558	2587.359609
518.085133	2585.728795
518.448651	2589.232397
518.812112	2586.313569
519.175516	2584.100503
519.538863	2586.545462
519.902152	2586.527818
520.265385	2588.214084
520.628560	2589.597881
520.991678	2587.707448
521.354739	2588.589650
521.717743	2586.545462
522.080690	2587.994794
522.443580	2587.619228
522.806413	2587.228539
523.169189	2586.038826
523.531908	2588.279619
523.894569	2586.512695
524.257174	2588.582088
524.619722	2588.617377
524.982213	2589.618046
525.344647	2589.015628
525.707025	2588.088055
526.069345	2589.376070
526.431608	2590.505289
526.793815	2589.149218
527.155964	2589.917994
527.518057	2588.733323
527.880093	2587.747777
528.242072	2585.370873
528.603995	2590.278437
528.965860	2586.525298
529.327669	2589.416399
529.689421	2587.818354
530.051117	2588.980340
530.412755	2589.517222
530.774337	2586.457242
531.135862	2586.565627
531.497331	2584.377766
531.858743	2583.581264
532.220098	2585.212077
532.581396	2584.609659
532.942638	2586.716862
533.303824	2586.172417
533.664953	2586.026223
534.026025	2583.389700
534.387040	2589.890268
534.747999	2586.986563
535.108902	2589.497058
535.469748	2584.632344
535.830537	2587.311718
536.191270	2586.580750
536.551947	2587.470514
536.912567	2588.418251
537.273131	2583.936665
537.633638	2586.696697
537.994089	2584.115626
538.354483	2585.738878
538.714821	2587.110072
539.075103	2589.686101
539.435328	2589.623087
539.795497	2587.329362
540.155609	2590.631317
540.515665	2585.340627
540.875665	2587.362129
541.235609	2586.089238
541.595496	2587.644434
541.955328	2588.854311
542.315102	2586.910946
542.674821	2587.944383
543.034483	2589.789445
543.394090	2585.658219
543.753640	2589.930597
544.113134	2586.366501
544.472571	2588.758529
544.831953	2590.298601
545.191278	2588.811461
545.550548	2589.920515
545.909761	2587.939341
546.268918	2588.221646
546.628019	2590.371698
546.987064	2591.626945
547.346053	2588.982860
547.704986	2588.352716
548.063863	2588.604774
548.422684	2588.282140
548.781449	2588.115782
549.140158	2587.740216
549.498811	2589.055957
549.857408	2587.110072
550.215949	2585.930442
550.574434	2585.680904
550.932864	2588.382963
551.291237	2587.102510
551.649555	2584.639906
552.007817	2588.718200
552.366022	2588.824064
552.724173	2588.592171
553.082267	2586.580750
553.440305	2588.110741
553.798288	2586.858014
554.156215	2587.614187
554.514086	2588.690473
554.871902	2588.680391
555.229661	2589.423961
555.587365	2587.596543
555.945014	2586.195102
556.302606	2586.464804
556.660143	2585.743919
557.017625	2587.364650
557.375050	2588.599732
557.732421	2589.597881
558.089735	2588.556883
558.446994	2588.710638
558.804197	2591.584096
559.161345	2588.211564
559.518437	2587.485638
559.875474	2589.345823
560.232455	2590.671647
560.589381	2591.510999
560.946251	2592.115937
561.303065	2590.369177
561.659825	2587.125195
562.016528	2587.931780
562.373177	2590.729620
562.729770	2588.140987
563.086307	2589.852459
563.442789	2589.807089
563.799216	2588.748447
564.155587	2589.423961
564.511904	2587.052098
564.868164	2590.406986
565.224370	2590.278437
565.580520	2589.673498
565.936615	2589.174424
566.292654	2584.967581
566.648638	2585.799372
567.004567	2589.839856
567.360441	2589.187027
567.716260	2587.659557
568.072023	2590.699373
568.427732	2584.360122
568.783385	2587.556214
569.138982	2583.304000
569.494525	2586.197623
569.850013	2581.000193
570.205445	2586.134608
570.560823	2586.139649
570.916145	2587.271388
571.271412	2586.086717
571.626625	2587.838518
571.981782	2583.898857
572.336884	2586.043867
572.691931	2586.742067
573.046923	2586.144691
573.401860	2586.424475
573.756743	2585.272571
574.111570	2583.785431
574.466342	2586.109402
574.821059	2587.518405
575.175722	2587.478076
575.530330	2586.363981
575.884882	2584.652509
576.239380	2585.983374
576.593823	2586.023703
576.948211	2584.261820
577.302544	2586.447160
577.656823	2584.723085
578.011047	2586.069073
578.365216	2584.521439
578.719330	2584.796182
579.073389	2581.748804
579.427394	2584.438260
579.781344	2583.369535
580.135239	2586.426995
580.489080	2583.951789
580.842866	2583.437591
581.196597	2582.273084
581.550273	2582.217632
581.903895	2584.690318
582.257463	2585.267530
582.610975	2580.523804
582.964434	2583.235945
583.317837	2582.343661
583.671186	2581.900039
584.024481	2584.818867
584.377721	2579.964236
584.730906	2581.960533
585.084037	2582.789803
585.437113	2579.008937
585.790135	2583.553537
586.143103	2581.070769
586.496016	2581.839545
586.848874	2574.905438
587.201679	2582.000862
587.554428	2574.527352
587.907124	2578.484657
588.259765	2575.205387
588.612352	2578.971129
588.964884	2578.041036
589.317362	2576.523648
589.669786	2578.628330
590.022155	2579.513053
590.374470	2582.114288
590.726731	2581.325347
591.078937	2579.487847
591.431090	2577.037846
591.783188	2579.069431
592.135232	2578.091447
592.487222	2578.590522
592.839157	2577.887281
593.191038	2579.949113
593.542866	2577.335274
593.894639	2578.822415
594.246358	2574.792012
594.598022	2576.405181
594.949633	2577.660429
595.301190	2577.307548
595.652692	2577.138669
596.004141	2576.483319
596.355535	2578.139338
596.706876	2575.389389
597.058162	2574.550037
597.409395	2574.728998
597.760573	2576.342167
598.111698	2577.567167
598.462768	2576.256467
598.813785	2577.743608
599.164748	2576.679924
599.515657	2574.504666
599.866511	2574.628175
600.217312	2575.888463
600.568060	2575.568350
600.918753	2575.603638
601.269392	2575.394430
601.619978	2575.835531
601.970510	2575.802763
602.320988	2574.509707
602.671412	2576.410222
603.021783	2575.258319
603.372100	2576.626992
603.722363	2572.503328
604.072572	2575.772517
604.422728	2572.692372
604.772830	2574.539954
605.122878	2569.014850
605.472872	2572.833524
605.822813	2566.111145
606.172701	2572.767989
606.522534	2574.522310
606.872314	2574.129100
607.222041	2570.880077
607.571714	2574.849985
607.921333	2574.355952
608.270899	2576.296797
608.620411	2575.709502
608.969870	2572.042063
609.319276	2574.290417
609.668627	2578.643454
610.017926	2581.526994
610.367171	2583.440112
610.716362	2583.495564
611.065500	2575.938875
611.414585	2576.750500
611.763616	2580.359967
612.112594	2577.514235
612.461518	2579.155131
612.810389	2577.267219
613.159207	2577.491550
613.507971	2576.705130
613.856682	2579.470203
614.205340	2576.276632
614.553945	2576.984914
614.902496	2575.618761
615.250994	2573.922413
615.599439	2575.969122
615.947830	2574.232444
616.296169	2573.854357
616.644454	2574.224882
616.992686	2576.170768
617.340864	2574.587845
617.688990	2573.556929
618.037063	2576.705130
618.385082	2572.498287
618.733048	2575.134811
619.080961	2577.229410
619.428821	2574.164388
619.776628	2572.407546
620.124382	2576.175809
620.472083	2575.507856
620.819731	2572.992320
621.167326	2573.882084
621.514868	2576.009451
621.862357	2574.350911
622.209793	2573.088102
622.557176	2572.505849
622.904506	2570.171795
623.251783	2565.385219
623.599007	2568.624160
623.946179	2568.813204
624.293297	2567.620971
624.640363	2569.725652
624.987376	2572.644481
625.334336	2571.066599
625.681243	2568.866136
626.028097	2569.322360
626.374899	2572.163050
626.721647	2569.007288
627.068343	2570.219686
627.414987	2569.188770
627.761577	2567.757082
628.108115	2568.162895
628.454600	2568.573749
628.801032	2566.330435
629.147412	2567.956207
629.493739	2567.562997
629.840014	2570.834706
630.186236	2570.499470
630.532405	2568.568708
630.878521	2567.565518
631.224585	2568.452761
631.570597	2567.936043
631.916556	2565.975034
632.262462	2567.976372
632.608316	2567.227761
632.954117	2565.788511
633.299866	2567.240364
633.645562	2567.535271
633.991206	2565.869170
634.336797	2564.203068
634.682336	2566.597617
635.027823	2565.861608
635.373257	2564.283727
635.718639	2562.852039
636.063968	2563.905640
636.409245	2561.158212
636.754470	2562.171483
637.099642	2564.724828
637.444762	2566.544684
637.789829	2562.310115
638.134845	2565.601989
638.479808	2561.710218
638.824719	2561.657286
639.169577	2561.629559
639.514383	2564.548387
639.859137	2561.599312
640.203839	2562.567214
640.548489	2562.050496
640.893086	2560.467573
641.237632	2558.325083
641.582125	2559.363561
641.926566	2555.005483
642.270955	2562.912533
642.615292	2562.657955
642.959576	2561.571586
643.303809	2562.100907
643.647990	2561.223747
643.992118	2563.547718
644.336195	2560.810372
644.680219	2559.724003
645.024192	2560.938921
645.368112	2561.811041
645.711981	2562.539488
646.055797	2562.710887
646.399562	2564.629046
646.743274	2563.416648
647.086935	2563.547718
647.430544	2564.387071
647.774101	2563.799776
648.117606	2564.412276
648.461059	2563.494786
648.804460	2562.254662
649.147810	2562.877245
649.491108	2562.466391
649.834354	2561.753068
650.177548	2562.355486
650.520690	2563.842626
650.863781	2559.872717
651.206820	2563.464539
651.549807	2560.714590
651.892742	2561.944632
652.235626	2562.042934
652.578458	2561.669889
652.921238	2559.890361
653.263967	2563.731721
653.606644	2559.325752
653.949269	2559.121585
654.291843	2559.141750
654.634365	2559.177038
654.976836	2558.773746
655.319255	2559.615618
655.661622	2555.519681
656.003938	2560.936401
656.346203	2557.687377
656.688416	2557.606719
657.030577	2555.728889
657.372687	2558.625032
657.714746	2557.904147
658.056753	2559.166956
658.398708	2554.201419
658.740612	2556.359033
659.082465	2555.484393
659.424266	2554.508930
659.766016	2554.660164
660.107715	2557.868859
660.449362	2558.534291
660.790958	2558.733417
661.132503	2557.503375
661.473996	2558.660320
661.815438	2557.581513
662.156829	2555.560010
662.498168	2559.091338
662.839456	2554.972716
663.180693	2557.984805
663.521879	2557.760474
663.863013	2557.631924
664.204097	2556.575803
664.545129	2560.185269
664.886110	2559.101421
665.227040	2559.086297
665.567918	2559.787018
665.908746	2556.185113
666.249522	2560.243242
666.590248	2558.120916
666.930922	2557.422717
667.271545	2558.965310
667.612118	2558.592264
667.952639	2558.650238
668.293109	2557.387428
668.633528	2557.929352
668.973896	2557.296688
669.314213	2557.158056
669.654480	2560.041596
669.994695	2556.376677
670.334859	2555.907850
670.674973	2557.175700
671.015035	2558.158725
671.355047	2555.202088
671.695008	2557.243756
672.034918	2556.550597
672.374777	2557.667213
672.714585	2556.676626
673.054342	2558.562017
673.394049	2557.919270
673.733705	2558.589744
674.073310	2558.070505
674.412864	2555.454146
674.752368	2556.694270
675.091820	2556.517829
675.431223	2557.934394
675.770574	2557.190823
676.109875	2554.203940
676.449125	2550.977601
676.788324	2551.451470
677.127473	2554.705535
677.466571	2554.279557
677.805619	2555.829712
678.144616	2553.659495
678.483562	2556.376677
678.822458	2555.295350
679.161303	2555.181924
679.500098	2552.628579
679.838842	2554.771070
680.177535	2553.714948
680.516179	2554.322407
680.854771	2556.606050
681.193314	2555.827191
681.531805	2553.417520
681.870247	2558.415824
682.208638	2557.281564
682.546978	2559.161915
682.885268	2557.861297
683.223508	2558.206616
683.561697	2559.267779
683.899836	2556.590926
684.237925	2558.504044
684.575963	2556.139743
684.913951	2554.337530
685.251889	2559.724003
685.589776	2556.714434
685.927614	2558.062943
686.265401	2556.031358
686.603137	2558.244425
686.940824	2557.112686
687.278460	2556.621173
687.616046	2556.106975
687.953582	2558.758622
688.291068	2559.585372
688.628504	2557.095042
688.965889	2560.686864
689.303224	2558.355330
689.640510	2557.314332
689.977745	2556.089331
690.314930	2554.675288
690.652065	2555.620504
690.989150	2553.858621
691.326185	2554.705535
691.663170	2553.611604
692.000105	2555.670916
692.336990	2550.551624
692.673825	2553.924156
693.010610	2556.318704
693.347345	2551.363250
693.684030	2549.364432
694.020665	2552.096737
694.357251	2548.885522
694.693786	2550.773435
695.030272	2552.492468
695.366707	2549.979453
695.703093	2550.259237
696.039429	2551.665719
696.375716	2550.307128
696.711952	2552.497509
697.048139	2550.770914
697.384276	2549.624052
697.720363	2548.958619
698.056400	2550.087838
698.392388	2550.947354
698.728326	2551.927859
699.064214	2550.050029
699.400053	2552.908363
699.735842	2549.069525
700.071581	2551.585060
700.407270	2551.355688
700.742910	2548.716644
701.078501	2548.719164
701.414042	2546.228834
701.749533	2548.386448
702.084974	2551.869886
702.420366	2547.126160
702.755709	2550.450801
703.091002	2548.010882
703.426246	2549.356870
703.761440	2547.658002
704.096584	2548.041129
704.431679	2548.935934
704.766725	2551.002807
705.101721	2545.767569
705.436668	2547.000131
705.771565	2547.136242
706.106413	2546.206149
706.441212	2549.465255
706.775961	2548.091541
707.110661	2549.019113
707.445311	2548.830070
707.779913	2548.283105
708.114465	2547.179092
708.448967	2552.278219
708.783421	2548.036088
709.117825	2550.276881
709.452180	2546.498536
709.786485	2550.319731
710.120742	2551.249824
710.454949	2553.281409
710.789107	2550.670091
711.123216	2547.451314
711.457275	2550.450801
711.791286	2546.985008
712.125247	2548.320913
712.459159	2551.181768
712.793023	2554.957592
713.126837	2553.566234
713.460602	2550.430636
713.794318	2550.213867
714.127985	2552.575647
714.461602	2547.809236
714.795171	2547.874771
715.128691	2548.656150
715.462162	2549.422405
715.795584	2547.380738
716.128957	2548.842673
716.462281	2548.386448
716.795556	2549.354350
717.128782	2546.871582
717.461960	2548.333516
717.795088	2545.628937
718.128167	2545.628937
718.461198	2546.546427
718.794180	2548.900646
719.127113	2548.424257
719.459997	2547.166489
719.792833	2545.354194
720.125619	2546.677497
720.458357	2545.810419
720.791046	2547.864689
721.123686	2545.621375
721.456278	2546.243958
721.788821	2546.145655
722.121315	2546.397713
722.453761	2545.094575
722.786158	2544.976108
723.118506	2542.697506
723.450805	2546.705223
723.783056	2544.787064
724.115259	2543.662887
724.447412	2543.998124
724.779518	2546.496016
725.111574	2545.762528
725.443582	2545.331509
725.775542	2545.331509
726.107453	2546.075079
726.439315	2545.351674
726.771129	2551.907694
727.102895	2546.087682
727.434612	2547.211859
727.766281	2545.439894
728.097901	2543.801519
728.429473	2542.916796
728.760996	2544.824873
729.092471	2541.371683
729.423897	2545.389482
729.755276	2545.389482
730.086606	2547.476520
730.417887	2546.201108
730.749120	2547.635316
731.080305	2547.983156
731.411442	2547.146324
731.742530	2547.305121
732.073570	2549.165307
732.404562	2549.308979
732.735506	2548.850234
733.066401	2546.372507
733.397249	2548.797302
733.728048	2547.118598
734.058798	2545.512991
734.389501	2544.766900
734.720156	2544.779503
735.050762	2542.611807
735.381320	2547.317724
735.711831	2545.470141
736.042293	2545.177754
736.372707	2544.058618
736.703073	2544.938299
737.033391	2545.853268
737.363661	2545.303783
737.693883	2544.199770
738.024056	2548.976263
738.354182	2543.783875
738.684260	2546.042312
739.014290	2546.188505
739.344272	2547.781510
739.674207	2545.621375
740.004093	2548.996428
740.333931	2544.971067
740.663722	2547.852086
740.993464	2545.351674
741.323159	2545.880995
741.652806	2545.518032
741.982405	2548.540203
742.311956	2546.556509
742.641460	2544.134235
742.970915	2543.695655
743.300323	2543.796478
743.629683	2542.407640
743.958996	2543.551982
744.288260	2543.791437
744.617477	2542.395037
744.946647	2542.624409
745.275768	2540.033256
745.604842	2538.147865
745.933869	2540.008051
746.262847	2538.714995
746.591778	2543.246992
746.920662	2542.765562
747.249498	2543.438556
747.578286	2542.301776
747.907027	2543.496529
748.235720	2543.085675
748.564365	2545.628937
748.892963	2541.664070
749.221514	2543.798998
749.550017	2540.207176
749.878473	2542.473175
750.206881	2542.712630
750.535242	2541.989224
750.863555	2539.186343
751.191821	2541.802701
751.520039	2540.736497
751.848210	2540.784388
752.176334	2543.892260
752.504411	2543.415871
752.832440	2541.565767
753.160421	2541.593493
753.488356	2540.532331
753.816243	2543.748587
754.144082	2541.790098
754.471875	2544.219935
754.799620	2540.744059
755.127318	2543.040305
755.454969	2541.946374
755.782572	2541.502753
756.110129	2539.685417
756.437638	2544.212373
756.765100	2542.180788
757.092515	2543.199101
757.419882	2541.228010
757.747203	2544.817311
758.074477	2540.802032
758.401703	2543.345294
758.728882	2541.873278
759.056014	2542.546272
759.383099	2542.100129
759.710138	2541.979142
760.037129	2542.415202
760.364073	2544.890408
760.690970	2543.287321
761.017820	2543.297403
761.344623	2541.094419
761.671379	2543.163813
761.998088	2538.427649
762.324751	2544.340922
762.651366	2542.218597
762.977935	2551.214536
763.304456	2552.842828
763.630931	2556.911039
763.957359	2553.362067
764.283740	2551.146480
764.610074	2548.338557
764.936362	2547.385779
765.262602	2545.956612
765.588796	2544.325799
765.914943	2542.994934
766.241044	2541.361600
766.567097	2542.460572
766.893104	2542.062321
767.219064	2542.122815
767.544978	2541.706919
767.870845	2539.629964
768.196665	2540.862526
768.522438	2539.047711
768.848165	2540.769265
769.173846	2541.094419
769.499479	2539.234233
769.825066	2539.952598
770.150607	2538.621733
770.476101	2539.806404
770.801548	2538.178112
771.126949	2539.007382
771.452303	2537.502597
771.777611	2539.831610
772.102872	2538.410005
772.428087	2538.999820
772.753256	2540.514687
773.078378	2537.595858
773.403453	2539.554347
773.728482	2539.819007
774.053465	2538.306661
774.378401	2538.851106
774.703291	2539.962680
775.028135	2537.870601
775.352932	2538.397402
775.677683	2536.161650
776.002388	2539.340098
776.327046	2539.561908
776.651658	2534.798018
776.976224	2536.607792
777.300743	2540.769265
777.625216	2538.248688
777.949643	2537.142155
778.274024	2537.210210
778.598359	2532.942873
778.922647	2536.396064
779.246889	2534.130065
779.571086	2532.721063
779.895236	2535.632329
780.219339	2536.988399
780.543397	2534.924047
780.867409	2536.663245
781.191374	2536.093595
781.515294	2534.750127
781.839167	2538.031918
782.162995	2535.103008
782.486776	2538.125180
782.810511	2538.679707
783.134201	2536.786753
783.457844	2535.851619
783.781441	2537.462268
784.104993	2535.297092
784.428498	2537.613503
784.751958	2537.235416
785.075372	2538.548637
785.398739	2537.132072
785.722061	2540.421425
786.045337	2537.121990
786.368568	2535.423121
786.691752	2538.387320
787.014891	2535.682741
787.337983	2538.825900
787.661030	2540.030736
787.984031	2540.441590
788.306987	2537.542926
788.629897	2539.261960
788.952760	2538.979655
789.275579	2538.036959
789.598351	2538.833462
789.921078	2537.265663
790.243759	2536.466640
790.566395	2538.120138
790.888984	2537.341280
791.211529	2536.534696
791.534027	2535.450847
791.856480	2534.732483
792.178888	2537.056455
792.501249	2536.640560
792.823566	2537.878163
793.145836	2536.673327
793.468062	2537.747093
793.790241	2533.641073
794.112375	2536.000333
794.434464	2536.597710
794.756507	2536.275076
795.078505	2537.106867
795.400457	2537.673996
795.722364	2533.777184
796.044226	2536.078471
796.366042	2533.835158
796.687812	2534.601413
797.009538	2536.789274
797.331218	2537.936136
797.652852	2538.354552
797.974442	2536.643080
798.295986	2535.390354
798.617484	2535.491177
798.938938	2538.198276
799.260346	2540.466796
799.581709	2535.594520
799.903026	2538.200797
800.224299	2534.934129
800.545526	2537.437062
800.866708	2537.174922
801.187845	2536.086033
801.508936	2536.980838
801.829983	2535.949922
802.150984	2535.556712
802.471940	2537.089222
802.792851	2536.136444
803.113717	2536.441434
803.434538	2535.546629
803.755314	2537.316074
804.076045	2535.655014
804.396731	2534.755168
804.717372	2533.731814
805.037967	2535.781043
805.358518	2535.992772
805.679024	2536.098636
805.999485	2537.265663
806.319901	2539.309851
806.640272	2534.200641
806.960598	2534.099818
807.280879	2537.542926
807.601115	2535.617206
807.921306	2535.990251
808.241453	2536.459078
808.561554	2536.867412
808.881611	2536.496887
809.201623	2536.748945
809.521590	2536.101156
809.841513	2536.491846
810.161390	2535.914634
810.481223	2535.468492
810.801011	2538.064686
811.120755	2535.226516
811.440453	2537.747093
811.760107	2536.607792
812.079716	2534.934129
812.399281	2533.031094
812.718801	2532.834489
813.038276	2530.772657
813.357707	2535.261804
813.677093	2533.948584
813.996434	2535.438245
814.315731	2536.146527
814.634983	2536.824562
814.954191	2536.965714
815.273354	2537.883204
815.592473	2535.287010
815.911547	2534.634181
816.230577	2534.528316
816.549562	2536.995961
816.868502	2535.604603
817.187399	2535.415559
817.506250	2537.311033
817.825058	2539.093081
818.143821	2537.946219
818.462539	2536.900179
818.781213	2538.220962
819.099843	2540.812115
819.418429	2537.149716
819.736970	2540.123997
820.055466	2540.582742
820.373919	2544.156920
820.692327	2547.531973
821.010691	2548.467107
821.329011	2560.354147
821.647286	2581.390883
821.965517	2595.695157
822.283704	2610.201077
822.601847	2615.446397
822.919945	2606.158071
823.237999	2592.516709
823.556010	2581.816860
823.873976	2571.590879
824.191897	2565.362534
824.509775	2558.796431
824.827609	2555.416337
825.145398	2551.373332
825.463144	2553.886347
825.780845	2551.690925
826.098502	2556.865669
826.416116	2559.819785
826.733685	2564.578634
827.051210	2569.055179
827.368692	2565.503686
827.686129	2560.762481
828.003522	2552.704197
828.320872	2544.582898
828.638177	2544.131714
828.955439	2540.411343
829.272656	2539.425797
829.589830	2533.177287
829.906960	2538.445293
830.224046	2536.678368
830.541088	2539.556867
830.858086	2537.616023
831.175041	2537.265663
831.491952	2538.752803
831.808819	2538.712474
832.125642	2539.909748
832.442421	2536.154088
832.759157	2539.909748
833.075849	2546.717826
833.392497	2548.872920
833.709101	2553.856100
834.025662	2552.467262
834.342179	2550.407951
834.658653	2544.209852
834.975083	2543.854451
835.291469	2544.174564
835.607811	2538.049562
835.924110	2539.110725
836.240366	2539.007382
836.556578	2536.023018
836.872746	2536.154088
837.188871	2535.811290
837.504952	2533.484797
837.820990	2535.869263
838.136984	2532.572349
838.452935	2536.196938
838.768842	2533.842719
839.084706	2536.680889
839.400526	2539.146013
839.716303	2538.349511
840.032037	2541.283463
840.347727	2539.592155
840.663373	2539.932433
840.978977	2539.085519
841.294537	2538.193235
841.610054	2538.339429
841.925527	2533.983872
842.240957	2533.696526
842.556344	2533.537730
842.871687	2531.707791
843.186987	2531.813655
843.502244	2533.109232
843.817458	2531.347348
844.132629	2533.865405
844.447756	2535.274407
844.762840	2531.826258
845.077881	2528.181504
845.392879	2529.303160
845.707833	2531.097811
846.022745	2524.947603
846.337613	2533.058820
846.652438	2531.934643
846.967221	2533.754499
847.281960	2532.602596
847.596656	2533.719211
847.911309	2531.949766
848.225919	2532.103521
848.540485	2532.867256
848.855009	2529.424148
849.169490	2533.326001
849.483928	2532.179139
849.798323	2531.382636
850.112675	2531.246525
850.426984	2533.144520
850.741251	2533.993954
851.055474	2532.332894
851.369654	2533.449509
851.683792	2532.403470
851.997887	2531.342307
852.311938	2532.844571
852.625947	2533.041176
852.939914	2533.192411
853.253837	2533.018491
853.567718	2534.646783
853.881555	2533.013450
854.195350	2532.108563
854.509103	2533.784746
854.822812	2529.575383
855.136479	2531.566638
855.450103	2530.437420
855.763685	2532.252235
856.077224	2532.809283
856.390720	2532.048069
856.704173	2530.974303
857.017584	2533.172246
857.330953	2529.814838
857.644278	2529.151926
857.957561	2537.895807
858.270802	2534.770292
858.584000	2531.780888
858.897155	2532.809283
859.210268	2532.978162
859.523339	2532.335414
859.836367	2531.647297
860.149352	2533.383974
860.462295	2534.059489
860.775195	2528.478932
861.088054	2531.186031
861.400869	2529.993798
861.713642	2527.311905
862.026373	2531.770805
862.339062	2531.193593
862.651708	2532.211906
862.964312	2531.695188
863.276873	2533.474715
863.589392	2531.720394
863.901869	2534.369520
864.214303	2530.402132
864.526696	2532.128727
864.839045	2533.109232
865.151353	2533.835158
865.463619	2532.602596
865.775842	2530.381967
866.088023	2530.853315
866.400162	2534.147709
866.712258	2531.579241
867.024313	2532.320291
867.336325	2530.578572
867.648296	2531.690147
867.960224	2533.003367
868.272110	2534.175436
868.583954	2530.298788
868.895755	2535.443286
869.207515	2531.375075
869.519233	2533.300795
869.830909	2532.655528
870.142542	2532.421114
870.454134	2532.088398
870.765684	2530.228212
871.077191	2533.963707
871.388657	2534.712318
871.700081	2533.729293
872.011463	2529.061185
872.322803	2534.147709
872.634101	2534.863553
872.945357	2532.723583
873.256571	2536.600231
873.567744	2533.797349
873.878874	2534.157792
874.189963	2531.133099
874.501010	2533.840199
874.812015	2532.083357
875.122979	2533.706608
875.433900	2532.131248
875.744780	2534.198121
876.055618	2531.730476
876.366415	2533.494880
876.677169	2535.922195
876.987882	2530.671834
877.298554	2532.305168
877.609183	2533.288193
877.919771	2531.344828
878.230317	2530.858356
878.540822	2534.997144
878.851285	2539.458565
879.161707	2534.162833
879.472087	2537.610982
879.782425	2540.713812
880.092722	2545.286139
880.402977	2550.050029
880.713191	2558.408262
881.023363	2571.752196
881.333494	2579.026581
881.643583	2580.811150
881.953631	2578.124215
882.263637	2577.562126
882.573602	2570.164233
882.883526	2567.434448
883.193408	2564.744993
883.503248	2554.710576
883.813048	2552.260575
884.122806	2547.511808
884.432522	2547.085831
884.742197	2545.311344
885.051831	2543.756148
885.361424	2541.653987
885.670975	2539.246836
885.980485	2537.542926
886.289954	2535.889428
886.599382	2535.922195
886.908768	2537.905889
887.218113	2536.842206
887.527417	2535.680220
887.836680	2534.999664
888.145901	2531.798532
888.455082	2534.964376
888.764221	2535.085364
889.073319	2534.356917
889.382376	2535.886907
889.691392	2533.414221
890.000366	2535.133255
890.309300	2535.339942
890.618193	2533.361289
890.927044	2534.598892
891.235855	2535.032432
891.544625	2532.955476
891.853353	2533.250384
892.162041	2536.227185
892.470687	2534.591331
892.779293	2537.053934
893.087858	2532.335414
893.396381	2533.066382
893.704864	2536.799356
894.013306	2535.624767
894.321707	2543.287321
894.630068	2547.126160
894.938387	2551.325441
895.246665	2548.051212
895.554903	2546.155738
895.863100	2544.877805
896.171256	2543.075593
896.479371	2539.529141
896.787446	2542.047197
897.095480	2538.031918
897.403473	2536.635519
897.711425	2534.792977
898.019336	2536.002854
898.327207	2536.333049
898.635038	2537.568132
898.942827	2533.870446
899.250576	2533.378933
899.558284	2535.642411
899.865952	2532.378264
900.173579	2535.566794
900.481165	2535.002185
900.788711	2534.926567
901.096216	2532.421114
901.403681	2533.620909
901.711105	2531.861546
902.018489	2531.032276
902.325832	2535.188708
902.633135	2532.221988
902.940397	2534.566125
903.247619	2535.894469
903.554800	2534.649304
903.861941	2542.720191
904.169041	2550.395348
904.476101	2552.769732
904.783121	2554.622356
905.090100	2549.714792
905.397039	2546.586756
905.703938	2542.410160
906.010796	2543.494008
906.317614	2538.281455
906.624391	2538.750283
906.931129	2535.493697
907.237826	2535.786084
907.544483	2532.340456
907.851099	2533.189890
908.157675	2530.815507
908.464211	2529.983716
908.770707	2528.564631
909.077163	2529.625794
909.383578	2526.890968
909.689954	2529.439272
909.996289	2524.816533
910.302584	2528.635208
910.608839	2528.761236
910.915054	2531.886752
911.221229	2531.196114
911.527363	2532.302647
911.833458	2528.980527
912.139513	2533.434386
912.445527	2531.271731
912.751502	2530.306350
913.057436	2536.141486
913.363331	2531.269210
913.669186	2534.419932
913.975000	2533.326001
914.280775	2532.713501
914.586510	2536.648122
914.892205	2539.239275
915.197859	2539.705581
915.503475	2546.203629
915.809050	2547.809236
916.114585	2550.488609
916.420081	2553.931718
916.725536	2553.793086
917.030952	2549.946685
917.336328	2544.655994
917.641665	2545.896118
917.946961	2544.613145
918.252218	2541.701878
918.557435	2537.351363
918.862612	2538.120138
919.167750	2538.268852
919.472848	2535.710467
919.777906	2534.349355
920.082925	2531.952287
920.387904	2533.557894
920.692843	2533.878008
920.997743	2533.474715
921.302603	2533.512524
921.607423	2531.682585
921.912204	2533.668800
922.216946	2532.451361
922.521647	2530.054292
922.826310	2532.055630
923.130932	2531.450692
923.435516	2532.882380
923.740059	2534.251053
924.044564	2530.891124
924.349028	2530.419776
924.653454	2525.890299
924.957840	2527.553880
925.262186	2528.884745
925.566493	2529.691329
925.870761	2526.122192
926.174989	2531.493542
926.479178	2530.528161
926.783328	2528.017666
927.087438	2529.272913
927.391509	2531.417924
927.695541	2527.851308
927.999533	2529.530012
928.303486	2528.978006
928.607400	2529.083870
928.911275	2531.523789
929.215110	2531.697708
929.518906	2528.284847
929.822663	2528.398273
930.126381	2528.143695
930.430060	2528.015146
930.733699	2527.211082
931.037299	2530.923891
931.340861	2528.534384
931.644383	2530.518078
931.947866	2530.480270
932.251309	2528.194107
932.554714	2530.528161
932.858080	2530.112266
933.161407	2526.444826
933.464694	2528.869621
933.767943	2527.697553
934.071153	2527.374919
934.374323	2528.279806
934.677455	2529.656041
934.980548	2529.116638
935.283602	2529.416586
935.586617	2528.872142
935.889593	2531.796011
936.192530	2526.457429
936.495428	2529.494724
936.798287	2528.562111
937.101108	2528.362985
937.403890	2530.999509
937.706632	2530.434899
938.009336	2527.543798
938.312002	2530.588655
938.614628	2529.121679
938.917216	2531.851464
939.219765	2530.840712
939.522275	2530.215609
939.824747	2528.723428
940.127179	2527.886596
940.429573	2525.320649
940.731929	2527.420289
941.034246	2525.371060
941.336524	2529.678726
941.638763	2531.009591
941.940964	2528.448685
942.243126	2529.391381
942.545250	2527.692512
942.847335	2529.535053
943.149381	2529.461957
943.451389	2526.659075
943.753359	2528.824251
944.055290	2529.835002
944.357182	2531.906916
944.659036	2528.620084
944.960851	2529.209899
945.262628	2529.416586
945.564367	2530.671834
945.866067	2527.700073
946.167729	2530.024045
946.469352	2530.334076
946.770937	2528.178983
947.072484	2529.066226
947.373992	2527.264014
947.675462	2528.844415
947.976893	2528.257121
948.278286	2530.603778
948.579641	2527.934487
948.880958	2529.414066
949.182236	2529.867770
949.483476	2529.356092
949.784678	2526.434744
950.085841	2529.076308
950.386967	2527.654703
950.688054	2527.059847
950.989103	2527.059847
951.290114	2527.702594
951.591087	2529.736700
951.892021	2526.152439
952.192917	2528.068078
952.493776	2528.030269
952.794596	2529.658562
953.095378	2530.094622
953.396122	2531.012112
953.696828	2528.970444
953.997496	2527.327028
954.298126	2527.407687
954.598718	2529.366175
954.899272	2526.391894
955.199788	2529.416586
955.500266	2529.431710
955.800706	2525.446678
956.101108	2523.868797
956.401472	2526.172604
956.701798	2523.480628
957.002087	2525.363499
957.302337	2529.424148
957.602550	2528.899868
957.902724	2528.418438
958.202861	2529.741741
958.502960	2524.272089
958.803022	2526.265865
959.103045	2527.848788
959.403031	2530.152595
959.702979	2527.624456
960.002889	2528.025228
960.302762	2526.149919
960.602596	2526.948942
960.902393	2525.860052
961.202153	2527.873993
961.501875	2529.643438
961.801559	2527.218643
962.101205	2525.945752
962.400814	2528.065557
962.700385	2529.063706
962.999918	2526.149919
963.299414	2528.340300
963.598873	2528.393232
963.898293	2525.658406
964.197677	2528.552028
964.497022	2528.481452
964.796331	2525.734023
965.095601	2527.649662
965.394835	2526.076822
965.694030	2525.731503
965.993189	2527.843746
966.292309	2524.783766
966.591393	2527.548839
966.890439	2527.982378
967.189447	2528.864580
967.488419	2528.786442
967.787353	2526.863242
968.086249	2529.043541
968.385108	2524.864424
968.683930	2525.136647
968.982714	2528.647810
969.281462	2526.545649
969.580172	2527.299302
969.878844	2527.284178
970.177480	2530.422297
970.476078	2526.906092
970.774639	2528.279806
971.073162	2527.697553
971.371649	2524.887110
971.670098	2523.672192
971.968510	2523.762932
972.266885	2519.616583
972.565223	2526.901051
972.863524	2527.218643
973.161788	2528.433561
973.460014	2527.944569
973.758204	2529.114117
974.056356	2527.742923
974.354471	2526.772501
974.652550	2525.731503
974.950591	2526.873324
975.248595	2527.349713
975.546563	2525.590351
975.844493	2523.599095
976.142386	2527.261493
976.440243	2526.175124
976.738062	2525.003056
977.035845	2527.473222
977.333590	2521.154135
977.631299	2528.730989
977.928971	2526.472553
978.226606	2526.449867
978.524204	2527.405166
978.821765	2525.615556
979.119290	2526.759898
979.416777	2524.965248
979.714228	2526.061698
980.011642	2526.389373
980.309020	2528.622605
980.606360	2526.298633
980.903664	2530.092101
981.200931	2527.432892
981.498162	2525.000536
981.795356	2525.590351
982.092513	2526.122192
982.389633	2528.831813
982.686717	2525.751668
982.983764	2528.128572
983.280775	2525.892820
983.577749	2528.194107
983.874686	2530.608819
984.171587	2527.904240
984.468451	2526.094466
984.765279	2527.516071
985.062070	2526.459950
985.358824	2525.653365
985.655543	2527.410207
985.952224	2524.998015
986.248869	2528.786442
986.545478	2519.440143
986.842050	2525.126564
987.138586	2522.205216
987.435086	2523.084897
987.731549	2523.087418
988.027975	2524.597243
988.324366	2525.502130
988.620719	2526.994312
988.917037	2526.535567
989.213318	2527.367357
989.509563	2522.789990
989.805772	2527.004394
990.101944	2526.200330
990.398080	2526.656555
990.694180	2527.851308
990.990244	2527.994981
991.286271	2524.597243
991.582262	2522.716893
991.878217	2526.351565
992.174136	2527.669827
992.470019	2524.302336
992.765865	2529.219981
993.061676	2523.752850
993.357450	2523.931811
993.653188	2526.280989
993.948890	2524.841739
994.244556	2526.079342
994.540186	2529.335928
994.835780	2523.876358
995.131337	2527.110258
995.426859	2524.773684
995.722345	2526.308715
996.017795	2524.226718
996.313208	2528.279806
996.608586	2524.264527
996.903928	2526.742254
997.199234	2524.211595
997.494504	2526.051616
997.789738	2525.923067
998.084936	2525.842408
998.380099	2523.132788
998.675225	2525.020700
998.970316	2524.486338
999.265371	2525.602953
999.560390	2527.125382
999.855373	2526.911133
1000.150320	2525.028262
1000.445232	2526.908612
1000.740108	2526.217974
1001.034948	2527.478263
1001.329752	2526.396935
1001.624521	2525.837367
1001.919254	2520.067767
1002.213951	2521.370905
1002.508613	2520.541635
1002.803239	2524.854342
1003.097829	2520.740761
1003.392384	2525.144208
1003.686903	2525.890299
1003.981386	2527.289219
1004.275834	2527.042203
1004.570246	2527.848788
1004.864623	2524.428365
1005.158964	2524.277130
1005.453270	2526.253262
1005.747540	2523.314270
1006.041775	2525.081194
1006.335974	2527.533715
1006.630138	2525.290402
1006.924266	2526.651513
1007.218359	2524.748478
1007.512416	2526.641431
1007.806438	2524.057840
1008.100425	2526.795186
1008.394376	2523.500792
1008.688292	2525.194620
1008.982172	2524.874507
1009.276017	2524.289733
1009.569827	2527.498427
1009.863602	2528.592358
1010.157341	2522.767304
1010.451045	2526.570855
1010.744714	2527.052285
1011.038347	2525.600433
1011.331945	2526.643952
1011.625508	2528.962882
1011.919036	2525.650844
1012.212528	2527.397604
1012.505986	2525.418951
1012.799408	2527.750485
1013.092795	2524.503982
1013.386147	2524.808972
1013.679464	2526.028931
1013.972745	2522.729496
1014.265992	2524.385515
1014.559204	2524.171266
1014.852380	2524.519105
1015.145521	2524.824095
1015.438628	2522.795031
1015.731699	2524.814013
1016.024736	2525.930628
1016.317737	2521.149094
1016.610703	2526.338962
1016.903635	2522.250586
1017.196531	2522.016173
1017.489393	2521.564989
1017.782219	2521.139012
1018.075011	2520.017355
1018.367768	2525.310567
1018.660490	2523.004239
1018.953177	2523.004239
1019.245829	2523.004239
