Dividing Wavelength (nm)	Counts (n)	Blue Motor Position (mm): 0.000000	Red Motor Position (mm): 18.700000	
326.493990	2131.188118
326.888308	2131.188118
327.282561	2131.188118
327.676750	2096.588158
328.070874	2094.503641
328.464933	2097.145206
328.858929	2104.475043
329.252859	2113.778493
329.646726	2123.893568
330.040528	2137.681124
330.434265	2154.442960
330.827938	2171.713953
331.221547	2190.487210
331.615091	2210.994624
332.008571	2229.167984
332.401986	2250.179513
332.795338	2265.179466
333.188625	2286.317024
333.581847	2306.622792
333.975006	2324.617191
334.368100	2342.367093
334.761129	2361.296626
335.154095	2375.802546
335.546996	2391.886348
335.939833	2410.904101
336.332606	2426.481266
336.725315	2435.207503
337.117960	2446.552620
337.510540	2453.975719
337.903056	2466.482822
338.295508	2473.437093
338.687896	2481.427322
339.080220	2490.675319
339.472480	2495.850063
339.864676	2501.566732
340.256807	2505.125787
340.648875	2504.924140
341.040879	2510.459327
341.432818	2510.965963
341.824694	2512.916890
342.216506	2511.596108
342.608253	2512.639626
342.999937	2516.057529
343.391557	2516.022241
343.783113	2512.059894
344.174605	2511.744822
344.566033	2509.302383
344.957397	2509.556961
345.348697	2505.965139
345.739934	2504.649397
346.131106	2505.398009
346.522215	2502.650580
346.913260	2501.057575
347.304241	2497.959786
347.695159	2495.668582
348.086012	2497.725373
348.476802	2495.688747
348.867528	2495.751761
349.258191	2491.156749
349.648789	2489.483086
350.039324	2487.620380
350.429796	2486.118116
350.820203	2486.344968
351.210548	2485.767756
351.600828	2483.589977
351.991045	2484.336068
352.381198	2483.201808
352.771288	2485.135091
353.161314	2480.777013
353.551276	2482.654843
353.941175	2480.930769
354.331010	2482.243989
354.720782	2483.680718
355.110490	2482.987559
355.500135	2481.510501
355.889717	2482.836325
356.279235	2481.704586
356.668689	2481.190388
357.058080	2482.402786
357.447408	2480.285501
357.836672	2481.518063
358.225873	2483.131232
358.615010	2481.775162
359.004084	2485.155256
359.393095	2486.718013
359.782043	2488.104331
360.170927	2486.375215
360.559748	2489.243631
360.948505	2488.958806
361.337199	2489.435195
361.725830	2488.948724
362.114398	2489.621718
362.502903	2492.094404
362.891344	2491.534836
363.279722	2492.742192
363.668037	2491.847387
364.056289	2494.340238
364.444478	2493.634476
364.832603	2493.619353
365.220665	2497.012049
365.608665	2498.002636
365.996601	2497.193531
366.384474	2497.992554
366.772284	2499.552791
367.160031	2500.349293
367.547715	2503.036228
367.935336	2504.039418
368.322893	2507.744666
368.710388	2513.594925
369.097820	2516.770852
369.485189	2519.510719
369.872495	2525.119003
370.259738	2534.820703
370.646918	2542.619368
371.034035	2548.280584
371.421090	2558.304918
371.808081	2566.143913
372.195010	2572.334450
372.581875	2590.293560
372.968678	2605.389295
373.355418	2612.499843
373.742096	2632.107411
374.128710	2646.946047
374.515262	2660.151350
374.901751	2679.738753
375.288177	2689.780731
375.674540	2712.397868
376.060841	2730.866135
376.447079	2747.690986
376.833254	2771.011364
377.219367	2782.467386
377.605417	2820.991884
377.991404	2826.438850
378.377329	2854.180320
378.763191	2867.582227
379.148991	2904.939698
379.534727	2929.558173
379.920402	2960.294088
380.306013	2970.593165
380.691563	3021.135774
381.077049	3045.177036
381.462474	3059.894685
381.847835	3097.166456
382.233134	3121.893316
382.618371	3122.115126
383.003545	3187.186340
383.388657	3198.493648
383.773706	3227.886096
384.158693	3242.797829
384.543618	3271.774381
384.928480	3305.315698
385.313280	3355.109695
385.698017	3354.126670
386.082692	3404.475194
386.467305	3409.594486
386.851856	3443.730659
387.236344	3461.513330
387.620770	3494.865603
388.005133	3526.254348
388.389435	3546.774365
388.773674	3558.366498
389.157851	3600.689505
389.541965	3616.478399
389.926018	3583.783996
390.310008	3655.743946
390.693936	3669.803724
391.077802	3713.644119
391.461606	3701.663817
391.845348	3763.135647
392.229027	3763.682612
392.612645	3774.843726
392.996200	3852.900952
393.379694	3893.991397
393.763125	3956.801654
394.146494	3926.035492
394.529801	3986.408350
394.913047	4036.860218
395.296230	4000.097604
395.679351	4054.194226
396.062410	4076.730704
396.445408	4062.630597
396.828343	4087.846448
397.211217	4118.141262
397.594028	4034.715207
397.976778	4100.081328
398.359466	4128.992346
398.742092	4156.471675
399.124656	4079.084923
399.507158	4156.829597
399.889598	4178.894728
400.271977	4247.076333
400.654294	4214.444945
401.036549	4220.542220
401.418742	4190.950647
401.800874	4295.723468
402.182944	4316.203156
402.564952	4383.976428
402.946898	4366.745764
403.328783	4359.216801
403.710606	4277.764358
404.092367	4465.184375
404.474067	4429.016617
404.855705	4434.634983
405.237282	4361.986915
405.618797	4463.475424
406.000250	4495.602697
406.381642	4572.296292
406.762972	4535.397566
407.144240	4533.920508
407.525447	4528.856669
407.906593	4581.496397
408.287677	4614.788177
408.668700	4537.845046
409.049661	4579.515224
409.430560	4602.581023
409.811399	4523.429867
410.192176	4666.923790
410.572891	4591.155248
410.953545	4670.739944
411.334138	4543.528947
411.714669	4591.142645
412.095139	4477.169718
412.475547	4587.480247
412.855894	4550.160585
413.236180	4536.655334
413.616405	4476.146364
413.996568	4533.865055
414.376670	4456.304383
414.756711	4391.704517
415.136691	4397.499323
415.516609	4428.693983
415.896466	4432.777318
416.276262	4428.126853
416.655997	4386.239906
417.035670	4492.484744
417.415283	4522.283004
417.794834	4445.493628
418.174324	4381.299575
418.553753	4276.859470
418.933121	4367.446484
419.312428	4377.836303
419.691674	4286.293990
420.070859	4330.787214
420.449983	4229.608735
420.829045	4252.709823
421.208047	4158.848579
421.586988	4149.519924
421.965867	4112.028863
422.344686	4132.478304
422.723444	4012.425745
423.102141	3870.146740
423.480777	3977.891321
423.859352	3813.521979
424.237866	3888.940161
424.616319	3839.143644
424.994712	3839.315043
425.373044	3739.013725
425.751314	3745.524376
426.129524	3619.336733
426.507673	3645.911176
426.885762	3632.952890
427.263789	3553.227042
427.641756	3478.643170
428.019662	3467.318218
428.397508	3427.409924
428.775292	3360.571786
429.153016	3348.314220
429.530679	3290.628297
429.908282	3269.929319
430.285824	3204.043959
430.663305	3222.885271
431.040726	3131.489152
431.418086	3097.201744
431.795385	3081.964857
432.172624	3051.082748
432.549802	3018.839528
432.926920	2988.733757
433.303977	2961.115796
433.680974	2937.820624
434.057910	2909.461613
434.434786	2887.182234
434.811601	2855.422964
435.188355	2856.022862
435.565050	2820.253355
435.941683	2796.950621
436.318257	2792.353089
436.694770	2766.938112
437.071222	2751.872623
437.447614	2723.748026
437.823946	2707.528113
438.200218	2702.146682
438.576429	2681.462827
438.952580	2670.894048
439.328670	2662.853408
439.704700	2648.788589
440.080670	2634.764099
440.456580	2635.106897
440.832429	2622.672891
441.208218	2611.272322
441.583947	2607.312496
441.959616	2600.355703
442.335224	2593.492172
442.710773	2589.474373
443.086261	2585.506985
443.461689	2576.929461
443.837057	2573.309913
444.212365	2572.546178
444.587612	2571.976528
444.962800	2566.567370
445.337927	2563.104097
445.712995	2560.538150
446.088002	2563.467060
446.462949	2559.408931
446.837837	2557.231153
447.212664	2555.703683
447.587431	2556.956410
447.962139	2560.838098
448.336786	2568.059551
448.711374	2563.245249
449.085901	2554.400545
449.460369	2554.009855
449.834776	2552.232849
450.209124	2554.887016
450.583412	2554.019938
450.957640	2554.345092
451.331808	2553.069680
451.705917	2548.578012
452.079965	2547.317724
452.453954	2550.062632
452.827883	2552.409289
453.201752	2550.140770
453.575562	2547.718495
453.949311	2549.891233
454.323001	2548.262940
454.696632	2548.535162
455.070202	2548.842673
455.443713	2550.203784
455.817164	2546.087682
456.190556	2544.897970
456.563888	2548.580533
456.937160	2546.869061
457.310373	2547.501726
457.683526	2547.562220
458.056619	2547.988197
458.429653	2548.709082
458.802628	2549.498023
459.175542	2548.298228
459.548398	2552.752088
459.921194	2549.182951
460.293930	2546.780841
460.666607	2550.861655
461.039224	2553.717468
461.411782	2553.349464
461.784280	2556.716955
462.156719	2555.060936
462.529099	2557.752912
462.901419	2554.105637
463.273680	2550.319731
463.645882	2556.106975
464.018024	2552.600853
464.390106	2555.842315
464.762130	2555.985988
465.134094	2560.326421
465.505999	2562.536967
465.877845	2567.731876
466.249631	2567.358831
466.621358	2568.087277
466.993026	2566.577452
467.364634	2569.912175
467.736184	2563.300702
468.107674	2563.046124
468.479105	2561.072512
468.850477	2563.048644
469.221790	2560.984292
469.593043	2560.558314
469.964238	2559.648386
470.335373	2558.660320
470.706449	2563.187276
471.077467	2560.961607
471.448425	2566.378326
471.819324	2572.825962
472.190164	2575.023905
472.560945	2568.974521
472.931667	2561.778273
473.302330	2561.816082
473.672934	2557.770556
474.043479	2561.309446
474.413965	2562.448747
474.784393	2559.424055
475.154761	2560.875907
475.525070	2559.839950
475.895321	2559.552604
476.265513	2560.797769
476.635645	2564.850857
477.005719	2563.794735
477.375734	2566.249777
477.745691	2567.908317
478.115588	2567.416804
478.485427	2569.430745
478.855207	2572.750345
479.224928	2576.778227
479.594591	2580.329720
479.964194	2580.637230
480.333739	2574.439131
480.703226	2575.666652
481.072653	2577.625141
481.442022	2579.664287
481.811333	2577.615058
482.180584	2579.845769
482.549777	2579.576067
482.918912	2576.306879
483.287988	2576.301838
483.657005	2579.545820
484.025964	2576.284194
484.394864	2573.980386
484.763706	2574.708833
485.132489	2576.566498
485.501213	2573.950139
485.869879	2574.534913
486.238487	2573.188925
486.607036	2574.189594
486.975527	2571.898390
487.343959	2573.070458
487.712333	2575.137331
488.080648	2575.810325
488.448905	2574.199677
488.817104	2572.652042
489.185244	2577.337795
489.553326	2574.630695
489.921350	2576.490881
490.289315	2581.421129
490.657222	2579.762590
491.025070	2580.760738
491.392861	2582.320975
491.760593	2579.528176
492.128267	2576.364852
492.495883	2574.580284
492.863440	2572.765468
493.230939	2572.571384
493.598380	2573.085582
493.965763	2566.101063
494.333088	2565.831361
494.700354	2565.354972
495.067563	2569.425704
495.434713	2565.481001
495.801805	2571.064079
496.168839	2568.563667
496.535815	2571.285890
496.902733	2571.235478
497.269593	2570.040725
497.636395	2569.110632
498.003139	2571.938719
498.369825	2569.213975
498.736453	2571.865622
499.103023	2569.219017
499.469535	2567.860426
499.835989	2569.040056
500.202385	2570.444017
500.568723	2567.603327
500.935003	2572.452917
501.301226	2570.396126
501.667390	2571.898390
502.033497	2571.936198
502.399546	2571.341342
502.765537	2570.093657
503.131470	2572.100036
503.497345	2569.967628
503.863163	2572.437793
504.228923	2570.524675
504.594625	2573.188925
504.960269	2570.736404
505.325856	2573.877043
505.691385	2570.733883
506.056856	2574.071127
506.422270	2572.762948
506.787625	2569.150961
507.152924	2570.471743
507.518164	2573.466189
507.883347	2572.362176
508.248472	2570.514593
508.613540	2571.684141
508.978550	2573.897207
509.343503	2573.415777
509.708398	2574.804615
510.073236	2572.795715
510.438016	2572.336970
510.802738	2573.262022
511.167403	2575.336457
511.532010	2570.295303
511.896561	2573.730849
512.261053	2575.407033
512.625488	2570.963256
512.989866	2571.207752
513.354186	2571.517783
513.718449	2569.158523
514.082655	2573.884604
514.446803	2573.004923
514.810894	2572.460478
515.174927	2572.833524
515.538904	2574.338308
515.902822	2575.500294
516.266684	2572.906621
516.630488	2575.674214
516.994235	2576.747980
517.357925	2574.494584
517.721558	2576.916858
518.085133	2575.316292
518.448651	2576.891653
518.812112	2575.147413
519.175516	2577.330233
519.538863	2576.619430
519.902152	2575.666652
520.265385	2576.407702
520.628560	2576.909297
520.991678	2575.139852
521.354739	2575.815366
521.717743	2571.270766
522.080690	2575.238154
522.443580	2578.066242
522.806413	2577.042887
523.169189	2575.825449
523.531908	2576.712692
523.894569	2575.747311
524.257174	2576.969791
524.619722	2576.175809
524.982213	2579.349215
525.344647	2577.738567
525.707025	2575.543144
526.069345	2575.732187
526.431608	2577.841910
526.793815	2575.449883
527.155964	2576.334605
527.518057	2576.473237
527.880093	2576.085068
528.242072	2576.493402
528.603995	2579.283680
528.965860	2576.813515
529.327669	2576.102712
529.689421	2574.539954
530.051117	2576.279153
530.412755	2577.095819
530.774337	2576.332085
531.135862	2575.129769
531.497331	2573.582135
531.858743	2571.865622
532.220098	2571.855540
532.581396	2570.113821
532.942638	2572.851168
533.303824	2576.213617
533.664953	2574.176991
534.026025	2574.368555
534.387040	2575.245716
534.747999	2573.672876
535.108902	2574.464337
535.469748	2572.861250
535.830537	2575.833010
536.191270	2573.032649
536.551947	2574.766806
536.912567	2572.457958
537.273131	2574.620613
537.633638	2573.614903
537.994089	2576.422825
538.354483	2572.939388
538.714821	2574.524831
539.075103	2574.764286
539.435328	2575.349060
539.795497	2574.759245
540.155609	2578.996334
540.515665	2576.684965
540.875665	2575.396951
541.235609	2573.945098
541.595496	2574.860068
541.955328	2574.769327
542.315102	2575.817887
542.674821	2573.776220
543.034483	2575.918710
543.394090	2575.631364
543.753640	2575.709502
544.113134	2575.923751
544.472571	2573.383010
544.831953	2574.454255
545.191278	2576.221179
545.550548	2573.350242
545.909761	2572.876374
546.268918	2575.039029
546.628019	2577.680593
546.987064	2574.602969
547.346053	2571.563153
547.704986	2573.758576
548.063863	2573.834193
548.422684	2575.328895
548.781449	2577.015161
549.140158	2576.049780
549.498811	2576.543813
549.857408	2577.620099
550.215949	2570.859912
550.574434	2570.197000
550.932864	2572.712536
551.291237	2569.924778
551.649555	2574.318144
552.007817	2577.168916
552.366022	2573.443503
552.724173	2575.359142
553.082267	2573.987948
553.440305	2572.473081
553.798288	2572.031980
554.156215	2574.050962
554.514086	2573.700602
554.871902	2573.274625
555.229661	2574.005592
555.587365	2575.434759
555.945014	2574.000551
556.302606	2573.196487
556.660143	2575.379307
557.017625	2573.083061
557.375050	2571.517783
557.732421	2573.660273
558.089735	2574.645819
558.446994	2574.416446
558.804197	2571.963925
559.161345	2573.844275
559.518437	2574.232444
559.875474	2574.784450
560.232455	2574.013154
560.589381	2573.567012
560.946251	2573.907290
561.303065	2575.623802
561.659825	2573.539285
562.016528	2573.950139
562.373177	2573.188925
562.729770	2573.935016
563.086307	2575.706982
563.442789	2573.514080
563.799216	2573.302351
564.155587	2572.508369
564.511904	2573.423339
564.868164	2573.226734
565.224370	2573.952660
565.580520	2572.021898
565.936615	2574.643298
566.292654	2572.773030
566.648638	2572.634398
567.004567	2573.135993
567.360441	2572.563822
567.716260	2573.057855
568.072023	2573.914851
568.427732	2569.440827
568.783385	2571.033832
569.138982	2568.364541
569.494525	2573.012485
569.850013	2570.073492
570.205445	2572.878894
570.560823	2573.002402
570.916145	2572.170612
571.271412	2570.658266
571.626625	2573.945098
571.981782	2572.004254
572.336884	2572.369738
572.691931	2572.868812
573.046923	2571.429562
573.401860	2570.156671
573.756743	2572.374779
574.111570	2569.158523
574.466342	2571.822772
574.821059	2570.035683
575.175722	2570.527196
575.530330	2568.956877
575.884882	2568.888821
576.239380	2569.690364
576.593823	2571.555591
576.948211	2572.021898
577.302544	2566.650549
577.656823	2567.951166
578.011047	2570.925447
578.365216	2569.692885
578.719330	2569.299675
579.073389	2569.781105
579.427394	2570.761610
579.781344	2566.834551
580.135239	2569.196331
580.489080	2568.873697
580.842866	2569.118193
581.196597	2569.203893
581.550273	2568.966959
581.903895	2565.793552
582.257463	2569.176167
582.610975	2564.964283
582.964434	2567.013512
583.317837	2567.880590
583.671186	2568.525858
584.024481	2566.950497
584.377721	2569.564336
584.730906	2566.358162
585.084037	2566.622822
585.437113	2565.796073
585.790135	2565.334807
586.143103	2565.092832
586.496016	2566.297668
586.848874	2563.235167
587.201679	2565.765826
587.554428	2563.149467
587.907124	2565.312122
588.259765	2562.804148
588.612352	2566.572411
588.964884	2567.900755
589.317362	2567.436969
589.669786	2567.194993
590.022155	2567.361351
590.374470	2566.128789
590.726731	2565.291958
591.078937	2564.767678
591.431090	2565.995199
591.783188	2567.426886
592.135232	2564.692060
592.487222	2565.957390
592.839157	2567.772205
593.191038	2564.124931
593.542866	2564.122410
593.894639	2564.205589
594.246358	2566.700960
594.598022	2563.968655
594.949633	2564.286248
595.301190	2563.358675
595.652692	2566.804304
596.004141	2565.339849
596.355535	2564.051834
596.706876	2563.686350
597.058162	2562.302553
597.409395	2563.056206
597.760573	2562.952862
598.111698	2563.338511
598.462768	2565.042421
598.813785	2562.199210
599.164748	2561.508572
599.515657	2564.185424
599.866511	2562.287430
600.217312	2562.668037
600.568060	2562.395815
600.918753	2565.057544
601.269392	2561.758109
601.619978	2560.898592
601.970510	2561.914385
602.320988	2563.041083
602.671412	2560.936401
603.021783	2562.781463
603.372100	2561.690053
603.722363	2561.460681
604.072572	2566.101063
604.422728	2565.153326
604.772830	2559.487069
605.122878	2559.764333
605.472872	2559.522357
605.822813	2558.236863
606.172701	2561.793397
606.522534	2560.964127
606.872314	2561.894220
607.222041	2559.051009
607.571714	2562.970506
607.921333	2562.312636
608.270899	2564.082081
608.620411	2563.540157
608.969870	2568.067113
609.319276	2561.899261
609.668627	2567.018553
610.017926	2567.749520
610.367171	2570.880077
610.716362	2571.235478
611.065500	2570.252453
611.414585	2566.179201
611.763616	2564.447564
612.112594	2566.073337
612.461518	2567.749520
612.810389	2565.942267
613.159207	2563.724159
613.507971	2564.641649
613.856682	2566.514437
614.205340	2563.583007
614.553945	2567.265569
614.902496	2562.700805
615.250994	2563.275496
615.599439	2563.789694
615.947830	2562.836916
616.296169	2561.193500
616.644454	2561.710218
616.992686	2563.058727
617.340864	2564.293809
617.688990	2563.527554
618.037063	2562.627708
618.385082	2560.722152
618.733048	2560.994374
619.080961	2564.558470
619.428821	2561.750547
619.776628	2563.341031
620.124382	2563.983778
620.472083	2562.390774
620.819731	2562.403377
621.167326	2561.337172
621.514868	2562.536967
621.862357	2560.205433
622.209793	2562.516802
622.557176	2562.279868
622.904506	2558.244425
623.251783	2556.210319
623.599007	2558.521688
623.946179	2556.071687
624.293297	2558.151163
624.640363	2558.763663
624.987376	2559.005639
625.334336	2556.613611
625.681243	2557.798283
626.028097	2562.325239
626.374899	2559.411452
626.721647	2557.306770
627.068343	2559.620660
627.414987	2558.695608
627.761577	2559.650907
628.108115	2560.260886
628.454600	2556.787531
628.801032	2559.156873
629.147412	2558.420865
629.493739	2558.234342
629.840014	2560.119734
630.186236	2558.234342
630.532405	2558.491441
630.878521	2558.153684
631.224585	2561.024621
631.570597	2557.513457
631.916556	2558.083108
632.262462	2558.597305
632.608316	2557.331976
632.954117	2556.540515
633.299866	2557.253838
633.645562	2554.380380
633.991206	2556.540515
634.336797	2556.669064
634.682336	2557.793241
635.027823	2554.866852
635.373257	2555.693601
635.718639	2555.421378
636.063968	2555.726368
636.409245	2551.428785
636.754470	2554.771070
637.099642	2552.184958
637.444762	2556.681667
637.789829	2556.298539
638.134845	2555.305432
638.479808	2554.640000
638.824719	2551.879968
639.169577	2554.196378
639.514383	2554.554300
639.859137	2556.689229
640.203839	2557.034548
640.548489	2553.873744
640.893086	2551.471634
641.237632	2549.061963
641.582125	2550.637323
641.926566	2547.950388
642.270955	2553.364588
642.615292	2554.196378
642.959576	2551.900133
643.303809	2553.316697
643.647990	2554.198899
643.992118	2552.336192
644.336195	2552.018600
644.680219	2554.148487
645.024192	2555.471790
645.368112	2555.169321
645.711981	2551.811912
646.055797	2554.634958
646.399562	2553.553631
646.743274	2555.577654
647.086935	2556.958930
647.430544	2555.396173
647.774101	2554.629917
648.117606	2554.226625
648.461059	2553.909032
648.804460	2556.336348
649.147810	2555.204609
649.491108	2552.736964
649.834354	2551.844680
650.177548	2554.589588
650.520690	2553.069680
650.863781	2554.390462
651.206820	2557.203426
651.549807	2553.417520
651.892742	2553.351985
652.235626	2552.084135
652.578458	2553.288970
652.921238	2550.203784
653.263967	2555.141594
653.606644	2551.630431
653.949269	2551.582540
654.291843	2550.168496
654.634365	2551.963147
654.976836	2551.007848
655.319255	2551.912735
655.661622	2547.985677
656.003938	2551.186809
656.346203	2552.646223
656.688416	2548.146993
657.030577	2552.459701
657.372687	2548.595656
657.714746	2548.298228
658.056753	2551.060780
658.398708	2546.841335
658.740612	2551.829556
659.082465	2548.126829
659.424266	2547.315203
659.766016	2548.739329
660.107715	2549.752601
660.449362	2549.021634
660.790958	2550.503733
661.132503	2550.259237
661.473996	2550.443239
661.815438	2554.254351
662.156829	2550.324772
662.498168	2550.072714
662.839456	2550.516336
663.180693	2551.514484
663.521879	2552.479865
663.863013	2551.587581
664.204097	2552.603373
664.545129	2550.952396
664.886110	2550.831408
665.227040	2548.051212
665.567918	2552.666388
665.908746	2550.581871
666.249522	2555.640669
666.590248	2552.003476
666.930922	2550.632282
667.271545	2551.670760
667.612118	2550.438198
667.952639	2550.216387
668.293109	2553.692263
668.633528	2553.130174
668.973896	2549.462735
669.314213	2554.821481
669.654480	2550.561706
669.994695	2549.097251
670.334859	2547.337888
670.674973	2551.096068
671.015035	2550.075235
671.355047	2550.473486
671.695008	2550.123126
672.034918	2550.481048
672.374777	2550.470965
672.714585	2549.881150
673.054342	2551.353167
673.394049	2550.009700
673.733705	2552.782334
674.073310	2552.661347
674.412864	2552.850390
674.752368	2549.561037
675.091820	2550.670091
675.431223	2547.771427
675.770574	2551.373332
676.109875	2544.179605
676.449125	2546.480892
676.788324	2546.049873
677.127473	2546.198587
677.466571	2545.129863
677.805619	2550.831408
678.144616	2550.017262
678.483562	2548.126829
678.822458	2548.716644
679.161303	2548.973743
679.500098	2548.038609
679.838842	2552.585729
680.177535	2550.249155
680.516179	2550.042467
680.854771	2549.319062
681.193314	2548.996428
681.531805	2552.333672
681.870247	2552.162272
682.208638	2552.240410
682.546978	2552.487427
682.885268	2551.824515
683.223508	2549.006510
683.561697	2551.038095
683.899836	2548.923331
684.237925	2549.114895
684.575963	2549.258568
684.913951	2552.673950
685.251889	2550.796120
685.589776	2551.083466
685.927614	2550.508774
686.265401	2551.486758
686.603137	2553.626728
686.940824	2547.776469
687.278460	2553.901471
687.616046	2552.638662
687.953582	2549.041798
688.291068	2552.033723
688.628504	2551.517005
688.965889	2549.929041
689.303224	2551.716130
689.640510	2549.813095
689.977745	2552.132026
690.314930	2549.130018
690.652065	2550.165976
690.989150	2548.366284
691.326185	2550.155893
691.663170	2548.457024
692.000105	2549.860986
692.336990	2546.639688
692.673825	2549.011551
693.010610	2550.748229
693.347345	2544.696324
693.684030	2544.098947
694.020665	2543.753628
694.357251	2539.808925
694.693786	2545.006355
695.030272	2548.046170
695.366707	2547.703372
695.703093	2543.804039
696.039429	2547.176571
696.375716	2547.123639
696.711952	2544.487116
697.048139	2546.851417
697.384276	2548.031047
697.720363	2545.278577
698.056400	2544.769420
698.392388	2545.938968
698.728326	2545.437373
699.064214	2545.686910
699.400053	2546.168341
699.735842	2544.978628
700.071581	2543.867054
700.407270	2544.038453
700.742910	2543.864533
701.078501	2543.793957
701.414042	2547.216901
701.749533	2543.451159
702.084974	2543.448638
702.420366	2544.086344
702.755709	2544.466951
703.091002	2543.980480
703.426246	2545.250851
703.761440	2545.349153
704.096584	2546.627086
704.431679	2543.824204
704.766725	2547.557178
705.101721	2542.541230
705.436668	2543.862013
705.771565	2541.386806
706.106413	2546.163299
706.441212	2543.882177
706.775961	2547.136242
707.110661	2544.401416
707.445311	2547.325285
707.779913	2542.478216
708.114465	2544.078782
708.448967	2545.442414
708.783421	2544.903011
709.117825	2544.713968
709.452180	2545.699513
709.786485	2549.084648
710.120742	2548.078938
710.454949	2547.983156
710.789107	2542.324461
711.123216	2540.741538
711.457275	2543.095757
711.791286	2543.761190
712.125247	2543.594832
712.459159	2546.677497
712.793023	2546.964843
713.126837	2546.216232
713.460602	2544.091385
713.794318	2544.754297
714.127985	2546.990049
714.461602	2546.107847
714.795171	2547.184133
715.128691	2545.318906
715.462162	2546.821170
715.795584	2543.557023
716.128957	2545.933927
716.462281	2545.802857
716.795556	2546.816129
717.128782	2543.118442
717.461960	2542.765562
717.795088	2542.853782
718.128167	2543.942671
718.461198	2545.507949
718.794180	2543.597352
719.127113	2541.815304
719.459997	2546.463248
719.792833	2543.909904
720.125619	2543.995603
720.458357	2541.280942
720.791046	2543.357897
721.123686	2542.957126
721.456278	2540.920499
721.788821	2545.772610
722.121315	2541.099460
722.453761	2543.854451
722.786158	2539.140972
723.118506	2544.172044
723.450805	2545.807898
723.783056	2542.213555
724.115259	2544.681200
724.447412	2540.572660
724.779518	2543.365459
725.111574	2542.410160
725.443582	2546.324616
725.775542	2543.327650
726.107453	2542.473175
726.439315	2541.986703
726.771129	2547.085831
727.102895	2541.306148
727.434612	2544.091385
727.766281	2542.137938
728.097901	2541.459903
728.429473	2539.219110
728.760996	2541.233051
729.092471	2538.215920
729.423897	2542.286652
729.755276	2541.759852
730.086606	2544.262784
730.417887	2542.508463
730.749120	2544.086344
731.080305	2544.509801
731.411442	2544.935778
731.742530	2543.642723
732.073570	2546.813608
732.404562	2543.773793
732.735506	2545.278577
733.066401	2542.417722
733.397249	2542.669780
733.728048	2544.736653
734.058798	2544.711447
734.389501	2540.708771
734.720156	2544.323278
735.050762	2542.241282
735.381320	2541.742208
735.711831	2540.018133
736.042293	2541.893442
736.372707	2542.725232
736.703073	2543.032743
737.033391	2543.814122
737.363661	2541.485109
737.693883	2541.180119
738.024056	2541.485109
738.354182	2543.151210
738.684260	2543.546941
739.014290	2545.293700
739.344272	2543.030222
739.674207	2542.689944
740.004093	2543.385624
740.333931	2544.295552
740.663722	2547.385779
740.993464	2542.004347
741.323159	2540.791950
741.652806	2541.785057
741.982405	2543.529297
742.311956	2544.028371
742.641460	2541.769934
742.970915	2541.200283
743.300323	2540.328164
743.629683	2542.803370
743.958996	2541.921168
744.288260	2543.262115
744.617477	2539.652649
744.946647	2536.741383
745.275768	2539.561908
745.604842	2537.401774
745.933869	2537.376568
746.262847	2538.682227
746.591778	2542.132897
746.920662	2541.074255
747.249498	2542.347146
747.578286	2539.662732
747.907027	2539.715664
748.235720	2543.035263
748.564365	2540.232382
748.892963	2541.956457
749.221514	2538.898997
749.550017	2541.205325
749.878473	2542.647095
750.206881	2540.681045
750.535242	2537.600900
750.863555	2539.945036
751.191821	2539.491332
751.520039	2542.798329
751.848210	2541.477547
752.176334	2542.442928
752.504411	2541.487629
752.832440	2540.870088
753.160421	2541.996786
753.488356	2538.228523
753.816243	2542.508463
754.144082	2539.478729
754.471875	2538.432690
754.799620	2541.230530
755.127318	2536.736342
755.454969	2539.393030
755.782572	2542.521066
756.110129	2540.184491
756.437638	2539.619882
756.765100	2537.968904
757.092515	2539.813966
757.419882	2542.957126
757.747203	2540.207176
758.074477	2539.113246
758.401703	2538.654501
758.728882	2540.076106
759.056014	2539.072917
759.383099	2540.300437
759.710138	2540.302958
760.037129	2537.946219
760.364073	2540.653318
760.690970	2541.696837
761.017820	2541.452341
761.344623	2540.234903
761.671379	2543.420912
761.998088	2533.126876
762.324751	2539.929913
762.651366	2539.796322
762.977935	2546.543907
763.304456	2544.361087
763.630931	2549.881150
763.957359	2547.627755
764.283740	2549.944165
764.610074	2545.293700
764.936362	2544.809750
765.262602	2543.993083
765.588796	2540.849923
765.914943	2543.352856
766.241044	2541.724563
766.567097	2542.654656
766.893104	2540.055942
767.219064	2540.693648
767.544978	2542.067362
767.870845	2538.440252
768.196665	2541.837989
768.522438	2538.876312
768.848165	2539.602238
769.173846	2538.863709
769.499479	2541.485109
769.825066	2537.268183
770.150607	2538.460416
770.476101	2535.821372
770.801548	2541.888401
771.126949	2538.493184
771.452303	2539.297248
771.777611	2538.392361
772.102872	2538.956970
772.428087	2537.769778
772.753256	2537.784902
773.078378	2537.217772
773.403453	2536.249870
773.728482	2539.541744
774.053465	2536.159130
774.378401	2535.960004
774.703291	2537.729449
775.028135	2533.852802
775.352932	2539.340098
775.677683	2537.600900
776.002388	2537.225334
776.327046	2536.915303
776.651658	2537.830272
776.976224	2535.181146
777.300743	2536.970755
777.625216	2536.443955
777.949643	2539.448482
778.274024	2538.062165
778.598359	2534.523275
778.922647	2532.738707
779.246889	2534.218285
779.571086	2532.211906
779.895236	2535.123173
780.219339	2536.527134
780.543397	2536.776671
780.867409	2538.440252
781.191374	2535.715508
781.515294	2536.015457
781.839167	2535.476053
782.162995	2536.040662
782.486776	2536.075951
782.810511	2536.080992
783.134201	2538.190715
783.457844	2535.534027
783.781441	2540.980993
784.104993	2535.355066
784.428498	2538.130221
784.751958	2537.091743
785.075372	2537.704243
785.398739	2537.396733
785.722061	2536.547298
786.045337	2537.061496
786.368568	2538.596527
786.691752	2534.140148
787.014891	2539.879501
787.337983	2539.834131
787.661030	2538.132741
787.984031	2536.300282
788.306987	2537.459747
788.629897	2537.237937
788.952760	2540.418905
789.275579	2539.105684
789.598351	2538.044521
789.921078	2538.962011
790.243759	2536.696013
790.566395	2533.998995
790.888984	2536.098636
791.211529	2536.817000
791.534027	2536.885056
791.856480	2535.218954
792.178888	2535.050076
792.501249	2534.664428
792.823566	2536.693492
793.145836	2536.534696
793.468062	2534.606454
793.790241	2536.605272
794.112375	2539.067875
794.434464	2534.674510
794.756507	2537.454706
795.078505	2536.632998
795.400457	2534.863553
795.722364	2531.211237
796.044226	2534.167874
796.366042	2533.031094
796.687812	2535.150899
797.009538	2538.291538
797.331218	2540.650798
797.652852	2536.549819
797.974442	2539.914789
798.295986	2537.242978
798.617484	2538.389840
798.938938	2537.663914
799.260346	2537.452186
799.581709	2535.733152
799.903026	2539.443441
800.224299	2534.820703
800.545526	2535.707946
800.866708	2536.998482
801.187845	2533.086546
801.508936	2536.615354
801.829983	2536.443955
802.150984	2535.009747
802.471940	2534.906403
802.792851	2537.321116
803.113717	2538.276414
803.434538	2533.499921
803.755314	2535.758358
804.076045	2537.288348
804.396731	2533.439427
804.717372	2531.806093
805.037967	2536.612833
805.358518	2533.694005
805.679024	2537.192566
805.999485	2535.526465
806.319901	2535.269366
806.640272	2535.584438
806.960598	2534.374561
807.280879	2538.286497
807.601115	2532.539581
807.921306	2534.475384
808.241453	2536.128883
808.561554	2536.365817
808.881611	2536.249870
809.201623	2536.847247
809.521590	2536.310364
809.841513	2536.234747
810.161390	2536.391023
810.481223	2535.584438
810.801011	2537.081661
811.120755	2534.798018
811.440453	2535.332380
811.760107	2534.803059
812.079716	2532.479087
812.399281	2533.227699
812.718801	2534.876156
813.038276	2531.523789
813.357707	2534.548481
813.677093	2534.319108
813.996434	2538.571322
814.315731	2534.175436
814.634983	2533.850281
814.954191	2535.100487
815.273354	2535.816331
815.592473	2537.086702
815.911547	2537.515200
816.230577	2537.563091
816.549562	2536.688451
816.868502	2533.305837
817.187399	2537.053934
817.506250	2536.144006
817.825058	2536.627957
818.143821	2535.009747
818.462539	2537.893287
818.781213	2535.498738
819.099843	2537.600900
819.418429	2537.245498
819.736970	2539.171219
820.055466	2540.975952
820.373919	2541.235572
820.692327	2542.372352
821.010691	2546.211190
821.329011	2552.799978
821.647286	2567.439489
821.965517	2582.510019
822.283704	2590.822881
822.601847	2595.362440
822.919945	2585.723754
823.237999	2578.320820
823.556010	2572.218503
823.873976	2560.885989
824.191897	2554.604712
824.509775	2551.746377
824.827609	2550.128167
825.145398	2550.196223
825.463144	2548.787220
825.780845	2550.294525
826.098502	2548.857796
826.416116	2550.539021
826.733685	2559.976061
827.051210	2556.381718
827.368692	2557.768036
827.686129	2554.352654
828.003522	2549.102292
828.320872	2542.994934
828.638177	2538.692309
828.955439	2537.079140
829.272656	2536.620395
829.589830	2533.996475
829.906960	2536.736342
830.224046	2536.577545
830.541088	2535.997813
830.858086	2536.723739
831.175041	2536.564943
831.491952	2535.221475
831.808819	2535.962525
832.125642	2536.141486
832.442421	2537.888245
832.759157	2540.086188
833.075849	2541.631302
833.392497	2546.183464
833.709101	2546.304452
834.025662	2548.588094
834.342179	2547.138763
834.658653	2542.831097
834.975083	2540.146682
835.291469	2543.017619
835.607811	2539.690458
835.924110	2537.389171
836.240366	2539.297248
836.556578	2537.053934
836.872746	2537.348842
837.188871	2534.598893
837.504952	2537.888245
837.820990	2535.556712
838.136984	2535.455889
838.452935	2534.989582
838.768842	2534.122503
839.084706	2535.392874
839.400526	2533.734335
839.716303	2535.765920
840.032037	2538.321785
840.347727	2538.742721
840.663373	2539.387989
840.978977	2537.232895
841.294537	2536.151568
841.610054	2534.450178
841.925527	2534.548481
842.240957	2532.723583
842.556344	2531.390198
842.871687	2534.268697
843.186987	2534.056968
843.502244	2534.122503
843.817458	2532.378264
844.132629	2532.700898
844.447756	2535.924716
844.762840	2528.312574
845.077881	2531.949766
845.392879	2527.463139
845.707833	2532.295085
846.022745	2531.569159
846.337613	2532.635363
846.652438	2533.194931
846.967221	2533.240302
847.281960	2534.457740
847.596656	2532.703419
847.911309	2533.991433
848.225919	2531.763243
848.540485	2531.332225
848.855009	2533.298275
849.169490	2531.622091
849.483928	2535.917154
849.798323	2531.594365
850.112675	2533.167205
850.426984	2533.683923
850.741251	2536.481763
851.055474	2533.149561
851.369654	2530.843233
851.683792	2530.828109
851.997887	2532.201824
852.311938	2532.043027
852.625947	2533.078985
852.939914	2532.259797
853.253837	2534.122503
853.567718	2534.079654
853.881555	2533.716691
854.195350	2529.653521
854.509103	2533.177287
854.822812	2531.445651
855.136479	2535.566794
855.450103	2532.922709
855.763685	2531.352389
856.077224	2533.840199
856.390720	2533.671320
856.704173	2534.283820
857.017584	2531.871628
857.330953	2536.698533
857.644278	2529.875331
857.957561	2533.913296
858.270802	2533.172246
858.584000	2532.693336
858.897155	2533.769623
859.210268	2534.430014
859.523339	2534.175436
859.836367	2533.434386
860.149352	2533.575538
860.462295	2534.901362
860.775195	2529.459436
861.088054	2528.080681
861.400869	2530.855836
861.713642	2526.528005
862.026373	2533.497400
862.339062	2529.981196
862.651708	2533.479756
862.964312	2529.290558
863.276873	2533.676361
863.589392	2533.031094
863.901869	2531.130579
864.214303	2530.586134
864.526696	2533.636032
864.839045	2532.917668
865.151353	2534.326670
865.463619	2532.035466
865.775842	2531.080167
866.088023	2530.818027
866.400162	2531.964890
866.712258	2534.099818
867.024313	2535.244160
867.336325	2531.238963
867.648296	2532.905065
867.960224	2531.233922
868.272110	2532.516896
868.583954	2532.073274
868.895755	2531.790970
869.207515	2533.232740
869.519233	2531.838861
869.830909	2532.169056
870.142542	2535.942360
870.454134	2532.766433
870.765684	2533.109232
871.077191	2532.201824
871.388657	2531.889272
871.700081	2531.317101
872.011463	2532.181659
872.322803	2533.777184
872.634101	2531.251566
872.945357	2533.230219
873.256571	2533.598223
873.567744	2532.716022
873.878874	2532.206865
874.189963	2536.043183
874.501010	2535.695343
874.812015	2533.434386
875.122979	2531.564118
875.433900	2532.842050
875.744780	2536.731301
876.055618	2531.612009
876.366415	2531.891793
876.677169	2532.751310
876.987882	2533.378933
877.298554	2528.602440
877.609183	2531.866587
877.919771	2529.570342
878.230317	2532.221988
878.540822	2534.004036
878.851285	2534.475384
879.161707	2533.983872
879.472087	2536.890097
879.782425	2540.025695
880.092722	2541.752290
880.402977	2544.177085
880.713191	2554.433312
881.023363	2558.103272
881.333494	2566.703481
881.643583	2569.292113
881.953631	2567.820096
882.263637	2565.261711
882.573602	2563.532595
882.883526	2559.441699
883.193408	2554.708055
883.503248	2549.228321
883.813048	2546.112888
884.122806	2547.625234
884.432522	2542.432846
884.742197	2540.431508
885.051831	2539.440921
885.361424	2538.805735
885.670975	2538.246167
885.980485	2538.717515
886.289954	2535.607123
886.599382	2536.391023
886.908768	2534.964376
887.218113	2535.072761
887.527417	2534.606454
887.836680	2535.314736
888.145901	2533.883049
888.455082	2535.284489
888.764221	2534.331711
889.073319	2534.243491
889.382376	2532.814324
889.691392	2533.235260
890.000366	2529.482121
890.309300	2535.067720
890.618193	2532.766433
890.927044	2533.472195
891.235855	2536.033101
891.544625	2533.205013
891.853353	2532.385826
892.162041	2535.415559
892.470687	2533.625950
892.779293	2534.745086
893.087858	2531.922040
893.396381	2532.574869
893.704864	2535.768440
894.013306	2536.859850
894.321707	2542.727753
894.630068	2545.916283
894.938387	2541.880839
895.246665	2544.005686
895.554903	2544.915614
895.863100	2543.350336
896.171256	2539.617361
896.479371	2539.498894
896.787446	2540.466796
897.095480	2535.755837
897.403473	2536.799356
897.711425	2534.982020
898.019336	2534.049407
898.327207	2534.369520
898.635038	2535.743234
898.942827	2533.449509
899.250576	2533.656197
899.558284	2534.177956
899.865952	2533.618388
900.173579	2531.150743
900.481165	2534.424973
900.788711	2533.262987
901.096216	2532.680733
901.403681	2532.862215
901.711105	2533.205013
902.018489	2531.206196
902.325832	2538.536034
902.633135	2531.483459
902.940397	2535.294572
903.247619	2535.586959
903.554800	2536.068389
903.861941	2541.522917
904.169041	2546.440563
904.476101	2546.533824
904.783121	2548.653629
905.090100	2546.942158
905.397039	2546.070038
905.703938	2542.279090
906.010796	2538.455375
906.317614	2535.526465
906.624391	2534.876156
906.931129	2536.396064
907.237826	2535.473533
907.544483	2533.031094
907.851099	2534.281300
908.157675	2532.317770
908.464211	2533.555374
908.770707	2529.346010
909.077163	2530.727286
909.383578	2526.280989
909.689954	2528.456247
909.996289	2526.686802
910.302584	2531.407842
910.608839	2529.461957
910.915054	2532.529499
911.221229	2533.053779
911.527363	2532.819365
911.833458	2530.928932
912.139513	2531.223840
912.445527	2531.060003
912.751502	2530.152595
913.057436	2531.589324
913.363331	2532.647966
913.669186	2532.350538
913.975000	2534.210724
914.280775	2531.803573
914.586510	2536.247350
914.892205	2536.461599
915.197859	2539.461085
915.503475	2541.144831
915.809050	2544.787064
916.114585	2550.047508
916.420081	2546.289328
916.725536	2546.400234
917.030952	2545.041643
917.336328	2542.165664
917.641665	2541.714481
917.946961	2539.458565
918.252218	2539.370345
918.557435	2537.275745
918.862612	2535.695343
919.167750	2537.172402
919.472848	2534.480425
919.777906	2533.242822
920.082925	2533.250384
920.387904	2533.371372
920.692843	2536.254912
920.997743	2530.782739
921.302603	2535.130734
921.607423	2531.170908
921.912204	2530.628984
922.216946	2530.076977
922.521647	2534.341794
922.826310	2529.519930
923.130932	2529.885414
923.435516	2534.056968
923.740059	2531.334745
924.044564	2532.035466
924.349028	2531.135620
924.653454	2528.408356
924.957840	2529.451874
925.262186	2526.250742
925.566493	2529.905578
925.870761	2525.769312
926.174989	2527.526154
926.479178	2530.717204
926.783328	2529.237625
927.087438	2531.022194
927.391509	2531.216278
927.695541	2529.855167
927.999533	2530.679395
928.303486	2530.485311
928.607400	2531.821217
928.911275	2528.252080
929.215110	2530.956659
929.518906	2530.513037
929.822663	2528.632687
930.126381	2532.405991
930.430060	2531.238963
930.733699	2532.481608
931.037299	2530.565969
931.340861	2527.939528
931.644383	2530.717204
931.947866	2528.128572
932.251309	2531.571680
932.554714	2529.194776
932.858080	2530.659231
933.161407	2532.080836
933.464694	2530.104704
933.767943	2530.298788
934.071153	2530.936494
934.374323	2529.104035
934.677455	2526.591020
934.980548	2527.574045
935.283602	2530.276103
935.586617	2530.137471
935.889593	2530.792821
936.192530	2528.428520
936.495428	2530.359282
936.798287	2529.129241
937.101108	2529.716535
937.403890	2528.549508
937.706632	2530.876000
938.009336	2530.243336
938.312002	2531.324663
938.614628	2527.692512
938.917216	2530.636546
939.219765	2528.869621
939.522275	2531.511186
939.824747	2530.734848
940.127179	2526.215454
940.429573	2525.595392
940.731929	2528.854498
941.034246	2523.820906
941.336524	2528.524302
941.638763	2528.481452
941.940964	2527.586647
942.243126	2531.145702
942.545250	2529.270393
942.847335	2528.771319
943.149381	2528.350382
943.451389	2529.761905
943.753359	2532.002698
944.055290	2530.845753
944.357182	2530.142512
944.659036	2531.231402
944.960851	2530.969262
945.262628	2531.377595
945.564367	2529.414066
945.866067	2530.694519
946.167729	2528.751154
946.469352	2529.537574
946.770937	2529.179652
947.072484	2529.209899
947.373992	2528.027748
947.675462	2528.713345
947.976893	2529.071267
948.278286	2531.133099
948.579641	2528.244518
948.880958	2530.321473
949.182236	2529.053623
949.483476	2527.659744
949.784678	2527.677388
950.085841	2528.489014
950.386967	2531.717873
950.688054	2527.574045
950.989103	2527.632018
951.290114	2526.888448
951.591087	2527.707635
951.892021	2528.073119
952.192917	2531.271731
952.493776	2528.554549
952.794596	2532.796680
953.095378	2525.338293
953.396122	2531.906916
953.696828	2525.497089
953.997496	2529.744261
954.298126	2526.901051
954.598718	2527.697553
954.899272	2530.170239
955.199788	2528.904909
955.500266	2527.669827
955.800706	2528.952800
956.101108	2523.284023
956.401472	2528.650331
956.701798	2524.534229
957.002087	2525.325690
957.302337	2527.430372
957.602550	2530.054292
957.902724	2526.051616
958.202861	2526.825433
958.502960	2524.572037
958.803022	2528.373067
959.103045	2527.695032
959.403031	2527.528674
959.702979	2526.626308
960.002889	2528.436082
960.302762	2527.679909
960.602596	2528.461288
960.902393	2526.374250
961.202153	2528.594878
961.501875	2527.848788
961.801559	2528.231915
962.101205	2529.472039
962.400814	2527.253931
962.700385	2526.712007
962.999918	2528.599919
963.299414	2527.410207
963.598873	2526.102028
963.898293	2529.015815
964.197677	2530.326515
964.497022	2527.251411
964.796331	2526.273427
965.095601	2532.148892
965.394835	2528.050434
965.694030	2527.677388
965.993189	2529.714014
966.292309	2528.010104
966.591393	2526.258303
966.890439	2527.695032
967.189447	2527.826102
967.488419	2523.601615
967.787353	2528.791483
968.086249	2526.628828
968.385108	2530.107224
968.683930	2528.778880
968.982714	2530.770136
969.281462	2526.759898
969.580172	2527.095135
969.878844	2528.163860
970.177480	2530.024045
970.476078	2526.694363
970.774639	2527.218643
971.073162	2525.915505
971.371649	2525.789476
971.670098	2523.140350
971.968510	2524.461132
972.266885	2523.493231
972.565223	2528.274765
972.863524	2525.678571
973.161788	2531.060003
973.460014	2529.068747
973.758204	2529.492204
974.056356	2523.939373
974.354471	2526.492717
974.652550	2527.117820
974.950591	2528.201668
975.248595	2526.109589
975.546563	2527.264014
975.844493	2527.700073
976.142386	2527.327028
976.440243	2527.503468
976.738062	2528.105886
977.035845	2526.553211
977.333590	2527.057326
977.631299	2527.705115
977.928971	2529.129241
978.226606	2528.042872
978.524204	2529.063706
978.821765	2525.227388
979.119290	2525.197141
979.416777	2527.889117
979.714228	2531.047400
980.011642	2524.879548
980.309020	2530.122348
980.606360	2526.114631
980.903664	2524.902233
981.200931	2529.570342
981.498162	2527.037162
981.795356	2528.930115
982.092513	2528.879703
982.389633	2529.235105
982.686717	2528.368026
982.983764	2527.722759
983.280775	2527.601771
983.577749	2529.376257
983.874686	2529.088911
984.171587	2529.905578
984.468451	2527.347193
984.765279	2527.969775
985.062070	2530.404652
985.358824	2526.369209
985.655543	2527.758047
985.952224	2525.350896
986.248869	2527.339631
986.545478	2524.725793
986.842050	2524.403159
987.138586	2525.681091
987.435086	2522.308559
987.731549	2525.665968
988.027975	2526.767460
988.324366	2527.241328
988.620719	2524.680422
988.917037	2524.866945
989.213318	2527.788294
989.509563	2524.924918
989.805772	2528.667975
990.101944	2526.555732
990.398080	2529.988757
990.694180	2527.367357
990.990244	2526.603623
991.286271	2526.661596
991.582262	2528.431041
991.878217	2526.016328
992.174136	2527.533715
992.470019	2528.085722
992.765865	2526.890968
993.061676	2529.053623
993.357450	2524.680422
993.653188	2526.646472
993.948890	2526.291071
994.244556	2521.738909
994.540186	2528.156298
994.835780	2525.817203
995.131337	2527.339631
995.426859	2528.693181
995.722345	2525.817202
996.017795	2527.354754
996.313208	2527.029600
996.608586	2527.364837
996.903928	2527.677388
997.199234	2527.382481
997.494504	2526.704446
997.789738	2527.115300
998.084936	2527.266534
998.380099	2526.754857
998.675225	2523.450381
998.970316	2529.572862
999.265371	2528.937677
999.560390	2529.582944
999.855373	2527.773170
1000.150320	2528.569672
1000.445232	2526.122192
1000.740108	2528.025228
1001.034948	2528.020187
1001.329752	2527.271575
1001.624521	2526.676719
1001.919254	2524.355268
1002.213951	2524.135978
1002.508613	2522.311080
1002.803239	2525.386184
1003.097829	2521.751512
1003.392384	2526.606143
1003.686903	2525.774353
1003.981386	2529.388860
1004.275834	2526.840557
1004.570246	2527.705115
1004.864623	2527.886596
1005.158964	2524.594723
1005.453270	2525.776873
1005.747540	2527.049765
1006.041775	2524.960206
1006.335974	2525.154291
1006.630138	2526.046575
1006.924266	2529.124199
1007.218359	2524.841739
1007.512416	2525.270237
1007.806438	2523.198323
1008.100425	2525.343334
1008.394376	2526.550690
1008.688292	2529.479601
1008.982172	2524.821575
1009.276017	2526.250742
1009.569827	2525.471883
1009.863602	2525.532377
1010.157341	2529.051103
1010.451045	2527.574045
1010.744714	2525.867614
1011.038347	2530.286185
1011.331945	2524.559435
1011.625508	2527.858870
1011.919036	2526.033972
1012.212528	2526.379291
1012.505986	2526.069260
1012.799408	2525.020700
1013.092795	2527.473222
1013.386147	2524.438447
1013.679464	2525.713859
1013.972745	2524.453570
1014.265992	2525.726462
1014.559204	2527.284178
1014.852380	2527.594209
1015.145521	2527.226205
1015.438628	2526.936339
1015.731699	2527.742923
1016.024736	2527.044723
1016.317737	2527.569003
1016.610703	2526.447347
1016.903635	2525.633200
1017.196531	2522.298477
1017.489393	2523.641945
1017.782219	2524.433406
1018.075011	2524.014990
1018.367768	2526.699404
1018.660490	2528.426000
1018.953177	2528.426000
1019.245829	2528.426000
