Dividing Wavelength (nm)	Counts (n)	Blue Motor Position (mm): 0.000000	Red Motor Position (mm): 29.000000	
326.493990	2126.880452
326.888308	2126.880452
327.282561	2126.880452
327.676750	2094.811152
328.070874	2094.904413
328.464933	2095.632860
328.858929	2103.131576
329.252859	2110.118615
329.646726	2124.942128
330.040528	2136.521658
330.434265	2152.867600
330.827938	2170.088181
331.221547	2188.881603
331.615091	2207.629654
332.008571	2225.871069
332.401986	2247.832856
332.795338	2268.088212
333.188625	2284.376180
333.581847	2302.496608
333.975006	2320.942190
334.368100	2342.152844
334.761129	2356.356295
335.154095	2375.217773
335.546996	2395.591596
335.939833	2407.947464
336.332606	2424.913467
336.725315	2434.166505
337.117960	2447.127312
337.510540	2455.619135
337.903056	2469.399129
338.295508	2473.048925
338.687896	2482.281798
339.080220	2491.877634
339.472480	2497.496000
339.864676	2502.728718
340.256807	2508.029491
340.648875	2508.747856
341.040879	2510.499657
341.432818	2512.571571
341.824694	2514.333454
342.216506	2516.808661
342.608253	2513.728516
342.999937	2514.910666
343.391557	2516.221366
343.783113	2513.547034
344.174605	2511.097033
344.566033	2514.880419
344.957397	2509.022598
345.348697	2508.493277
345.739934	2507.122083
346.131106	2503.452123
346.522215	2505.735766
346.913260	2499.620847
347.304241	2499.086484
347.695159	2496.691936
348.086012	2495.146823
348.476802	2495.542553
348.867528	2491.595330
349.258191	2495.900475
349.648789	2490.337562
350.039324	2489.846049
350.429796	2487.930411
350.820203	2489.359578
351.210548	2487.217088
351.600828	2487.877479
351.991045	2481.208032
352.381198	2484.018475
352.771288	2485.079638
353.161314	2483.584936
353.551276	2482.997642
353.941175	2483.935296
354.331010	2483.675677
354.720782	2483.206850
355.110490	2485.591315
355.500135	2482.501088
355.889717	2488.212715
356.279235	2483.282467
356.668689	2485.245996
357.058080	2486.594505
357.447408	2485.732468
357.836672	2484.056284
358.225873	2483.174082
358.615010	2482.541417
359.004084	2486.181130
359.393095	2487.693477
359.782043	2489.798158
360.170927	2488.537870
360.559748	2492.996770
360.948505	2491.169352
361.337199	2494.020125
361.725830	2492.172542
362.114398	2493.614312
362.502903	2490.622387
362.891344	2494.030207
363.279722	2491.577686
363.668037	2494.078098
364.056289	2495.945845
364.444478	2494.206647
364.832603	2498.380723
365.220665	2497.672441
365.608665	2500.588748
365.996601	2497.669920
366.384474	2501.249139
366.772284	2505.113184
367.160031	2500.099756
367.547715	2504.160406
367.935336	2506.862464
368.322893	2508.379851
368.710388	2512.019564
369.097820	2520.526512
369.485189	2523.052130
369.872495	2527.904240
370.259738	2535.521424
370.646918	2543.584749
371.034035	2550.602035
371.421090	2558.004970
371.808081	2569.612227
372.195010	2580.100347
372.581875	2593.456884
372.968678	2608.108998
373.355418	2616.305914
373.742096	2633.682771
374.128710	2650.769762
374.515262	2664.229643
374.901751	2676.900583
375.288177	2691.479600
375.674540	2715.533466
376.060841	2733.956362
376.447079	2753.326996
376.833254	2772.919441
377.219367	2781.829680
377.605417	2825.569251
377.991404	2833.105776
378.377329	2852.597398
378.763191	2871.337887
379.148991	2908.493712
379.534727	2933.046651
379.920402	2962.469346
380.306013	2974.275728
380.691563	3028.354706
381.077049	3046.613765
381.462474	3064.252763
381.847835	3101.811879
382.233134	3126.092597
382.618371	3124.181999
383.003545	3195.363092
383.388657	3200.527754
383.773706	3232.773494
384.158693	3248.277563
384.543618	3273.261522
384.928480	3311.712922
385.313280	3358.202443
385.698017	3358.126826
386.082692	3409.712953
386.467305	3413.012388
386.851856	3445.280814
387.236344	3467.013228
387.620770	3500.499093
388.005133	3525.503216
388.389435	3555.699727
388.773674	3563.334555
389.157851	3606.421297
389.541965	3623.629276
389.926018	3587.065787
390.310008	3658.856859
390.693936	3677.012574
391.077802	3718.460941
391.461606	3705.900906
391.845348	3771.632511
392.229027	3770.999847
392.612645	3781.871095
392.996200	3858.504195
393.379694	3898.480545
393.763125	3962.394814
394.146494	3930.776697
394.529801	3997.604753
394.913047	4038.430537
395.296230	4007.961804
395.679351	4059.174886
396.062410	4086.765121
396.445408	4066.282913
396.828343	4097.356585
397.211217	4125.869351
397.594028	4042.735683
397.976778	4110.773616
398.359466	4138.996516
398.742092	4166.344775
399.124656	4089.436932
399.507158	4168.698994
399.889598	4194.305535
400.271977	4253.975153
400.654294	4226.962130
401.036549	4233.676947
401.418742	4202.162173
401.800874	4306.501455
402.182944	4328.687573
402.564952	4393.922624
402.946898	4379.462075
403.328783	4377.652300
403.710606	4288.055873
404.092367	4482.299092
404.474067	4446.650573
404.855705	4452.432777
405.237282	4382.043145
405.618797	4494.168489
406.000250	4527.258623
406.381642	4606.427424
406.762972	4570.577258
407.144240	4576.626643
407.525447	4577.491201
407.906593	4637.145695
408.287677	4678.258825
408.668700	4607.599492
409.049661	4659.057070
409.430560	4702.680695
409.811399	4631.197133
410.192176	4791.873830
410.572891	4727.231114
410.953545	4831.709027
411.334138	4710.091191
411.714669	4779.260863
412.095139	4674.810676
412.475547	4822.037574
412.855894	4796.335251
413.236180	4806.432682
413.616405	4762.103296
413.996568	4847.240822
414.376670	4790.991628
414.756711	4743.138475
415.136691	4778.040903
415.516609	4858.669118
415.896466	4891.744128
416.276262	4924.713275
416.655997	4907.162498
417.035670	5089.193522
417.415283	5180.640053
417.794834	5122.384479
418.174324	5076.114248
418.553753	4988.562009
418.933121	5169.703269
419.312428	5237.416048
419.691674	5178.474877
420.070859	5301.756294
420.449983	5213.044589
420.829045	5330.064894
421.208047	5238.625925
421.586988	5307.384743
421.965867	5321.986445
422.344686	5452.864881
422.723444	5303.334175
423.102141	5124.610148
423.480777	5424.715078
423.859352	5190.331671
424.237866	5451.939829
424.616319	5446.800373
424.994712	5553.962701
425.373044	5428.659781
425.751314	5574.505402
426.129524	5377.020721
426.507673	5568.244289
426.885762	5650.563811
427.263789	5581.830199
427.641756	5466.929700
428.019662	5587.516621
428.397508	5593.336633
428.775292	5540.674219
429.153016	5639.768180
429.530679	5563.417385
429.908282	5651.657742
430.285824	5522.566394
430.663305	5798.844310
431.040726	5530.632241
431.418086	5529.046798
431.795385	5637.713910
432.172624	5647.518954
432.549802	5643.755733
432.926920	5658.760727
433.303977	5663.688455
433.680974	5702.790165
434.057910	5722.186004
434.434786	5725.306479
434.811601	5695.581315
435.188355	5930.239465
435.565050	5803.202388
435.941683	5786.606909
436.318257	6002.126319
436.694770	5980.993802
437.071222	6014.552763
437.447614	5945.486435
437.823946	5864.948961
438.200218	6014.648545
438.576429	5881.882197
438.952580	5973.883254
439.328670	6018.857908
439.704700	5928.893477
440.080670	5918.738072
440.456580	6187.499628
440.832429	6067.273150
441.208218	5918.309574
441.583947	6073.811526
441.959616	6077.476445
442.335224	6002.771586
442.710773	6138.734026
443.086261	6165.215207
443.461689	5959.147962
443.837057	6106.420230
444.212365	6264.679693
444.587612	6156.882180
444.962800	6315.376057
445.337927	6287.881604
445.712995	5903.990177
446.088002	6482.008877
446.462949	6307.421116
446.837837	6239.426033
447.212664	6414.843063
447.587431	6553.535288
447.962139	7089.155364
448.336786	8019.860748
448.711374	7759.555728
449.085901	6834.872002
449.460369	6757.394508
449.834776	6688.129055
450.209124	7077.971564
450.583412	7229.153247
450.957640	7373.864609
451.331808	7143.438508
451.705917	6694.453182
452.079965	6614.719772
452.453954	6827.867319
452.827883	6700.999120
453.201752	6793.176618
453.575562	6597.451300
453.949311	6790.300640
454.323001	6682.485483
454.696632	6759.088336
455.070202	6895.554891
455.443713	7041.531583
455.817164	7144.792058
456.190556	7220.709314
456.563888	7292.079450
456.937160	7332.635533
457.310373	6988.473439
457.683526	7007.022365
458.056619	6894.700416
458.429653	6883.675412
458.802628	6814.029351
459.175542	6917.332676
459.548398	7259.001919
459.921194	7414.549242
460.293930	7409.162769
460.666607	7919.435923
461.039224	8215.702014
461.411782	8325.147984
461.784280	8337.892021
462.156719	8224.302222
462.529099	8098.575845
462.901419	7678.204108
463.273680	7572.589415
463.645882	7572.357522
464.018024	7437.209228
464.390106	7576.440856
464.762130	7944.583719
465.134094	8366.520734
465.505999	9307.240371
465.877845	10445.694226
466.249631	11043.398632
466.621358	10672.009266
466.993026	10056.040760
467.364634	9802.077512
467.736184	9435.898179
468.107674	9104.417107
468.479105	9096.595757
468.850477	8862.603040
469.221790	8620.582285
469.593043	8295.584138
469.964238	8135.565312
470.335373	8124.000905
470.706449	8142.075962
471.077467	8090.051254
471.448425	9224.709121
471.819324	10128.119178
472.190164	10130.750660
472.560945	8995.601281
472.931667	8251.670646
473.302330	8097.423942
473.672934	7751.131960
474.043479	8019.671705
474.413965	7936.394364
474.784393	7775.407637
475.154761	7869.924230
475.525070	7903.205928
475.895321	7708.559416
476.265513	7809.901732
476.635645	7907.243892
477.005719	7839.175712
477.375734	7886.285295
477.745691	8017.282198
478.115588	8057.692087
478.485427	8185.384514
478.855207	8526.305146
479.224928	9037.647025
479.594591	9444.906721
479.964194	9231.113907
480.333739	9133.481880
480.703226	8973.115214
481.072653	8958.407648
481.442022	9018.878809
481.811333	9066.232888
482.180584	8858.113892
482.549777	8561.527688
482.918912	8364.839509
483.287988	8290.893344
483.657005	8217.834422
484.025964	7928.038652
484.394864	7925.321470
484.763706	7821.808937
485.132489	7587.959893
485.501213	7472.290618
485.869879	7445.738860
486.238487	7254.157370
486.607036	7247.699652
486.975527	7026.544233
487.343959	7055.109931
487.712333	6984.533777
488.080648	6876.012858
488.448905	6795.311547
488.817104	6691.138623
489.185244	6737.229893
489.553326	6711.754422
489.921350	6881.928652
490.289315	7258.994357
490.657222	7326.896179
491.025070	7178.958478
491.392861	7024.641197
491.760593	6774.209277
492.128267	6529.146186
492.495883	6298.914169
492.863440	6077.305046
493.230939	5857.626685
493.598380	5750.950828
493.965763	5608.848263
494.333088	5512.368140
494.700354	5394.359770
495.067563	5354.267473
495.434713	5208.557962
495.801805	5182.601061
496.168839	5088.155044
496.535815	4990.764993
496.902733	4931.034882
497.269593	4832.253472
497.636395	4805.495027
498.003139	4721.501842
498.369825	4631.948265
498.736453	4600.178913
499.103023	4531.835991
499.469535	4468.075477
499.835989	4407.813524
500.202385	4335.677133
500.568723	4243.948298
500.935003	4241.062237
501.301226	4136.097852
501.667390	4143.883914
502.033497	4104.071402
502.399546	4024.514432
502.765537	3959.397848
503.131470	3916.071651
503.497345	3891.503588
503.863163	3787.645737
504.228923	3784.530303
504.594625	3747.951691
504.960269	3671.510155
505.325856	3651.527021
505.691385	3588.290787
506.056856	3564.269689
506.422270	3526.745860
506.787625	3478.290290
507.152924	3449.401958
507.518164	3411.222779
507.883347	3366.159905
508.248472	3327.874862
508.613540	3316.471772
508.978550	3274.012653
509.343503	3240.972931
509.708398	3220.468038
510.073236	3198.574307
510.438016	3170.807631
510.802738	3136.157260
511.167403	3116.647995
511.532010	3080.765062
511.896561	3075.214752
512.261053	3055.783624
512.625488	3019.746936
512.989866	2995.103255
513.354186	2975.720019
513.718449	2950.902418
514.082655	2945.425205
514.446803	2923.539035
514.810894	2910.058990
515.174927	2889.796072
515.538904	2875.519524
515.902822	2863.758512
516.266684	2844.879391
516.630488	2828.346927
516.994235	2819.204795
517.357925	2809.866057
517.721558	2801.233081
518.085133	2788.052984
518.448651	2778.721809
518.812112	2767.636311
519.175516	2758.290012
519.538863	2750.476224
519.902152	2743.143865
520.265385	2734.984758
520.628560	2726.099724
520.991678	2718.364074
521.354739	2713.708568
521.717743	2706.058617
522.080690	2704.339584
522.443580	2696.336752
522.806413	2694.073274
523.169189	2692.041689
523.531908	2687.870134
523.894569	2681.382169
524.257174	2674.876560
524.619722	2674.022084
524.982213	2674.130469
525.344647	2668.159222
525.707025	2662.992040
526.069345	2660.224446
526.431608	2657.822337
526.793815	2656.962820
527.155964	2653.718837
527.518057	2650.593322
527.880093	2648.881850
528.242072	2648.218938
528.603995	2645.468989
528.965860	2642.953453
529.327669	2641.093267
529.689421	2637.660242
530.051117	2637.375417
530.412755	2637.657721
530.774337	2634.443986
531.135862	2633.763430
531.497331	2632.361989
531.858743	2623.660957
532.220098	2630.025414
532.581396	2625.190948
532.942638	2626.206740
533.303824	2625.143057
533.664953	2623.154322
534.026025	2625.828654
534.387040	2622.935031
534.747999	2621.702469
535.108902	2623.479476
535.469748	2616.676439
535.830537	2618.914711
536.191270	2619.161728
536.551947	2618.650051
536.912567	2617.845987
537.273131	2617.924124
537.633638	2616.983949
537.994089	2614.324741
538.354483	2614.123094
538.714821	2615.481685
539.075103	2611.834411
539.435328	2613.719802
539.795497	2612.154524
540.155609	2613.155193
540.515665	2611.471447
540.875665	2612.068824
541.235609	2612.146962
541.595496	2613.918928
541.955328	2614.191150
542.315102	2612.663680
542.674821	2612.799792
543.034483	2610.259050
543.394090	2611.002620
543.753640	2612.341047
544.113134	2610.145624
544.472571	2608.330809
544.831953	2611.080758
545.191278	2609.707044
545.550548	2605.366610
545.909761	2610.115377
546.268918	2610.390120
546.628019	2611.771396
546.987064	2606.720160
547.346053	2604.048348
547.704986	2608.570263
548.063863	2607.637650
548.422684	2607.849378
548.781449	2605.091867
549.140158	2609.049173
549.498811	2609.419698
549.857408	2606.977259
550.215949	2603.587083
550.574434	2603.599686
550.932864	2605.071703
551.291237	2602.049531
551.649555	2609.397013
552.007817	2607.010026
552.366022	2607.546909
552.724173	2607.183946
553.082267	2605.969028
553.440305	2609.134873
553.798288	2605.366610
554.156215	2607.604882
554.514086	2607.035232
554.871902	2605.810232
555.229661	2607.879625
555.587365	2605.293513
555.945014	2604.628081
556.302606	2605.409460
556.660143	2605.601024
557.017625	2604.784357
557.375050	2604.378544
557.732421	2606.604213
558.089735	2606.021960
558.446994	2608.169492
558.804197	2608.771910
559.161345	2606.251333
559.518437	2605.827876
559.875474	2605.749738
560.232455	2604.660849
560.589381	2604.335694
560.946251	2608.108998
561.303065	2608.222424
561.659825	2604.479367
562.016528	2606.248812
562.373177	2603.647577
562.729770	2605.656477
563.086307	2604.902824
563.442789	2604.464244
563.799216	2601.474839
564.155587	2604.466764
564.511904	2605.001127
564.868164	2603.826538
565.224370	2605.648915
565.580520	2603.655138
565.936615	2603.818976
566.292654	2600.534664
566.648638	2602.843513
567.004567	2603.526589
567.360441	2603.813935
567.716260	2602.387288
568.072023	2603.571959
568.427732	2597.872935
568.783385	2599.894438
569.138982	2598.182966
569.494525	2598.152719
569.850013	2598.059458
570.205445	2603.329984
570.560823	2602.014243
570.916145	2602.047010
571.271412	2601.396702
571.626625	2603.405601
571.981782	2604.045828
572.336884	2599.816300
572.691931	2602.699840
573.046923	2600.093563
573.401860	2600.469129
573.756743	2599.433172
574.111570	2599.589448
574.466342	2598.906372
574.821059	2601.114397
575.175722	2599.665065
575.530330	2598.041814
575.884882	2599.234047
576.239380	2598.248501
576.593823	2601.777309
576.948211	2597.061309
577.302544	2598.354365
577.656823	2596.915116
578.011047	2598.785384
578.365216	2596.894951
578.719330	2598.528285
579.073389	2596.544591
579.427394	2597.671289
579.781344	2594.044179
580.135239	2595.087698
580.489080	2597.782194
580.842866	2597.056268
581.196597	2595.924529
581.550273	2595.911926
581.903895	2593.895465
582.257463	2594.883531
582.610975	2595.117944
582.964434	2595.256576
583.317837	2597.830085
583.671186	2595.286823
584.024481	2594.737337
584.377721	2595.649786
584.730906	2595.543922
585.084037	2593.582913
585.437113	2592.183993
585.790135	2592.942687
586.143103	2594.185331
586.496016	2593.184662
586.848874	2589.991091
587.201679	2590.790114
587.554428	2590.601071
587.907124	2594.656679
588.259765	2590.099476
588.612352	2591.311873
588.964884	2591.395052
589.317362	2592.448653
589.669786	2591.828592
590.022155	2595.359920
590.374470	2593.197265
590.726731	2591.879003
591.078937	2590.883375
591.431090	2592.627614
591.783188	2590.578385
592.135232	2590.228025
592.487222	2592.806575
592.839157	2592.241966
593.191038	2589.502099
593.542866	2591.168200
593.894639	2590.570824
594.246358	2591.180803
594.598022	2588.539239
594.949633	2591.115268
595.301190	2588.841708
595.652692	2587.611666
596.004141	2588.314907
596.355535	2589.050916
596.706876	2585.905236
597.058162	2589.131574
597.409395	2588.922366
597.760573	2588.942531
598.111698	2588.463621
598.462768	2592.110896
598.813785	2590.391863
599.164748	2587.357088
599.515657	2586.001018
599.866511	2586.404310
600.217312	2586.482448
600.568060	2588.829105
600.918753	2590.059147
601.269392	2587.099989
601.619978	2587.248703
601.970510	2585.128898
602.320988	2587.878847
602.671412	2587.583940
603.021783	2586.041347
603.372100	2586.827767
603.722363	2585.801892
604.072572	2587.394897
604.422728	2590.641400
604.772830	2581.620255
605.122878	2581.164031
605.472872	2582.197467
605.822813	2582.368866
606.172701	2586.094279
606.522534	2587.838518
606.872314	2586.694176
607.222041	2585.985894
607.571714	2588.481265
607.921333	2588.221646
608.270899	2585.048240
608.620411	2589.353385
608.969870	2588.060329
609.319276	2589.764239
609.668627	2590.482603
610.017926	2594.502924
610.367171	2595.375043
610.716362	2592.937645
611.065500	2592.607450
611.414585	2589.900350
611.763616	2593.610639
612.112594	2591.110227
612.461518	2593.328335
612.810389	2590.215422
613.159207	2589.101327
613.507971	2590.439754
613.856682	2588.970257
614.205340	2588.612335
614.553945	2589.761718
614.902496	2589.315576
615.250994	2589.517222
615.599439	2589.373550
615.947830	2587.533528
616.296169	2589.429002
616.644454	2590.220463
616.992686	2588.070411
617.340864	2588.254413
617.688990	2587.856162
618.037063	2588.072932
618.385082	2585.733837
618.733048	2587.160483
619.080961	2586.626121
619.428821	2586.477407
619.776628	2589.514702
620.124382	2590.517892
620.472083	2588.176276
620.819731	2588.206522
621.167326	2586.414392
621.514868	2586.605956
621.862357	2586.384145
622.209793	2589.250041
622.557176	2587.631831
622.904506	2584.647468
623.251783	2580.465831
623.599007	2581.900039
623.946179	2584.067735
624.293297	2581.050605
624.640363	2582.918352
624.987376	2582.749473
625.334336	2581.408527
625.681243	2580.725450
626.028097	2581.423650
626.374899	2584.216449
626.721647	2581.176633
627.068343	2582.207549
627.414987	2582.124370
627.761577	2580.254102
628.108115	2580.990111
628.454600	2581.723599
628.801032	2581.196798
629.147412	2582.817529
629.493739	2582.021027
629.840014	2582.066397
630.186236	2582.600759
630.532405	2580.866603
630.878521	2579.031623
631.224585	2580.793506
631.570597	2579.971798
631.916556	2578.343505
632.262462	2580.924576
632.608316	2577.166396
632.954117	2576.422825
633.299866	2576.992476
633.645562	2577.783937
633.991206	2578.111612
634.336797	2574.988617
634.682336	2577.131107
635.027823	2576.427867
635.373257	2576.952147
635.718639	2574.217321
636.063968	2577.846951
636.409245	2574.502146
636.754470	2576.158165
637.099642	2576.700089
637.444762	2574.797053
637.789829	2573.201528
638.134845	2574.154306
638.479808	2572.384861
638.824719	2572.951991
639.169577	2572.921744
639.514383	2573.471230
639.859137	2572.853688
640.203839	2574.590366
640.548489	2574.915520
640.893086	2570.570046
641.237632	2570.673389
641.582125	2568.987123
641.926566	2567.275652
642.270955	2572.044583
642.615292	2570.373441
642.959576	2571.369069
643.303809	2571.427042
643.647990	2573.456106
643.992118	2572.778071
644.336195	2571.885787
644.680219	2569.947463
645.024192	2570.113821
645.368112	2571.676579
645.711981	2572.425190
646.055797	2571.812690
646.399562	2572.876374
646.743274	2574.479461
647.086935	2574.918041
647.430544	2574.131621
647.774101	2573.972825
648.117606	2574.923082
648.461059	2576.558937
648.804460	2579.266036
649.147810	2574.794533
649.491108	2575.331416
649.834354	2572.233627
650.177548	2573.393092
650.520690	2571.028791
650.863781	2571.943760
651.206820	2573.153637
651.549807	2571.963925
651.892742	2569.834037
652.235626	2569.103070
652.578458	2569.624829
652.921238	2568.707339
653.263967	2570.199521
653.606644	2569.324881
653.949269	2571.517783
654.291843	2571.742114
654.634365	2570.227247
654.976836	2566.753892
655.319255	2568.813204
655.661622	2570.025601
656.003938	2567.220199
656.346203	2570.570046
656.688416	2567.124417
657.030577	2569.599624
657.372687	2568.155333
657.714746	2569.057700
658.056753	2569.564336
658.398708	2562.879766
658.740612	2565.430589
659.082465	2564.608881
659.424266	2561.932029
659.766016	2563.827503
660.107715	2568.730025
660.449362	2565.360013
660.790958	2565.808676
661.132503	2568.112483
661.473996	2568.268759
661.815438	2569.662638
662.156829	2569.375292
662.498168	2567.182390
662.839456	2569.360169
663.180693	2566.698440
663.521879	2569.347566
663.863013	2570.043245
664.204097	2569.892011
664.545129	2569.904613
664.886110	2569.118193
665.227040	2567.381516
665.567918	2567.313460
665.908746	2569.947463
666.249522	2569.236661
666.590248	2567.076526
666.930922	2569.728173
667.271545	2567.005950
667.612118	2568.712381
667.952639	2566.844633
668.293109	2569.057700
668.633528	2567.436969
668.973896	2567.086608
669.314213	2568.732545
669.654480	2568.198183
669.994695	2568.389747
670.334859	2568.563667
670.674973	2569.768502
671.015035	2569.292113
671.355047	2566.544684
671.695008	2567.230281
672.034918	2569.453430
672.374777	2568.661969
672.714585	2567.429407
673.054342	2567.943605
673.394049	2568.551064
673.733705	2567.651218
674.073310	2566.925292
674.412864	2566.731207
674.752368	2565.435631
675.091820	2567.981413
675.431223	2564.939077
675.770574	2566.562328
676.109875	2562.670558
676.449125	2565.881773
676.788324	2561.064950
677.127473	2567.822617
677.466571	2561.296843
677.805619	2567.936043
678.144616	2563.777091
678.483562	2567.842782
678.822458	2565.420507
679.161303	2566.322874
679.500098	2563.230126
679.838842	2567.323543
680.177535	2564.109807
680.516179	2566.015363
680.854771	2564.092163
681.193314	2567.762123
681.531805	2568.447720
681.870247	2565.604509
682.208638	2566.726166
682.546978	2568.253636
682.885268	2566.630384
683.223508	2566.539643
683.561697	2568.062072
683.899836	2565.856567
684.237925	2567.830179
684.575963	2567.923440
684.913951	2567.905796
685.251889	2567.822617
685.589776	2567.426886
685.927614	2569.271949
686.265401	2564.823130
686.603137	2567.711712
686.940824	2566.078378
687.278460	2568.929150
687.616046	2569.148440
687.953582	2570.270097
688.291068	2568.256156
688.628504	2568.651887
688.965889	2566.156516
689.303224	2569.955025
689.640510	2570.224727
689.977745	2567.149623
690.314930	2566.458985
690.652065	2565.670044
690.989150	2563.799776
691.326185	2566.050651
691.663170	2563.895558
692.000105	2564.482852
692.336990	2561.765671
692.673825	2564.225754
693.010610	2563.308264
693.347345	2559.897923
693.684030	2556.606050
694.020665	2555.297870
694.357251	2556.447253
694.693786	2557.984805
695.030272	2558.360371
695.366707	2559.280382
695.703093	2558.075546
696.039429	2558.257028
696.375716	2557.659651
696.711952	2559.061092
697.048139	2557.150494
697.384276	2558.551935
697.720363	2559.466904
698.056400	2556.628735
698.392388	2558.095711
698.728326	2555.799465
699.064214	2556.913560
699.400053	2558.564538
699.735842	2557.805844
700.071581	2557.672254
700.407270	2558.067984
700.742910	2554.632438
701.078501	2555.459187
701.414042	2553.515822
701.749533	2555.948179
702.084974	2557.042109
702.420366	2558.045299
702.755709	2556.953889
703.091002	2555.486913
703.426246	2556.104455
703.761440	2554.385421
704.096584	2553.286450
704.431679	2556.069167
704.766725	2555.285267
705.101721	2552.479865
705.436668	2553.311656
705.771565	2557.223591
706.106413	2555.933056
706.441212	2555.323076
706.775961	2555.713765
707.110661	2554.503888
707.445311	2556.739640
707.779913	2555.106306
708.114465	2557.389949
708.448967	2553.979608
708.783421	2558.642676
709.117825	2556.096893
709.452180	2556.913560
709.786485	2558.630073
710.120742	2557.616801
710.454949	2557.163097
710.789107	2555.421378
711.123216	2555.605381
711.457275	2556.961451
711.791286	2558.703170
712.125247	2555.106306
712.459159	2559.398849
712.793023	2559.640824
713.126837	2560.822975
713.460602	2558.567058
713.794318	2559.091338
714.127985	2557.198385
714.461602	2558.821637
714.795171	2558.778787
715.128691	2559.592933
715.462162	2558.262069
715.795584	2554.970195
716.128957	2553.029351
716.462281	2556.729558
716.795556	2557.584033
717.128782	2555.524722
717.461960	2555.887685
717.795088	2552.000956
718.128167	2555.000442
718.461198	2551.111192
718.794180	2553.641851
719.127113	2550.637323
719.459997	2553.152859
719.792833	2551.925338
720.125619	2555.270144
720.458357	2551.045657
720.791046	2550.309648
721.123686	2551.065822
721.456278	2551.776624
721.788821	2552.404248
722.121315	2553.525905
722.453761	2547.693290
722.786158	2551.872406
723.118506	2550.332334
723.450805	2551.000287
723.783056	2552.331151
724.115259	2547.529452
724.447412	2547.289997
724.779518	2548.288146
725.111574	2551.189330
725.443582	2552.633620
725.775542	2549.056922
726.107453	2551.945503
726.439315	2551.824515
726.771129	2555.053374
727.102895	2552.903322
727.434612	2555.265103
727.766281	2554.367777
728.097901	2551.501881
728.429473	2548.439380
728.760996	2553.399876
729.092471	2548.946016
729.423897	2556.238045
729.755276	2551.469114
730.086606	2553.412479
730.417887	2553.336861
730.749120	2553.097407
731.080305	2555.285267
731.411442	2554.317366
731.742530	2557.185782
732.073570	2557.064795
732.404562	2556.555638
732.735506	2555.360885
733.066401	2554.798796
733.397249	2555.265103
733.728048	2552.928528
734.058798	2551.945503
734.389501	2552.946172
734.720156	2554.234187
735.050762	2551.771583
735.381320	2552.048847
735.711831	2551.383414
736.042293	2549.578681
736.372707	2549.366953
736.703073	2549.437529
737.033391	2549.417364
737.363661	2548.031047
737.693883	2551.073383
738.024056	2550.188661
738.354182	2550.528939
738.684260	2552.258054
739.014290	2553.127653
739.344272	2550.647406
739.674207	2550.128167
740.004093	2551.302756
740.333931	2552.454659
740.663722	2553.783003
740.993464	2552.736964
741.323159	2550.108002
741.652806	2551.927859
741.982405	2549.795451
742.311956	2549.924000
742.641460	2551.474155
742.970915	2551.789227
743.300323	2548.545245
743.629683	2549.402241
743.958996	2548.494833
744.288260	2551.438867
744.617477	2545.586087
744.946647	2545.165151
745.275768	2546.795964
745.604842	2544.681200
745.933869	2547.017775
746.262847	2544.184647
746.591778	2545.482744
746.920662	2549.616490
747.249498	2548.499874
747.578286	2546.082641
747.907027	2550.360060
748.235720	2549.843342
748.564365	2549.480379
748.892963	2545.933927
749.221514	2548.325954
749.550017	2548.351160
749.878473	2548.308310
750.206881	2548.381407
750.535242	2549.429967
750.863555	2548.106664
751.191821	2548.366284
751.520039	2548.187323
751.848210	2547.441232
752.176334	2546.369987
752.504411	2546.780841
752.832440	2545.966694
753.160421	2548.497354
753.488356	2548.832590
753.816243	2546.977446
754.144082	2547.161448
754.471875	2547.012734
754.799620	2548.605738
755.127318	2548.169679
755.454969	2544.424101
755.782572	2547.350491
756.110129	2547.572302
756.437638	2546.327137
756.765100	2545.923845
757.092515	2544.915614
757.419882	2548.247817
757.747203	2545.858310
758.074477	2545.208001
758.401703	2546.705223
758.728882	2547.262271
759.056014	2548.111705
759.383099	2548.767055
759.710138	2548.439380
760.037129	2547.035419
760.364073	2549.225800
760.690970	2548.020965
761.017820	2548.578012
761.344623	2546.992569
761.671379	2546.382590
761.998088	2544.245140
762.324751	2549.220759
762.651366	2553.362067
762.977935	2560.986812
763.304456	2564.074519
763.630931	2566.983265
763.957359	2565.488563
764.283740	2562.468912
764.610074	2556.948848
764.936362	2554.418189
765.262602	2550.576830
765.588796	2550.596994
765.914943	2547.922662
766.241044	2549.371994
766.567097	2546.014585
766.893104	2547.418547
767.219064	2544.761859
767.544978	2546.070038
767.870845	2541.502753
768.196665	2547.032898
768.522438	2544.260264
768.848165	2544.295552
769.173846	2542.992414
769.499479	2543.735984
769.825066	2544.020809
770.150607	2542.309337
770.476101	2542.785726
770.801548	2545.389482
771.126949	2543.287321
771.452303	2539.992927
771.777611	2543.748587
772.102872	2540.791950
772.428087	2542.122815
772.753256	2542.803370
773.078378	2540.996117
773.403453	2542.667259
773.728482	2540.242464
774.053465	2540.146682
774.378401	2542.619368
774.703291	2541.921168
775.028135	2538.798174
775.352932	2540.255067
775.677683	2540.600386
776.002388	2541.215407
776.327046	2541.434697
776.651658	2540.746580
776.976224	2539.962680
777.300743	2542.039636
777.625216	2541.071734
777.949643	2539.821528
778.274024	2542.999975
778.598359	2535.912113
778.922647	2535.143337
779.246889	2535.241640
779.571086	2535.909592
779.895236	2539.715664
780.219339	2539.670293
780.543397	2538.679707
780.867409	2537.505118
781.191374	2541.480068
781.515294	2539.882022
781.839167	2539.637526
782.162995	2537.986548
782.486776	2538.982176
782.810511	2543.075593
783.134201	2538.954449
783.457844	2540.882691
783.781441	2538.014274
784.104993	2540.335726
784.428498	2538.336908
784.751958	2541.369162
785.075372	2540.796991
785.398739	2536.207021
785.722061	2539.715664
786.045337	2538.417567
786.368568	2542.707588
786.691752	2541.278421
787.014891	2540.852444
787.337983	2541.107022
787.661030	2542.059800
787.984031	2540.733977
788.306987	2543.292362
788.629897	2543.471323
788.952760	2541.941333
789.275579	2543.604914
789.598351	2542.024512
789.921078	2541.326312
790.243759	2537.278266
790.566395	2540.736497
790.888984	2537.822710
791.211529	2537.545447
791.534027	2541.134748
791.856480	2540.466796
792.178888	2541.454862
792.501249	2538.808256
792.823566	2539.072917
793.145836	2537.923533
793.468062	2539.655170
793.790241	2537.459747
794.112375	2538.785571
794.434464	2539.095602
794.756507	2541.452341
795.078505	2540.481919
795.400457	2538.611651
795.722364	2535.367668
796.044226	2537.830272
796.366042	2538.750283
796.687812	2538.452855
797.009538	2540.766744
797.331218	2545.293700
797.652852	2541.752290
797.974442	2538.105015
798.295986	2536.194418
798.617484	2543.408309
798.938938	2539.090561
799.260346	2540.930582
799.581709	2538.752803
799.903026	2537.658873
800.224299	2538.929244
800.545526	2537.767258
800.866708	2539.203987
801.187845	2538.498225
801.508936	2539.163657
801.829983	2540.726415
802.150984	2539.584594
802.471940	2540.464275
802.792851	2538.039480
803.113717	2539.249357
803.434538	2538.808256
803.755314	2537.626105
804.076045	2538.394881
804.396731	2536.491846
804.717372	2535.153419
805.037967	2536.481763
805.358518	2536.209541
805.679024	2540.471837
805.999485	2537.638708
806.319901	2539.332536
806.640272	2539.110725
806.960598	2536.617875
807.280879	2537.903369
807.601115	2539.836651
807.921306	2538.122659
808.241453	2538.052083
808.561554	2539.077958
808.881611	2538.518390
809.201623	2537.371527
809.521590	2540.272711
809.841513	2539.269522
810.161390	2538.031918
810.481223	2537.351362
810.801011	2538.241126
811.120755	2536.343132
811.440453	2540.118956
811.760107	2536.010416
812.079716	2535.410518
812.399281	2533.809952
812.718801	2536.456558
813.038276	2533.968748
813.357707	2539.423277
813.677093	2535.100487
813.996434	2539.932433
814.315731	2534.387164
814.634983	2539.113246
814.954191	2536.191897
815.273354	2537.437062
815.592473	2537.185004
815.911547	2537.290869
816.230577	2539.042670
816.549562	2538.664583
816.868502	2539.854295
817.187399	2537.913451
817.506250	2538.162988
817.825058	2539.703061
818.143821	2538.790612
818.462539	2540.786909
818.781213	2539.952598
819.099843	2541.008720
819.418429	2543.304965
819.736970	2544.313196
820.055466	2548.696479
820.373919	2550.801161
820.692327	2554.377860
821.010691	2559.645865
821.329011	2575.666652
821.647286	2603.272011
821.965517	2629.561628
822.283704	2648.924700
822.601847	2656.181441
822.919945	2642.078813
823.237999	2624.205402
823.556010	2605.321240
823.873976	2590.238108
824.191897	2581.080852
824.509775	2572.498287
824.827609	2564.455126
825.145398	2562.811710
825.463144	2559.245094
825.780845	2564.135013
826.098502	2565.085270
826.416116	2572.599110
826.733685	2582.290728
827.051210	2586.873137
827.368692	2582.820050
827.686129	2572.160530
828.003522	2566.950497
828.320872	2556.059084
828.638177	2551.423743
828.955439	2546.538865
829.272656	2546.604400
829.589830	2541.389327
829.906960	2540.222300
830.224046	2538.742721
830.541088	2541.054090
830.858086	2541.243133
831.175041	2542.563916
831.491952	2539.738349
831.808819	2540.824718
832.125642	2542.309337
832.442421	2542.878988
832.759157	2548.603218
833.075849	2551.983312
833.392497	2560.427244
833.709101	2560.439847
834.025662	2562.030331
834.342179	2560.454971
834.658653	2556.860628
834.975083	2549.578681
835.291469	2552.520194
835.607811	2544.494678
835.924110	2544.119112
836.240366	2543.975439
836.556578	2539.635005
836.872746	2543.620037
837.188871	2538.329346
837.504952	2538.999820
837.820990	2537.406815
838.136984	2537.343801
838.452935	2536.365817
838.768842	2538.180632
839.084706	2536.348173
839.400526	2538.987217
839.716303	2542.011909
840.032037	2543.398227
840.347727	2549.029195
840.663373	2545.384441
840.978977	2538.352032
841.294537	2537.840354
841.610054	2536.421270
841.925527	2536.128883
842.240957	2537.248019
842.556344	2535.287010
842.871687	2536.834644
843.186987	2535.574356
843.502244	2534.193080
843.817458	2535.317257
844.132629	2531.818696
844.447756	2530.770136
844.762840	2529.386339
845.077881	2529.189734
845.392879	2529.799714
845.707833	2533.015970
846.022745	2527.798376
846.337613	2530.810465
846.652438	2533.709129
846.967221	2533.474715
847.281960	2533.648635
847.596656	2533.814993
847.911309	2530.936494
848.225919	2533.368851
848.540485	2536.229706
848.855009	2532.736186
849.169490	2531.266690
849.483928	2533.401618
849.798323	2532.332894
850.112675	2532.186700
850.426984	2533.048738
850.741251	2527.508510
851.055474	2533.699047
851.369654	2532.191742
851.683792	2533.615867
851.997887	2532.521937
852.311938	2530.475229
852.625947	2532.282482
852.939914	2530.709642
853.253837	2534.740045
853.567718	2534.311547
853.881555	2530.356762
854.195350	2534.515713
854.509103	2532.529499
854.822812	2532.219468
855.136479	2534.341794
855.450103	2532.348017
855.763685	2532.615198
856.077224	2531.324663
856.390720	2529.484642
856.704173	2531.904396
857.017584	2530.187883
857.330953	2533.956145
857.644278	2531.914478
857.957561	2536.426311
858.270802	2534.182997
858.584000	2532.239633
858.897155	2532.537061
859.210268	2531.528830
859.523339	2532.234591
859.836367	2532.869777
860.149352	2531.460774
860.462295	2535.017308
860.775195	2528.365506
861.088054	2529.582944
861.400869	2530.515558
861.713642	2525.907943
862.026373	2531.332225
862.339062	2530.230733
862.651708	2535.370189
862.964312	2533.041176
863.276873	2529.656041
863.589392	2531.924560
863.901869	2530.918850
864.214303	2531.808614
864.526696	2533.512524
864.839045	2530.298788
865.151353	2533.930940
865.463619	2529.330887
865.775842	2534.926568
866.088023	2531.301978
866.400162	2534.480425
866.712258	2531.440610
867.024313	2532.955476
867.336325	2532.746268
867.648296	2534.588810
867.960224	2533.046217
868.272110	2535.624767
868.583954	2535.067720
868.895755	2533.371372
869.207515	2533.988913
869.519233	2530.689478
869.830909	2534.293903
870.142542	2532.075795
870.454134	2534.326670
870.765684	2536.002854
871.077191	2532.610157
871.388657	2533.749458
871.700081	2532.705939
872.011463	2534.561084
872.322803	2533.973789
872.634101	2533.205013
872.945357	2535.813811
873.256571	2534.039324
873.567744	2533.666279
873.878874	2534.339273
874.189963	2537.530323
874.501010	2535.113090
874.812015	2534.480425
875.122979	2535.085364
875.433900	2534.535878
875.744780	2540.244985
876.055618	2533.076464
876.366415	2537.406815
876.677169	2537.832793
876.987882	2534.351876
877.298554	2531.543953
877.609183	2533.925898
877.919771	2532.423635
878.230317	2533.106711
878.540822	2540.549975
878.851285	2539.052752
879.161707	2540.844882
879.472087	2540.267670
879.782425	2543.375541
880.092722	2549.992056
880.402977	2560.263407
880.713191	2572.231106
881.023363	2588.498909
881.333494	2599.173553
881.643583	2604.320571
881.953631	2599.773450
882.263637	2595.163315
882.573602	2592.219281
882.883526	2584.234093
883.193408	2577.337795
883.503248	2567.588203
883.813048	2565.080229
884.122806	2556.656461
884.432522	2556.096893
884.742197	2550.125646
885.051831	2549.205636
885.361424	2545.364277
885.670975	2543.332692
885.980485	2539.410674
886.289954	2543.186498
886.599382	2541.006199
886.908768	2540.486960
887.218113	2540.123997
887.527417	2539.481250
887.836680	2538.354552
888.145901	2537.593338
888.455082	2537.865560
888.764221	2535.042514
889.073319	2534.291382
889.382376	2534.588810
889.691392	2534.160312
890.000366	2535.796167
890.309300	2536.305323
890.618193	2535.481094
890.927044	2536.277597
891.235855	2534.866074
891.544625	2535.269366
891.853353	2534.787936
892.162041	2536.764068
892.470687	2538.273894
892.779293	2537.268183
893.087858	2539.214069
893.396381	2536.822041
893.704864	2544.030891
894.013306	2542.286652
894.321707	2552.525236
894.630068	2556.338868
894.938387	2559.595454
895.246665	2558.372974
895.554903	2553.742674
895.863100	2550.637323
896.171256	2544.613145
896.479371	2545.848227
896.787446	2544.318237
897.095480	2542.624409
897.403473	2535.851619
897.711425	2540.759183
898.019336	2537.270704
898.327207	2536.133924
898.635038	2539.629964
898.942827	2535.314736
899.250576	2535.392874
899.558284	2535.836496
899.865952	2537.207690
900.173579	2536.995961
900.481165	2534.886238
900.788711	2535.022349
901.096216	2535.039993
901.403681	2535.884387
901.711105	2534.704757
902.018489	2534.399767
902.325832	2534.969417
902.633135	2532.791639
902.940397	2536.423790
903.247619	2537.298430
903.554800	2543.249513
903.861941	2552.454659
904.169041	2560.941442
904.476101	2568.034345
904.783121	2565.317163
905.090100	2557.886503
905.397039	2556.328786
905.703938	2550.808723
906.010796	2546.548948
906.317614	2542.720191
906.624391	2538.919161
906.931129	2538.331867
907.237826	2537.946219
907.544483	2535.975128
907.851099	2533.462112
908.157675	2532.353058
908.464211	2530.694519
908.770707	2530.850795
909.077163	2530.833151
909.383578	2528.403314
909.689954	2531.730476
909.996289	2529.489683
910.302584	2533.212575
910.608839	2532.897503
910.915054	2532.605116
911.221229	2531.710311
911.527363	2530.868439
911.833458	2529.933305
912.139513	2531.697708
912.445527	2534.631660
912.751502	2532.837009
913.057436	2533.136958
913.363331	2532.602596
913.669186	2535.407998
913.975000	2533.608306
914.280775	2538.241126
914.586510	2539.198945
914.892205	2541.717002
915.197859	2546.788403
915.503475	2551.514484
915.809050	2555.207129
916.114585	2560.898592
916.420081	2563.565362
916.725536	2563.081412
917.030952	2561.465722
917.336328	2553.699824
917.641665	2552.195040
917.946961	2547.370656
918.252218	2546.758156
918.557435	2546.503577
918.862612	2541.369162
919.167750	2540.678524
919.472848	2538.800694
919.777906	2538.944367
920.082925	2538.989738
920.387904	2536.759027
920.692843	2537.915972
920.997743	2534.271218
921.302603	2536.340611
921.607423	2533.162164
921.912204	2532.647966
922.216946	2532.227030
922.521647	2533.416742
922.826310	2531.828778
923.130932	2531.392719
923.435516	2532.101001
923.740059	2531.967410
924.044564	2528.889786
924.349028	2531.493542
924.653454	2525.668488
924.957840	2526.041534
925.262186	2527.276617
925.566493	2529.769467
925.870761	2527.004394
926.174989	2531.405322
926.479178	2529.217461
926.783328	2529.041020
927.087438	2529.267872
927.391509	2530.876000
927.695541	2529.383819
927.999533	2529.101514
928.303486	2527.009435
928.607400	2529.182173
928.911275	2529.630835
929.215110	2528.725948
929.518906	2527.813499
929.822663	2528.650331
930.126381	2528.158818
930.430060	2529.955990
930.733699	2530.182842
931.037299	2529.930784
931.340861	2527.838705
931.644383	2530.291227
931.947866	2529.436751
932.251309	2531.866587
932.554714	2531.128058
932.858080	2530.235774
933.161407	2527.067409
933.464694	2527.886596
933.767943	2528.526823
934.071153	2528.390712
934.374323	2526.722090
934.677455	2528.678057
934.980548	2530.432379
935.283602	2530.704601
935.586617	2526.873324
935.889593	2529.356093
936.192530	2530.334076
936.495428	2527.450536
936.798287	2529.230064
937.101108	2527.059847
937.403890	2529.560259
937.706632	2530.994468
938.009336	2532.771474
938.312002	2528.105886
938.614628	2532.353058
938.917216	2531.773326
939.219765	2528.063037
939.522275	2530.858356
939.824747	2531.980013
940.127179	2527.518592
940.429573	2524.877027
940.731929	2528.231915
941.034246	2527.931967
941.336524	2529.973634
941.638763	2529.509848
941.940964	2531.722914
942.243126	2528.249559
942.545250	2529.739220
942.847335	2530.293747
943.149381	2529.361134
943.451389	2533.769623
943.753359	2528.499096
944.055290	2529.235105
944.357182	2531.879190
944.659036	2530.800383
944.960851	2528.700743
945.262628	2528.720907
945.564367	2529.832482
945.866067	2530.621422
946.167729	2530.031607
946.469352	2528.783922
946.770937	2530.311391
947.072484	2530.339117
947.373992	2528.136133
947.675462	2528.133613
947.976893	2527.130423
948.278286	2529.310722
948.579641	2528.733510
948.880958	2527.821061
949.182236	2530.641587
949.483476	2526.885927
949.784678	2529.129241
950.085841	2529.290557
950.386967	2528.995650
950.688054	2528.940197
950.989103	2530.583613
951.290114	2530.641587
951.591087	2528.975485
951.892021	2529.976154
952.192917	2531.309540
952.493776	2527.422810
952.794596	2530.523120
953.095378	2530.099663
953.396122	2530.051772
953.696828	2529.908099
953.997496	2528.478932
954.298126	2527.281658
954.598718	2531.750641
954.899272	2526.838036
955.199788	2527.034641
955.500266	2532.050589
955.800706	2527.125382
956.101108	2525.378622
956.401472	2524.622449
956.701798	2525.900382
957.002087	2524.012469
957.302337	2526.260824
957.602550	2529.214940
957.902724	2527.223684
958.202861	2529.368695
958.502960	2525.126564
958.803022	2529.890455
959.103045	2525.507172
959.403031	2527.132944
959.702979	2528.113448
960.002889	2529.451874
960.302762	2526.485155
960.602596	2530.565969
960.902393	2525.161853
961.202153	2526.654034
961.501875	2523.563807
961.801559	2525.537418
962.101205	2524.829136
962.400814	2527.861390
962.700385	2526.825433
962.999918	2527.143026
963.299414	2526.288550
963.598873	2525.799558
963.898293	2526.096987
964.197677	2527.067409
964.497022	2525.965917
964.796331	2525.660927
965.095601	2525.063550
965.394835	2527.392563
965.694030	2524.388035
965.993189	2526.878365
966.292309	2525.267717
966.591393	2527.531195
966.890439	2523.336955
967.189447	2522.570699
967.488419	2523.697397
967.787353	2525.887779
968.086249	2524.660258
968.385108	2526.608664
968.683930	2524.534229
968.982714	2526.250742
969.281462	2526.538088
969.580172	2524.256965
969.878844	2524.357788
970.177480	2526.457429
970.476078	2528.115969
970.774639	2528.342821
971.073162	2527.145547
971.371649	2524.783766
971.670098	2522.989115
971.968510	2526.112110
972.266885	2522.968951
972.565223	2527.266534
972.863524	2526.089425
973.161788	2527.067409
973.460014	2524.577079
973.758204	2527.120341
974.056356	2523.563807
974.354471	2524.579599
974.652550	2528.075639
974.950591	2524.657737
975.248595	2526.749816
975.546563	2528.347862
975.844493	2524.564476
976.142386	2525.875176
976.440243	2527.566483
976.738062	2525.708818
977.035845	2526.764939
977.333590	2524.486338
977.631299	2527.899199
977.928971	2526.913653
978.226606	2525.789476
978.524204	2525.935670
978.821765	2525.159332
979.119290	2523.583971
979.416777	2527.294261
979.714228	2525.376102
980.011642	2524.440967
980.309020	2527.889117
980.606360	2526.354085
980.903664	2528.025228
981.200931	2523.911646
981.498162	2525.411390
981.795356	2526.820392
982.092513	2526.424662
982.389633	2526.074301
982.686717	2527.213602
982.983764	2525.416431
983.280775	2526.883407
983.577749	2525.343334
983.874686	2526.006246
984.171587	2525.882737
984.468451	2528.035310
984.765279	2528.519261
985.062070	2525.882738
985.358824	2526.646472
985.655543	2526.724610
985.952224	2525.983561
986.248869	2525.970958
986.545478	2520.360153
986.842050	2524.498941
987.138586	2522.492562
987.435086	2522.275792
987.731549	2519.513240
988.027975	2526.449867
988.324366	2525.154291
988.620719	2527.989940
988.917037	2527.662265
989.213318	2525.935670
989.509563	2524.307377
989.805772	2527.016997
990.101944	2522.679084
990.398080	2526.278468
990.694180	2522.540453
990.990244	2527.725279
991.286271	2527.405166
991.582262	2525.970958
991.878217	2525.343334
992.174136	2524.201513
992.470019	2526.646472
992.765865	2525.688653
993.061676	2525.469363
993.357450	2526.558252
993.653188	2524.287212
993.948890	2524.423323
994.244556	2524.599764
994.540186	2528.441123
994.835780	2526.717048
995.131337	2523.347037
995.426859	2522.348889
995.722345	2523.959537
996.017795	2524.733354
996.313208	2526.399456
996.608586	2527.629497
996.903928	2525.875176
997.199234	2527.251411
997.494504	2523.803262
997.789738	2524.440967
998.084936	2526.452388
998.380099	2526.709487
998.675225	2524.889630
998.970316	2525.371060
999.265371	2525.701256
999.560390	2524.234280
999.855373	2524.597243
1000.150320	2523.062212
1000.445232	2525.439116
1000.740108	2522.792510
1001.034948	2525.018180
1001.329752	2524.635052
1001.624521	2525.126564
1001.919254	2519.591377
1002.213951	2523.646986
1002.508613	2520.188754
1002.803239	2523.326872
1003.097829	2519.362005
1003.392384	2526.860721
1003.686903	2522.583302
1003.981386	2527.891637
1004.275834	2525.277799
1004.570246	2526.558252
1004.864623	2525.116482
1005.158964	2524.811492
1005.453270	2522.091790
1005.747540	2527.221164
1006.041775	2521.958199
1006.335974	2525.857532
1006.630138	2523.014321
1006.924266	2528.431041
1007.218359	2528.032790
1007.512416	2525.250073
1007.806438	2523.906605
1008.100425	2525.537418
1008.394376	2525.676050
1008.688292	2524.811492
1008.982172	2524.854342
1009.276017	2522.739578
1009.569827	2524.196472
1009.863602	2524.718231
1010.157341	2524.214116
1010.451045	2525.693694
1010.744714	2525.592871
1011.038347	2524.229239
1011.331945	2525.086235
1011.625508	2522.595905
1011.919036	2526.308715
1012.212528	2525.529857
1012.505986	2525.219826
1012.799408	2522.013652
1013.092795	2524.481297
1013.386147	2526.409538
1013.679464	2521.446522
1013.972745	2522.999198
1014.265992	2525.267717
1014.559204	2525.441637
1014.852380	2524.219157
1015.145521	2525.313087
1015.438628	2524.511544
1015.731699	2523.341996
1016.024736	2526.863242
1016.317737	2523.268899
1016.610703	2524.778725
1016.903635	2518.590708
1017.196531	2519.505678
1017.489393	2522.043899
1017.782219	2518.699093
1018.075011	2523.699918
1018.367768	2522.878210
1018.660490	2522.331245
1018.953177	2522.331245
1019.245829	2522.331245
