Dividing Wavelength (nm)	Counts (n)	Blue Motor Position (mm): 0.000000	Red Motor Position (mm): 37.100000	
326.493990	2131.717439
326.888308	2131.717439
327.282561	2131.717439
327.676750	2095.017839
328.070874	2092.212437
328.464933	2096.729311
328.858929	2105.445466
329.252859	2112.613986
329.646726	2126.502365
330.040528	2138.270939
330.434265	2157.215595
330.827938	2170.544406
331.221547	2189.332786
331.615091	2210.674511
332.008571	2230.203941
332.401986	2250.575244
332.795338	2267.387492
333.188625	2286.992539
333.581847	2305.806125
333.975006	2324.881851
334.368100	2342.624192
334.761129	2361.533560
335.154095	2376.835983
335.546996	2397.277862
335.939833	2417.732343
336.332606	2432.094591
336.725315	2444.150510
337.117960	2454.195009
337.510540	2461.300516
337.903056	2475.413226
338.295508	2481.790285
338.687896	2490.206492
339.080220	2498.605054
339.472480	2504.377175
339.864676	2509.778772
340.256807	2511.833042
340.648875	2512.805984
341.040879	2517.529546
341.432818	2519.639268
341.824694	2521.882582
342.216506	2523.964578
342.608253	2523.410052
342.999937	2522.399300
343.391557	2520.917201
343.783113	2522.089269
344.174605	2518.734381
344.566033	2516.428053
344.957397	2518.295801
345.348697	2515.450070
345.739934	2515.802950
346.131106	2512.357322
346.522215	2512.574091
346.913260	2507.439676
347.304241	2509.158710
347.695159	2508.445386
348.086012	2503.101763
348.476802	2502.002792
348.867528	2499.721670
349.258191	2496.328973
349.648789	2496.265959
350.039324	2495.424086
350.429796	2495.978613
350.820203	2494.173880
351.210548	2494.559528
351.600828	2492.858139
351.991045	2491.910402
352.381198	2491.640700
352.771288	2492.437202
353.161314	2486.375215
353.551276	2490.448467
353.941175	2488.462253
354.331010	2493.616832
354.720782	2489.518374
355.110490	2492.137254
355.500135	2491.363437
355.889717	2490.796307
356.279235	2493.682367
356.668689	2490.030051
357.058080	2490.861842
357.447408	2488.442088
357.836672	2488.492499
358.225873	2492.114568
358.615010	2491.270175
359.004084	2494.693119
359.393095	2494.741010
359.782043	2495.267810
360.170927	2496.495331
360.559748	2493.339569
360.948505	2499.025990
361.337199	2499.749396
361.725830	2498.985661
362.114398	2499.119252
362.502903	2499.003305
362.891344	2502.385919
363.279722	2500.364417
363.668037	2499.494818
364.056289	2505.040087
364.444478	2503.464726
364.832603	2503.182422
365.220665	2503.051352
365.608665	2503.210148
365.996601	2505.511435
366.384474	2506.149141
366.772284	2508.737773
367.160031	2507.490088
367.547715	2511.119718
367.935336	2514.361180
368.322893	2517.547190
368.710388	2516.581809
369.097820	2526.827954
369.485189	2529.008253
369.872495	2532.975641
370.259738	2544.608103
370.646918	2549.828218
371.034035	2555.612942
371.421090	2567.366393
371.808081	2576.846282
372.195010	2583.850966
372.581875	2599.120621
372.968678	2614.463372
373.355418	2622.138529
373.742096	2640.715181
374.128710	2654.472490
374.515262	2670.510921
374.901751	2685.959537
375.288177	2700.558718
375.674540	2719.881461
376.060841	2738.011971
376.447079	2759.147008
376.833254	2780.554268
377.219367	2791.118006
377.605417	2830.330621
377.991404	2838.555264
378.377329	2860.774149
378.763191	2877.213352
379.148991	2913.529824
379.534727	2938.990172
379.920402	2967.961683
380.306013	2980.181440
380.691563	3030.945859
381.077049	3054.717420
381.462474	3069.825758
381.847835	3107.952005
382.233134	3131.196765
382.618371	3127.267186
383.003545	3195.771425
383.388657	3204.540512
383.773706	3238.240626
384.158693	3257.586054
384.543618	3278.385854
384.928480	3315.818942
385.313280	3361.378370
385.698017	3360.188658
386.082692	3414.033222
386.467305	3418.051022
386.851856	3451.040333
387.236344	3475.336173
387.620770	3503.659896
388.005133	3531.920605
388.389435	3555.099830
388.773674	3569.295719
389.157851	3614.441773
389.541965	3630.238228
389.926018	3593.039554
390.310008	3665.254083
390.693936	3681.388296
391.077802	3724.885892
391.461606	3711.844427
391.845348	3774.896658
392.229027	3774.274076
392.612645	3789.329482
392.996200	3864.772870
393.379694	3903.834250
393.763125	3970.977378
394.146494	3936.773150
394.529801	4000.299250
394.913047	4045.435221
395.296230	4014.154861
395.679351	4068.697625
396.062410	4094.026903
396.445408	4070.293150
396.828343	4106.284468
397.211217	4133.574755
397.594028	4048.351528
397.976778	4113.712608
398.359466	4145.159326
398.742092	4171.869880
399.124656	4092.093620
399.507158	4174.266948
399.889598	4199.891133
400.271977	4262.517388
400.654294	4233.787852
401.036549	4240.167432
401.418742	4212.370510
401.800874	4312.044204
402.182944	4335.644365
402.564952	4404.075508
402.946898	4383.038773
403.328783	4384.089854
403.710606	4295.995690
404.092367	4486.783199
404.474067	4448.541006
404.855705	4455.845638
405.237282	4389.246954
405.618797	4496.719313
406.000250	4531.631824
406.381642	4611.942446
406.762972	4575.830140
407.144240	4584.067386
407.525447	4584.115277
407.906593	4642.479235
408.287677	4686.178477
408.668700	4616.671048
409.049661	4666.086959
409.430560	4709.619843
409.811399	4634.824243
410.192176	4794.296104
410.572891	4736.247217
410.953545	4839.180017
411.334138	4720.596955
411.714669	4788.213952
412.095139	4683.627654
412.475547	4822.128314
412.855894	4804.113751
413.236180	4812.260256
413.616405	4765.100262
413.996568	4853.703582
414.376670	4796.090755
414.756711	4746.440431
415.136691	4781.801604
415.516609	4858.510322
415.896466	4895.404006
416.276262	4932.814409
416.655997	4913.337911
417.035670	5095.799954
417.415283	5186.570970
417.794834	5132.297908
418.174324	5085.571453
418.553753	4990.512935
418.933121	5174.326007
419.312428	5241.688426
419.691674	5182.953942
420.070859	5305.343075
420.449983	5218.736052
420.829045	5334.838866
421.208047	5240.677674
421.586988	5310.308612
421.965867	5323.980221
422.344686	5455.834120
422.723444	5315.102749
423.102141	5131.176251
423.480777	5428.485861
423.859352	5196.678483
424.237866	5456.002999
424.616319	5448.474036
424.994712	5556.783226
425.373044	5435.069608
425.751314	5577.376340
426.129524	5378.071802
426.507673	5580.945477
426.885762	5655.335263
427.263789	5591.244554
427.641756	5471.801975
428.019662	5594.496098
428.397508	5600.427016
428.775292	5547.724273
429.153016	5646.243542
429.530679	5569.887706
429.908282	5658.513711
430.285824	5528.668711
430.663305	5799.973529
431.040726	5533.730030
431.418086	5539.350916
431.795385	5641.066277
432.172624	5648.433924
432.549802	5647.765971
432.926920	5664.260626
433.303977	5671.499723
433.680974	5710.616556
434.057910	5728.071552
434.434786	5731.300411
434.811601	5699.972160
435.188355	5936.908911
435.565050	5812.599099
435.941683	5794.319875
436.318257	6004.031875
436.694770	5989.730121
437.071222	6024.599783
437.447614	5955.130162
437.823946	5870.418613
438.200218	6023.140368
438.576429	5887.805552
438.952580	5986.034956
439.328670	6032.496750
439.704700	5936.402275
440.080670	5923.043218
440.456580	6195.010947
440.832429	6075.976702
441.208218	5922.100522
441.583947	6082.512558
441.959616	6084.241674
442.335224	6013.047978
442.710773	6147.750130
443.086261	6173.318862
443.461689	5969.333613
443.837057	6119.688547
444.212365	6269.957781
444.587612	6164.141442
444.962800	6323.275545
445.337927	6297.989117
445.712995	5911.314973
446.088002	6485.578014
446.462949	6316.396891
446.837837	6254.836840
447.212664	6417.013280
447.587431	6566.390230
447.962139	7109.201512
448.336786	8036.529324
448.711374	7773.547451
449.085901	6850.116451
449.460369	6767.083606
449.834776	6696.648605
450.209124	7092.946311
450.583412	7236.762869
450.957640	7389.555201
451.331808	7153.856053
451.705917	6703.602876
452.079965	6628.247709
452.453954	6844.248548
452.827883	6724.337142
453.201752	6807.191026
453.575562	6612.373115
453.949311	6820.688716
454.323001	6707.650923
454.696632	6778.927797
455.070202	6914.015597
455.443713	7072.532159
455.817164	7173.524114
456.190556	7257.285406
456.563888	7333.129566
456.937160	7373.748663
457.310373	7031.169492
457.683526	7056.443316
458.056619	6945.477438
458.429653	6931.710047
458.802628	6869.025819
459.175542	6978.867520
459.548398	7333.545461
459.921194	7493.229050
460.293930	7497.050245
460.666607	8022.139350
461.039224	8340.992331
461.411782	8463.227709
461.784280	8471.918658
462.156719	8368.678348
462.529099	8248.035974
462.901419	7833.358221
463.273680	7728.976089
463.645882	7746.990653
464.018024	7610.140970
464.390106	7773.103829
464.762130	8162.802666
465.134094	8635.073082
465.505999	9654.580912
465.877845	10881.055834
466.249631	11527.510718
466.621358	11140.004784
466.993026	10512.371047
467.364634	10249.177446
467.736184	9889.357529
468.107674	9563.857787
468.479105	9593.913146
468.850477	9358.687866
469.221790	9127.525757
469.593043	8791.696690
469.964238	8660.064602
470.335373	8673.169081
470.706449	8731.712001
471.077467	8717.140546
471.448425	10018.486685
471.819324	11097.086920
472.190164	11119.464602
472.560945	9873.586279
472.931667	9085.311134
473.302330	8948.093447
473.672934	8589.937111
474.043479	8946.654198
474.413965	8891.808965
474.784393	8775.794371
475.154761	8931.286240
475.525070	9016.343109
475.895321	8846.244496
476.265513	9013.754476
476.635645	9187.018934
477.005719	9192.516312
477.375734	9297.737796
477.745691	9538.500783
478.115588	9669.774950
478.485427	9914.374255
478.855207	10448.214803
479.224928	11268.718044
479.594591	11893.226265
479.964194	11712.344624
480.333739	11643.636217
480.703226	11560.028681
481.072653	11654.757003
481.442022	11887.928012
481.811333	12082.713156
482.180584	11891.396326
482.549777	11598.485123
482.918912	11415.949983
483.287988	11442.287492
483.657005	11456.579163
484.025964	11136.428085
484.394864	11269.131419
484.763706	11236.013559
485.132489	10994.474234
485.501213	10958.591301
485.869879	11030.364729
486.238487	10872.364885
486.607036	10981.737759
486.975527	10760.940261
487.343959	10957.683893
487.712333	11002.809782
488.080648	10932.896540
488.448905	10971.287447
488.817104	10914.524054
489.185244	11182.950373
489.553326	11331.346819
489.921350	11868.834642
490.289315	12943.270885
490.657222	13273.378242
491.025070	13187.613091
491.392861	13058.481415
491.760593	12686.887882
492.128267	12324.149137
492.495883	12003.514108
492.863440	11670.745022
493.230939	11334.842859
493.598380	11262.325861
493.965763	11134.124278
494.333088	11036.625842
494.700354	10947.407501
495.067563	11010.742037
495.434713	10842.959834
495.801805	10971.153856
496.168839	10897.021168
496.535815	10831.108082
496.902733	10828.116157
497.269593	10762.593760
497.636395	10864.689728
498.003139	10849.016781
498.369825	10723.678573
498.736453	10879.230936
499.103023	10793.082658
499.469535	10825.983749
499.835989	10815.727521
500.202385	10782.433221
500.568723	10630.407144
500.935003	10860.306445
501.301226	10661.964767
501.667390	10919.938254
502.033497	11015.480722
502.399546	10872.042251
502.765537	10778.211254
503.131470	10856.376865
503.497345	11026.072186
503.863163	10637.946190
504.228923	10957.232710
504.594625	11017.335867
504.960269	10761.265416
505.325856	10990.476599
505.691385	10781.553539
506.056856	10928.374625
506.422270	10954.323964
506.787625	10843.776501
507.152924	10959.828904
507.518164	10940.881727
507.883347	10863.182423
508.248472	10779.794177
508.613540	11014.714467
508.978550	10891.911959
509.343503	10867.447239
509.708398	10991.260498
510.073236	11094.745304
510.438016	11103.668147
510.802738	11052.321474
511.167403	11104.885585
511.532010	11005.829433
511.896561	11226.568957
512.261053	11302.960082
512.625488	11175.103817
512.989866	11153.510035
513.354186	11148.105918
513.718449	11048.896010
514.082655	11233.485420
514.446803	11138.976388
514.810894	11252.939233
515.174927	11127.669080
515.538904	11148.433593
515.902822	11297.354319
516.266684	11179.867708
516.630488	11119.323450
516.994235	11179.156905
517.357925	11243.338355
517.721558	11328.070069
518.085133	11343.531288
518.448651	11353.079233
518.812112	11237.833415
519.175516	11250.930333
519.538863	11376.412214
519.902152	11286.614140
520.265385	11448.094901
520.628560	11358.624503
520.991678	11332.455873
521.354739	11395.467775
521.717743	11329.073259
522.080690	11306.136009
522.443580	11439.033427
522.806413	11393.327806
523.169189	11420.676065
523.531908	11475.107924
523.894569	11296.305759
524.257174	11296.648557
524.619722	11415.075343
524.982213	11356.819769
525.344647	11412.897565
525.707025	11363.867303
526.069345	11449.582041
526.431608	11363.678259
526.793815	11469.366050
527.155964	11259.437280
527.518057	11305.334465
527.880093	11254.958215
528.242072	11322.527320
528.603995	11222.437731
528.965860	11143.518468
529.327669	11193.335150
529.689421	11143.082408
530.051117	11106.241656
530.412755	11204.050123
530.774337	11098.695048
531.135862	11063.381766
531.497331	11085.804818
531.858743	10936.526170
532.220098	11097.621283
532.581396	10960.751435
532.942638	10940.554052
533.303824	10904.782025
533.664953	10908.668754
534.026025	10820.025105
534.387040	10913.505741
534.747999	10906.206151
535.108902	10951.253901
535.469748	10719.789323
535.830537	10810.484721
536.191270	10784.958839
536.551947	10791.335898
536.912567	10788.316247
537.273131	10704.267610
537.633638	10676.112766
537.994089	10660.732205
538.354483	10596.235683
538.714821	10730.963040
539.075103	10731.452032
539.435328	10685.698520
539.795497	10511.370378
540.155609	10654.569395
540.515665	10730.950437
540.875665	10462.183840
541.235609	10515.483960
541.595496	10504.799234
541.955328	10641.951387
542.315102	10522.881853
542.674821	10458.501277
543.034483	10454.327202
543.394090	10437.678792
543.753640	10360.559220
544.113134	10560.882071
544.472571	10408.855994
544.831953	10531.421568
545.191278	10327.854734
545.550548	10344.707312
545.909761	10462.635024
546.268918	10416.989896
546.628019	10474.829575
546.987064	10333.934366
547.346053	10251.188867
547.704986	10323.002624
548.063863	10289.236975
548.422684	10270.672926
548.781449	10167.059571
549.140158	10241.930788
549.498811	10110.976734
549.857408	9966.930804
550.215949	10142.476384
550.574434	9998.624538
550.932864	10060.043436
551.291237	10097.479045
551.649555	10019.759576
552.007817	10018.032981
552.366022	9958.806985
552.724173	9928.348333
553.082267	9898.779445
553.440305	9986.636675
553.798288	9791.049988
554.156215	9898.091328
554.514086	9848.861940
554.871902	9699.341317
555.229661	9702.197131
555.587365	9661.817488
555.945014	9544.711484
556.302606	9617.906518
556.660143	9503.472325
557.017625	9610.027194
557.375050	9486.279470
557.732421	9574.426566
558.089735	9462.641500
558.446994	9444.470661
558.804197	9452.468451
559.161345	9414.329602
559.518437	9264.877034
559.875474	9302.942787
560.232455	9283.526783
560.589381	9225.548473
560.946251	9178.348149
561.303065	9252.899253
561.659825	9148.643150
562.016528	9063.699708
562.373177	8946.384496
562.729770	8990.464345
563.086307	8894.904233
563.442789	8935.961911
563.799216	8789.365157
564.155587	8806.923496
564.511904	8729.410714
564.868164	8685.401441
565.224370	8677.940533
565.580520	8557.308242
565.936615	8549.426398
566.292654	8397.279334
566.648638	8475.502918
567.004567	8399.310919
567.360441	8355.644444
567.716260	8248.996314
568.072023	8289.194475
568.427732	8210.197074
568.783385	8122.294474
569.138982	8118.296839
569.494525	8096.302285
569.850013	7976.927762
570.205445	7981.661405
570.560823	7888.551294
570.916145	7784.295191
571.271412	7795.229454
571.626625	7715.801034
571.981782	7661.401942
572.336884	7605.724919
572.691931	7582.515447
573.046923	7493.539081
573.401860	7432.069772
573.756743	7350.355188
574.111570	7340.756832
574.466342	7300.404916
574.821059	7276.466997
575.175722	7171.379103
575.530330	7136.627909
575.884882	7099.086437
576.239380	7009.235431
576.593823	6966.635161
576.948211	6937.230110
577.302544	6836.812846
577.656823	6803.994935
578.011047	6774.267250
578.365216	6711.756943
578.719330	6642.068032
579.073389	6599.223265
579.427394	6543.931890
579.781344	6493.384240
580.135239	6428.991062
580.489080	6403.452576
580.842866	6304.141846
581.196597	6275.987001
581.550273	6266.819663
581.903895	6198.088572
582.257463	6210.414193
582.610975	6097.709116
582.964434	6093.671152
583.317837	6008.843656
583.671186	5978.185879
584.024481	5929.314413
584.377721	5862.262026
584.730906	5812.047092
585.084037	5795.789371
585.437113	5741.775928
585.790135	5705.822419
586.143103	5629.335512
586.496016	5591.037867
586.848874	5576.332821
587.201679	5544.639087
587.554428	5455.138441
587.907124	5443.062357
588.259765	5398.977467
588.612352	5366.698959
588.964884	5290.292710
589.317362	5260.189460
589.669786	5224.493050
590.022155	5232.669801
590.374470	5196.083627
590.726731	5149.377337
591.078937	5051.039549
591.431090	5053.517276
591.783188	4987.082430
592.135232	4942.639618
592.487222	4932.262403
592.839157	4914.268004
593.191038	4866.248493
593.542866	4815.166481
593.894639	4749.654166
594.246358	4744.207199
594.598022	4720.473447
594.949633	4654.643540
595.301190	4618.992500
595.652692	4604.436168
596.004141	4605.252835
596.355535	4510.912682
596.706876	4476.506807
597.058162	4425.628962
597.409395	4426.032254
597.760573	4420.746604
598.111698	4368.016135
598.462768	4335.046989
598.813785	4310.143689
599.164748	4260.327006
599.515657	4245.715222
599.866511	4184.616437
600.217312	4205.118810
600.568060	4142.003564
600.918753	4145.066065
601.269392	4113.914255
601.619978	4069.073191
601.970510	4060.674629
602.320988	4041.639232
602.671412	4030.629352
603.021783	3995.545442
603.372100	3967.120896
603.722363	3944.039973
604.072572	3923.971139
604.422728	3904.792070
604.772830	3864.944269
605.122878	3843.937781
605.472872	3826.674350
605.822813	3804.279024
606.172701	3777.354221
606.522534	3772.935650
606.872314	3760.927621
607.222041	3725.299266
607.571714	3720.041343
607.921333	3693.857590
608.270899	3672.843540
608.620411	3675.301103
608.969870	3641.598468
609.319276	3621.993421
609.668627	3605.692850
610.017926	3600.860904
610.367171	3591.292794
610.716362	3568.993250
611.065500	3552.223852
611.414585	3536.210627
611.763616	3520.126825
612.112594	3499.352230
612.461518	3485.781444
612.810389	3486.335971
613.159207	3457.016620
613.507971	3435.858898
613.856682	3437.361162
614.205340	3415.099426
614.553945	3415.091864
614.902496	3382.856206
615.250994	3379.425701
615.599439	3362.759646
615.947830	3350.151721
616.296169	3337.430369
616.644454	3327.365705
616.992686	3312.073365
617.340864	3310.147644
617.688990	3283.706792
618.037063	3289.236938
618.385082	3270.110800
618.733048	3269.465533
619.080961	3252.287801
619.428821	3244.297572
619.776628	3229.438771
620.124382	3215.321020
620.472083	3199.670758
620.819731	3190.122812
621.167326	3163.318997
621.514868	3152.112512
621.862357	3129.255921
622.209793	3122.286526
622.557176	3099.553442
622.904506	3078.851944
623.251783	3062.248904
623.599007	3048.635268
623.946179	3036.707898
624.293297	3024.662061
624.640363	3009.803260
624.987376	3000.958555
625.334336	2983.574136
625.681243	2972.430666
626.028097	2963.033955
626.374899	2955.013479
626.721647	2942.544185
627.068343	2933.888524
627.414987	2920.017789
627.761577	2909.355749
628.108115	2908.284504
628.454600	2895.013666
628.801032	2889.849004
629.147412	2883.676111
629.493739	2875.932899
629.840014	2866.881507
630.186236	2866.127855
630.532405	2853.905577
630.878521	2850.386852
631.224585	2843.979545
631.570597	2836.193483
631.916556	2834.000581
632.262462	2828.929180
632.608316	2821.732933
632.954117	2811.191881
633.299866	2811.625420
633.645562	2805.281128
633.991206	2794.137657
634.336797	2785.885288
634.682336	2778.137035
635.027823	2768.687392
635.373257	2765.362751
635.718639	2756.366812
636.063968	2753.286667
636.409245	2742.022209
636.754470	2736.461816
637.099642	2734.392422
637.444762	2727.677605
637.789829	2725.686350
638.134845	2716.650081
638.479808	2715.200750
638.824719	2710.358721
639.169577	2709.673124
639.514383	2701.924871
639.859137	2696.908923
640.203839	2696.455219
640.548489	2692.956658
640.893086	2688.757377
641.237632	2683.892664
641.582125	2681.803105
641.926566	2678.738084
642.270955	2678.972497
642.615292	2677.792867
642.959576	2674.513597
643.303809	2673.149965
643.647990	2671.040242
643.992118	2667.108142
644.336195	2664.227122
644.680219	2660.907523
645.024192	2661.545229
645.368112	2662.417348
645.711981	2662.800476
646.055797	2661.325938
646.399562	2656.937614
646.743274	2661.986330
647.086935	2663.264262
647.430544	2662.031700
647.774101	2662.273675
648.117606	2658.321411
648.461059	2655.271513
648.804460	2657.303098
649.147810	2650.555513
649.491108	2649.370842
649.834354	2643.313896
650.177548	2642.005716
650.520690	2636.891466
650.863781	2636.377268
651.206820	2638.154275
651.549807	2630.887452
651.892742	2629.929632
652.235626	2627.827471
652.578458	2626.206740
652.921238	2621.712552
653.263967	2625.667337
653.606644	2622.128447
653.949269	2620.875720
654.291843	2617.944289
654.634365	2620.979064
654.976836	2616.477313
655.319255	2619.358333
655.661622	2614.354987
656.003938	2613.066973
656.346203	2612.351129
656.688416	2612.666201
657.030577	2608.965994
657.372687	2608.761827
657.714746	2607.430963
658.056753	2607.176384
658.398708	2599.965014
658.740612	2604.249995
659.082465	2604.396188
659.424266	2603.024994
659.766016	2601.046341
660.107715	2605.719491
660.449362	2604.491970
660.790958	2605.422063
661.132503	2606.881477
661.473996	2603.443410
661.815438	2604.789398
662.156829	2602.248657
662.498168	2600.350662
662.839456	2600.879983
663.180693	2600.741352
663.521879	2601.429469
663.863013	2599.516351
664.204097	2598.160281
664.545129	2600.678337
664.886110	2601.013574
665.227040	2599.009715
665.567918	2597.020980
665.908746	2596.698346
666.249522	2598.815631
666.590248	2600.053234
666.930922	2596.874787
667.271545	2598.238419
667.612118	2599.528954
667.952639	2597.499890
668.293109	2597.893100
668.633528	2597.285641
668.973896	2596.990733
669.314213	2595.601895
669.654480	2595.816144
669.994695	2594.714652
670.334859	2594.402101
670.674973	2592.806575
671.015035	2593.315732
671.355047	2594.029055
671.695008	2594.157605
672.034918	2590.563262
672.374777	2590.654003
672.714585	2593.086359
673.054342	2589.703745
673.394049	2591.289188
673.733705	2592.410845
674.073310	2590.671647
674.412864	2594.928901
674.752368	2592.385639
675.091820	2591.400093
675.431223	2589.131574
675.770574	2584.808785
676.109875	2584.483630
676.449125	2585.330544
676.788324	2586.316090
677.127473	2587.122674
677.466571	2583.966912
677.805619	2586.873137
678.144616	2582.804926
678.483562	2586.411872
678.822458	2582.850297
679.161303	2585.416244
679.500098	2586.323652
679.838842	2583.195616
680.177535	2581.320306
680.516179	2587.924218
680.854771	2583.097313
681.193314	2584.352560
681.531805	2585.789289
681.870247	2587.347006
682.208638	2589.721389
682.546978	2587.354567
682.885268	2588.879517
683.223508	2588.889599
683.561697	2587.089907
683.899836	2586.021182
684.237925	2584.584453
684.575963	2583.921542
684.913951	2583.634196
685.251889	2587.218456
685.589776	2583.906418
685.927614	2584.891964
686.265401	2584.090420
686.603137	2582.981367
686.940824	2584.753332
687.278460	2585.590164
687.616046	2585.181830
687.953582	2590.752305
688.291068	2587.082345
688.628504	2589.345823
688.965889	2589.391194
689.303224	2585.703590
689.640510	2586.590833
689.977745	2584.707962
690.314930	2582.905749
690.652065	2582.013465
690.989150	2578.981211
691.326185	2581.418609
691.663170	2578.156982
692.000105	2580.110429
692.336990	2578.759400
692.673825	2576.914338
693.010610	2577.204204
693.347345	2571.485015
693.684030	2570.123904
694.020665	2570.028122
694.357251	2568.798080
694.693786	2575.885942
695.030272	2572.538616
695.366707	2571.956363
695.703093	2570.030642
696.039429	2571.895869
696.375716	2570.832186
696.711952	2569.236661
697.048139	2572.916703
697.384276	2569.960066
697.720363	2570.943091
698.056400	2571.109449
698.392388	2569.622309
698.728326	2570.459140
699.064214	2570.449058
699.400053	2569.395457
699.735842	2568.712381
700.071581	2568.530899
700.407270	2567.754561
700.742910	2568.084757
701.078501	2569.526527
701.414042	2567.759602
701.749533	2568.528378
702.084974	2568.523337
702.420366	2566.884962
702.755709	2569.302196
703.091002	2564.442523
703.426246	2566.615261
703.761440	2567.000909
704.096584	2565.380178
704.431679	2564.487894
704.766725	2564.908830
705.101721	2567.124417
705.436668	2566.343038
705.771565	2565.700291
706.106413	2565.775908
706.441212	2566.300188
706.775961	2563.613253
707.110661	2565.849005
707.445311	2568.752710
707.779913	2566.539643
708.114465	2567.678944
708.448967	2569.186249
708.783421	2568.215827
709.117825	2566.562328
709.452180	2567.933522
709.786485	2570.673389
710.120742	2569.271949
710.454949	2571.913513
710.789107	2569.952504
711.123216	2569.518965
711.457275	2571.835375
711.791286	2568.427555
712.125247	2567.666341
712.459159	2571.820252
712.793023	2574.849985
713.126837	2573.690520
713.460602	2572.357135
713.794318	2571.686661
714.127985	2572.082392
714.461602	2570.547361
714.795171	2566.655590
715.128691	2568.651887
715.462162	2568.694737
715.795584	2566.073337
716.128957	2566.554767
716.462281	2567.174829
716.795556	2565.486042
717.128782	2564.941598
717.461960	2565.415466
717.795088	2565.465878
718.128167	2564.404715
718.461198	2563.905640
718.794180	2565.849005
719.127113	2563.081412
719.459997	2562.637790
719.792833	2562.857080
720.125619	2561.717780
720.458357	2563.441854
720.791046	2559.920608
721.123686	2558.902295
721.456278	2560.613767
721.788821	2557.795762
722.121315	2560.709549
722.453761	2559.235011
722.786158	2558.897254
723.118506	2560.530588
723.450805	2558.113355
723.783056	2560.253324
724.115259	2560.737275
724.447412	2561.879097
724.779518	2559.434137
725.111574	2560.099569
725.443582	2562.042934
725.775542	2558.292316
726.107453	2561.475804
726.439315	2560.333983
726.771129	2564.513099
727.102895	2562.678119
727.434612	2563.993861
727.766281	2562.456309
728.097901	2562.773901
728.429473	2563.121741
728.760996	2561.959755
729.092471	2561.901782
729.423897	2563.015877
729.755276	2562.884807
730.086606	2566.060734
730.417887	2565.017215
730.749120	2566.121228
731.080305	2565.559139
731.411442	2566.688357
731.742530	2565.397822
732.073570	2567.850343
732.404562	2568.687175
732.735506	2569.186249
733.066401	2568.808162
733.397249	2566.239695
733.728048	2564.238357
734.058798	2563.814900
734.389501	2558.887172
734.720156	2563.235167
735.050762	2559.282902
735.381320	2565.115517
735.711831	2562.670558
736.042293	2558.730896
736.372707	2559.736606
736.703073	2559.857594
737.033391	2559.910526
737.363661	2558.874569
737.693883	2558.244425
738.024056	2563.517472
738.354182	2560.308777
738.684260	2562.214333
739.014290	2562.380691
739.344272	2564.059396
739.674207	2561.508572
740.004093	2563.429251
740.333931	2561.062430
740.663722	2563.968655
740.993464	2562.975547
741.323159	2563.620815
741.652806	2559.824826
741.982405	2560.669220
742.311956	2562.484035
742.641460	2560.570917
742.970915	2558.284754
743.300323	2561.024621
743.629683	2561.112841
743.958996	2557.946997
744.288260	2556.464897
744.617477	2560.094528
744.946647	2554.876934
745.275768	2554.728220
745.604842	2554.491286
745.933869	2551.748898
746.262847	2550.533980
746.591778	2555.567572
746.920662	2556.348951
747.249498	2558.476318
747.578286	2556.507747
747.907027	2557.518498
748.235720	2556.399362
748.564365	2558.564538
748.892963	2555.945658
749.221514	2557.989846
749.550017	2556.719476
749.878473	2556.424568
750.206881	2554.705535
750.535242	2555.116389
750.863555	2553.286450
751.191821	2553.727551
751.520039	2555.015566
751.848210	2557.538663
752.176334	2555.522202
752.504411	2556.537994
752.832440	2555.267623
753.160421	2555.232335
753.488356	2555.451625
753.816243	2556.749723
754.144082	2554.445915
754.471875	2555.610422
754.799620	2553.472973
755.127318	2554.292160
755.454969	2556.747202
755.782572	2557.326935
756.110129	2553.677139
756.437638	2555.086142
756.765100	2554.261913
757.092515	2554.176213
757.419882	2552.333672
757.747203	2557.039589
758.074477	2552.162273
758.401703	2557.281564
758.728882	2558.365412
759.056014	2555.499516
759.383099	2556.248128
759.710138	2557.886503
760.037129	2557.591595
760.364073	2556.175031
760.690970	2557.778118
761.017820	2556.384239
761.344623	2554.408107
761.671379	2558.806513
761.998088	2555.774259
762.324751	2557.999929
762.651366	2561.548901
762.977935	2576.057342
763.304456	2576.150603
763.630931	2583.074628
763.957359	2578.086406
764.283740	2572.183215
764.610074	2567.953687
764.936362	2568.195662
765.262602	2560.510423
765.588796	2560.964127
765.914943	2559.217367
766.241044	2556.651420
766.567097	2555.481872
766.893104	2552.326110
767.219064	2552.321069
767.544978	2553.190668
767.870845	2553.291491
768.196665	2553.593960
768.522438	2554.889537
768.848165	2553.223435
769.173846	2551.897612
769.499479	2550.644885
769.825066	2550.768393
770.150607	2551.436346
770.476101	2550.730585
770.801548	2549.976932
771.126949	2551.159083
771.452303	2548.514998
771.777611	2550.589432
772.102872	2547.053063
772.428087	2552.273178
772.753256	2550.811243
773.078378	2548.535162
773.403453	2549.535831
773.728482	2547.332847
774.053465	2548.913249
774.378401	2546.448125
774.703291	2550.322251
775.028135	2546.465769
775.352932	2549.293856
775.677683	2548.807385
776.002388	2547.710934
776.327046	2544.978628
776.651658	2547.436191
776.976224	2548.081458
777.300743	2548.124308
777.625216	2546.831252
777.949643	2544.824873
778.274024	2546.826211
778.598359	2543.894780
778.922647	2542.931920
779.246889	2545.754966
779.571086	2544.469472
779.895236	2543.791437
780.219339	2548.630944
780.543397	2546.170861
780.867409	2545.182795
781.191374	2544.693803
781.515294	2545.200439
781.839167	2547.678166
782.162995	2547.111036
782.486776	2545.800336
782.810511	2544.887887
783.134201	2548.409133
783.457844	2546.826211
783.781441	2546.579195
784.104993	2547.353012
784.428498	2546.896787
784.751958	2546.886705
785.075372	2546.165820
785.398739	2546.057435
785.722061	2546.869061
786.045337	2543.713299
786.368568	2547.373176
786.691752	2545.490305
787.014891	2545.926365
787.337983	2545.457538
787.661030	2549.082127
787.984031	2550.067673
788.306987	2550.072714
788.629897	2551.547252
788.952760	2549.866027
789.275579	2550.896943
789.598351	2551.771583
789.921078	2546.682538
790.243759	2548.386448
790.566395	2545.573484
790.888984	2546.586756
791.211529	2545.144986
791.534027	2543.972918
791.856480	2545.636499
792.178888	2544.610624
792.501249	2544.686241
792.823566	2545.654143
793.145836	2545.860830
793.468062	2547.133722
793.790241	2545.472661
794.112375	2545.283618
794.434464	2543.690613
794.756507	2548.220090
795.078505	2548.341078
795.400457	2545.240768
795.722364	2543.226827
796.044226	2543.231868
796.366042	2544.151879
796.687812	2544.580377
797.009538	2548.774617
797.331218	2546.705223
797.652852	2549.243444
797.974442	2546.695141
798.295986	2546.831252
798.617484	2546.102806
798.938938	2546.294369
799.260346	2544.446787
799.581709	2547.847045
799.903026	2546.133052
800.224299	2544.910573
800.545526	2546.949719
800.866708	2544.940820
801.187845	2546.072559
801.508936	2543.373021
801.829983	2546.614483
802.150984	2543.496529
802.471940	2542.110212
802.792851	2545.190357
803.113717	2547.811757
803.434538	2542.339584
803.755314	2547.196736
804.076045	2543.224307
804.396731	2543.340253
804.717372	2542.621889
805.037967	2543.068031
805.358518	2545.737322
805.679024	2544.749256
805.999485	2542.155582
806.319901	2541.306148
806.640272	2546.367466
806.960598	2543.483926
807.280879	2541.608617
807.601115	2546.841335
807.921306	2543.294883
808.241453	2546.480892
808.561554	2543.360418
808.881611	2546.231355
809.201623	2543.352856
809.521590	2544.782023
809.841513	2546.622044
810.161390	2542.642053
810.481223	2543.471323
810.801011	2542.475695
811.120755	2543.246992
811.440453	2547.035419
811.760107	2544.716488
812.079716	2544.688762
812.399281	2541.449821
812.718801	2540.378575
813.038276	2540.454193
813.357707	2542.994934
813.677093	2543.952753
813.996434	2542.634492
814.315731	2542.581560
814.634983	2541.769934
814.954191	2544.363607
815.273354	2542.669780
815.592473	2546.460728
815.911547	2543.461241
816.230577	2544.958464
816.549562	2544.305634
816.868502	2546.546427
817.187399	2548.121788
817.506250	2545.066848
817.825058	2546.470810
818.143821	2545.752445
818.462539	2546.861499
818.781213	2548.603218
819.099843	2553.132695
819.418429	2552.512633
819.736970	2554.143446
820.055466	2557.437840
820.373919	2559.592933
820.692327	2564.097204
821.010691	2572.503328
821.329011	2587.936821
821.647286	2625.271606
821.965517	2665.252997
822.283704	2689.039682
822.601847	2696.722400
822.919945	2677.220697
823.237999	2655.074908
823.556010	2631.217647
823.873976	2615.930348
824.191897	2598.717328
824.509775	2589.681060
824.827609	2583.858527
825.145398	2577.345357
825.463144	2575.545665
825.780845	2570.882597
826.098502	2577.249575
826.416116	2589.872624
826.733685	2604.139089
827.051210	2608.842486
827.368692	2600.779160
827.686129	2591.352202
828.003522	2580.901891
828.320872	2567.850343
828.638177	2563.900599
828.955439	2557.349620
829.272656	2555.091183
829.589830	2549.495502
829.906960	2552.673950
830.224046	2548.068856
830.541088	2549.840821
830.858086	2549.316541
831.175041	2548.935934
831.491952	2546.566592
831.808819	2548.585574
832.125642	2547.690769
832.442421	2552.008517
832.759157	2554.519012
833.075849	2561.551422
833.392497	2572.712536
833.709101	2574.885273
834.025662	2577.849472
834.342179	2571.036353
834.658653	2561.795917
834.975083	2561.664848
835.291469	2564.026628
835.607811	2553.810730
835.924110	2549.321582
836.240366	2547.920142
836.556578	2547.090872
836.872746	2547.842004
837.188871	2546.553989
837.504952	2545.044163
837.820990	2545.465100
838.136984	2541.079296
838.452935	2542.639533
838.768842	2543.483926
839.084706	2543.761190
839.400526	2544.963505
839.716303	2552.749567
840.032037	2555.081101
840.347727	2555.239897
840.663373	2553.893909
840.978977	2550.339895
841.294537	2547.010213
841.610054	2542.407640
841.925527	2543.178936
842.240957	2543.199101
842.556344	2543.156251
842.871687	2543.047866
843.186987	2538.402443
843.502244	2540.691127
843.817458	2538.556198
844.132629	2540.025695
844.447756	2543.100798
844.762840	2536.499407
845.077881	2533.951104
845.392879	2532.383305
845.707833	2538.634336
846.022745	2532.549663
846.337613	2539.451003
846.652438	2540.161806
846.967221	2535.828934
847.281960	2537.432021
847.596656	2541.301107
847.911309	2539.403112
848.225919	2537.714326
848.540485	2537.336239
848.855009	2537.442103
849.169490	2536.769109
849.483928	2538.919161
849.798323	2538.604089
850.112675	2536.675848
850.426984	2535.972607
850.741251	2536.093595
851.055474	2538.825900
851.369654	2537.348842
851.683792	2537.011085
851.997887	2537.893287
852.311938	2539.405633
852.625947	2538.651980
852.939914	2537.530323
853.253837	2539.718184
853.567718	2538.261291
853.881555	2536.338091
854.195350	2537.124511
854.509103	2539.642567
854.822812	2536.627957
855.136479	2538.841023
855.450103	2536.408667
855.763685	2539.324974
856.077224	2537.689120
856.390720	2539.062834
856.704173	2539.604758
857.017584	2539.105684
857.330953	2538.067206
857.644278	2536.784233
857.957561	2541.691796
858.270802	2537.923533
858.584000	2539.834131
858.897155	2538.795653
859.210268	2538.730118
859.523339	2538.919161
859.836367	2537.792463
860.149352	2537.187525
860.462295	2539.650129
860.775195	2535.647452
861.088054	2535.627288
861.400869	2535.367668
861.713642	2533.515044
862.026373	2536.917823
862.339062	2537.401774
862.651708	2537.898328
862.964312	2538.162988
863.276873	2538.793132
863.589392	2538.399923
863.901869	2540.434028
864.214303	2537.467309
864.526696	2539.876981
864.839045	2538.412525
865.151353	2536.317926
865.463619	2537.842875
865.775842	2538.218441
866.088023	2539.602238
866.400162	2539.171219
866.712258	2539.577032
867.024313	2540.232382
867.336325	2539.481250
867.648296	2540.809594
867.960224	2536.862371
868.272110	2541.575849
868.583954	2539.299768
868.895755	2538.578883
869.207515	2538.530992
869.519233	2540.471837
869.830909	2539.672814
870.142542	2538.044521
870.454134	2537.064017
870.765684	2540.224820
871.077191	2539.748431
871.388657	2541.422094
871.700081	2538.634336
872.011463	2539.773637
872.322803	2539.761034
872.634101	2541.510314
872.945357	2542.705068
873.256571	2543.062990
873.567744	2539.781199
873.878874	2538.941847
874.189963	2544.071221
874.501010	2541.913607
874.812015	2541.933771
875.122979	2541.651467
875.433900	2539.493853
875.744780	2543.325130
876.055618	2540.912938
876.366415	2540.668442
876.677169	2544.164482
876.987882	2541.666590
877.298554	2536.925385
877.609183	2542.120294
877.919771	2541.391847
878.230317	2539.438400
878.540822	2546.531304
878.851285	2548.368804
879.161707	2546.551468
879.472087	2549.611449
879.782425	2555.756615
880.092722	2561.737944
880.402977	2573.907290
880.713191	2592.037799
881.023363	2608.902980
881.333494	2626.209261
881.643583	2630.990795
881.953631	2628.790332
882.263637	2623.991153
882.573602	2615.678290
882.883526	2604.554984
883.193408	2597.469643
883.503248	2587.147880
883.813048	2579.888619
884.122806	2570.728842
884.432522	2568.798080
884.742197	2560.777604
885.051831	2558.307439
885.361424	2557.069836
885.670975	2553.248641
885.980485	2550.844011
886.289954	2553.233518
886.599382	2545.528114
886.908768	2549.893753
887.218113	2545.931406
887.527417	2545.243289
887.836680	2543.988042
888.145901	2545.495347
888.455082	2544.386293
888.764221	2541.326312
889.073319	2542.899152
889.382376	2541.767413
889.691392	2541.565767
890.000366	2540.519728
890.309300	2541.162475
890.618193	2542.510983
890.927044	2544.484595
891.235855	2543.917465
891.544625	2541.754810
891.853353	2544.608103
892.162041	2543.773792
892.470687	2543.310006
892.779293	2545.568443
893.087858	2545.676828
893.396381	2545.003834
893.704864	2548.396531
894.013306	2552.510112
894.321707	2562.698284
894.630068	2570.542319
894.938387	2573.703123
895.246665	2571.921075
895.554903	2566.159036
895.863100	2563.073850
896.171256	2557.304249
896.479371	2558.302398
896.787446	2554.337530
897.095480	2549.498023
897.403473	2548.658671
897.711425	2546.778320
898.019336	2548.129349
898.327207	2546.780841
898.635038	2546.737991
898.942827	2545.780172
899.250576	2545.875954
899.558284	2545.049204
899.865952	2544.625747
900.173579	2542.102650
900.481165	2543.604914
900.788711	2541.646426
901.096216	2539.088040
901.403681	2539.198945
901.711105	2541.820345
902.018489	2539.241795
902.325832	2542.629451
902.633135	2540.154244
902.940397	2544.454348
903.247619	2546.954761
903.554800	2552.038764
903.861941	2560.515464
904.169041	2577.471385
904.476101	2582.585636
904.783121	2582.111768
905.090100	2578.688824
905.397039	2569.188770
905.703938	2563.194838
906.010796	2558.660320
906.317614	2553.823333
906.624391	2549.956768
906.931129	2548.875440
907.237826	2545.870912
907.544483	2540.575180
907.851099	2541.583411
908.157675	2541.134748
908.464211	2538.979655
908.770707	2535.617206
909.077163	2538.641898
909.383578	2535.773481
909.689954	2535.528985
909.996289	2534.702236
910.302584	2535.884387
910.608839	2537.943698
910.915054	2537.658873
911.221229	2536.141486
911.527363	2540.111394
911.833458	2539.181301
912.139513	2536.796836
912.445527	2539.166178
912.751502	2541.099460
913.057436	2540.802032
913.363331	2540.020653
913.669186	2540.529810
913.975000	2539.957639
914.280775	2544.154400
914.586510	2550.498692
914.892205	2555.373488
915.197859	2557.122768
915.503475	2562.229457
915.809050	2569.584500
916.114585	2576.009451
916.420081	2579.727302
916.725536	2580.594380
917.030952	2576.488360
917.336328	2571.689182
917.641665	2565.556618
917.946961	2562.423541
918.252218	2557.705021
918.557435	2555.194527
918.862612	2553.218394
919.167750	2549.808054
919.472848	2546.843855
919.777906	2546.642209
920.082925	2544.066179
920.387904	2541.830428
920.692843	2541.182639
920.997743	2539.309851
921.302603	2539.579553
921.607423	2538.810777
921.912204	2539.529141
922.216946	2541.190201
922.521647	2540.418905
922.826310	2537.623585
923.130932	2539.259439
923.435516	2537.495035
923.740059	2537.716846
924.044564	2535.062679
924.349028	2538.856147
924.653454	2530.654190
924.957840	2533.462112
925.262186	2533.802390
925.566493	2534.636701
925.870761	2533.046217
926.174989	2533.923378
926.479178	2536.287679
926.783328	2536.522093
927.087438	2533.121834
927.391509	2536.088553
927.695541	2534.180477
927.999533	2535.123172
928.303486	2534.442617
928.607400	2535.748276
928.911275	2533.046217
929.215110	2533.885569
929.518906	2532.080836
929.822663	2533.704088
930.126381	2532.519417
930.430060	2532.985723
930.733699	2532.799201
931.037299	2533.230219
931.340861	2534.858512
931.644383	2534.871115
931.947866	2535.798687
932.251309	2533.613347
932.554714	2534.457740
932.858080	2536.088553
933.161407	2534.462781
933.464694	2533.444468
933.767943	2535.110570
934.071153	2534.770292
934.374323	2533.706608
934.677455	2534.949253
934.980548	2532.083357
935.283602	2535.730632
935.586617	2531.349869
935.889593	2532.915147
936.192530	2536.015457
936.495428	2533.610826
936.798287	2531.712832
937.101108	2536.600231
937.403890	2532.466484
937.706632	2532.776515
938.009336	2535.249201
938.312002	2535.977648
938.614628	2536.822041
938.917216	2536.713657
939.219765	2536.164171
939.522275	2534.790456
939.824747	2535.047555
940.127179	2535.377751
940.429573	2532.504293
940.731929	2534.556043
941.034246	2533.678882
941.336524	2531.778367
941.638763	2536.259953
941.940964	2535.954963
942.243126	2535.302133
942.545250	2536.239788
942.847335	2536.665766
943.149381	2534.079654
943.451389	2535.460930
943.753359	2534.485467
944.055290	2535.211393
944.357182	2535.256763
944.659036	2532.221988
944.960851	2531.755682
945.262628	2534.926567
945.564367	2536.776671
945.866067	2532.121165
946.167729	2534.737524
946.469352	2534.109901
946.770937	2533.925898
947.072484	2534.412370
947.373992	2535.612164
947.675462	2532.544622
947.976893	2534.303985
948.278286	2532.721063
948.579641	2532.809283
948.880958	2533.764582
949.182236	2532.847092
949.483476	2534.172915
949.784678	2535.133255
950.085841	2531.191073
950.386967	2535.899510
950.688054	2534.583769
950.989103	2533.141999
951.290114	2533.109232
951.591087	2531.599406
951.892021	2533.782226
952.192917	2533.363810
952.493776	2533.504962
952.794596	2533.671320
953.095378	2534.369520
953.396122	2533.588141
953.696828	2532.446320
953.997496	2533.295754
954.298126	2532.963038
954.598718	2534.684592
954.899272	2532.607637
955.199788	2533.333563
955.500266	2531.939684
955.800706	2529.323325
956.101108	2526.543129
956.401472	2529.366175
956.701798	2529.633356
957.002087	2529.809796
957.302337	2531.480939
957.602550	2531.909437
957.902724	2531.700229
958.202861	2531.889272
958.502960	2529.227543
958.803022	2532.037986
959.103045	2532.564787
959.403031	2530.835671
959.702979	2529.628315
960.002889	2531.725435
960.302762	2531.112935
960.602596	2531.702750
960.902393	2528.662934
961.202153	2532.181659
961.501875	2532.229550
961.801559	2533.540250
962.101205	2530.969262
962.400814	2530.031607
962.700385	2529.000691
962.999918	2530.989426
963.299414	2529.850126
963.598873	2529.852646
963.898293	2527.344672
964.197677	2529.598068
964.497022	2530.800383
964.796331	2530.301309
965.095601	2532.106042
965.394835	2533.184849
965.694030	2531.309540
965.993189	2530.628984
966.292309	2528.123530
966.591393	2532.421114
966.890439	2527.412728
967.189447	2527.369878
967.488419	2530.137471
967.787353	2529.545136
968.086249	2533.686444
968.385108	2530.495393
968.683930	2530.878521
968.982714	2530.603778
969.281462	2530.686957
969.580172	2530.155115
969.878844	2529.010773
970.177480	2529.923222
970.476078	2531.909437
970.774639	2529.192255
971.073162	2531.395239
971.371649	2527.269055
971.670098	2525.429034
971.968510	2526.565814
972.266885	2526.107069
972.565223	2532.262318
972.863524	2528.617563
973.161788	2530.581093
973.460014	2531.571680
973.758204	2530.097142
974.056356	2527.069929
974.354471	2533.285672
974.652550	2529.363654
974.950591	2530.119827
975.248595	2530.162677
975.546563	2527.294261
975.844493	2530.422297
976.142386	2530.530681
976.440243	2528.854498
976.738062	2529.885414
977.035845	2530.462626
977.333590	2530.049251
977.631299	2529.696370
977.928971	2529.230064
978.226606	2530.313912
978.524204	2531.400280
978.821765	2529.366175
979.119290	2528.126051
979.416777	2531.370033
979.714228	2528.564631
980.011642	2531.969931
980.309020	2533.338604
980.606360	2529.613191
980.903664	2528.496576
981.200931	2530.848274
981.498162	2530.533202
981.795356	2532.975641
982.092513	2531.599406
982.389633	2533.210055
982.686717	2531.914478
982.983764	2530.187883
983.280775	2531.448171
983.577749	2533.308357
983.874686	2530.704601
984.171587	2531.942204
984.468451	2530.298788
984.765279	2532.859694
985.062070	2530.709642
985.358824	2528.340300
985.655543	2526.283509
985.952224	2531.435568
986.248869	2529.282996
986.545478	2525.242511
986.842050	2525.055988
987.138586	2526.727131
987.435086	2527.997502
987.731549	2526.021369
988.027975	2529.688809
988.324366	2527.238808
988.620719	2528.083201
988.917037	2525.290402
989.213318	2528.307532
989.509563	2529.005732
989.805772	2528.191586
990.101944	2528.862059
990.398080	2527.374919
990.694180	2528.652852
990.990244	2529.272913
991.286271	2528.544467
991.582262	2528.100845
991.878217	2529.840043
992.174136	2528.806607
992.470019	2528.844415
992.765865	2530.371885
993.061676	2528.569672
993.357450	2528.110928
993.653188	2528.315094
993.948890	2529.225023
994.244556	2527.339631
994.540186	2528.781401
994.835780	2526.543129
995.131337	2528.461288
995.426859	2527.269055
995.722345	2528.002543
996.017795	2527.211082
996.313208	2530.601258
996.608586	2528.980527
996.903928	2530.167718
997.199234	2527.712676
997.494504	2527.994981
997.789738	2527.231246
998.084936	2528.388191
998.380099	2529.986237
998.675225	2528.335259
998.970316	2528.252080
999.265371	2530.036648
999.560390	2525.975999
999.855373	2529.744261
1000.150320	2529.449354
1000.445232	2529.550177
1000.740108	2529.726617
1001.034948	2530.747451
1001.329752	2528.869621
1001.624521	2527.465660
1001.919254	2524.619928
1002.213951	2522.842922
1002.508613	2525.592871
1002.803239	2525.673530
1003.097829	2520.808816
1003.392384	2527.102697
1003.686903	2529.318284
1003.981386	2527.188396
1004.275834	2528.428520
1004.570246	2528.133613
1004.864623	2528.562111
1005.158964	2528.884745
1005.453270	2528.728469
1005.747540	2527.856349
1006.041775	2525.214785
1006.335974	2528.995650
1006.630138	2529.366175
1006.924266	2528.673016
1007.218359	2528.262162
1007.512416	2530.026566
1007.806438	2529.363654
1008.100425	2528.751154
1008.394376	2528.252080
1008.688292	2528.544467
1008.982172	2527.879034
1009.276017	2529.736700
1009.569827	2529.033459
1009.863602	2529.104035
1010.157341	2526.132275
1010.451045	2528.030269
1010.744714	2527.710156
1011.038347	2526.132275
1011.331945	2528.090763
1011.625508	2524.945083
1011.919036	2527.553880
1012.212528	2528.486493
1012.505986	2525.108920
1012.799408	2523.485669
1013.092795	2528.771319
1013.386147	2524.130937
1013.679464	2527.798376
1013.972745	2529.242667
1014.265992	2526.969106
1014.559204	2526.288550
1014.852380	2525.411390
1015.145521	2526.059178
1015.438628	2526.838036
1015.731699	2529.260311
1016.024736	2527.387522
1016.317737	2530.281144
1016.610703	2529.288037
1016.903635	2523.500792
1017.196531	2521.829650
1017.489393	2525.779394
1017.782219	2521.489372
1018.075011	2528.287368
1018.367768	2528.960362
1018.660490	2527.455578
1018.953177	2527.455578
1019.245829	2527.455578
