Dividing Wavelength (nm)	Counts (n)	Blue Motor Position (mm): 0.000000	Red Motor Position (mm): 41.700000	
326.493990	2127.961779
326.888308	2127.961779
327.282561	2127.961779
327.676750	2095.146388
328.070874	2091.325194
328.464933	2097.339290
328.858929	2100.177460
329.252859	2114.887547
329.646726	2125.910030
330.040528	2136.052831
330.434265	2152.721406
330.827938	2171.729077
331.221547	2190.008301
331.615091	2209.361290
332.008571	2228.837788
332.401986	2248.074831
332.795338	2263.959507
333.188625	2285.452467
333.581847	2306.708492
333.975006	2323.707263
334.368100	2341.119408
334.761129	2359.302850
335.154095	2375.686600
335.546996	2395.243756
335.939833	2417.714699
336.332606	2431.214909
336.725315	2444.082455
337.117960	2455.351954
337.510540	2463.047275
337.903056	2477.243165
338.295508	2480.986221
338.687896	2490.292191
339.080220	2499.590600
339.472480	2505.650067
339.864676	2509.788854
340.256807	2511.001251
340.648875	2517.337982
341.040879	2519.777900
341.432818	2520.508868
341.824694	2524.375433
342.216506	2524.549352
342.608253	2520.047602
342.999937	2522.066584
343.391557	2524.791328
343.783113	2520.808816
344.174605	2520.695390
344.566033	2518.222704
344.957397	2519.064577
345.348697	2515.434946
345.739934	2515.606345
346.131106	2512.266581
346.522215	2514.633403
346.913260	2511.810357
347.304241	2504.966990
347.695159	2508.402537
348.086012	2503.409274
348.476802	2499.870384
348.867528	2501.554129
349.258191	2498.887359
349.648789	2498.363079
350.039324	2496.843171
350.429796	2497.453150
350.820203	2493.463077
351.210548	2495.610609
351.600828	2490.703045
351.991045	2491.786893
352.381198	2493.027017
352.771288	2489.321769
353.161314	2491.272696
353.551276	2494.922491
353.941175	2491.754126
354.331010	2490.864362
354.720782	2490.025010
355.110490	2491.917963
355.500135	2488.449650
355.889717	2491.212202
356.279235	2494.040289
356.668689	2494.657831
357.058080	2493.712614
357.447408	2492.964003
357.836672	2488.520226
358.225873	2491.822182
358.615010	2491.643221
359.004084	2494.592296
359.393095	2497.246463
359.782043	2495.267810
360.170927	2498.214365
360.559748	2497.858963
360.948505	2497.047337
361.337199	2501.012205
361.725830	2498.975579
362.114398	2503.406753
362.502903	2499.411639
362.891344	2503.356342
363.279722	2503.449603
363.668037	2504.054541
364.056289	2503.265601
364.444478	2505.395488
364.832603	2504.112515
365.220665	2505.249295
365.608665	2505.836589
365.996601	2506.403719
366.384474	2506.000427
366.772284	2508.417660
367.160031	2510.292969
367.547715	2510.532424
367.935336	2514.497292
368.322893	2518.147087
368.710388	2521.673374
369.097820	2530.147554
369.485189	2530.160157
369.872495	2536.814480
370.259738	2542.876467
370.646918	2554.576985
371.034035	2558.181410
371.421090	2568.306568
371.808081	2576.435428
372.195010	2585.799372
372.581875	2601.381578
372.968678	2614.019751
373.355418	2621.347068
373.742096	2643.936478
374.128710	2656.821667
374.515262	2670.634429
374.901751	2686.536749
375.288177	2697.425641
375.674540	2723.798437
376.060841	2738.435428
376.447079	2761.745723
376.833254	2779.223403
377.219367	2793.762091
377.605417	2831.467401
377.991404	2840.554081
378.377329	2861.613501
378.763191	2877.959443
379.148991	2917.469486
379.534727	2942.317333
379.920402	2972.322281
380.306013	2984.514312
380.691563	3030.613143
381.077049	3051.491082
381.462474	3073.029411
381.847835	3109.366048
382.233134	3134.128196
382.618371	3133.745068
383.003545	3202.181252
383.388657	3209.458158
383.773706	3240.425966
384.158693	3257.487751
384.543618	3284.503295
384.928480	3318.647030
385.313280	3368.178887
385.698017	3363.351982
386.082692	3417.067997
386.467305	3422.288112
386.851856	3457.271199
387.236344	3474.718632
387.620770	3511.277080
388.005133	3535.698950
388.389435	3560.453536
388.773674	3572.335535
389.157851	3617.158955
389.541965	3629.653454
389.926018	3600.525667
390.310008	3664.888599
390.693936	3682.459541
391.077802	3727.686253
391.461606	3711.743604
391.845348	3777.996968
392.229027	3776.227523
392.612645	3791.799647
392.996200	3868.009291
393.379694	3908.862801
393.763125	3971.589879
394.146494	3939.964200
394.529801	4000.999970
394.913047	4051.446797
395.296230	4018.825490
395.679351	4072.445723
396.062410	4094.024382
396.445408	4079.026949
396.828343	4108.646249
397.211217	4134.088952
397.594028	4048.691806
397.976778	4117.342239
398.359466	4144.035149
398.742092	4177.301723
399.124656	4095.786265
399.507158	4173.286444
399.889598	4202.852811
400.271977	4267.868573
400.654294	4233.581165
401.036549	4245.969800
401.418742	4212.768761
401.800874	4317.710461
402.182944	4338.802648
402.564952	4400.511412
402.946898	4391.076893
403.328783	4385.183784
403.710606	4297.208088
404.092367	4492.583046
404.474067	4456.536276
404.855705	4463.508192
405.237282	4392.196029
405.618797	4500.250641
406.000250	4534.948903
406.381642	4617.137355
406.762972	4576.369544
407.144240	4592.133232
407.525447	4587.258436
407.906593	4644.689781
408.287677	4692.409344
408.668700	4621.616420
409.049661	4672.148946
409.430560	4714.552612
409.811399	4641.909585
410.192176	4798.691990
410.572891	4737.550356
410.953545	4844.125389
411.334138	4720.170978
411.714669	4791.473058
412.095139	4683.967932
412.475547	4823.373479
412.855894	4806.437723
413.236180	4816.946008
413.616405	4769.246611
413.996568	4859.942009
414.376670	4799.488492
414.756711	4757.780506
415.136691	4785.852171
415.516609	4866.636662
415.896466	4903.132095
416.276262	4934.480510
416.655997	4912.722890
417.035670	5089.858954
417.415283	5190.099778
417.794834	5135.703207
418.174324	5086.113377
418.553753	4993.993852
418.933121	5177.491852
419.312428	5245.723869
419.691674	5187.029715
420.070859	5310.969003
420.449983	5228.029419
420.829045	5338.934804
421.208047	5244.768571
421.586988	5317.179704
421.965867	5330.274102
422.344686	5462.687569
422.723444	5313.900434
423.102141	5133.076766
423.480777	5433.305204
423.859352	5204.149473
424.237866	5461.359225
424.616319	5455.385458
424.994712	5561.058125
425.373044	5438.192602
425.751314	5583.539150
426.129524	5386.140168
426.507673	5576.998253
426.885762	5664.064021
427.263789	5594.846458
427.641756	5473.843642
428.019662	5596.678918
428.397508	5602.110761
428.775292	5550.874994
429.153016	5652.928112
429.530679	5575.682512
429.908282	5662.917159
430.285824	5536.215318
430.663305	5809.113141
431.040726	5546.375764
431.418086	5539.802099
431.795385	5650.788142
432.172624	5658.977497
432.549802	5652.386188
432.926920	5670.486451
433.303977	5674.237070
433.680974	5713.086722
434.057910	5729.299073
434.434786	5743.018573
434.811601	5705.126740
435.188355	5940.276402
435.565050	5815.679244
435.941683	5795.943126
436.318257	6004.563717
436.694770	5989.631819
437.071222	6028.037849
437.447614	5958.492612
437.823946	5867.981215
438.200218	6023.984762
438.576429	5891.611623
438.952580	5986.607127
439.328670	6033.741915
439.704700	5944.445436
440.080670	5927.275266
440.456580	6199.058994
440.832429	6086.043886
441.208218	5930.844403
441.583947	6084.864256
441.959616	6089.819710
442.335224	6015.026631
442.710773	6150.258104
443.086261	6177.828174
443.461689	5974.432740
443.837057	6126.173991
444.212365	6278.217712
444.587612	6170.601680
444.962800	6322.163971
445.337927	6302.294263
445.712995	5917.623977
446.088002	6489.888200
446.462949	6321.702705
446.837837	6255.829948
447.212664	6422.553508
447.587431	6572.411889
447.962139	7105.851665
448.336786	8041.777165
448.711374	7777.459386
449.085901	6848.707449
449.460369	6774.554596
449.834776	6704.565737
450.209124	7103.212621
450.583412	7247.046823
450.957640	7389.474542
451.331808	7161.629512
451.705917	6708.785183
452.079965	6638.360263
452.453954	6849.274578
452.827883	6725.481484
453.201752	6819.390618
453.575562	6618.193127
453.949311	6822.322049
454.323001	6709.831222
454.696632	6787.021370
455.070202	6924.473470
455.443713	7080.834939
455.817164	7178.897984
456.190556	7261.915706
456.563888	7335.690472
456.937160	7379.412399
457.310373	7035.499843
457.683526	7059.100004
458.056619	6947.637572
458.429653	6941.721778
458.802628	6873.951027
459.175542	6980.664692
459.548398	7334.929258
459.921194	7501.476378
460.293930	7506.255392
460.666607	8028.471039
461.039224	8341.587187
461.411782	8461.700239
461.784280	8483.823343
462.156719	8383.685863
462.529099	8261.513499
462.901419	7845.346085
463.273680	7738.274498
463.645882	7750.295129
464.018024	7615.366126
464.390106	7779.304449
464.762130	8173.172319
465.134094	8635.670458
465.505999	9658.434874
465.877845	10884.937523
466.249631	11527.379648
466.621358	11147.828654
466.993026	10519.408498
467.364634	10266.781156
467.736184	9898.711390
468.107674	9566.005318
468.479105	9602.556204
468.850477	9368.268579
469.221790	9137.058579
469.593043	8809.875091
469.964238	8667.220520
470.335373	8679.132766
470.706449	8737.758865
471.077467	8719.139363
471.448425	10032.987564
471.819324	11102.465832
472.190164	11132.115378
472.560945	9884.003823
472.931667	9090.279192
473.302330	8951.692831
473.672934	8599.054037
474.043479	8958.984860
474.413965	8895.602433
474.784393	8778.624978
475.154761	8936.801263
475.525070	9022.952061
475.895321	8855.618521
476.265513	9027.380715
476.635645	9193.464049
477.005719	9200.748516
477.375734	9309.997882
477.745691	9546.715343
478.115588	9675.768882
478.485427	9918.054297
478.855207	10463.562596
479.224928	11276.415886
479.594591	11901.738253
479.964194	11719.167826
480.333739	11656.763382
480.703226	11572.107286
481.072653	11661.736480
481.442022	11892.966646
481.811333	12092.926533
482.180584	11894.484033
482.549777	11612.718821
482.918912	11425.054307
483.287988	11449.254366
483.657005	11460.448248
484.025964	11148.052986
484.394864	11280.645414
484.763706	11237.694783
485.132489	11006.056285
485.501213	10971.627725
485.869879	11043.628004
486.238487	10882.971473
486.607036	10989.460806
486.975527	10772.928125
487.343959	10970.160749
487.712333	11013.902841
488.080648	10942.449526
488.448905	10984.706998
488.817104	10922.789026
489.185244	11186.953049
489.553326	11342.167656
489.921350	11879.763864
490.289315	12942.358436
490.657222	13283.727730
491.025070	13200.034494
491.392861	13066.847210
491.760593	12693.380889
492.128267	12341.243690
492.495883	12010.521312
492.863440	11669.182265
493.230939	11337.088693
493.598380	11271.873807
493.965763	11138.149639
494.333088	11040.706656
494.700354	10966.750408
495.067563	11024.085972
495.434713	10855.224962
495.801805	10983.063582
496.168839	10905.651624
496.535815	10841.190389
496.902733	10834.634369
497.269593	10773.628846
497.636395	10878.610874
498.003139	10856.999448
498.369825	10719.877543
498.736453	10886.306196
499.103023	10807.303753
499.469535	10833.588329
499.835989	10822.780096
500.202385	10792.601228
500.568723	10639.115737
500.935003	10863.991528
501.301226	10665.112968
501.667390	10924.999572
502.033497	11026.351970
502.399546	10886.500280
502.765537	10798.169183
503.131470	10858.869716
503.497345	11042.191276
503.863163	10652.210135
504.228923	10958.664398
504.594625	11026.495643
504.960269	10779.572366
505.325856	10996.924235
505.691385	10788.785075
506.056856	10941.418610
506.422270	10973.233332
506.787625	10853.783192
507.152924	10974.213837
507.518164	10961.507608
507.883347	10878.973838
508.248472	10796.913935
508.613540	11030.014368
508.978550	10908.940977
509.343503	10882.522810
509.708398	10999.268371
510.073236	11113.213572
510.438016	11123.437032
510.802738	11065.040305
511.167403	11120.568615
511.532010	11014.185145
511.896561	11253.198852
512.261053	11322.391209
512.625488	11188.248626
512.989866	11177.969713
513.354186	11161.913638
513.718449	11063.835470
514.082655	11258.741601
514.446803	11150.787812
514.810894	11277.472008
515.174927	11144.511575
515.538904	11172.457212
515.902822	11322.149234
516.266684	11205.358302
516.630488	11146.195321
516.994235	11206.870648
517.357925	11269.554876
517.721558	11357.512928
518.085133	11369.722603
518.448651	11379.620908
518.812112	11264.468352
519.175516	11277.797162
519.538863	11388.687423
519.902152	11308.838067
520.265385	11466.311110
520.628560	11381.042514
520.991678	11361.712209
521.354739	11427.557240
521.717743	11359.118536
522.080690	11336.730771
522.443580	11473.963582
522.806413	11421.578432
523.169189	11457.758793
523.531908	11507.898109
523.894569	11329.683238
524.257174	11335.785555
524.619722	11457.184101
524.982213	11397.542210
525.344647	11453.176384
525.707025	11401.877603
526.069345	11500.669094
526.431608	11411.632235
526.793815	11526.971315
527.155964	11306.677933
527.518057	11368.721934
527.880093	11317.337452
528.242072	11382.738862
528.603995	11289.500201
528.965860	11208.897192
529.327669	11252.921589
529.689421	11210.648993
530.051117	11184.321567
530.412755	11285.366455
530.774337	11172.588282
531.135862	11155.201342
531.497331	11178.292347
531.858743	11035.332786
532.220098	11194.081241
532.581396	11066.361088
532.942638	11055.648636
533.303824	11009.312870
533.664953	11036.250276
534.026025	10942.257962
534.387040	11042.087932
534.747999	11048.654035
535.108902	11100.492220
535.469748	10858.927689
535.830537	10963.892074
536.191270	10935.744792
536.551947	10959.760848
536.912567	10964.449122
537.273131	10889.041022
537.633638	10865.297187
537.994089	10852.066679
538.354483	10802.486931
538.714821	10948.070413
539.075103	10955.866557
539.435328	10917.616802
539.795497	10744.921995
540.155609	10901.764894
540.515665	10993.891981
540.875665	10729.158307
541.235609	10793.538883
541.595496	10790.141145
541.955328	10944.309712
542.315102	10833.825264
542.674821	10777.540781
543.034483	10783.368355
543.394090	10782.408015
543.753640	10710.561490
544.113134	10937.068094
544.472571	10787.827255
544.831953	10932.899060
545.191278	10735.386653
545.550548	10770.523495
545.909761	10904.882848
546.268918	10877.350586
546.628019	10962.394851
546.987064	10823.506022
547.346053	10750.578170
547.704986	10851.960815
548.063863	10832.406179
548.422684	10824.141207
548.781449	10740.813455
549.140158	10844.522592
549.498811	10719.370907
549.857408	10577.293547
550.215949	10800.856118
550.574434	10655.393623
550.932864	10756.211659
551.291237	10816.307254
551.649555	10759.367421
552.007817	10769.008628
552.366022	10732.878678
552.724173	10730.264840
553.082267	10708.872704
553.440305	10852.074241
553.798288	10649.061934
554.156215	10810.346090
554.514086	10780.487335
554.871902	10635.435695
555.229661	10669.720583
555.587365	10649.349280
555.945014	10536.477845
556.302606	10670.849801
556.660143	10561.958357
557.017625	10717.188087
557.375050	10609.693043
557.732421	10749.882490
558.089735	10659.706330
558.446994	10661.974850
558.804197	10697.124295
559.161345	10702.248628
559.518437	10552.758252
559.875474	10634.523246
560.232455	10666.867289
560.589381	10622.169899
560.946251	10613.937695
561.303065	10718.468540
561.659825	10648.888014
562.016528	10582.380072
562.373177	10464.611156
562.729770	10580.212375
563.086307	10495.362194
563.442789	10589.692265
563.799216	10463.655857
564.155587	10508.285192
564.511904	10464.389345
564.868164	10459.688469
565.224370	10475.550460
565.580520	10393.326720
565.936615	10400.719572
566.292654	10272.218040
566.648638	10395.532225
567.004567	10363.906546
567.360441	10342.204379
567.716260	10250.677190
568.072023	10350.282828
568.427732	10301.507144
568.783385	10212.266118
569.138982	10281.115677
569.494525	10296.208891
569.850013	10169.610395
570.205445	10247.536551
570.560823	10147.550305
570.916145	10070.705477
571.271412	10137.271393
571.626625	10081.561602
571.981782	10062.352285
572.336884	10033.509323
572.691931	10040.919819
573.046923	9984.773968
573.401860	9936.762019
573.756743	9879.902845
574.111570	9916.456251
574.466342	9905.602647
574.821059	9933.197923
575.175722	9825.491151
575.530330	9832.818468
575.884882	9828.498199
576.239380	9754.980532
576.593823	9727.932221
576.948211	9742.334797
577.302544	9624.122260
577.656823	9640.135486
578.011047	9642.109097
578.365216	9611.715981
578.719330	9532.456439
579.073389	9548.242813
579.427394	9490.788782
579.781344	9475.524168
580.135239	9418.453266
580.489080	9426.282178
580.842866	9329.497065
581.196597	9336.320267
581.550273	9379.744766
581.903895	9336.786573
582.257463	9399.765708
582.610975	9284.368656
582.964434	9310.444024
583.317837	9230.201458
583.671186	9212.819559
584.024481	9208.811842
584.377721	9128.602043
584.730906	9098.450902
585.084037	9136.279720
585.437113	9068.193897
585.790135	9087.231814
586.143103	8987.938727
586.496016	8958.261455
586.848874	9014.359415
587.201679	9005.779371
587.554428	8892.940704
587.907124	8938.469885
588.259765	8907.300430
588.612352	8913.773272
588.964884	8784.933982
589.317362	8796.069891
589.669786	8797.398235
590.022155	8850.847069
590.374470	8852.596349
590.726731	8796.538719
591.078937	8651.739136
591.431090	8759.367771
591.783188	8633.946384
592.135232	8625.570507
592.487222	8618.563303
592.839157	8672.271756
593.191038	8607.694575
593.542866	8548.987818
593.894639	8448.651212
594.246358	8497.973862
594.598022	8514.279474
594.949633	8405.075478
595.301190	8385.351964
595.652692	8406.214779
596.004141	8521.269033
596.355535	8295.115310
596.706876	8271.966332
597.058162	8206.491826
597.409395	8280.594267
597.760573	8341.078030
598.111698	8246.435408
598.462768	8234.525682
598.813785	8200.608799
599.164748	8165.683685
599.515657	8152.680029
599.866511	8060.633601
600.217312	8190.256790
600.568060	8047.292187
600.918753	8143.429512
601.269392	8108.844676
601.619978	8021.998198
601.970510	8081.156138
602.320988	8082.718896
602.671412	8126.380329
603.021783	8069.115342
603.372100	8038.429839
603.722363	8033.814662
604.072572	8005.604365
604.422728	8017.267075
604.772830	7948.132691
605.122878	7949.791231
605.472872	7946.443904
605.822813	7967.037018
606.172701	7913.378976
606.522534	7977.341136
606.872314	7975.657391
607.222041	7949.413144
607.571714	7992.605750
607.921333	7951.545552
608.270899	7954.882796
608.620411	8031.949435
608.969870	7939.048532
609.319276	7925.926408
609.668627	7933.939322
610.017926	7970.333932
610.367171	8004.218048
610.716362	7981.479924
611.065500	7962.988971
611.414585	7982.899008
611.763616	7976.025395
612.112594	7946.925335
612.461518	7958.149464
612.810389	8004.906166
613.159207	7942.141280
613.507971	7884.047023
613.856682	7995.753951
614.205340	7944.525745
614.553945	8013.065273
614.902496	7912.821929
615.250994	7951.648896
615.599439	7933.964528
615.947830	7935.255063
616.296169	7896.269300
616.644454	7902.553098
616.992686	7893.443733
617.340864	7942.852082
617.688990	7842.618820
618.037063	7927.469001
618.385082	7861.949125
618.733048	7925.313908
619.080961	7861.684464
619.428821	7871.676031
619.776628	7861.757561
620.124382	7804.162378
620.472083	7781.666229
620.819731	7805.929303
621.167326	7695.626336
621.514868	7698.726646
621.862357	7582.268430
622.209793	7594.704957
622.557176	7519.899275
622.904506	7486.975499
623.251783	7418.330107
623.599007	7365.992848
623.946179	7362.456478
624.293297	7318.832853
624.640363	7235.512663
624.987376	7211.438632
625.334336	7156.124572
625.681243	7095.839934
626.028097	7075.645071
626.374899	7049.000053
626.721647	7033.561519
627.068343	6967.129194
627.414987	6929.007988
627.761577	6875.889350
628.108115	6900.976652
628.454600	6798.210211
628.801032	6825.928995
629.147412	6785.612367
629.493739	6766.166116
629.840014	6701.268822
630.186236	6742.066880
630.532405	6625.805270
630.878521	6653.319887
631.224585	6611.054853
631.570597	6530.091402
631.916556	6544.526746
632.262462	6530.552668
632.608316	6483.972406
632.954117	6453.327232
633.299866	6434.369973
633.645562	6418.392036
633.991206	6341.010324
634.336797	6281.897754
634.682336	6235.740950
635.027823	6198.232244
635.373257	6185.470563
635.718639	6114.846519
636.063968	6119.305419
636.409245	6025.013157
636.754470	6008.785683
637.099642	5966.621472
637.444762	5907.791207
637.789829	5911.337658
638.134845	5852.139389
638.479808	5827.581408
638.824719	5826.316078
639.169577	5757.958032
639.514383	5762.548003
639.859137	5693.332960
640.203839	5690.996386
640.548489	5663.080996
640.893086	5640.554600
641.237632	5601.321820
641.582125	5610.532008
641.926566	5578.558490
642.270955	5575.929528
642.615292	5564.362601
642.959576	5567.036933
643.303809	5548.608995
643.647990	5540.170104
643.992118	5528.141911
644.336195	5471.638138
644.680219	5477.105269
645.024192	5468.946162
645.368112	5523.337691
645.711981	5527.451272
646.055797	5581.192493
646.399562	5530.717940
646.743274	5612.430003
647.086935	5640.569724
647.430544	5626.464575
647.774101	5627.757631
648.117606	5623.588597
648.461059	5605.649651
648.804460	5558.192229
649.147810	5488.415098
649.491108	5453.111897
649.834354	5426.681128
650.177548	5353.375189
650.520690	5276.800062
650.863781	5247.127831
651.206820	5251.037245
651.549807	5189.250343
651.892742	5131.352691
652.235626	5126.949243
652.578458	5106.509885
652.921238	5033.977764
653.263967	5048.710536
653.606644	5001.127085
653.949269	4987.394982
654.291843	4941.550728
654.634365	4963.089058
654.976836	4916.481070
655.319255	4908.649638
655.661622	4881.830699
656.003938	4861.522411
656.346203	4838.683464
656.688416	4841.776212
657.030577	4806.904030
657.372687	4772.956900
657.714746	4757.596504
658.056753	4776.939411
658.398708	4722.883119
658.740612	4715.855750
659.082465	4727.321855
659.424266	4719.482860
659.766016	4709.274524
660.107715	4676.300337
660.449362	4676.133978
660.790958	4663.183254
661.132503	4646.413856
661.473996	4657.186802
661.815438	4645.413187
662.156829	4632.903564
662.498168	4619.335298
662.839456	4598.195219
663.180693	4603.763174
663.521879	4599.735292
663.863013	4584.626954
664.204097	4573.276796
664.545129	4594.908387
664.886110	4581.284669
665.227040	4586.202314
665.567918	4565.536104
665.908746	4565.551228
666.249522	4556.935896
666.590248	4541.446951
666.930922	4544.895100
667.271545	4545.142116
667.612118	4534.134757
667.952639	4512.876211
668.293109	4506.448740
668.633528	4475.906909
668.973896	4468.224191
669.314213	4455.946461
669.654480	4427.600053
669.994695	4420.328188
670.334859	4406.303698
670.674973	4381.677662
671.015035	4381.962487
671.355047	4368.132081
671.695008	4354.001727
672.034918	4332.077749
672.374777	4329.675639
672.714585	4306.168739
673.054342	4303.373419
673.394049	4287.702992
673.733705	4293.704486
674.073310	4272.380405
674.412864	4251.479781
674.752368	4231.904981
675.091820	4223.329978
675.431223	4185.334802
675.770574	4176.926157
676.109875	4143.306702
676.449125	4130.759270
676.788324	4109.659521
677.127473	4071.722317
677.466571	4054.302610
677.805619	4044.298441
678.144616	4027.022406
678.483562	4008.042462
678.822458	3985.974811
679.161303	3973.795383
679.500098	3962.238538
679.838842	3947.573822
680.177535	3942.220116
680.516179	3944.662555
680.854771	3940.735497
681.193314	3969.729693
681.531805	4014.134697
681.870247	4073.597627
682.208638	4114.549440
682.546978	4115.603041
682.885268	4091.592025
683.223508	4044.245508
683.561697	4012.652597
683.899836	3991.731809
684.237925	3960.307776
684.575963	3944.874284
684.913951	3921.228752
685.251889	3927.071449
685.589776	3921.246396
685.927614	3902.218561
686.265401	3918.224224
686.603137	3909.326587
686.940824	3936.420269
687.278460	3939.427317
687.616046	3936.775670
687.953582	3965.510247
688.291068	3952.897280
688.628504	3958.530770
688.965889	3944.672638
689.303224	3917.130294
689.640510	3884.287176
689.977745	3841.520548
690.314930	3795.154535
690.652065	3761.502313
690.989150	3720.926065
691.326185	3675.737162
691.663170	3640.446565
692.000105	3607.177470
692.336990	3571.292016
692.673825	3549.708316
693.010610	3520.358718
693.347345	3487.530725
693.684030	3463.287816
694.020665	3443.997841
694.357251	3413.806370
694.693786	3405.828744
695.030272	3393.498082
695.366707	3370.492776
695.703093	3355.976774
696.039429	3353.988039
696.375716	3340.477746
696.711952	3328.991477
697.048139	3322.667350
697.384276	3308.635298
697.720363	3309.472130
698.056400	3306.182777
698.392388	3287.427164
698.728326	3278.269908
699.064214	3264.880603
699.400053	3255.012545
699.735842	3237.048393
700.071581	3224.909294
700.407270	3211.436811
700.742910	3197.702187
701.078501	3175.367355
701.414042	3168.186231
701.749533	3153.415651
702.084974	3130.107876
702.420366	3139.849906
702.755709	3122.087400
703.091002	3098.278030
703.426246	3101.547219
703.761440	3093.282247
704.096584	3080.860844
704.431679	3077.039649
704.766725	3068.573031
705.101721	3060.176990
705.436668	3057.711865
705.771565	3044.403219
706.106413	3053.444529
706.441212	3050.442522
706.775961	3050.992007
707.110661	3048.002603
707.445311	3052.660629
707.779913	3048.985628
708.114465	3054.793037
708.448967	3062.069943
708.783421	3070.992785
709.117825	3083.290680
709.452180	3084.061977
709.786485	3093.115889
710.120742	3116.937861
710.454949	3115.221348
710.789107	3131.272382
711.123216	3148.356853
711.457275	3152.142759
711.791286	3169.239832
712.125247	3169.330573
712.459159	3152.581340
712.793023	3169.756551
713.126837	3137.606592
713.460602	3134.602064
713.794318	3112.302520
714.127985	3101.983278
714.461602	3072.817683
714.795171	3062.374933
715.128691	3031.502907
715.462162	3013.914321
715.795584	2995.980416
716.128957	2987.904488
716.462281	2967.838175
716.795556	2958.736371
717.128782	2944.369083
717.461960	2922.621545
717.795088	2922.548448
718.128167	2913.242478
718.461198	2893.191289
718.794180	2890.587533
719.127113	2880.482540
719.459997	2875.819473
719.792833	2862.599047
720.125619	2858.956813
720.458357	2849.330730
720.791046	2844.372755
721.123686	2839.233299
721.456278	2831.739624
721.788821	2831.449757
722.121315	2823.348623
722.453761	2819.789568
722.786158	2815.940647
723.118506	2816.076759
723.450805	2809.503094
723.783056	2813.528455
724.115259	2810.085347
724.447412	2806.460758
724.779518	2811.297745
725.111574	2804.280459
725.443582	2813.712457
725.775542	2807.010243
726.107453	2815.912921
726.439315	2813.364618
726.771129	2823.963644
727.102895	2830.804490
727.434612	2834.539985
727.766281	2833.393122
728.097901	2834.098884
728.429473	2832.601661
728.760996	2828.765343
729.092471	2825.019766
729.423897	2821.317038
729.755276	2815.597849
730.086606	2816.197746
730.417887	2824.001452
730.749120	2831.331290
731.080305	2838.207424
731.411442	2843.319154
731.742530	2832.611743
732.073570	2828.977071
732.404562	2835.646518
732.735506	2836.906806
733.066401	2825.876762
733.397249	2809.659370
733.728048	2792.632873
734.058798	2774.262908
734.389501	2760.117430
734.720156	2750.637541
735.050762	2738.664800
735.381320	2733.406877
735.711831	2727.438151
736.042293	2722.616287
736.372707	2722.928838
736.703073	2718.318703
737.033391	2721.063612
737.363661	2720.619990
737.693883	2721.045967
738.024056	2729.537791
738.354182	2727.062585
738.684260	2735.889645
739.014290	2739.110942
739.344272	2739.862074
739.674207	2746.047570
740.004093	2745.493043
740.333931	2746.304669
740.663722	2743.027919
740.993464	2739.184039
741.323159	2734.601630
741.652806	2727.357492
741.982405	2721.257696
742.311956	2712.334854
742.641460	2712.052549
742.970915	2703.953935
743.300323	2696.782894
743.629683	2689.503468
743.958996	2685.306707
744.288260	2679.791685
744.617477	2674.236333
744.946647	2671.095695
745.275768	2665.288285
745.604842	2665.126968
745.933869	2660.526916
746.262847	2656.118427
746.591778	2657.484579
746.920662	2654.142294
747.249498	2656.007521
747.578286	2657.061122
747.907027	2658.855773
748.235720	2660.456339
748.564365	2662.361896
748.892963	2659.296874
749.221514	2660.257214
749.550017	2655.452994
749.878473	2654.253200
750.206881	2647.545944
750.535242	2647.593835
750.863555	2647.528300
751.191821	2644.065028
751.520039	2641.168885
751.848210	2641.970428
752.176334	2643.172743
752.504411	2640.858854
752.832440	2642.870274
753.160421	2639.359111
753.488356	2638.867598
753.816243	2637.919861
754.144082	2632.402318
754.471875	2632.475415
754.799620	2633.231588
755.127318	2627.903088
755.454969	2629.801083
755.782572	2630.869807
756.110129	2627.114148
756.437638	2626.615074
756.765100	2625.838736
757.092515	2627.814868
757.419882	2628.434930
757.747203	2627.726648
758.074477	2626.668006
758.401703	2629.422996
758.728882	2630.426186
759.056014	2631.439458
759.383099	2630.166567
759.710138	2633.163532
760.037129	2634.786784
760.364073	2635.381640
760.690970	2630.917698
761.017820	2627.938377
761.344623	2629.975003
761.671379	2630.524488
761.998088	2629.254118
762.324751	2641.652836
762.651366	2666.556136
762.977935	2716.826522
763.304456	2753.909249
763.630931	2758.700866
763.957359	2722.283571
764.283740	2692.253417
764.610074	2671.917403
764.936362	2655.178251
765.262602	2642.106539
765.588796	2630.736217
765.914943	2624.734723
766.241044	2618.529063
766.567097	2611.446242
766.893104	2608.298041
767.219064	2605.515324
767.544978	2603.536671
767.870845	2595.667430
768.196665	2596.297574
768.522438	2594.709611
768.848165	2591.485793
769.173846	2590.785073
769.499479	2590.132243
769.825066	2589.068560
770.150607	2589.108889
770.476101	2586.737026
770.801548	2587.495720
771.126949	2582.278126
771.452303	2582.963722
771.777611	2579.462641
772.102872	2580.296952
772.428087	2576.390058
772.753256	2577.189081
773.078378	2575.994327
773.403453	2578.469534
773.728482	2574.353432
774.053465	2574.887794
774.378401	2576.132959
774.703291	2572.435273
775.028135	2570.471743
775.352932	2570.512073
775.677683	2569.340004
776.002388	2571.721949
776.327046	2570.441496
776.651658	2568.442679
776.976224	2568.969479
777.300743	2568.062072
777.625216	2565.102914
777.949643	2565.221382
778.274024	2569.773543
778.598359	2562.763819
778.922647	2562.783984
779.246889	2562.317677
779.571086	2560.835578
779.895236	2564.379509
780.219339	2567.038717
780.543397	2565.506207
780.867409	2565.218861
781.191374	2565.289437
781.515294	2566.141392
781.839167	2565.899417
782.162995	2566.285065
782.486776	2564.349262
782.810511	2565.584345
783.134201	2563.013356
783.457844	2564.031669
783.781441	2561.964796
784.104993	2563.381360
784.428498	2562.378171
784.751958	2560.787687
785.075372	2563.298181
785.398739	2560.762481
785.722061	2559.857594
786.045337	2560.712069
786.368568	2561.576627
786.691752	2559.749209
787.014891	2566.711043
787.337983	2561.876576
787.661030	2567.946125
787.984031	2573.415777
788.306987	2574.875191
788.629897	2573.524162
788.952760	2573.882084
789.275579	2571.606003
789.598351	2569.982751
789.921078	2565.259190
790.243759	2564.102245
790.566395	2559.545042
790.888984	2562.292471
791.211529	2560.709549
791.534027	2561.904302
791.856480	2558.403221
792.178888	2560.117213
792.501249	2558.448591
792.823566	2556.104455
793.145836	2559.373643
793.468062	2556.386759
793.790241	2552.747046
794.112375	2556.036399
794.434464	2555.711245
794.756507	2559.842470
795.078505	2559.388767
795.400457	2557.349620
795.722364	2558.902295
796.044226	2562.612584
796.366042	2559.078736
796.687812	2560.878427
797.009538	2560.167625
797.331218	2563.484704
797.652852	2560.772563
797.974442	2561.100238
798.295986	2560.396997
798.617484	2561.863973
798.938938	2558.529250
799.260346	2557.243756
799.581709	2560.359189
799.903026	2558.214178
800.224299	2557.021945
800.545526	2554.226625
800.866708	2557.664692
801.187845	2555.527243
801.508936	2556.530432
801.829983	2556.331307
802.150984	2553.314176
802.471940	2554.216543
802.792851	2551.874927
803.113717	2553.765359
803.434538	2552.643703
803.755314	2555.658313
804.076045	2556.752243
804.396731	2553.535987
804.717372	2555.033210
805.037967	2553.757798
805.358518	2551.839639
805.679024	2552.459701
805.999485	2553.299053
806.319901	2556.265772
806.640272	2553.538507
806.960598	2554.829043
807.280879	2553.198230
807.601115	2551.955585
807.921306	2555.265103
808.241453	2554.113199
808.561554	2551.524567
808.881611	2554.541697
809.201623	2553.082283
809.521590	2554.337530
809.841513	2555.940617
810.161390	2553.704866
810.481223	2550.496171
810.801011	2552.852911
811.120755	2553.578837
811.440453	2555.078580
811.760107	2549.795451
812.079716	2551.106151
812.399281	2549.233362
812.718801	2547.247147
813.038276	2547.103475
813.357707	2552.714279
813.677093	2550.758311
813.996434	2551.552293
814.315731	2546.173382
814.634983	2552.931048
814.954191	2551.784186
815.273354	2551.960626
815.592473	2552.056408
815.911547	2553.780483
816.230577	2552.706717
816.549562	2554.307283
816.868502	2553.422561
817.187399	2552.162272
817.506250	2555.496996
817.825058	2556.810216
818.143821	2558.098231
818.462539	2558.879610
818.781213	2559.633263
819.099843	2561.342214
819.418429	2562.763819
819.736970	2567.356310
820.055466	2571.663976
820.373919	2576.410222
820.692327	2585.156624
821.010691	2598.429982
821.329011	2628.883593
821.647286	2694.436237
821.965517	2777.796757
822.283704	2827.709221
822.601847	2834.713904
822.919945	2791.972482
823.237999	2744.888105
823.556010	2704.450489
823.873976	2671.191477
824.191897	2642.719040
824.509775	2624.893520
824.827609	2613.661829
825.145398	2605.422063
825.463144	2602.324274
825.780845	2604.441558
826.098502	2612.146962
826.416116	2628.545836
826.733685	2645.234575
827.051210	2654.618683
827.368692	2646.207518
827.686129	2626.915022
828.003522	2608.643360
828.320872	2590.976637
828.638177	2582.590677
828.955439	2571.832855
829.272656	2567.663821
829.589830	2560.374312
829.906960	2562.912533
830.224046	2560.276010
830.541088	2558.244425
830.858086	2558.244425
831.175041	2556.132181
831.491952	2555.963302
831.808819	2556.601008
832.125642	2557.072356
832.442421	2559.973540
832.759157	2567.394119
833.075849	2578.872826
833.392497	2591.730289
833.709101	2599.934767
834.025662	2599.975096
834.342179	2593.257759
834.658653	2582.089082
834.975083	2574.572722
835.291469	2574.794533
835.607811	2561.473284
835.924110	2557.337017
836.240366	2554.254351
836.556578	2554.186296
836.872746	2552.081614
837.188871	2548.446942
837.504952	2551.385935
837.820990	2550.349978
838.136984	2546.100285
838.452935	2548.215049
838.768842	2548.676315
839.084706	2545.639019
839.400526	2554.108158
839.716303	2561.294323
840.032037	2566.685837
840.347727	2568.178018
840.663373	2563.880435
840.978977	2555.985988
841.294537	2552.794937
841.610054	2549.220759
841.925527	2548.605738
842.240957	2547.786551
842.556344	2545.785213
842.871687	2545.762528
843.186987	2545.003834
843.502244	2543.118442
843.817458	2544.545089
844.132629	2545.601211
844.447756	2543.370500
844.762840	2539.982845
845.077881	2540.693648
845.392879	2537.429500
845.707833	2540.933102
846.022745	2538.525951
846.337613	2542.218597
846.652438	2542.697506
846.967221	2540.938143
847.281960	2542.263967
847.596656	2540.943185
847.911309	2540.229861
848.225919	2541.948895
848.540485	2538.558719
848.855009	2542.062321
849.169490	2542.543751
849.483928	2542.130376
849.798323	2541.669111
850.112675	2541.240613
850.426984	2540.882691
850.741251	2542.463093
851.055474	2544.605583
851.369654	2539.314892
851.683792	2542.037115
851.997887	2543.925027
852.311938	2541.706919
852.625947	2540.451672
852.939914	2540.580222
853.253837	2540.413863
853.567718	2540.328164
853.881555	2540.905376
854.195350	2541.346477
854.509103	2541.412012
854.822812	2539.861857
855.136479	2542.589121
855.450103	2539.733308
855.763685	2540.824717
856.077224	2539.082999
856.390720	2540.764224
856.704173	2542.349667
857.017584	2539.917310
857.330953	2542.185829
857.644278	2540.950746
857.957561	2546.470810
858.270802	2542.969728
858.584000	2542.281611
858.897155	2545.102137
859.210268	2540.093750
859.523339	2541.384286
859.836367	2541.727084
860.149352	2540.960829
860.462295	2543.879657
860.775195	2539.579552
861.088054	2534.283820
861.400869	2538.800694
861.713642	2536.335570
862.026373	2542.573998
862.339062	2538.326826
862.651708	2544.154400
862.964312	2542.437887
863.276873	2542.508463
863.589392	2543.985521
863.901869	2542.256405
864.214303	2541.472506
864.526696	2543.304965
864.839045	2544.280428
865.151353	2542.271529
865.463619	2542.092568
865.775842	2544.963505
866.088023	2541.313709
866.400162	2546.125491
866.712258	2542.453010
867.024313	2540.605427
867.336325	2542.400078
867.648296	2542.702547
867.960224	2542.826056
868.272110	2540.219779
868.583954	2542.775644
868.895755	2542.644574
869.207515	2544.043494
869.519233	2544.315717
869.830909	2543.090716
870.142542	2547.962991
870.454134	2542.972249
870.765684	2546.891746
871.077191	2542.931920
871.388657	2546.231355
871.700081	2540.562577
872.011463	2545.094575
872.322803	2543.128525
872.634101	2542.755479
872.945357	2544.119112
873.256571	2544.098947
873.567744	2545.313865
873.878874	2546.526262
874.189963	2545.681869
874.501010	2549.308979
874.812015	2547.811757
875.122979	2544.277908
875.433900	2545.346632
875.744780	2546.669935
876.055618	2547.065666
876.366415	2546.803526
876.677169	2547.836963
876.987882	2545.528114
877.298554	2542.488298
877.609183	2544.925696
877.919771	2542.662218
878.230317	2543.274718
878.540822	2547.413506
878.851285	2550.803682
879.161707	2550.997766
879.472087	2558.259548
879.782425	2559.124106
880.092722	2570.350756
880.402977	2585.136460
880.713191	2612.101592
881.023363	2639.568318
881.333494	2661.051196
881.643583	2664.174190
881.953631	2659.866524
882.263637	2649.544762
882.573602	2641.985552
882.883526	2627.837553
883.193408	2615.607714
883.503248	2602.372165
883.813048	2592.115937
884.122806	2587.725092
884.432522	2578.401478
884.742197	2570.885118
885.051831	2567.424366
885.361424	2562.335321
885.670975	2559.928170
885.980485	2558.894733
886.289954	2553.735113
886.599382	2554.501368
886.908768	2556.091852
887.218113	2552.237890
887.527417	2549.427447
887.836680	2551.602704
888.145901	2549.593805
888.455082	2548.315872
888.764221	2548.668753
889.073319	2547.216901
889.382376	2549.450132
889.691392	2549.510626
890.000366	2546.962322
890.309300	2544.890408
890.618193	2545.132383
890.927044	2545.918803
891.235855	2548.580533
891.544625	2545.255892
891.853353	2549.785368
892.162041	2547.784030
892.470687	2549.803012
892.779293	2549.492982
893.087858	2549.503064
893.396381	2552.308466
893.704864	2558.829198
894.013306	2561.521175
894.321707	2573.950139
894.630068	2580.549010
894.938387	2582.676377
895.246665	2582.958681
895.554903	2575.102043
895.863100	2573.395612
896.171256	2566.552246
896.479371	2563.673747
896.787446	2561.054868
897.095480	2553.664536
897.403473	2553.599001
897.711425	2553.898950
898.019336	2550.496171
898.327207	2548.275543
898.635038	2551.902653
898.942827	2546.856458
899.250576	2549.538352
899.558284	2547.713454
899.865952	2550.349978
900.173579	2547.829401
900.481165	2547.410985
900.788711	2545.666746
901.096216	2545.722198
901.403681	2546.168341
901.711105	2546.727909
902.018489	2543.907383
902.325832	2550.402910
902.633135	2546.382590
902.940397	2547.408464
903.247619	2552.366439
903.554800	2557.901626
903.861941	2572.553740
904.169041	2585.988415
904.476101	2598.238419
904.783121	2593.943356
905.090100	2589.161821
905.397039	2579.140007
905.703938	2571.860581
906.010796	2563.444375
906.317614	2558.798952
906.624391	2555.577654
906.931129	2554.569423
907.237826	2546.710265
907.544483	2548.020965
907.851099	2545.092054
908.157675	2542.407640
908.464211	2541.202804
908.770707	2540.615510
909.077163	2539.314892
909.383578	2538.450334
909.689954	2538.909079
909.996289	2538.016795
910.302584	2541.901004
910.608839	2540.156765
910.915054	2540.547454
911.221229	2540.527289
911.527363	2541.164995
911.833458	2539.771116
912.139513	2544.303114
912.445527	2541.757331
912.751502	2543.597352
913.057436	2542.939482
913.363331	2544.209852
913.669186	2543.793957
913.975000	2545.737322
914.280775	2551.423743
914.586510	2551.580019
914.892205	2557.621842
915.197859	2563.272976
915.503475	2573.100705
915.809050	2580.816191
916.114585	2587.649475
916.420081	2591.967223
916.725536	2587.904053
917.030952	2584.803744
917.336328	2576.722774
917.641665	2572.193297
917.946961	2568.435117
918.252218	2565.271793
918.557435	2560.386915
918.862612	2557.301729
919.167750	2555.025648
919.472848	2552.003476
919.777906	2550.055070
920.082925	2548.925852
920.387904	2548.157076
920.692843	2545.525593
920.997743	2548.101623
921.302603	2545.533155
921.607423	2546.163299
921.912204	2545.860830
922.216946	2543.045346
922.521647	2542.788247
922.826310	2544.731612
923.130932	2542.725232
923.435516	2539.839172
923.740059	2541.757331
924.044564	2541.840510
924.349028	2539.776157
924.653454	2535.861702
924.957840	2538.263811
925.262186	2535.861702
925.566493	2535.839016
925.870761	2532.678213
926.174989	2538.478060
926.479178	2539.040149
926.783328	2537.459747
927.087438	2537.520241
927.391509	2539.282124
927.695541	2536.549819
927.999533	2538.616692
928.303486	2537.033770
928.607400	2538.369676
928.911275	2535.213913
929.215110	2537.971424
929.518906	2536.224665
929.822663	2540.154244
930.126381	2536.632998
930.430060	2539.113246
930.733699	2537.724408
931.037299	2539.100643
931.340861	2535.627288
931.644383	2535.153419
931.947866	2536.464119
932.251309	2535.541588
932.554714	2536.622916
932.858080	2540.171888
933.161407	2536.038142
933.464694	2536.711136
933.767943	2535.665097
934.071153	2535.710467
934.374323	2536.398584
934.677455	2536.645601
934.980548	2535.160981
935.283602	2536.451517
935.586617	2536.315405
935.889593	2536.552340
936.192530	2532.511855
936.495428	2539.627443
936.798287	2535.259284
937.101108	2535.977648
937.403890	2535.755837
937.706632	2538.067206
938.009336	2537.356404
938.312002	2538.457896
938.614628	2540.585263
938.917216	2540.534851
939.219765	2537.326157
939.522275	2541.419574
939.824747	2543.844369
940.127179	2534.412370
940.429573	2536.658204
940.731929	2536.113759
941.034246	2535.584438
941.336524	2535.813811
941.638763	2537.616023
941.940964	2538.047042
942.243126	2537.139634
942.545250	2536.794315
942.847335	2538.939326
943.149381	2539.622402
943.451389	2537.452186
943.753359	2538.969573
944.055290	2536.753986
944.357182	2535.765920
944.659036	2535.254243
944.960851	2537.061496
945.262628	2535.143337
945.564367	2536.227185
945.866067	2536.988399
946.167729	2534.412370
946.469352	2537.734490
946.770937	2538.241126
947.072484	2535.183666
947.373992	2537.316074
947.675462	2533.197452
947.976893	2537.633667
948.278286	2535.665097
948.579641	2536.096115
948.880958	2533.593182
949.182236	2536.557381
949.483476	2535.528985
949.784678	2536.842206
950.085841	2536.353214
950.386967	2536.703574
950.688054	2534.006557
950.989103	2536.207021
951.290114	2535.428162
951.591087	2536.280117
951.892021	2534.614016
952.192917	2538.110056
952.493776	2536.025539
952.794596	2540.086188
953.095378	2534.112421
953.396122	2542.624409
953.696828	2536.461599
953.997496	2538.357073
954.298126	2535.415559
954.598718	2537.888245
954.899272	2536.610313
955.199788	2534.954294
955.500266	2537.190046
955.800706	2533.739376
956.101108	2531.609488
956.401472	2529.255269
956.701798	2530.066895
957.002087	2532.922709
957.302337	2533.701567
957.602550	2533.452030
957.902724	2534.687113
958.202861	2533.457071
958.502960	2530.886083
958.803022	2534.561084
959.103045	2532.567307
959.403031	2533.535209
959.702979	2531.400280
960.002889	2534.369520
960.302762	2531.485980
960.602596	2532.307688
960.902393	2534.097298
961.202153	2531.808614
961.501875	2532.158974
961.801559	2534.079654
962.101205	2532.789118
962.400814	2530.671834
962.700385	2534.130065
962.999918	2532.660569
963.299414	2530.318953
963.598873	2534.608975
963.898293	2531.561597
964.197677	2530.858356
964.497022	2531.223840
964.796331	2534.735004
965.095601	2532.015301
965.394835	2534.147709
965.694030	2529.708973
965.993189	2531.846422
966.292309	2531.985054
966.591393	2530.697039
966.890439	2532.113604
967.189447	2531.889272
967.488419	2531.062523
967.787353	2533.270548
968.086249	2532.209386
968.385108	2531.367513
968.683930	2532.496731
968.982714	2531.052441
969.281462	2533.033614
969.580172	2529.562780
969.878844	2532.247194
970.177480	2530.049251
970.476078	2532.317770
970.774639	2533.497400
971.073162	2530.238294
971.371649	2526.870804
971.670098	2527.838705
971.968510	2528.153777
972.266885	2526.878365
972.565223	2530.555887
972.863524	2529.358613
973.161788	2531.909437
973.460014	2530.346679
973.758204	2530.316432
974.056356	2528.993129
974.354471	2533.540250
974.652550	2529.572862
974.950591	2531.584283
975.248595	2532.138809
975.546563	2534.064530
975.844493	2534.190559
976.142386	2530.044210
976.440243	2531.138140
976.738062	2528.824251
977.035845	2531.307019
977.333590	2532.065713
977.631299	2531.080167
977.928971	2533.298275
978.226606	2529.431710
978.524204	2533.661238
978.821765	2530.792821
979.119290	2528.335259
979.416777	2529.726617
979.714228	2532.292565
980.011642	2529.033459
980.309020	2531.667462
980.606360	2530.999509
980.903664	2532.516896
981.200931	2531.841381
981.498162	2530.180321
981.795356	2530.281144
982.092513	2532.746268
982.389633	2532.932791
982.686717	2532.113604
982.983764	2537.270704
983.280775	2532.209386
983.577749	2534.805580
983.874686	2536.078471
984.171587	2533.172246
984.468451	2532.781557
984.765279	2532.431196
985.062070	2532.060672
985.358824	2531.531350
985.655543	2529.043541
985.952224	2530.137471
986.248869	2531.352389
986.545478	2525.978519
986.842050	2531.576721
987.138586	2523.851153
987.435086	2529.066226
987.731549	2524.637572
988.027975	2529.865249
988.324366	2530.298788
988.620719	2529.532533
988.917037	2529.948428
989.213318	2528.458767
989.509563	2529.784591
989.805772	2528.796524
990.101944	2531.304498
990.398080	2526.744775
990.694180	2528.587317
990.990244	2531.569159
991.286271	2529.184693
991.582262	2527.566483
991.878217	2529.545136
992.174136	2530.034128
992.470019	2528.741072
992.765865	2530.092101
993.061676	2528.657893
993.357450	2529.729138
993.653188	2528.970444
993.948890	2529.582944
994.244556	2531.075126
994.540186	2530.029087
994.835780	2530.903727
995.131337	2529.424148
995.426859	2532.093439
995.722345	2528.405835
996.017795	2528.466329
996.313208	2533.298275
996.608586	2527.228726
996.903928	2531.158305
997.199234	2530.046731
997.494504	2528.816689
997.789738	2530.921371
998.084936	2527.838705
998.380099	2531.433048
998.675225	2527.657224
998.970316	2529.056144
999.265371	2529.794673
999.560390	2529.172090
999.855373	2528.380629
1000.150320	2528.725948
1000.445232	2529.119158
1000.740108	2526.959024
1001.034948	2529.716535
1001.329752	2529.076308
1001.624521	2528.746113
1001.919254	2525.222346
1002.213951	2526.220495
1002.508613	2526.066740
1002.803239	2526.550690
1003.097829	2524.577079
1003.392384	2530.044210
1003.686903	2527.271575
1003.981386	2527.155629
1004.275834	2527.901720
1004.570246	2527.851308
1004.864623	2531.294416
1005.158964	2528.312574
1005.453270	2528.690660
1005.747540	2527.473222
1006.041775	2527.732841
1006.335974	2528.330218
1006.630138	2526.933818
1006.924266	2528.478932
1007.218359	2528.108407
1007.512416	2527.410207
1007.806438	2529.053623
1008.100425	2527.707635
1008.394376	2528.947759
1008.688292	2526.724610
1008.982172	2527.001874
1009.276017	2528.599919
1009.569827	2525.456760
1009.863602	2527.594209
1010.157341	2528.839374
1010.451045	2528.867101
1010.744714	2527.407687
1011.038347	2526.666637
1011.331945	2524.231760
1011.625508	2528.569672
1011.919036	2527.803417
1012.212528	2528.703263
1012.505986	2527.937008
1012.799408	2527.823582
1013.092795	2526.071781
1013.386147	2527.422810
1013.679464	2527.674868
1013.972745	2528.423479
1014.265992	2528.516740
1014.559204	2530.439941
1014.852380	2527.740403
1015.145521	2525.366019
1015.438628	2528.320135
1015.731699	2528.844415
1016.024736	2525.449198
1016.317737	2528.710825
1016.610703	2526.704446
1016.903635	2525.328211
1017.196531	2524.609846
1017.489393	2522.820237
1017.782219	2521.391069
1018.075011	2526.664116
1018.367768	2524.309898
1018.660490	2529.353572
1018.953177	2529.353572
1019.245829	2529.353572
