Dividing Wavelength (nm)	Counts (n)	Blue Motor Position (mm): 0.000000	Red Motor Position (mm): 33.600000	
326.493990	2127.044289
326.888308	2127.044289
327.282561	2127.044289
327.676750	2095.960535
328.070874	2094.140678
328.464933	2096.784763
328.858929	2103.406319
329.252859	2113.319748
329.646726	2121.430964
330.040528	2135.969652
330.434265	2155.254586
330.827938	2171.504746
331.221547	2188.629545
331.615091	2210.384645
332.008571	2225.896275
332.401986	2247.059039
332.795338	2264.660228
333.188625	2285.754936
333.581847	2304.215641
333.975006	2321.864721
334.368100	2341.454645
334.761129	2356.936028
335.154095	2374.690972
335.546996	2394.328787
335.939833	2409.822773
336.332606	2428.585948
336.725315	2438.572473
337.117960	2450.502364
337.510540	2459.704990
337.903056	2469.552884
338.295508	2475.927423
338.687896	2487.378404
339.080220	2493.357213
339.472480	2500.235867
339.864676	2504.178050
340.256807	2506.426404
340.648875	2511.838083
341.040879	2512.755573
341.432818	2515.160203
341.824694	2519.775380
342.216506	2517.905112
342.608253	2518.673887
342.999937	2519.488034
343.391557	2519.724968
343.783113	2516.261695
344.174605	2515.523166
344.566033	2514.346057
344.957397	2511.568381
345.348697	2512.004441
345.739934	2508.747856
346.131106	2507.152330
346.522215	2505.324912
346.913260	2504.750221
347.304241	2503.177381
347.695159	2501.143275
348.086012	2501.128152
348.476802	2497.148161
348.867528	2497.622029
349.258191	2496.896103
349.648789	2494.390649
350.039324	2490.781183
350.429796	2491.295381
350.820203	2489.213384
351.210548	2486.821357
351.600828	2488.101810
351.991045	2486.760863
352.381198	2487.701038
352.771288	2485.911429
353.161314	2488.510143
353.551276	2487.254896
353.941175	2485.082159
354.331010	2487.993425
354.720782	2485.530822
355.110490	2489.352016
355.500135	2487.219608
355.889717	2486.344968
356.279235	2487.680874
356.668689	2487.701038
357.058080	2487.673312
357.447408	2485.891264
357.836672	2485.089721
358.225873	2487.350678
358.615010	2484.648620
359.004084	2490.133395
359.393095	2490.461070
359.782043	2491.103817
360.170927	2494.113386
360.559748	2492.081801
360.948505	2491.381081
361.337199	2496.003819
361.725830	2494.272182
362.114398	2494.914929
362.502903	2496.205465
362.891344	2496.543222
363.279722	2496.807883
363.668037	2498.370640
364.056289	2499.295692
364.444478	2497.793428
364.832603	2498.211844
365.220665	2499.809890
365.608665	2498.867194
365.996601	2504.571260
366.384474	2502.958090
366.772284	2503.467247
367.160031	2506.539830
367.547715	2505.844151
367.935336	2510.812208
368.322893	2514.378824
368.710388	2517.096006
369.097820	2523.185720
369.485189	2523.107582
369.872495	2530.956659
370.259738	2539.866898
370.646918	2546.816129
371.034035	2551.322920
371.421090	2565.526371
371.808081	2574.671024
372.195010	2582.520101
372.581875	2597.106680
372.968678	2608.718977
373.355418	2618.171141
373.742096	2636.760396
374.128710	2652.761018
374.515262	2668.890190
374.901751	2682.430729
375.288177	2693.173428
375.674540	2717.572612
376.060841	2734.097515
376.447079	2754.491503
376.833254	2775.316509
377.219367	2788.398303
377.605417	2824.243428
377.991404	2833.998061
378.377329	2856.789117
378.763191	2871.642877
379.148991	2911.266346
379.534727	2935.852053
379.920402	2967.308853
380.306013	2979.163127
380.691563	3026.867566
381.077049	3047.465720
381.462474	3065.540777
381.847835	3105.728856
382.233134	3127.088225
382.618371	3127.075622
383.003545	3193.802855
383.388657	3202.536654
383.773706	3232.249214
384.158693	3251.337543
384.543618	3278.201852
384.928480	3312.776606
385.313280	3359.165304
385.698017	3357.441229
386.082692	3411.336205
386.467305	3416.054725
386.851856	3446.432718
387.236344	3470.978096
387.620770	3501.396418
388.005133	3530.766181
388.389435	3558.404307
388.773674	3568.196748
389.157851	3610.507152
389.541965	3625.040799
389.926018	3591.028134
390.310008	3664.568486
390.693936	3680.443079
391.077802	3723.071076
391.461606	3709.911144
391.845348	3772.726442
392.229027	3771.675361
392.612645	3785.357053
392.996200	3864.006614
393.379694	3904.308119
393.763125	3965.933704
394.146494	3933.902212
394.529801	3997.519053
394.913047	4043.393553
395.296230	4010.928523
395.679351	4069.431113
396.062410	4089.565482
396.445408	4069.637800
396.828343	4102.977471
397.211217	4126.602839
397.594028	4049.453020
397.976778	4116.386941
398.359466	4139.215806
398.742092	4173.909027
399.124656	4091.445832
399.507158	4173.883821
399.889598	4195.154969
400.271977	4260.989918
400.654294	4232.726689
401.036549	4239.096187
401.418742	4213.754307
401.800874	4313.695182
402.182944	4332.591947
402.564952	4398.699118
402.946898	4385.486253
403.328783	4377.927043
403.710606	4292.852531
404.092367	4485.497705
404.474067	4452.241213
404.855705	4460.412923
405.237282	4386.744021
405.618797	4497.646885
406.000250	4530.338768
406.381642	4611.506386
406.762972	4572.054316
407.144240	4580.099998
407.525447	4584.599227
407.906593	4643.084174
408.287677	4683.718394
408.668700	4613.679123
409.049661	4665.605529
409.430560	4707.094225
409.811399	4634.000015
410.192176	4793.948264
410.572891	4734.346702
410.953545	4838.081046
411.334138	4716.075040
411.714669	4785.930309
412.095139	4679.529196
412.475547	4821.934230
412.855894	4804.751457
413.236180	4811.415862
413.616405	4764.487761
413.996568	4852.660063
414.376670	4795.266526
414.756711	4748.799691
415.136691	4780.440493
415.516609	4857.297924
415.896466	4894.922576
416.276262	4930.762659
416.655997	4909.809103
417.035670	5093.992700
417.415283	5187.138100
417.794834	5130.972084
418.174324	5081.735135
418.553753	4990.959077
418.933121	5173.191748
419.312428	5243.561214
419.691674	5179.117624
420.070859	5305.171676
420.449983	5214.859405
420.829045	5336.086552
421.208047	5238.008383
421.586988	5309.726358
421.965867	5325.124563
422.344686	5454.959480
422.723444	5309.789373
423.102141	5130.039471
423.480777	5425.637609
423.859352	5194.581363
424.237866	5457.275890
424.616319	5447.077636
424.994712	5557.279780
425.373044	5438.548004
425.751314	5571.268982
426.129524	5379.604312
426.507673	5572.720834
426.885762	5655.148741
427.263789	5587.564512
427.641756	5469.742664
428.019662	5593.833186
428.397508	5602.095637
428.775292	5543.320825
429.153016	5646.624149
429.530679	5569.174382
429.908282	5654.427856
430.285824	5523.499008
430.663305	5799.000586
431.040726	5535.360843
431.418086	5537.291605
431.795385	5643.463346
432.172624	5655.375592
432.549802	5645.134488
432.926920	5663.050749
433.303977	5670.615001
433.680974	5706.424837
434.057910	5728.482406
434.434786	5732.114557
434.811601	5695.498136
435.188355	5938.726247
435.565050	5808.727493
435.941683	5790.357528
436.318257	6010.093862
436.694770	5988.706767
437.071222	6020.304719
437.447614	5959.531089
437.823946	5866.776379
438.200218	6022.469895
438.576429	5881.806579
438.952580	5986.198793
439.328670	6026.800246
439.704700	5937.370177
440.080670	5926.428353
440.456580	6198.436411
440.832429	6077.355457
441.208218	5925.858702
441.583947	6081.663123
441.959616	6086.074133
442.335224	6014.648545
442.710773	6152.272045
443.086261	6178.813720
443.461689	5965.835052
443.837057	6121.863805
444.212365	6273.065653
444.587612	6165.749570
444.962800	6314.882024
445.337927	6298.145393
445.712995	5910.374798
446.088002	6489.305947
446.462949	6319.950904
446.837837	6256.404639
447.212664	6417.345996
447.587431	6561.717081
447.962139	7109.609845
448.336786	8034.311216
448.711374	7776.100795
449.085901	6846.176789
449.460369	6767.844820
449.834776	6705.364760
450.209124	7097.584173
450.583412	7244.611945
450.957640	7383.992287
451.331808	7156.127092
451.705917	6708.984308
452.079965	6631.663090
452.453954	6837.798392
452.827883	6713.433126
453.201752	6814.336862
453.575562	6613.585513
453.949311	6815.120761
454.323001	6705.127825
454.696632	6774.552076
455.070202	6915.076760
455.443713	7070.316572
455.817164	7168.946747
456.190556	7256.488904
456.563888	7327.690161
456.937160	7373.131122
457.310373	7026.488780
457.683526	7049.345372
458.056619	6945.711852
458.429653	6933.703823
458.802628	6866.359049
459.175542	6972.840821
459.548398	7335.307344
459.921194	7487.630849
460.293930	7497.014957
460.666607	8022.658589
461.039224	8324.389291
461.411782	8458.821740
461.784280	8479.006520
462.156719	8368.675827
462.529099	8247.587312
462.901419	7834.187491
463.273680	7726.268990
463.645882	7737.543530
464.018024	7605.150227
464.390106	7771.367152
464.762130	8155.137591
465.134094	8626.520764
465.505999	9652.869440
465.877845	10875.949145
466.249631	11529.295287
466.621358	11135.019083
466.993026	10510.657055
467.364634	10251.939999
467.736184	9894.489423
468.107674	9558.904853
468.479105	9590.296118
468.850477	9356.532773
469.221790	9128.544070
469.593043	8796.269017
469.964238	8656.611411
470.335373	8667.492742
470.706449	8729.206547
471.077467	8711.431439
471.448425	10020.999700
471.819324	11099.920049
472.190164	11115.373706
472.560945	9867.806596
472.931667	9078.331657
473.302330	8948.650495
473.672934	8589.861493
474.043479	8949.474723
474.413965	8887.753356
474.784393	8768.754399
475.154761	8923.522863
475.525070	9012.884877
475.895321	8841.344494
476.265513	9017.926031
476.635645	9188.679994
477.005719	9186.529942
477.375734	9299.731572
477.745691	9539.793839
478.115588	9671.425927
478.485427	9911.430221
478.855207	10456.366349
479.224928	11258.834862
479.594591	11896.450083
479.964194	11700.160155
480.333739	11647.739717
480.703226	11566.849362
481.072653	11647.737196
481.442022	11884.913402
481.811333	12073.263513
482.180584	11884.187476
482.549777	11586.164543
482.918912	11417.732031
483.287988	11437.163159
483.657005	11450.154212
484.025964	11130.587908
484.394864	11261.572209
484.763706	11226.064842
485.132489	10984.323871
485.501213	10944.733169
485.869879	11027.602176
486.238487	10865.589574
486.607036	10966.465583
486.975527	10752.186298
487.343959	10936.843763
487.712333	10983.781947
488.080648	10914.032542
488.448905	10961.540376
488.817104	10892.915148
489.185244	11161.099492
489.553326	11313.682616
489.921350	11844.443019
490.289315	12906.810740
490.657222	13239.244589
491.025070	13146.936021
491.392861	13018.361392
491.760593	12632.501394
492.128267	12284.233281
492.495883	11952.517796
492.863440	11616.507248
493.230939	11275.962182
493.598380	11208.998015
493.965763	11066.308156
494.333088	10964.610438
494.700354	10883.321833
495.067563	10941.494228
495.434713	10763.617114
495.801805	10872.770698
496.168839	10801.750922
496.535815	10726.284849
496.902733	10722.307379
497.269593	10646.231326
497.636395	10734.781714
498.003139	10709.502848
498.369825	10578.266490
498.736453	10713.649197
499.103023	10636.668257
499.469535	10658.955198
499.835989	10641.754782
500.202385	10591.267626
500.568723	10431.964644
500.935003	10638.795624
501.301226	10435.692577
501.667390	10675.853146
502.033497	10751.422563
502.399546	10608.200862
502.765537	10502.838226
503.131470	10556.060207
503.497345	10705.532939
503.863163	10316.131531
504.228923	10595.993708
504.594625	10649.636626
504.960269	10385.502849
505.325856	10580.877808
505.691385	10356.493529
506.056856	10486.179733
506.422270	10483.825514
506.787625	10358.764569
507.152924	10450.977355
507.518164	10409.266848
507.883347	10307.044851
508.248472	10209.647238
508.613540	10408.583772
508.978550	10267.630590
509.343503	10215.232837
509.708398	10303.465632
510.073236	10372.509275
510.438016	10353.970432
510.802738	10274.302557
511.167403	10289.980546
511.532010	10164.057564
511.896561	10352.455565
512.261053	10374.339214
512.625488	10223.943951
512.989866	10173.381178
513.354186	10125.926276
513.718449	10000.459518
514.082655	10136.681578
514.446803	10002.007153
514.810894	10069.243542
515.174927	9909.698585
515.538904	9887.149503
515.902822	9979.203493
516.266684	9842.721815
516.630488	9742.223892
516.994235	9755.280481
517.357925	9747.045756
517.721558	9786.523032
518.085133	9743.398481
518.448651	9712.463440
518.812112	9566.885000
519.175516	9526.086942
519.538863	9572.195855
519.902152	9457.537332
520.265385	9522.099389
520.628560	9416.696424
520.991678	9328.934976
521.354739	9337.285648
521.717743	9232.666582
522.080690	9163.083535
522.443580	9196.786169
522.806413	9110.340463
523.169189	9080.887522
523.531908	9065.592661
523.894569	8875.026963
524.257174	8819.750712
524.619722	8835.214451
524.982213	8759.453470
525.344647	8717.904280
525.707025	8632.156774
526.069345	8630.788101
526.431608	8506.584152
526.793815	8523.038478
527.155964	8319.060791
527.518057	8302.883728
527.880093	8203.550312
528.242072	8192.721914
528.603995	8062.841626
528.965860	7955.034031
529.327669	7924.265348
529.689421	7839.742842
530.051117	7750.358143
530.412755	7745.856393
530.774337	7631.139896
531.135862	7543.789303
531.497331	7503.916296
531.858743	7353.165632
532.220098	7383.525981
532.581396	7254.207782
532.942638	7191.321908
533.303824	7112.523632
533.664953	7053.552215
534.026025	6946.170597
534.387040	6941.830163
534.747999	6883.728344
535.108902	6845.410534
535.469748	6673.416447
535.830537	6671.125243
536.191270	6590.706236
536.551947	6541.837291
536.912567	6483.334700
537.273131	6390.590072
537.633638	6322.748744
537.994089	6261.813797
538.354483	6179.237177
538.714821	6186.483835
539.075103	6131.487367
539.435328	6060.631430
539.795497	5944.589109
540.155609	5942.471825
540.515665	5926.032622
540.875665	5767.062356
541.235609	5730.224124
541.595496	5683.011198
541.955328	5675.608263
542.315102	5584.181897
542.674821	5515.594479
543.034483	5463.620182
543.394090	5411.267800
543.753640	5339.300287
544.113134	5353.579356
544.472571	5264.557620
544.831953	5251.301906
545.191278	5140.290657
545.550548	5105.065595
545.909761	5095.308441
546.268918	5040.143095
546.628019	5012.935988
546.987064	4919.195732
547.346053	4863.687587
547.704986	4834.083411
548.063863	4786.638591
548.422684	4747.925050
548.781449	4674.427548
549.140158	4654.411647
549.498811	4580.067230
549.857408	4513.534082
550.215949	4509.987630
550.574434	4440.752423
550.932864	4415.579421
551.291237	4393.322727
551.649555	4336.622349
552.007817	4308.399449
552.366022	4262.197274
552.724173	4217.172209
553.082267	4180.707023
553.440305	4161.628776
553.798288	4099.516719
554.156215	4080.814038
554.514086	4042.942370
554.871902	3985.914317
555.229661	3957.900625
555.587365	3920.613731
555.945014	3875.855847
556.302606	3854.383052
556.660143	3816.634892
557.017625	3797.644865
557.375050	3757.154318
557.732421	3743.389447
558.089735	3703.019887
558.446994	3675.487625
558.804197	3648.681290
559.161345	3619.913945
559.518437	3578.573963
559.875474	3560.824060
560.232455	3534.242056
560.589381	3508.592665
560.946251	3474.564877
561.303065	3470.055565
561.659825	3427.843463
562.016528	3401.132909
562.373177	3367.634442
562.729770	3350.280270
563.086307	3325.412258
563.442789	3313.111843
563.799216	3275.691358
564.155587	3261.618977
564.511904	3239.153075
564.868164	3217.972667
565.224370	3205.548743
565.580520	3173.277797
565.936615	3166.079029
566.292654	3129.356744
566.648638	3127.839357
567.004567	3105.000409
567.360441	3090.935590
567.716260	3066.322156
568.072023	3058.440312
568.427732	3033.836961
568.783385	3023.371525
569.138982	3008.482478
569.494525	2997.253307
569.850013	2980.836790
570.205445	2970.409163
570.560823	2953.682615
570.916145	2940.678958
571.271412	2929.618667
571.626625	2914.664084
571.981782	2905.617733
572.336884	2895.663975
572.691931	2885.180896
573.046923	2871.408463
573.401860	2861.991588
573.756743	2849.154290
574.111570	2841.365707
574.466342	2831.386743
574.821059	2825.808706
575.175722	2812.467292
575.530330	2808.941005
575.884882	2801.006229
576.239380	2789.645989
576.593823	2781.295318
576.948211	2773.053031
577.302544	2766.892741
577.656823	2761.980137
578.011047	2758.027872
578.365216	2749.188209
578.719330	2741.450038
579.073389	2735.700602
579.427394	2730.046948
579.781344	2726.407235
580.135239	2720.743498
580.489080	2714.189998
580.842866	2706.217413
581.196597	2706.083823
581.550273	2704.415201
581.903895	2700.311702
582.257463	2695.741896
582.610975	2690.665454
582.964434	2690.355423
583.317837	2686.977850
583.671186	2684.772345
584.024481	2681.596418
584.377721	2675.839420
584.730906	2671.987979
585.084037	2672.666014
585.437113	2668.265087
585.790135	2667.574449
586.143103	2662.384581
586.496016	2660.668068
586.848874	2654.177582
587.201679	2651.606594
587.554428	2649.212046
587.907124	2649.968219
588.259765	2646.275574
588.612352	2647.417395
588.964884	2646.046201
589.317362	2646.494864
589.669786	2641.259626
590.022155	2643.649132
590.374470	2641.546971
590.726731	2639.689306
591.078937	2634.196969
591.431090	2638.297948
591.783188	2636.072278
592.135232	2633.128244
592.487222	2630.821917
592.839157	2630.516927
593.191038	2631.590692
593.542866	2628.843264
593.894639	2625.032151
594.246358	2627.489714
594.598022	2625.546349
594.949633	2624.943931
595.301190	2620.439660
595.652692	2621.939403
596.004141	2621.745319
596.355535	2619.186933
596.706876	2618.854217
597.058162	2617.389762
597.409395	2618.942437
597.760573	2618.382869
598.111698	2616.174844
598.462768	2617.183075
598.813785	2617.699793
599.164748	2611.990686
599.515657	2615.136366
599.866511	2611.363063
600.217312	2612.371293
600.568060	2610.879112
600.918753	2611.211828
601.269392	2609.908690
601.619978	2611.383227
601.970510	2611.809205
602.320988	2608.222424
602.671412	2608.285438
603.021783	2607.746035
603.372100	2609.707044
603.722363	2606.188318
604.072572	2608.537496
604.422728	2609.840634
604.772830	2603.942484
605.122878	2600.789242
605.472872	2603.304778
605.822813	2600.136413
606.172701	2599.597010
606.522534	2606.016919
606.872314	2607.985490
607.222041	2604.411312
607.571714	2605.369131
607.921333	2603.929881
608.270899	2604.116404
608.620411	2607.375510
608.969870	2605.119594
609.319276	2605.263267
609.668627	2608.285438
610.017926	2610.533793
610.367171	2611.254678
610.716362	2608.509770
611.065500	2610.674945
611.414585	2603.967690
611.763616	2610.949688
612.112594	2604.751589
612.461518	2605.588421
612.810389	2605.994234
613.159207	2603.597165
613.507971	2603.004830
613.856682	2603.632453
614.205340	2603.529110
614.553945	2604.260077
614.902496	2603.861826
615.250994	2603.677824
615.599439	2601.489963
615.947830	2601.232864
616.296169	2599.753285
616.644454	2604.628081
616.992686	2599.372678
617.340864	2601.983996
617.688990	2600.146495
618.037063	2601.706732
618.385082	2601.338728
618.733048	2603.115735
619.080961	2599.831423
619.428821	2603.090529
619.776628	2601.472319
620.124382	2603.183791
620.472083	2598.956783
620.819731	2601.769747
621.167326	2597.583069
621.514868	2601.288317
621.862357	2597.860332
622.209793	2600.625405
622.557176	2597.220106
622.904506	2594.891092
623.251783	2591.836153
623.599007	2594.432347
623.946179	2591.987388
624.293297	2594.119796
624.640363	2593.083839
624.987376	2593.590475
625.334336	2592.408324
625.681243	2590.704414
626.028097	2594.923860
626.374899	2594.470156
626.721647	2591.122830
627.068343	2594.881010
627.414987	2590.245669
627.761577	2590.175093
628.108115	2588.435895
628.454600	2590.472521
628.801032	2591.571493
629.147412	2592.274734
629.493739	2591.695001
629.840014	2589.602922
630.186236	2590.054105
630.532405	2587.462952
630.878521	2591.110227
631.224585	2588.687953
631.570597	2586.595874
631.916556	2589.000504
632.262462	2588.297263
632.608316	2587.790627
632.954117	2585.418764
633.299866	2586.333734
633.645562	2587.273909
633.991206	2587.392376
634.336797	2586.676532
634.682336	2583.664443
635.027823	2582.179823
635.373257	2587.674681
635.718639	2583.598908
636.063968	2584.130750
636.409245	2581.615214
636.754470	2585.171748
637.099642	2581.789134
637.444762	2583.150245
637.789829	2581.063207
638.134845	2582.797364
638.479808	2579.876016
638.824719	2580.596901
639.169577	2581.453897
639.514383	2578.391396
639.859137	2580.780903
640.203839	2581.025399
640.548489	2582.550348
640.893086	2576.924420
641.237632	2576.117836
641.582125	2575.679255
641.926566	2573.932495
642.270955	2579.084555
642.615292	2579.064390
642.959576	2581.630337
643.303809	2579.089596
643.647990	2579.679411
643.992118	2578.882908
644.336195	2578.600604
644.680219	2578.708989
645.024192	2577.292424
645.368112	2580.591860
645.711981	2580.949782
646.055797	2578.658577
646.399562	2580.387693
646.743274	2582.993969
647.086935	2581.925245
647.430544	2583.321644
647.774101	2580.354925
648.117606	2582.628486
648.461059	2582.280646
648.804460	2585.615369
649.147810	2580.218814
649.491108	2579.167734
649.834354	2583.064546
650.177548	2579.389544
650.520690	2577.148752
650.863781	2575.918710
651.206820	2581.600090
651.549807	2578.519945
651.892742	2575.953998
652.235626	2574.086251
652.578458	2577.166396
652.921238	2573.846796
653.263967	2578.567836
653.606644	2573.599779
653.949269	2576.586663
654.291843	2576.516087
654.634365	2575.772517
654.976836	2575.505335
655.319255	2576.606827
655.661622	2575.679255
656.003938	2576.626992
656.346203	2576.490881
656.688416	2574.930644
657.030577	2575.477609
657.372687	2574.542475
657.714746	2572.195818
658.056753	2575.477609
658.398708	2569.826476
658.740612	2575.018864
659.082465	2567.247925
659.424266	2570.771692
659.766016	2571.847978
660.107715	2573.753534
660.449362	2575.303689
660.790958	2575.611200
661.132503	2574.050963
661.473996	2572.281517
661.815438	2575.505335
662.156829	2575.409553
662.498168	2573.521641
662.839456	2573.398133
663.180693	2571.772361
663.521879	2575.729667
663.863013	2572.924265
664.204097	2573.703123
664.545129	2574.098853
664.886110	2575.759914
665.227040	2573.491394
665.567918	2574.224882
665.908746	2572.150447
666.249522	2575.354101
666.590248	2574.156827
666.930922	2575.119687
667.271545	2574.421487
667.612118	2577.559606
667.952639	2575.585994
668.293109	2575.588514
668.633528	2575.601117
668.973896	2571.298492
669.314213	2571.154820
669.654480	2574.292938
669.994695	2573.282187
670.334859	2575.878381
670.674973	2573.889646
671.015035	2575.601117
671.355047	2575.601117
671.695008	2574.648339
672.034918	2573.793864
672.374777	2574.111456
672.714585	2576.216138
673.054342	2578.262847
673.394049	2575.833010
673.733705	2575.946436
674.073310	2576.692527
674.412864	2576.700089
674.752368	2571.810170
675.091820	2572.843606
675.431223	2574.968452
675.770574	2573.642629
676.109875	2567.215158
676.449125	2573.032649
676.788324	2569.831517
677.127473	2572.014336
677.466571	2568.339335
677.805619	2573.181363
678.144616	2571.346383
678.483562	2570.504511
678.822458	2570.444017
679.161303	2572.110118
679.500098	2569.740776
679.838842	2572.352094
680.177535	2570.580128
680.516179	2572.523493
680.854771	2571.454768
681.193314	2572.881415
681.531805	2573.824111
681.870247	2574.345870
682.208638	2575.628844
682.546978	2577.983062
682.885268	2574.504666
683.223508	2574.978535
683.561697	2574.928123
683.899836	2575.323854
684.237925	2574.108936
684.575963	2570.701116
684.913951	2573.423339
685.251889	2574.902918
685.589776	2572.992320
685.927614	2573.940057
686.265401	2574.058524
686.603137	2574.575242
686.940824	2571.716908
687.278460	2574.171950
687.616046	2572.674727
687.953582	2574.174471
688.291068	2576.337126
688.628504	2575.618761
688.965889	2573.075499
689.303224	2572.387382
689.640510	2574.245047
689.977745	2574.381158
690.314930	2570.345714
690.652065	2572.077351
690.989150	2570.302865
691.326185	2571.711867
691.663170	2569.397977
692.000105	2569.932340
692.336990	2568.230950
692.673825	2567.003429
693.010610	2567.865467
693.347345	2564.830692
693.684030	2561.392625
694.020665	2563.754406
694.357251	2559.464384
694.693786	2562.930177
695.030272	2565.528892
695.366707	2564.654252
695.703093	2563.101576
696.039429	2563.870352
696.375716	2560.921277
696.711952	2564.598799
697.048139	2565.697771
697.384276	2562.559652
697.720363	2561.763150
698.056400	2564.611402
698.392388	2564.540826
698.728326	2562.443706
699.064214	2560.212995
699.400053	2561.644683
699.735842	2561.599312
700.071581	2560.200392
700.407270	2562.428582
700.742910	2561.866494
701.078501	2562.736093
701.414042	2562.753737
701.749533	2559.482028
702.084974	2561.294323
702.420366	2557.669733
702.755709	2559.214847
703.091002	2558.935063
703.426246	2558.617470
703.761440	2558.287274
704.096584	2560.386915
704.431679	2557.062274
704.766725	2558.899775
705.101721	2558.146122
705.436668	2558.251986
705.771565	2559.111503
706.106413	2561.213664
706.441212	2560.570917
706.775961	2560.268448
707.110661	2557.783159
707.445311	2558.821637
707.779913	2559.446740
708.114465	2563.099056
708.448967	2561.737944
708.783421	2560.696946
709.117825	2562.131154
709.452180	2561.072512
709.786485	2561.095197
710.120742	2561.369940
710.454949	2564.485373
710.789107	2562.443706
711.123216	2559.776935
711.457275	2564.495455
711.791286	2559.981102
712.125247	2564.165260
712.459159	2565.954869
712.793023	2568.719942
713.126837	2561.742985
713.460602	2565.526371
713.794318	2565.614592
714.127985	2562.799107
714.461602	2561.947152
714.795171	2562.801628
715.128691	2562.826833
715.462162	2562.531926
715.795584	2561.019580
716.128957	2558.158725
716.462281	2559.237532
716.795556	2558.708211
717.128782	2559.252655
717.461960	2560.160063
717.795088	2556.021276
718.128167	2557.959599
718.461198	2558.244425
718.794180	2559.242573
719.127113	2555.544887
719.459997	2559.426575
719.792833	2553.130174
720.125619	2560.525547
720.458357	2556.512788
720.791046	2557.543704
721.123686	2556.137222
721.456278	2554.834084
721.788821	2555.436502
722.121315	2554.972716
722.453761	2556.527912
722.786158	2553.687222
723.118506	2556.190154
723.450805	2556.480021
723.783056	2553.619166
724.115259	2553.735113
724.447412	2556.384239
724.779518	2557.074877
725.111574	2554.463559
725.443582	2555.464228
725.775542	2552.371480
726.107453	2555.749053
726.439315	2556.469938
726.771129	2560.868345
727.102895	2556.623694
727.434612	2560.608726
727.766281	2560.301215
728.097901	2554.400545
728.429473	2554.072870
728.760996	2555.391132
729.092471	2554.256872
729.423897	2558.456153
729.755276	2558.118396
730.086606	2559.711400
730.417887	2557.631924
730.749120	2558.050340
731.080305	2559.613098
731.411442	2561.773232
731.742530	2558.960268
732.073570	2560.555794
732.404562	2561.069991
732.735506	2558.378015
733.066401	2559.812223
733.397249	2560.326421
733.728048	2555.766697
734.058798	2556.981616
734.389501	2555.781821
734.720156	2558.138560
735.050762	2553.392314
735.381320	2555.754095
735.711831	2552.726882
736.042293	2554.685370
736.372707	2555.202088
736.703073	2552.116902
737.033391	2552.961295
737.363661	2555.532284
737.693883	2555.665874
738.024056	2557.631924
738.354182	2557.455484
738.684260	2555.917932
739.014290	2555.192006
739.344272	2555.885165
739.674207	2555.529763
740.004093	2555.282747
740.333931	2555.812068
740.663722	2555.897767
740.993464	2556.515309
741.323159	2559.355999
741.652806	2554.818961
741.982405	2555.106306
742.311956	2554.191337
742.641460	2556.880792
742.970915	2554.773590
743.300323	2556.104455
743.629683	2554.743343
743.958996	2554.191337
744.288260	2550.612118
744.617477	2550.967519
744.946647	2548.842673
745.275768	2552.051367
745.604842	2546.032229
745.933869	2550.052550
746.262847	2544.955943
746.591778	2552.787376
746.920662	2554.327448
747.249498	2550.864175
747.578286	2551.259906
747.907027	2552.053888
748.235720	2553.800647
748.564365	2551.574978
748.892963	2551.852242
749.221514	2551.466593
749.550017	2553.190668
749.878473	2554.488765
750.206881	2552.996583
750.535242	2553.024310
750.863555	2552.638662
751.191821	2550.634803
751.520039	2549.772766
751.848210	2551.993394
752.176334	2550.496171
752.504411	2550.297046
752.832440	2551.020451
753.160421	2550.531459
753.488356	2549.132539
753.816243	2551.075904
754.144082	2552.361398
754.471875	2548.918290
754.799620	2546.493495
755.127318	2548.978784
755.454969	2549.203115
755.782572	2551.466593
756.110129	2551.146480
756.437638	2549.165307
756.765100	2548.940975
757.092515	2548.358722
757.419882	2548.053732
757.747203	2548.197405
758.074477	2551.106151
758.401703	2551.814433
758.728882	2550.047508
759.056014	2551.801830
759.383099	2550.564227
759.710138	2551.176727
760.037129	2550.622200
760.364073	2550.576830
760.690970	2551.227138
761.017820	2552.341233
761.344623	2550.460883
761.671379	2553.341902
761.998088	2547.320244
762.324751	2553.394835
762.651366	2555.444064
762.977935	2567.820096
763.304456	2571.537947
763.630931	2574.620613
763.957359	2572.021898
764.283740	2566.663152
764.610074	2564.286247
764.936362	2560.540670
765.262602	2554.992880
765.588796	2551.827036
765.914943	2552.860472
766.241044	2553.062118
766.567097	2552.638662
766.893104	2551.126315
767.219064	2547.632796
767.544978	2550.080276
767.870845	2546.125491
768.196665	2548.459545
768.522438	2546.795964
768.848165	2548.330996
769.173846	2546.962322
769.499479	2547.748742
769.825066	2546.543907
770.150607	2545.437373
770.476101	2546.196067
770.801548	2547.027857
771.126949	2544.086344
771.452303	2545.651622
771.777611	2546.564071
772.102872	2548.210008
772.428087	2544.739173
772.753256	2545.830583
773.078378	2542.478216
773.403453	2546.523742
773.728482	2544.224976
774.053465	2546.221273
774.378401	2541.694317
774.703291	2542.815973
775.028135	2540.489481
775.352932	2545.409647
775.677683	2542.982331
776.002388	2542.150541
776.327046	2544.759338
776.651658	2543.972918
776.976224	2543.370500
777.300743	2541.812784
777.625216	2542.944523
777.949643	2542.148020
778.274024	2544.678680
778.598359	2539.002340
778.922647	2541.901004
779.246889	2539.748431
779.571086	2538.069727
779.895236	2542.180788
780.219339	2545.006355
780.543397	2542.455531
780.867409	2541.732125
781.191374	2541.601055
781.515294	2540.166847
781.839167	2539.846734
782.162995	2545.873433
782.486776	2544.214893
782.810511	2541.961498
783.134201	2541.469985
783.457844	2542.359749
783.781441	2542.422763
784.104993	2541.749769
784.428498	2541.832948
784.751958	2540.358411
785.075372	2540.386137
785.398739	2540.068544
785.722061	2540.867567
786.045337	2541.739687
786.368568	2540.378575
786.691752	2544.124153
787.014891	2541.918648
787.337983	2539.864378
787.661030	2543.917465
787.984031	2546.745553
788.306987	2547.473999
788.629897	2546.564071
788.952760	2545.394523
789.275579	2546.818649
789.598351	2545.102137
789.921078	2544.172044
790.243759	2543.738504
790.566395	2542.173226
790.888984	2543.501570
791.211529	2542.780685
791.534027	2543.587270
791.856480	2541.812784
792.178888	2541.706919
792.501249	2544.456869
792.823566	2543.993083
793.145836	2541.948895
793.468062	2541.298586
793.790241	2540.272711
794.112375	2543.219266
794.434464	2541.769934
794.756507	2543.806560
795.078505	2542.357228
795.400457	2539.992927
795.722364	2536.658204
796.044226	2542.803370
796.366042	2539.924872
796.687812	2538.785571
797.009538	2542.624409
797.331218	2541.936292
797.652852	2539.839172
797.974442	2543.589790
798.295986	2539.919830
798.617484	2543.380583
798.938938	2543.307486
799.260346	2540.837320
799.581709	2543.385624
799.903026	2542.775644
800.224299	2541.457382
800.545526	2542.170706
800.866708	2540.333205
801.187845	2540.635674
801.508936	2538.183153
801.829983	2538.508307
802.150984	2539.819007
802.471940	2540.552495
802.792851	2538.987217
803.113717	2540.345808
803.434538	2540.955788
803.755314	2538.714995
804.076045	2535.471012
804.396731	2541.023843
804.717372	2539.733308
805.037967	2539.781199
805.358518	2543.110881
805.679024	2543.350336
805.999485	2540.917979
806.319901	2540.358411
806.640272	2539.894625
806.960598	2539.942516
807.280879	2543.539379
807.601115	2544.703885
807.921306	2541.767413
808.241453	2539.914789
808.561554	2540.035777
808.881611	2540.484440
809.201623	2540.776827
809.521590	2542.299255
809.841513	2539.082999
810.161390	2542.458051
810.481223	2540.267670
810.801011	2541.401930
811.120755	2538.760365
811.440453	2540.502084
811.760107	2541.114584
812.079716	2539.385468
812.399281	2538.417567
812.718801	2539.508976
813.038276	2533.630991
813.357707	2539.854295
813.677093	2540.028215
813.996434	2539.695499
814.315731	2537.661393
814.634983	2539.647608
814.954191	2541.230530
815.273354	2540.262629
815.592473	2539.284645
815.911547	2540.623071
816.230577	2543.937630
816.549562	2543.806560
816.868502	2543.604914
817.187399	2539.826569
817.506250	2544.270346
817.825058	2542.344625
818.143821	2543.400747
818.462539	2542.493339
818.781213	2544.376210
819.099843	2545.752445
819.418429	2546.566592
819.736970	2550.196223
820.055466	2550.060111
820.373919	2553.198230
820.692327	2556.903478
821.010691	2566.668193
821.329011	2583.863568
821.647286	2617.339351
821.965517	2652.158600
822.283704	2675.249605
822.601847	2681.193126
822.919945	2664.509427
823.237999	2641.368010
823.556010	2622.322531
823.873976	2604.428956
824.191897	2593.277923
824.509775	2582.089082
824.827609	2577.783937
825.145398	2569.955025
825.463144	2571.903431
825.780845	2570.081054
826.098502	2574.575242
826.416116	2583.556058
826.733685	2593.555187
827.051210	2599.080291
827.368692	2593.106524
827.686129	2582.958681
828.003522	2573.602300
828.320872	2561.682492
828.638177	2558.821637
828.955439	2551.315359
829.272656	2551.196892
829.589830	2545.880995
829.906960	2546.755635
830.224046	2544.945861
830.541088	2542.536189
830.858086	2544.598021
831.175041	2543.884698
831.491952	2543.151210
831.808819	2542.735315
832.125642	2544.348484
832.442421	2545.588608
832.759157	2552.028682
833.075849	2555.696121
833.392497	2566.963100
833.709101	2570.728842
834.025662	2568.417473
834.342179	2568.117524
834.658653	2558.672923
834.975083	2554.014897
835.291469	2556.830381
835.607811	2549.296377
835.924110	2541.437218
836.240366	2543.186498
836.556578	2542.994934
836.872746	2541.404450
837.188871	2540.635674
837.504952	2540.829759
837.820990	2539.113246
838.136984	2537.250539
838.452935	2536.562422
838.768842	2541.101981
839.084706	2541.285983
839.400526	2543.456200
839.716303	2543.607434
840.032037	2552.300904
840.347727	2551.993394
840.663373	2548.482230
840.978977	2543.914945
841.294537	2543.851930
841.610054	2540.335726
841.925527	2541.477547
842.240957	2536.965714
842.556344	2536.834644
842.871687	2537.353883
843.186987	2539.100643
843.502244	2534.767771
843.817458	2538.183153
844.132629	2535.387833
844.447756	2535.511341
844.762840	2533.172246
845.077881	2530.792821
845.392879	2533.847761
845.707833	2535.783564
846.022745	2529.552697
846.337613	2537.704243
846.652438	2536.567463
846.967221	2538.382278
847.281960	2534.205682
847.596656	2536.113759
847.911309	2534.861032
848.225919	2535.347504
848.540485	2533.870446
848.855009	2535.254242
849.169490	2533.295754
849.483928	2534.987061
849.798323	2533.729293
850.112675	2535.440765
850.426984	2531.415404
850.741251	2532.537061
851.055474	2534.125024
851.369654	2534.155271
851.683792	2533.567977
851.997887	2534.553522
852.311938	2532.418593
852.625947	2534.787936
852.939914	2536.295241
853.253837	2534.929088
853.567718	2534.215765
853.881555	2533.993954
854.195350	2531.995137
854.509103	2534.430014
854.822812	2533.661238
855.136479	2535.592000
855.450103	2534.324150
855.763685	2535.019829
856.077224	2534.798018
856.390720	2533.908254
856.704173	2532.622760
857.017584	2535.360107
857.330953	2532.935312
857.644278	2535.657535
857.957561	2536.093595
858.270802	2533.888090
858.584000	2533.983872
858.897155	2536.486805
859.210268	2537.285827
859.523339	2537.399253
859.836367	2533.157123
860.149352	2535.624767
860.462295	2536.393543
860.775195	2532.194262
861.088054	2529.444313
861.400869	2530.596216
861.713642	2531.193593
862.026373	2531.947246
862.339062	2535.024870
862.651708	2535.103008
862.964312	2536.448996
863.276873	2536.847247
863.589392	2533.958666
863.901869	2535.032432
864.214303	2533.724252
864.526696	2536.234747
864.839045	2536.272556
865.151353	2534.223327
865.463619	2536.214582
865.775842	2536.209541
866.088023	2536.673327
866.400162	2535.239119
866.712258	2535.213913
867.024313	2533.883049
867.336325	2533.081505
867.648296	2535.312216
867.960224	2534.671989
868.272110	2537.610982
868.583954	2533.993954
868.895755	2536.443955
869.207515	2534.210724
869.519233	2536.136444
869.830909	2532.101001
870.142542	2536.136444
870.454134	2537.132072
870.765684	2535.483615
871.077191	2535.506300
871.388657	2538.410005
871.700081	2534.051927
872.011463	2535.831455
872.322803	2537.384130
872.634101	2535.481094
872.945357	2536.305323
873.256571	2540.149203
873.567744	2538.732639
873.878874	2538.203317
874.189963	2535.655014
874.501010	2536.892617
874.812015	2538.732639
875.122979	2536.912782
875.433900	2536.867412
875.744780	2538.077289
876.055618	2537.386651
876.366415	2538.407484
876.677169	2539.060314
876.987882	2536.118800
877.298554	2533.661238
877.609183	2536.824562
877.919771	2535.085364
878.230317	2537.305992
878.540822	2541.452341
878.851285	2539.715664
879.161707	2540.507125
879.472087	2547.111036
879.782425	2550.123126
880.092722	2555.161759
880.402977	2567.384037
880.713191	2583.911459
881.023363	2608.411467
881.333494	2617.281377
881.643583	2619.907818
881.953631	2617.722478
882.263637	2613.555965
882.573602	2605.293513
882.883526	2600.489294
883.193408	2585.484299
883.503248	2579.084555
883.813048	2571.898390
884.122806	2566.111145
884.432522	2562.869683
884.742197	2558.768705
885.051831	2553.606563
885.361424	2548.595656
885.670975	2549.435008
885.980485	2545.495347
886.289954	2545.190357
886.599382	2543.451159
886.908768	2543.841848
887.218113	2542.957126
887.527417	2544.106509
887.836680	2542.198432
888.145901	2539.950077
888.455082	2539.932433
888.764221	2542.460572
889.073319	2538.145344
889.382376	2538.357073
889.691392	2538.122659
890.000366	2539.045190
890.309300	2537.484953
890.618193	2538.334387
890.927044	2539.844213
891.235855	2538.294058
891.544625	2538.858668
891.853353	2538.934285
892.162041	2538.384799
892.470687	2539.791281
892.779293	2542.485778
893.087858	2542.992414
893.396381	2543.393185
893.704864	2547.486602
894.013306	2545.923845
894.321707	2555.779300
894.630068	2561.289282
894.938387	2567.270611
895.246665	2564.757595
895.554903	2560.896072
895.863100	2555.239897
896.171256	2555.454146
896.479371	2549.208156
896.787446	2550.050029
897.095480	2547.360573
897.403473	2541.477547
897.711425	2541.248174
898.019336	2544.373690
898.327207	2542.445448
898.635038	2543.491488
898.942827	2541.492670
899.250576	2538.825900
899.558284	2537.558050
899.865952	2538.195756
900.173579	2539.715664
900.481165	2537.600900
900.788711	2537.875642
901.096216	2536.653163
901.403681	2536.819521
901.711105	2537.079140
902.018489	2536.184335
902.325832	2537.873122
902.633135	2536.499408
902.940397	2537.563091
903.247619	2542.090047
903.554800	2547.242106
903.861941	2558.922460
904.169041	2567.719273
904.476101	2577.204204
904.783121	2575.049111
905.090100	2570.459140
905.397039	2563.396484
905.703938	2558.977913
906.010796	2552.517674
906.317614	2548.343598
906.624391	2543.620037
906.931129	2541.011240
907.237826	2539.166178
907.544483	2536.706095
907.851099	2536.620395
908.157675	2535.599562
908.464211	2536.370858
908.770707	2533.270548
909.077163	2533.820034
909.383578	2527.306863
909.689954	2533.585621
909.996289	2530.510517
910.302584	2534.379602
910.608839	2534.092257
910.915054	2534.490508
911.221229	2532.254756
911.527363	2534.530837
911.833458	2534.195600
912.139513	2533.840199
912.445527	2533.845240
912.751502	2532.010260
913.057436	2535.100487
913.363331	2537.673996
913.669186	2535.087884
913.975000	2539.246836
914.280775	2539.599717
914.586510	2541.588452
914.892205	2546.299411
915.197859	2555.832232
915.503475	2559.870197
915.809050	2567.414283
916.114585	2572.480643
916.420081	2575.200346
916.725536	2569.413101
917.030952	2570.423852
917.336328	2560.969168
917.641665	2560.374312
917.946961	2557.450443
918.252218	2551.625390
918.557435	2550.302087
918.862612	2547.368135
919.167750	2543.262115
919.472848	2542.674821
919.777906	2541.593493
920.082925	2541.490150
920.387904	2536.080992
920.692843	2539.035108
920.997743	2536.890097
921.302603	2536.670807
921.607423	2535.806249
921.912204	2538.568801
922.216946	2535.430683
922.521647	2535.118131
922.826310	2534.366999
923.130932	2536.688451
923.435516	2533.878007
923.740059	2533.618388
924.044564	2533.275590
924.349028	2534.112421
924.653454	2529.764426
924.957840	2529.577903
925.262186	2531.284334
925.566493	2529.409025
925.870761	2527.448016
926.174989	2532.973120
926.479178	2531.483459
926.783328	2530.651669
927.087438	2531.501103
927.391509	2531.589324
927.695541	2530.203006
927.999533	2533.588141
928.303486	2530.253418
928.607400	2531.959848
928.911275	2529.766947
929.215110	2530.167718
929.518906	2530.520599
929.822663	2530.298788
930.126381	2530.739889
930.430060	2530.626463
930.733699	2528.350382
931.037299	2532.390867
931.340861	2530.757533
931.644383	2529.835002
931.947866	2530.785260
932.251309	2528.559590
932.554714	2530.631504
932.858080	2531.002029
933.161407	2530.903727
933.464694	2532.153933
933.767943	2529.449354
934.071153	2530.361803
934.374323	2527.800897
934.677455	2531.420445
934.980548	2528.320135
935.283602	2531.483459
935.586617	2529.882893
935.889593	2532.267359
936.192530	2530.807945
936.495428	2530.964221
936.798287	2529.426669
937.101108	2529.903058
937.403890	2528.569673
937.706632	2530.147554
938.009336	2533.557894
938.312002	2529.451874
938.614628	2530.112266
938.917216	2533.890610
939.219765	2534.263656
939.522275	2536.068389
939.824747	2532.559746
940.127179	2530.704601
940.429573	2529.106555
940.731929	2529.703932
941.034246	2527.536236
941.336524	2531.007070
941.638763	2533.013450
941.940964	2531.846422
942.243126	2531.475898
942.545250	2532.353058
942.847335	2529.903058
943.149381	2530.233253
943.451389	2530.203006
943.753359	2530.273583
944.055290	2529.716535
944.357182	2532.892462
944.659036	2529.716535
944.960851	2534.581248
945.262628	2532.988244
945.564367	2529.474560
945.866067	2529.986237
946.167729	2531.554036
946.469352	2528.748633
946.770937	2527.730320
947.072484	2530.432379
947.373992	2530.712163
947.675462	2531.150743
947.976893	2532.353058
948.278286	2528.362985
948.579641	2531.385157
948.880958	2531.213758
949.182236	2532.443799
949.483476	2530.747451
949.784678	2531.049920
950.085841	2529.436751
950.386967	2533.454551
950.688054	2530.006401
950.989103	2530.581093
951.290114	2531.584283
951.591087	2532.584952
951.892021	2529.857687
952.192917	2530.029087
952.493776	2529.789632
952.794596	2531.695188
953.095378	2530.699560
953.396122	2533.832637
953.696828	2529.572862
953.997496	2529.648479
954.298126	2532.723583
954.598718	2530.266021
954.899272	2529.262831
955.199788	2532.491690
955.500266	2529.444313
955.800706	2526.568334
956.101108	2526.795186
956.401472	2523.221008
956.701798	2523.427696
957.002087	2527.775691
957.302337	2527.034641
957.602550	2528.743592
957.902724	2528.400794
958.202861	2526.099507
958.502960	2527.657224
958.803022	2529.330887
959.103045	2527.223684
959.403031	2526.810310
959.702979	2525.204702
960.002889	2528.652852
960.302762	2526.001205
960.602596	2528.115969
960.902393	2528.194107
961.202153	2526.069260
961.501875	2530.626463
961.801559	2526.611184
962.101205	2525.512213
962.400814	2528.428520
962.700385	2527.705115
962.999918	2529.512368
963.299414	2524.826616
963.598873	2528.171421
963.898293	2525.171935
964.197677	2525.797038
964.497022	2524.962727
964.796331	2525.691174
965.095601	2529.078829
965.394835	2527.324507
965.694030	2527.417769
965.993189	2527.896678
966.292309	2524.950124
966.591393	2526.296112
966.890439	2526.432223
967.189447	2526.875845
967.488419	2527.674868
967.787353	2524.582120
968.086249	2526.591020
968.385108	2527.321987
968.683930	2528.453726
968.982714	2527.810979
969.281462	2526.207892
969.580172	2528.267203
969.878844	2527.087573
970.177480	2527.047244
970.476078	2530.291227
970.774639	2525.797038
971.073162	2530.697039
971.371649	2524.735875
971.670098	2522.013652
971.968510	2524.577079
972.266885	2521.572551
972.565223	2526.165042
972.863524	2523.868797
973.161788	2527.541277
973.460014	2526.890968
973.758204	2526.591020
974.056356	2528.000022
974.354471	2527.004394
974.652550	2525.817202
974.950591	2527.090094
975.248595	2530.447502
975.546563	2530.331556
975.844493	2527.069929
976.142386	2527.261493
976.440243	2525.464322
976.738062	2528.579755
977.035845	2527.390043
977.333590	2526.631349
977.631299	2527.080012
977.928971	2525.678571
978.226606	2525.822244
978.524204	2525.532377
978.821765	2526.996833
979.119290	2528.418438
979.416777	2526.482635
979.714228	2526.510361
980.011642	2526.641431
980.309020	2528.148736
980.606360	2524.801410
980.903664	2526.699404
981.200931	2526.099507
981.498162	2525.035824
981.795356	2528.163860
982.092513	2526.563293
982.389633	2530.422297
982.686717	2530.301309
982.983764	2527.763088
983.280775	2529.048582
983.577749	2528.035310
983.874686	2528.665454
984.171587	2528.725948
984.468451	2527.712676
984.765279	2526.512882
985.062070	2526.656555
985.358824	2526.482635
985.655543	2525.935670
985.952224	2525.731503
986.248869	2525.711338
986.545478	2524.587161
986.842050	2522.842922
987.138586	2524.942562
987.435086	2522.999197
987.731549	2524.723272
988.027975	2528.267203
988.324366	2524.980371
988.620719	2524.191430
988.917037	2529.572862
989.213318	2525.421472
989.509563	2525.214785
989.805772	2525.640762
990.101944	2524.723272
990.398080	2524.327542
990.694180	2526.964065
990.990244	2523.304187
991.286271	2525.754188
991.582262	2524.461132
991.878217	2525.386184
992.174136	2525.111441
992.470019	2523.977181
992.765865	2525.633200
993.061676	2523.921729
993.357450	2527.916843
993.653188	2526.835516
993.948890	2524.826616
994.244556	2527.448016
994.540186	2526.775022
994.835780	2525.436595
995.131337	2526.124713
995.426859	2525.340813
995.722345	2525.454239
996.017795	2526.283509
996.313208	2524.327542
996.608586	2526.260824
996.903928	2525.587830
997.199234	2527.526154
997.494504	2525.076153
997.789738	2529.439272
998.084936	2526.709487
998.380099	2525.910464
998.675225	2527.884076
998.970316	2523.621780
999.265371	2523.248735
999.560390	2526.948942
999.855373	2526.951462
1000.150320	2523.775535
1000.445232	2524.062881
1000.740108	2526.742254
1001.034948	2522.976512
1001.329752	2525.744106
1001.624521	2526.124713
1001.919254	2518.925945
1002.213951	2523.684794
1002.508613	2521.265041
1002.803239	2524.892151
1003.097829	2518.923425
1003.392384	2525.033303
1003.686903	2525.166894
1003.981386	2526.338962
1004.275834	2523.742768
1004.570246	2527.816020
1004.864623	2525.514733
1005.158964	2525.076153
1005.453270	2521.476769
1005.747540	2524.866945
1006.041775	2525.439116
1006.335974	2525.721421
1006.630138	2523.699918
1006.924266	2524.693025
1007.218359	2522.868127
1007.512416	2524.874507
1007.806438	2526.724610
1008.100425	2526.729651
1008.394376	2525.494569
1008.688292	2526.533046
1008.982172	2522.346368
1009.276017	2523.468025
1009.569827	2524.274609
1009.863602	2526.981709
1010.157341	2524.249404
1010.451045	2525.502130
1010.744714	2525.255114
1011.038347	2524.859383
1011.331945	2524.501461
1011.625508	2524.239321
1011.919036	2523.946934
1012.212528	2524.572038
1012.505986	2524.730834
1012.799408	2528.234436
1013.092795	2526.124713
1013.386147	2525.814682
1013.679464	2527.498427
1013.972745	2523.682274
1014.265992	2523.586492
1014.559204	2523.571368
1014.852380	2527.059847
1015.145521	2525.597912
1015.438628	2522.590864
1015.731699	2526.570855
1016.024736	2524.211595
1016.317737	2522.933663
1016.610703	2528.360465
1016.903635	2522.545494
1017.196531	2519.803106
1017.489393	2523.556245
1017.782219	2518.411747
1018.075011	2525.328211
1018.367768	2525.023221
1018.660490	2526.802748
1018.953177	2526.802748
1019.245829	2526.802748
