Dividing Wavelength (nm)	Counts (n)	Blue Motor Position (mm): 0.000000	Red Motor Position (mm): 27.600000	
326.493990	2126.550256
326.888308	2126.550256
327.282561	2126.550256
327.676750	2096.590679
328.070874	2093.961717
328.464933	2094.052458
328.858929	2101.352049
329.252859	2112.528287
329.646726	2124.001953
330.040528	2136.476288
330.434265	2153.429688
330.827938	2170.622544
331.221547	2187.976716
331.615091	2207.589325
332.008571	2227.017932
332.401986	2247.699265
332.795338	2264.040166
333.188625	2286.062446
333.581847	2304.936526
333.975006	2321.297591
334.368100	2339.851558
334.761129	2358.549197
335.154095	2376.755324
335.546996	2394.293499
335.939833	2410.616755
336.332606	2425.238622
336.725315	2437.171033
337.117960	2446.363577
337.510540	2453.274999
337.903056	2467.765795
338.295508	2474.087402
338.687896	2480.703917
339.080220	2489.576348
339.472480	2498.511793
339.864676	2502.363234
340.256807	2506.660818
340.648875	2507.298524
341.040879	2509.617455
341.432818	2512.803464
341.824694	2514.157014
342.216506	2515.142559
342.608253	2518.121881
342.999937	2516.347395
343.391557	2513.826818
343.783113	2512.803464
344.174605	2512.362363
344.566033	2512.619462
344.957397	2510.562671
345.348697	2509.262053
345.739934	2506.612927
346.131106	2507.895901
346.522215	2505.554285
346.913260	2500.934067
347.304241	2500.563542
347.695159	2498.196721
348.086012	2496.137409
348.476802	2493.044661
348.867528	2493.884013
349.258191	2488.248003
349.648789	2490.829074
350.039324	2489.450319
350.429796	2490.463591
350.820203	2487.028044
351.210548	2485.440081
351.600828	2485.614001
351.991045	2485.742550
352.381198	2483.690800
352.771288	2487.106182
353.161314	2482.922024
353.551276	2481.707106
353.941175	2484.683908
354.331010	2484.696511
354.720782	2481.155100
355.110490	2483.436222
355.500135	2484.792293
355.889717	2483.315234
356.279235	2484.010914
356.668689	2484.262971
357.058080	2482.301962
357.447408	2481.581078
357.836672	2482.622076
358.225873	2483.597539
358.615010	2480.693834
359.004084	2485.240955
359.393095	2487.164155
359.782043	2489.959475
360.170927	2490.692963
360.559748	2487.451501
360.948505	2488.328662
361.337199	2491.721358
361.725830	2487.121306
362.114398	2493.004332
362.502903	2491.572644
362.891344	2494.478870
363.279722	2492.595999
363.668037	2494.990547
364.056289	2495.204796
364.444478	2497.899293
364.832603	2494.504075
365.220665	2497.579179
365.608665	2495.865187
365.996601	2501.622185
366.384474	2498.962976
366.772284	2500.598830
367.160031	2501.964983
367.547715	2504.886332
367.935336	2505.970180
368.322893	2510.313134
368.710388	2511.535614
369.097820	2518.994001
369.485189	2521.290246
369.872495	2529.862728
370.259738	2536.892617
370.646918	2543.123484
371.034035	2547.947868
371.421090	2560.797769
371.808081	2568.946794
372.195010	2577.975501
372.581875	2589.928077
372.968678	2604.582711
373.355418	2616.431943
373.742096	2634.829634
374.128710	2649.527118
374.515262	2665.505055
374.901751	2678.987621
375.288177	2691.260310
375.674540	2714.530276
376.060841	2733.283368
376.447079	2753.022006
376.833254	2773.597476
377.219367	2785.247582
377.605417	2821.178406
377.991404	2831.376661
378.377329	2855.589322
378.763191	2871.564739
379.148991	2906.749472
379.534727	2934.836261
379.920402	2960.689818
380.306013	2976.642550
380.691563	3026.640714
381.077049	3046.371790
381.462474	3063.559604
381.847835	3101.940429
382.233134	3125.868265
382.618371	3125.618728
383.003545	3189.757329
383.388657	3198.942311
383.773706	3231.301477
384.158693	3248.101123
384.543618	3272.134824
384.928480	3311.687717
385.313280	3356.717823
385.698017	3356.284284
386.082692	3407.270514
386.467305	3411.971390
386.851856	3444.577573
387.236344	3471.535143
387.620770	3499.672344
388.005133	3525.964482
388.389435	3553.819377
388.773674	3563.856314
389.157851	3608.357100
389.541965	3623.104996
389.926018	3587.136363
390.310008	3659.353412
390.693936	3676.374868
391.077802	3717.596383
391.461606	3704.996019
391.845348	3772.938170
392.229027	3772.486987
392.612645	3783.660704
392.996200	3859.961088
393.379694	3900.865011
393.763125	3968.335814
394.146494	3935.076801
394.529801	3992.152745
394.913047	4039.862225
395.296230	4006.202441
395.679351	4064.717634
396.062410	4082.795212
396.445408	4063.762336
396.828343	4105.044344
397.211217	4124.994711
397.594028	4043.847257
397.976778	4109.019294
398.359466	4139.367040
398.742092	4165.449970
399.124656	4088.637909
399.507158	4169.543387
399.889598	4192.062222
400.271977	4258.751646
400.654294	4228.850042
401.036549	4236.406731
401.418742	4203.679561
401.800874	4307.091270
402.182944	4324.884023
402.564952	4394.235176
402.946898	4382.504411
403.328783	4375.567783
403.710606	4287.718116
404.092367	4485.827900
404.474067	4447.701654
404.855705	4457.655412
405.237282	4381.768403
405.618797	4494.244107
406.000250	4527.603942
406.381642	4605.958596
406.762972	4574.867280
407.144240	4582.348352
407.525447	4583.381789
407.906593	4636.157628
408.287677	4681.245708
408.668700	4611.582003
409.049661	4663.044622
409.430560	4706.363257
409.811399	4631.754181
410.192176	4791.941885
410.572891	4730.785127
410.953545	4835.585675
411.334138	4713.572107
411.714669	4780.132982
412.095139	4677.971479
412.475547	4815.088343
412.855894	4799.506137
413.236180	4805.368998
413.616405	4761.878964
413.996568	4847.112273
414.376670	4791.226041
414.756711	4744.587807
415.136691	4777.042755
415.516609	4855.036967
415.896466	4890.587184
416.276262	4923.710085
416.655997	4906.076129
417.035670	5087.925672
417.415283	5182.792625
417.794834	5122.883553
418.174324	5079.998457
418.553753	4985.388602
418.933121	5171.777704
419.312428	5236.556531
419.691674	5178.121996
420.070859	5299.654133
420.449983	5214.738417
420.829045	5326.284028
421.208047	5239.528291
421.586988	5308.453467
421.965867	5319.067617
422.344686	5453.366476
422.723444	5305.680832
423.102141	5123.228872
423.480777	5421.849182
423.859352	5191.476013
424.237866	5446.429848
424.616319	5440.796358
424.994712	5551.749634
425.373044	5429.133649
425.751314	5574.404579
426.129524	5376.423344
426.507673	5569.071039
426.885762	5654.100181
427.263789	5583.642494
427.641756	5461.908711
428.019662	5586.687351
428.397508	5590.949646
428.775292	5539.794538
429.153016	5642.127440
429.530679	5565.539710
429.908282	5652.338297
430.285824	5526.342219
430.663305	5795.116377
431.040726	5530.811202
431.418086	5532.308424
431.795385	5636.912367
432.172624	5649.376619
432.549802	5644.537112
432.926920	5652.038349
433.303977	5667.534856
433.680974	5701.771852
434.057910	5722.801025
434.434786	5726.942333
434.811601	5691.518145
435.188355	5928.412047
435.565050	5804.795393
435.941683	5784.081291
436.318257	5997.932079
436.694770	5984.477239
437.071222	6017.811869
437.447614	5946.159429
437.823946	5861.649526
438.200218	6014.202403
438.576429	5881.307505
438.952580	5975.977854
439.328670	6020.846643
439.704700	5928.132263
440.080670	5916.371251
440.456580	6184.631211
440.832429	6070.343213
441.208218	5912.545015
441.583947	6072.609211
441.959616	6074.098872
442.335224	5996.412171
442.710773	6130.433766
443.086261	6165.936092
443.461689	5954.532785
443.837057	6101.830259
444.212365	6259.739362
444.587612	6150.966386
444.962800	6304.764428
445.337927	6282.026304
445.712995	5892.287138
446.088002	6465.108408
446.462949	6295.861750
446.837837	6223.130503
447.212664	6391.406739
447.587431	6531.772627
447.962139	7067.357414
448.336786	7980.020510
448.711374	7720.852270
449.085901	6801.403782
449.460369	6713.813733
449.834776	6647.520040
450.209124	7027.721342
450.583412	7172.546131
450.957640	7312.730537
451.331808	7068.773979
451.705917	6622.299147
452.079965	6540.443412
452.453954	6738.608649
452.827883	6607.576457
453.201752	6695.078285
453.575562	6486.583724
453.949311	6675.669843
454.323001	6554.477984
454.696632	6619.365196
455.070202	6741.436736
455.443713	6877.918415
455.817164	6956.565456
456.190556	7019.897472
456.563888	7074.266316
456.937160	7103.421829
457.310373	6762.997751
457.683526	6770.350274
458.056619	6647.089021
458.429653	6621.908458
458.802628	6542.250665
459.175542	6627.368027
459.548398	6923.941629
459.921194	7046.232459
460.293930	7016.638366
460.666607	7454.429810
461.039224	7696.906789
461.411782	7781.663709
461.784280	7764.871625
462.156719	7642.910990
462.529099	7498.411356
462.901419	7109.778724
463.273680	6994.011147
463.645882	6976.140256
464.018024	6818.294168
464.390106	6920.826196
464.762130	7200.118722
465.134094	7523.430603
465.505999	8282.830018
465.877845	9180.727574
466.249631	9649.305344
466.621358	9303.199886
466.993026	8760.691074
467.364634	8508.030963
467.736184	8161.217223
468.107674	7838.099426
468.479105	7785.923484
468.850477	7564.596665
469.221790	7322.172618
469.593043	7024.691609
469.964238	6858.174736
470.335373	6811.919628
470.706449	6782.025586
471.077467	6708.021448
471.448425	7499.248188
471.819324	8129.760423
472.190164	8078.943072
472.560945	7199.294493
472.931667	6623.027594
473.302330	6473.340613
473.672934	6187.865112
474.043479	6333.423388
474.413965	6229.807512
474.784393	6078.366209
475.154761	6106.523574
475.525070	6082.124389
475.895321	5920.315953
476.265513	5946.106497
476.635645	5968.269929
477.005719	5882.351024
477.375734	5871.880547
477.745691	5912.343369
478.115588	5898.860803
478.485427	5929.866419
478.855207	6099.322285
479.224928	6366.379931
479.594591	6562.586680
479.964194	6383.716459
480.333739	6265.549292
480.703226	6107.569613
481.072653	6059.338374
481.442022	6054.501387
481.811333	6042.193409
482.180584	5876.730137
482.549777	5676.747564
482.918912	5528.875398
483.287988	5450.276248
483.657005	5374.951327
484.025964	5187.927040
484.394864	5136.509792
484.763706	5046.547881
485.132489	4904.936828
485.501213	4815.592458
485.869879	4763.829891
486.238487	4637.730468
486.607036	4603.619501
486.975527	4476.128720
487.343959	4458.187254
487.712333	4398.089138
488.080648	4319.681552
488.448905	4254.464144
488.817104	4186.821942
489.185244	4171.983306
489.553326	4137.658089
489.921350	4186.716078
490.289315	4306.191424
490.657222	4305.599088
491.025070	4222.906521
491.392861	4137.932832
491.760593	4016.481354
492.128267	3896.852252
492.495883	3789.924338
492.863440	3694.018907
493.230939	3598.315122
493.598380	3542.396122
493.965763	3481.193994
494.333088	3436.549536
494.700354	3377.852861
495.067563	3355.157586
495.434713	3293.968061
495.801805	3277.150772
496.168839	3236.743403
496.535815	3196.706559
496.902733	3167.994667
497.269593	3131.567290
497.636395	3110.278497
498.003139	3078.063003
498.369825	3047.253992
498.736453	3028.987371
499.103023	2998.977382
499.469535	2976.892087
499.835989	2959.220322
500.202385	2937.271138
500.568723	2906.898186
500.935003	2900.755540
501.301226	2871.476519
501.667390	2866.271527
502.033497	2855.039837
502.399546	2832.568893
502.765537	2814.335040
503.131470	2802.732824
503.497345	2793.487348
503.863163	2775.276180
504.228923	2771.018926
504.594625	2761.576844
504.960269	2744.222672
505.325856	2738.977352
505.691385	2724.277347
506.056856	2723.304404
506.422270	2713.678321
506.787625	2704.823534
507.152924	2699.749613
507.518164	2694.438757
507.883347	2687.229907
508.248472	2681.241017
508.613540	2676.824966
508.978550	2670.745334
509.343503	2666.818276
509.708398	2665.373985
510.073236	2665.663851
510.438016	2658.639003
510.802738	2656.277223
511.167403	2653.093734
511.532010	2648.816315
511.896561	2650.169865
512.261053	2649.151552
512.625488	2639.895993
512.989866	2636.624285
513.354186	2636.609161
513.718449	2631.976341
514.082655	2636.132772
514.446803	2633.425672
514.810894	2632.263687
515.174927	2630.143881
515.538904	2629.392749
515.902822	2630.186731
516.266684	2628.082049
516.630488	2623.784466
516.994235	2621.152983
517.357925	2623.174486
517.721558	2622.814044
518.085133	2620.911008
518.448651	2622.496451
518.812112	2621.054681
519.175516	2618.982767
519.538863	2619.280195
519.902152	2618.897067
520.265385	2615.945472
520.628560	2616.734412
520.991678	2612.562857
521.354739	2615.955554
521.717743	2614.019751
522.080690	2615.181737
522.443580	2615.680811
522.806413	2613.384565
523.169189	2613.485388
523.531908	2611.494133
523.894569	2609.840634
524.257174	2609.906169
524.619722	2612.756942
524.982213	2609.457507
525.344647	2609.540686
525.707025	2610.125459
526.069345	2610.022116
526.431608	2608.834924
526.793815	2611.811725
527.155964	2607.438524
527.518057	2606.024481
527.880093	2607.985490
528.242072	2610.206118
528.603995	2609.845675
528.965860	2605.850561
529.327669	2605.399378
529.689421	2603.486260
530.051117	2606.737804
530.412755	2604.479367
530.774337	2604.713781
531.135862	2605.517845
531.497331	2603.309819
531.858743	2598.861001
532.220098	2600.312853
532.581396	2598.979468
532.942638	2601.623553
533.303824	2602.472988
533.664953	2603.438369
534.026025	2601.784870
534.387040	2603.231682
534.747999	2604.630602
535.108902	2605.054059
535.469748	2600.345621
535.830537	2601.583224
536.191270	2599.586927
536.551947	2603.055241
536.912567	2600.431321
537.273131	2599.014756
537.633638	2602.185642
537.994089	2602.167998
538.354483	2601.510127
538.714821	2602.901486
539.075103	2603.730756
539.435328	2598.961824
539.795497	2601.038780
540.155609	2601.721856
540.515665	2602.420056
540.875665	2600.514500
541.235609	2598.193048
541.595496	2602.886362
541.955328	2599.778491
542.315102	2603.153544
542.674821	2600.935436
543.034483	2600.431321
543.394090	2601.484922
543.753640	2601.817638
544.113134	2602.699840
544.472571	2601.772267
544.831953	2601.142123
545.191278	2601.857967
545.550548	2600.900148
545.909761	2599.135744
546.268918	2601.870570
546.628019	2601.381578
546.987064	2600.564911
547.346053	2601.701691
547.704986	2602.634305
548.063863	2599.055086
548.422684	2602.041969
548.781449	2600.378388
549.140158	2601.936105
549.498811	2601.152206
549.857408	2600.000302
550.215949	2599.758327
550.574434	2595.785897
550.932864	2596.252204
551.291237	2595.861515
551.649555	2599.864191
552.007817	2600.529623
552.366022	2598.946701
552.724173	2600.131372
553.082267	2598.896289
553.440305	2601.497525
553.798288	2602.031887
554.156215	2600.340580
554.514086	2600.486773
554.871902	2601.374016
555.229661	2601.449634
555.587365	2600.844695
555.945014	2599.609612
556.302606	2600.002822
556.660143	2599.896958
557.017625	2599.014756
557.375050	2599.518872
557.732421	2601.583224
558.089735	2601.351331
558.446994	2601.389140
558.804197	2601.600868
559.161345	2600.297730
559.518437	2601.598348
559.875474	2598.273707
560.232455	2599.859150
560.589381	2598.608943
560.946251	2601.406784
561.303065	2602.450303
561.659825	2597.378902
562.016528	2601.489963
562.373177	2598.535847
562.729770	2600.259921
563.086307	2601.547936
563.442789	2600.343100
563.799216	2599.062647
564.155587	2602.440220
564.511904	2600.781681
564.868164	2599.284458
565.224370	2600.363265
565.580520	2599.206320
565.936615	2602.069696
566.292654	2597.686412
566.648638	2598.203131
567.004567	2598.487956
567.360441	2599.614654
567.716260	2595.654827
568.072023	2597.746906
568.427732	2594.142481
568.783385	2595.198603
569.138982	2593.618201
569.494525	2595.236412
569.850013	2595.506113
570.205445	2597.905702
570.560823	2599.070209
570.916145	2594.064343
571.271412	2598.419900
571.626625	2594.689446
571.981782	2597.706577
572.336884	2596.360589
572.691931	2596.693305
573.046923	2596.063161
573.401860	2595.657348
573.756743	2596.932760
574.111570	2595.412852
574.466342	2596.511823
574.821059	2595.536360
575.175722	2594.966710
575.530330	2596.388315
575.884882	2599.637339
576.239380	2594.835640
576.593823	2597.507451
576.948211	2594.455033
577.302544	2595.165835
577.656823	2596.300095
578.011047	2595.959817
578.365216	2596.111052
578.719330	2595.433017
579.073389	2594.152563
579.427394	2590.795155
579.781344	2591.185844
580.135239	2595.637183
580.489080	2594.780187
580.842866	2593.643407
581.196597	2596.438727
581.550273	2590.475042
581.903895	2593.265320
582.257463	2594.190372
582.610975	2594.036617
582.964434	2591.599219
583.317837	2593.161977
583.671186	2592.128540
584.024481	2592.156267
584.377721	2590.926225
584.730906	2590.195258
585.084037	2594.800352
585.437113	2592.128540
585.790135	2591.609301
586.143103	2592.224322
586.496016	2591.616863
586.848874	2585.685946
587.201679	2589.360947
587.554428	2588.650144
587.907124	2590.258272
588.259765	2585.428847
588.612352	2590.096955
588.964884	2590.628797
589.317362	2589.494537
589.669786	2589.912953
590.022155	2590.885896
590.374470	2591.523602
590.726731	2589.915474
591.078937	2589.726430
591.431090	2589.285329
591.783188	2583.684607
592.135232	2586.482448
592.487222	2589.678539
592.839157	2592.884713
593.191038	2588.443457
593.542866	2587.510843
593.894639	2586.883220
594.246358	2587.954465
594.598022	2586.555545
594.949633	2590.059147
595.301190	2589.618046
595.652692	2588.672829
596.004141	2586.479927
596.355535	2587.820874
596.706876	2586.719382
597.058162	2587.107551
597.409395	2586.306007
597.760573	2589.751636
598.111698	2585.630493
598.462768	2586.159814
598.813785	2588.193920
599.164748	2585.950606
599.515657	2587.014290
599.866511	2583.059504
600.217312	2584.730647
600.568060	2584.332396
600.918753	2588.597212
601.269392	2585.098651
601.619978	2585.111254
601.970510	2584.402972
602.320988	2585.186871
602.671412	2585.068404
603.021783	2585.401120
603.372100	2583.672005
603.722363	2585.128898
604.072572	2584.329875
604.422728	2585.827098
604.772830	2582.142014
605.122878	2580.271746
605.472872	2582.958681
605.822813	2578.121694
606.172701	2584.735688
606.522534	2585.743919
606.872314	2587.183168
607.222041	2583.780389
607.571714	2585.086048
607.921333	2584.201326
608.270899	2584.130750
608.620411	2584.763414
608.969870	2587.654516
609.319276	2584.405492
609.668627	2589.802048
610.017926	2590.711976
610.367171	2591.453026
610.716362	2591.667275
611.065500	2590.535536
611.414585	2590.190217
611.763616	2588.871955
612.112594	2585.660740
612.461518	2584.975143
612.810389	2586.938672
613.159207	2587.004207
613.507971	2586.749629
613.856682	2588.267016
614.205340	2584.954978
614.553945	2586.860534
614.902496	2585.217118
615.250994	2581.738722
615.599439	2583.956830
615.947830	2585.141501
616.296169	2584.639906
616.644454	2582.850297
616.992686	2585.106213
617.340864	2585.968250
617.688990	2584.672674
618.037063	2587.185689
618.385082	2586.923549
618.733048	2587.296594
619.080961	2586.174937
619.428821	2585.247365
619.776628	2587.246183
620.124382	2590.636359
620.472083	2589.139136
620.819731	2589.295412
621.167326	2587.220977
621.514868	2584.168558
621.862357	2585.701069
622.209793	2585.698548
622.557176	2581.902560
622.904506	2584.574371
623.251783	2577.733525
623.599007	2579.044225
623.946179	2582.056315
624.293297	2580.276787
624.640363	2579.114802
624.987376	2581.148907
625.334336	2578.482137
625.681243	2579.127404
626.028097	2579.092116
626.374899	2583.619073
626.721647	2580.629668
627.068343	2579.737384
627.414987	2581.383321
627.761577	2581.484144
628.108115	2578.298135
628.454600	2578.250244
628.801032	2581.264854
629.147412	2579.689493
629.493739	2577.310068
629.840014	2580.420460
630.186236	2578.845100
630.532405	2577.720922
630.878521	2577.284863
631.224585	2578.797209
631.570597	2573.637588
631.916556	2575.986766
632.262462	2577.093299
632.608316	2577.763772
632.954117	2574.350911
633.299866	2575.835531
633.645562	2577.552044
633.991206	2576.594225
634.336797	2575.777558
634.682336	2573.120870
635.027823	2575.200346
635.373257	2573.239337
635.718639	2574.277814
636.063968	2575.890984
636.409245	2571.429562
636.754470	2573.115828
637.099642	2570.486867
637.444762	2571.374110
637.789829	2573.199008
638.134845	2570.391085
638.479808	2573.186405
638.824719	2570.587690
639.169577	2569.879408
639.514383	2570.421332
639.859137	2568.941753
640.203839	2574.318144
640.548489	2569.468554
640.893086	2569.004768
641.237632	2564.540826
641.582125	2568.346897
641.926566	2564.129972
642.270955	2569.834037
642.615292	2569.942422
642.959576	2569.584500
643.303809	2569.342525
643.647990	2569.435786
643.992118	2569.098029
644.336195	2570.582649
644.680219	2569.536609
645.024192	2571.109449
645.368112	2571.611044
645.711981	2568.785477
646.055797	2571.384192
646.399562	2571.381672
646.743274	2571.883266
647.086935	2572.704974
647.430544	2568.924109
647.774101	2572.473081
648.117606	2573.393092
648.461059	2573.773699
648.804460	2572.987279
649.147810	2570.375961
649.491108	2570.585169
649.834354	2572.505849
650.177548	2572.609192
650.520690	2570.297823
650.863781	2571.197669
651.206820	2572.382341
651.549807	2570.229768
651.892742	2569.743297
652.235626	2570.101218
652.578458	2568.886300
652.921238	2567.706670
653.263967	2568.730025
653.606644	2568.646846
653.949269	2568.667010
654.291843	2564.921433
654.634365	2569.899572
654.976836	2566.292627
655.319255	2564.248439
655.661622	2565.612071
656.003938	2565.876732
656.346203	2565.423028
656.688416	2565.854046
657.030577	2565.269273
657.372687	2565.309602
657.714746	2566.743810
658.056753	2565.609550
658.398708	2562.330280
658.740612	2563.688871
659.082465	2562.284909
659.424266	2563.484704
659.766016	2562.073181
660.107715	2564.654252
660.449362	2565.523851
660.790958	2565.972513
661.132503	2565.586865
661.473996	2566.574931
661.815438	2567.119376
662.156829	2567.769685
662.498168	2566.038048
662.839456	2565.743141
663.180693	2563.721638
663.521879	2568.046948
663.863013	2563.315825
664.204097	2566.980744
664.545129	2564.629046
664.886110	2567.618450
665.227040	2566.126269
665.567918	2564.578634
665.908746	2567.021073
666.249522	2565.473439
666.590248	2566.665672
666.930922	2565.599468
667.271545	2565.717935
667.612118	2570.252453
667.952639	2566.005281
668.293109	2568.314129
668.633528	2566.017884
668.973896	2564.261042
669.314213	2565.954869
669.654480	2567.641135
669.994695	2565.899417
670.334859	2568.034345
670.674973	2565.075188
671.015035	2564.271124
671.355047	2565.944787
671.695008	2566.559808
672.034918	2565.498645
672.374777	2564.916392
672.714585	2564.886145
673.054342	2564.117369
673.394049	2565.586865
673.733705	2566.322874
674.073310	2565.513768
674.412864	2566.073337
674.752368	2565.702812
675.091820	2567.250446
675.431223	2565.062585
675.770574	2564.722307
676.109875	2560.270968
676.449125	2563.809858
676.788324	2558.541853
677.127473	2561.581668
677.466571	2559.978582
677.805619	2563.948490
678.144616	2562.942780
678.483562	2565.780950
678.822458	2562.441185
679.161303	2565.410425
679.500098	2563.555280
679.838842	2561.445557
680.177535	2562.912533
680.516179	2563.577965
680.854771	2560.996895
681.193314	2565.811197
681.531805	2566.194324
681.870247	2565.823799
682.208638	2568.074675
682.546978	2568.218348
682.885268	2567.129458
683.223508	2567.764644
683.561697	2566.877401
683.899836	2565.430589
684.237925	2567.157185
684.575963	2563.658624
684.913951	2563.532595
685.251889	2564.069478
685.589776	2564.505538
685.927614	2564.787842
686.265401	2566.063254
686.603137	2566.630384
686.940824	2566.892524
687.278460	2567.936043
687.616046	2563.756926
687.953582	2569.478636
688.291068	2566.829510
688.628504	2566.809345
688.965889	2566.335477
689.303224	2565.153326
689.640510	2566.234653
689.977745	2566.106104
690.314930	2563.598130
690.652065	2563.348593
690.989150	2563.618295
691.326185	2562.025290
691.663170	2562.063099
692.000105	2560.989333
692.336990	2560.651576
692.673825	2561.846329
693.010610	2561.536298
693.347345	2556.590926
693.684030	2554.914743
694.020665	2554.284598
694.357251	2553.377191
694.693786	2556.043961
695.030272	2556.585885
695.366707	2558.219219
695.703093	2556.411965
696.039429	2557.006821
696.375716	2557.384908
696.711952	2555.610422
697.048139	2559.953376
697.384276	2555.862479
697.720363	2557.994888
698.056400	2556.215360
698.392388	2556.664023
698.728326	2554.186296
699.064214	2555.345761
699.400053	2559.340876
699.735842	2556.779969
700.071581	2557.256358
700.407270	2556.038920
700.742910	2552.646223
701.078501	2555.063457
701.414042	2555.151677
701.749533	2555.383570
702.084974	2554.675288
702.420366	2554.461039
702.755709	2555.388611
703.091002	2550.627241
703.426246	2557.082439
703.761440	2553.135215
704.096584	2555.562531
704.431679	2553.175544
704.766725	2554.917263
705.101721	2550.652447
705.436668	2554.284598
705.771565	2555.688560
706.106413	2555.050854
706.441212	2552.348795
706.775961	2553.717468
707.110661	2551.950544
707.445311	2554.508930
707.779913	2551.968188
708.114465	2553.102448
708.448967	2553.838456
708.783421	2551.469114
709.117825	2553.470452
709.452180	2555.693601
709.786485	2554.937428
710.120742	2557.770556
710.454949	2558.093190
710.789107	2555.678477
711.123216	2556.495144
711.457275	2555.083621
711.791286	2555.507078
712.125247	2554.425751
712.459159	2558.874569
712.793023	2558.778787
713.126837	2557.967161
713.460602	2558.322563
713.794318	2556.026317
714.127985	2557.629404
714.461602	2557.684857
714.795171	2556.845504
715.128691	2556.777449
715.462162	2555.731409
715.795584	2553.213353
716.128957	2552.724361
716.462281	2554.161090
716.795556	2553.924156
717.128782	2553.939279
717.461960	2552.547921
717.795088	2550.929710
718.128167	2549.946685
718.461198	2550.486089
718.794180	2551.751418
719.127113	2552.537838
719.459997	2550.690256
719.792833	2550.647406
720.125619	2551.912735
720.458357	2550.029864
720.791046	2551.809392
721.123686	2549.654298
721.456278	2551.852242
721.788821	2549.117416
722.121315	2550.796120
722.453761	2550.143290
722.786158	2548.552806
723.118506	2548.245296
723.450805	2550.838970
723.783056	2547.867209
724.115259	2549.382076
724.447412	2548.414175
724.779518	2550.158414
725.111574	2548.943496
725.443582	2550.223949
725.775542	2549.170348
726.107453	2550.899463
726.439315	2551.948023
726.771129	2554.435833
727.102895	2551.595143
727.434612	2552.910884
727.766281	2552.462221
728.097901	2548.618341
728.429473	2547.945347
728.760996	2547.347971
729.092471	2546.680018
729.423897	2553.402396
729.755276	2552.381563
730.086606	2552.673950
730.417887	2554.831563
730.749120	2552.558003
731.080305	2551.443908
731.411442	2556.502706
731.742530	2555.043292
732.073570	2555.570093
732.404562	2552.784855
732.735506	2555.960782
733.066401	2555.406255
733.397249	2552.920966
733.728048	2551.267468
734.058798	2550.191181
734.389501	2549.956768
734.720156	2551.585060
735.050762	2548.119267
735.381320	2550.160934
735.711831	2549.987015
736.042293	2545.301262
736.372707	2549.540873
736.703073	2550.952396
737.033391	2550.614638
737.363661	2548.837632
737.693883	2547.670604
738.024056	2551.438867
738.354182	2548.555327
738.684260	2548.557848
739.014290	2550.430636
739.344272	2551.174206
739.674207	2546.833773
740.004093	2553.288970
740.333931	2552.207643
740.663722	2550.768393
740.993464	2548.217570
741.323159	2552.525236
741.652806	2550.168496
741.982405	2548.620862
742.311956	2548.656150
742.641460	2548.482230
742.970915	2546.090203
743.300323	2549.200595
743.629683	2546.402754
743.958996	2545.699513
744.288260	2548.883002
744.617477	2547.665563
744.946647	2543.413350
745.275768	2543.587270
745.604842	2545.465100
745.933869	2542.949564
746.262847	2542.500901
746.591778	2547.090872
746.920662	2543.836807
747.249498	2548.273022
747.578286	2545.959133
747.907027	2548.416695
748.235720	2546.276725
748.564365	2548.651109
748.892963	2549.170348
749.221514	2547.279915
749.550017	2546.959802
749.878473	2545.119781
750.206881	2543.756148
750.535242	2546.801005
750.863555	2546.637168
751.191821	2546.521221
751.520039	2545.238248
751.848210	2543.728422
752.176334	2547.907539
752.504411	2546.243958
752.832440	2544.731612
753.160421	2547.940306
753.488356	2544.101467
753.816243	2546.516180
754.144082	2545.238248
754.471875	2545.686910
754.799620	2543.446118
755.127318	2546.737991
755.454969	2544.789585
755.782572	2546.080120
756.110129	2545.472661
756.437638	2544.083823
756.765100	2547.922662
757.092515	2544.398896
757.419882	2541.931251
757.747203	2545.296221
758.074477	2544.366128
758.401703	2544.015768
758.728882	2545.374359
759.056014	2547.975594
759.383099	2543.418391
759.710138	2548.966181
760.037129	2546.533824
760.364073	2547.206818
760.690970	2547.244627
761.017820	2542.894111
761.344623	2548.086500
761.671379	2547.680687
761.998088	2544.915614
762.324751	2547.998279
762.651366	2551.978270
762.977935	2561.115362
763.304456	2561.717780
763.630931	2566.436300
763.957359	2561.937070
764.283740	2558.249466
764.610074	2554.009855
764.936362	2550.838970
765.262602	2548.416695
765.588796	2546.924514
765.914943	2548.699000
766.241044	2546.468289
766.567097	2543.733463
766.893104	2544.172044
767.219064	2542.863864
767.544978	2546.506098
767.870845	2543.350336
768.196665	2544.199770
768.522438	2544.363607
768.848165	2543.047866
769.173846	2545.419729
769.499479	2541.948895
769.825066	2540.996117
770.150607	2543.330171
770.476101	2542.442928
770.801548	2543.620037
771.126949	2543.514173
771.452303	2543.302445
771.777611	2540.081147
772.102872	2540.547454
772.428087	2538.662062
772.753256	2540.935623
773.078378	2539.907228
773.403453	2541.585932
773.728482	2539.637526
774.053465	2542.279090
774.378401	2539.924872
774.703291	2540.595345
775.028135	2537.409336
775.352932	2539.899666
775.677683	2540.040818
776.002388	2538.377237
776.327046	2541.185160
776.651658	2539.682896
776.976224	2542.042156
777.300743	2538.530992
777.625216	2540.807073
777.949643	2540.345808
778.274024	2538.082330
778.598359	2537.109387
778.922647	2536.532175
779.246889	2537.023687
779.571086	2537.205169
779.895236	2538.631816
780.219339	2536.829603
780.543397	2540.857485
780.867409	2538.999820
781.191374	2540.244985
781.515294	2538.515869
781.839167	2538.372196
782.162995	2537.878163
782.486776	2539.945036
782.810511	2539.763555
783.134201	2540.197094
783.457844	2539.430838
783.781441	2540.439069
784.104993	2536.264994
784.428498	2537.482433
784.751958	2538.195756
785.075372	2538.097453
785.398739	2538.841023
785.722061	2539.776158
786.045337	2537.628626
786.368568	2536.103677
786.691752	2539.637526
787.014891	2536.529654
787.337983	2537.754655
787.661030	2540.381096
787.984031	2541.734646
788.306987	2543.042825
788.629897	2543.788916
788.952760	2543.637681
789.275579	2541.500232
789.598351	2542.009389
789.921078	2542.959646
790.243759	2540.534851
790.566395	2541.013761
790.888984	2538.558719
791.211529	2539.219110
791.534027	2538.369676
791.856480	2536.597710
792.178888	2539.241795
792.501249	2538.092412
792.823566	2541.888401
793.145836	2537.681558
793.468062	2538.926723
793.790241	2536.832124
794.112375	2540.146682
794.434464	2537.109387
794.756507	2536.302802
795.078505	2540.582742
795.400457	2540.398740
795.722364	2533.759540
796.044226	2537.442103
796.366042	2533.008408
796.687812	2535.261804
797.009538	2537.714326
797.331218	2540.411343
797.652852	2540.673483
797.974442	2540.665921
798.295986	2539.919830
798.617484	2538.425128
798.938938	2538.962011
799.260346	2538.077289
799.581709	2538.231044
799.903026	2540.960829
800.224299	2538.657021
800.545526	2536.922864
800.866708	2538.422608
801.187845	2539.188863
801.508936	2538.843544
801.829983	2537.258101
802.150984	2537.966383
802.471940	2537.618544
802.792851	2535.198790
803.113717	2539.385468
803.434538	2540.600386
803.755314	2540.560057
804.076045	2540.171888
804.396731	2535.803728
804.717372	2538.999820
805.037967	2536.867412
805.358518	2533.857843
805.679024	2539.365303
805.999485	2538.649460
806.319901	2539.685417
806.640272	2536.448996
806.960598	2541.580891
807.280879	2538.226003
807.601115	2538.828421
807.921306	2534.775333
808.241453	2537.739531
808.561554	2536.910262
808.881611	2540.282793
809.201623	2538.914120
809.521590	2539.748431
809.841513	2536.922864
810.161390	2536.922864
810.481223	2538.042001
810.801011	2537.588297
811.120755	2536.229706
811.440453	2539.352701
811.760107	2536.746424
812.079716	2534.150230
812.399281	2531.405322
812.718801	2535.662576
813.038276	2530.883562
813.357707	2536.275076
813.677093	2538.440252
813.996434	2536.499408
814.315731	2536.343132
814.634983	2536.149047
814.954191	2535.937319
815.273354	2539.357742
815.592473	2536.554860
815.911547	2537.326157
816.230577	2538.982176
816.549562	2537.016126
816.868502	2537.457227
817.187399	2539.491332
817.506250	2537.658873
817.825058	2540.116435
818.143821	2540.814635
818.462539	2540.933102
818.781213	2539.052752
819.099843	2540.063503
819.418429	2542.735315
819.736970	2544.966025
820.055466	2546.185985
820.373919	2544.829914
820.692327	2549.251006
821.010691	2557.311811
821.329011	2571.590879
821.647286	2596.378233
821.965517	2622.798920
822.283704	2633.796197
822.601847	2644.738022
822.919945	2634.993471
823.237999	2614.314658
823.556010	2598.036773
823.873976	2585.769125
824.191897	2573.574573
824.509775	2566.907647
824.827609	2564.160219
825.145398	2561.937070
825.463144	2558.428427
825.780845	2558.940104
826.098502	2563.134344
826.416116	2566.690878
826.733685	2578.283011
827.051210	2581.784092
827.368692	2578.840059
827.686129	2569.995354
828.003522	2561.173335
828.320872	2551.814433
828.638177	2548.199926
828.955439	2544.030891
829.272656	2543.451159
829.589830	2541.230530
829.906960	2545.097095
830.224046	2539.766075
830.541088	2541.094419
830.858086	2539.876981
831.175041	2541.711961
831.491952	2538.679707
831.808819	2540.592824
832.125642	2543.854451
832.442421	2543.408309
832.759157	2543.879657
833.075849	2551.214536
833.392497	2557.654610
833.709101	2557.347099
834.025662	2560.681822
834.342179	2555.527243
834.658653	2552.265616
834.975083	2547.902497
835.291469	2552.991542
835.607811	2544.706406
835.924110	2541.974101
836.240366	2538.180632
836.556578	2538.591486
836.872746	2536.822041
837.188871	2539.244316
837.504952	2536.396064
837.820990	2539.075437
838.136984	2536.819521
838.452935	2535.927237
838.768842	2535.413039
839.084706	2538.538554
839.400526	2537.832793
839.716303	2540.923020
840.032037	2545.243289
840.347727	2546.155738
840.663373	2541.031405
840.978977	2540.232382
841.294537	2539.738349
841.610054	2537.182484
841.925527	2537.676517
842.240957	2533.930940
842.556344	2537.820190
842.871687	2534.097298
843.186987	2533.784746
843.502244	2535.418080
843.817458	2534.082174
844.132629	2531.491021
844.447756	2532.184180
844.762840	2530.442461
845.077881	2529.540095
845.392879	2529.978675
845.707833	2532.032945
846.022745	2528.647810
846.337613	2533.764582
846.652438	2531.778367
846.967221	2533.850281
847.281960	2529.943387
847.596656	2534.694674
847.911309	2532.791639
848.225919	2532.625281
848.540485	2536.005374
848.855009	2531.042358
849.169490	2532.534540
849.483928	2530.918850
849.798323	2533.331042
850.112675	2534.888759
850.426984	2531.186031
850.741251	2533.719211
851.055474	2531.193593
851.369654	2531.221319
851.683792	2531.112935
851.997887	2532.020342
852.311938	2534.009077
852.625947	2532.002698
852.939914	2531.798532
853.253837	2533.094108
853.567718	2535.118131
853.881555	2534.525796
854.195350	2533.381454
854.509103	2533.021011
854.822812	2533.235260
855.136479	2531.087729
855.450103	2531.279293
855.763685	2531.072605
856.077224	2532.766433
856.390720	2534.324150
856.704173	2532.418593
857.017584	2528.698222
857.330953	2530.941535
857.644278	2532.781557
857.957561	2535.478574
858.270802	2534.470343
858.584000	2533.134437
858.897155	2534.878677
859.210268	2531.269210
859.523339	2533.504962
859.836367	2529.651000
860.149352	2533.580579
860.462295	2533.900693
860.775195	2531.107893
861.088054	2527.916843
861.400869	2527.972296
861.713642	2526.727131
862.026373	2531.803573
862.339062	2533.051258
862.651708	2533.971269
862.964312	2531.284334
863.276873	2529.202337
863.589392	2531.128058
863.901869	2533.915816
864.214303	2531.914478
864.526696	2532.504293
864.839045	2530.664272
865.151353	2530.124868
865.463619	2534.727442
865.775842	2532.297606
866.088023	2531.294416
866.400162	2532.239633
866.712258	2532.882380
867.024313	2532.002698
867.336325	2531.796011
867.648296	2533.724252
867.960224	2533.731814
868.272110	2532.297606
868.583954	2534.939170
868.895755	2532.348017
869.207515	2531.916999
869.519233	2535.876825
869.830909	2532.917668
870.142542	2534.482946
870.454134	2531.682585
870.765684	2533.653676
871.077191	2531.319622
871.388657	2534.122503
871.700081	2532.877338
872.011463	2532.640404
872.322803	2534.041845
872.634101	2532.332894
872.945357	2531.228881
873.256571	2535.324819
873.567744	2533.935981
873.878874	2534.820703
874.189963	2533.930940
874.501010	2534.596372
874.812015	2532.867256
875.122979	2533.444468
875.433900	2534.853471
875.744780	2536.479243
876.055618	2534.175436
876.366415	2533.643594
876.677169	2535.191228
876.987882	2531.405322
877.298554	2531.647297
877.609183	2533.240302
877.919771	2531.075126
878.230317	2530.452543
878.540822	2536.920344
878.851285	2540.076106
879.161707	2539.577032
879.472087	2541.134748
879.782425	2543.599873
880.092722	2547.988197
880.402977	2554.745864
880.713191	2569.423183
881.023363	2582.898188
881.333494	2593.744230
881.643583	2596.242122
881.953631	2593.111565
882.263637	2589.066039
882.573602	2587.954465
882.883526	2580.092785
883.193408	2571.527865
883.503248	2564.634087
883.813048	2562.012687
884.122806	2555.189485
884.432522	2555.058415
884.742197	2549.692107
885.051831	2547.048022
885.361424	2541.825387
885.670975	2544.792106
885.980485	2538.941847
886.289954	2542.626930
886.599382	2538.125180
886.908768	2536.474202
887.218113	2536.643080
887.527417	2538.591486
887.836680	2537.358924
888.145901	2534.495549
888.455082	2533.673841
888.764221	2533.865405
889.073319	2535.186187
889.382376	2533.205013
889.691392	2534.724921
890.000366	2536.330529
890.309300	2533.154602
890.618193	2537.532844
890.927044	2535.176105
891.235855	2532.164015
891.544625	2534.213244
891.853353	2534.046886
892.162041	2534.253573
892.470687	2539.345139
892.779293	2536.113759
893.087858	2534.263656
893.396381	2537.119469
893.704864	2540.759182
894.013306	2540.131559
894.321707	2550.675132
894.630068	2551.184289
894.938387	2554.836605
895.246665	2551.849721
895.554903	2551.479196
895.863100	2547.547096
896.171256	2547.592467
896.479371	2542.947043
896.787446	2541.714481
897.095480	2542.057280
897.403473	2537.283307
897.711425	2536.829603
898.019336	2539.332536
898.327207	2536.842206
898.635038	2533.250384
898.942827	2535.823893
899.250576	2535.181146
899.558284	2536.814480
899.865952	2536.496887
900.173579	2534.886238
900.481165	2534.916485
900.788711	2532.645445
901.096216	2534.288862
901.403681	2535.750796
901.711105	2533.381454
902.018489	2533.714170
902.325832	2538.011754
902.633135	2534.959335
902.940397	2536.822041
903.247619	2537.089223
903.554800	2543.317568
903.861941	2549.316541
904.169041	2557.193344
904.476101	2562.453788
904.783121	2563.272976
905.090100	2559.361040
905.397039	2554.171172
905.703938	2546.609442
906.010796	2544.640871
906.317614	2541.215407
906.624391	2541.132228
906.931129	2536.756506
907.237826	2536.766589
907.544483	2533.608306
907.851099	2532.174097
908.157675	2532.088398
908.464211	2532.675692
908.770707	2528.552028
909.077163	2534.820703
909.383578	2527.120341
909.689954	2530.233253
909.996289	2527.584127
910.302584	2533.129396
910.608839	2534.417411
910.915054	2531.904396
911.221229	2531.203675
911.527363	2529.295599
911.833458	2530.442461
912.139513	2532.388347
912.445527	2530.868439
912.751502	2532.458923
913.057436	2531.652338
913.363331	2536.474202
913.669186	2536.033101
913.975000	2535.032432
914.280775	2536.060827
914.586510	2539.914789
914.892205	2542.566436
915.197859	2544.189688
915.503475	2546.864020
915.809050	2554.060267
916.114585	2556.515309
916.420081	2561.422872
916.725536	2559.562686
917.030952	2554.307283
917.336328	2552.043805
917.641665	2550.158414
917.946961	2547.063145
918.252218	2542.642053
918.557435	2539.067875
918.862612	2539.874460
919.167750	2539.919830
919.472848	2536.658204
919.777906	2534.984541
920.082925	2532.589993
920.387904	2535.140817
920.692843	2532.532019
920.997743	2535.871784
921.302603	2533.063861
921.607423	2534.503111
921.912204	2532.915147
922.216946	2532.365661
922.521647	2535.186187
922.826310	2532.413552
923.130932	2533.915816
923.435516	2529.804755
923.740059	2534.142668
924.044564	2530.691998
924.349028	2533.318439
924.653454	2527.619415
924.957840	2528.869621
925.262186	2527.826102
925.566493	2528.103366
925.870761	2527.049765
926.174989	2530.442461
926.479178	2531.385157
926.783328	2531.339787
927.087438	2529.237625
927.391509	2532.930271
927.695541	2529.903058
927.999533	2529.822399
928.303486	2530.240815
928.607400	2530.323994
928.911275	2529.446833
929.215110	2527.924405
929.518906	2526.936339
929.822663	2527.561442
930.126381	2528.433561
930.430060	2529.217461
930.733699	2529.396422
931.037299	2530.039169
931.340861	2530.215609
931.644383	2530.495393
931.947866	2529.431710
932.251309	2527.805938
932.554714	2529.903058
932.858080	2530.376926
933.161407	2526.706966
933.464694	2529.444313
933.767943	2530.679395
934.071153	2528.524302
934.374323	2529.489683
934.677455	2528.289888
934.980548	2530.797863
935.283602	2530.444982
935.586617	2528.065557
935.889593	2529.527492
936.192530	2531.193593
936.495428	2526.838036
936.798287	2529.041020
937.101108	2530.858356
937.403890	2528.441123
937.706632	2532.688295
938.009336	2529.852646
938.312002	2529.651000
938.614628	2529.502286
938.917216	2532.358100
939.219765	2532.799201
939.522275	2530.883562
939.824747	2534.147709
940.127179	2527.624456
940.429573	2527.579086
940.731929	2529.678726
941.034246	2526.217974
941.336524	2531.949766
941.638763	2530.013963
941.940964	2530.233253
942.243126	2530.863398
942.545250	2529.020856
942.847335	2528.751154
943.149381	2531.493542
943.451389	2530.394570
943.753359	2527.027079
944.055290	2529.701412
944.357182	2530.041689
944.659036	2529.971113
944.960851	2527.649662
945.262628	2526.691843
945.564367	2532.494211
945.866067	2531.261649
946.167729	2532.927750
946.469352	2530.387008
946.770937	2528.055475
947.072484	2527.011956
947.373992	2528.514220
947.675462	2528.799045
947.976893	2529.479601
948.278286	2530.056813
948.579641	2530.450023
948.880958	2527.294261
949.182236	2528.395753
949.483476	2528.889786
949.784678	2528.809127
950.085841	2526.764939
950.386967	2528.794004
950.688054	2528.403314
950.989103	2527.604292
951.290114	2529.701412
951.591087	2528.088242
951.892021	2526.245701
952.192917	2529.406504
952.493776	2531.301978
952.794596	2529.459436
953.095378	2529.393901
953.396122	2531.738038
953.696828	2531.352389
953.997496	2529.744261
954.298126	2528.483973
954.598718	2527.016997
954.899272	2529.953469
955.199788	2527.763088
955.500266	2528.509179
955.800706	2529.567821
956.101108	2522.737058
956.401472	2527.253931
956.701798	2523.715041
957.002087	2523.117665
957.302337	2529.381298
957.602550	2527.153108
957.902724	2527.795855
958.202861	2525.948273
958.502960	2527.924405
958.803022	2528.695701
959.103045	2528.196627
959.403031	2525.832326
959.702979	2529.608150
960.002889	2528.267203
960.302762	2526.457429
960.602596	2525.116482
960.902393	2527.082532
961.202153	2529.121679
961.501875	2524.960206
961.801559	2526.525485
962.101205	2527.493386
962.400814	2524.849301
962.700385	2524.831657
962.999918	2527.725279
963.299414	2528.068078
963.598873	2525.847449
963.898293	2526.475073
964.197677	2525.436595
964.497022	2526.666637
964.796331	2528.305012
965.095601	2526.580937
965.394835	2525.212264
965.694030	2527.216123
965.993189	2527.442975
966.292309	2527.150588
966.591393	2526.217974
966.890439	2525.547501
967.189447	2527.105217
967.488419	2526.994312
967.787353	2527.304343
968.086249	2524.927439
968.385108	2527.637059
968.683930	2525.502130
968.982714	2529.081350
969.281462	2527.276617
969.580172	2524.630011
969.878844	2523.094979
970.177480	2525.474404
970.476078	2526.303674
970.774639	2528.758716
971.073162	2526.245701
971.371649	2527.442975
971.670098	2520.521470
971.968510	2524.763601
972.266885	2523.430216
972.565223	2526.520443
972.863524	2525.766791
973.161788	2526.575896
973.460014	2527.967255
973.758204	2525.895340
974.056356	2529.484642
974.354471	2524.854342
974.652550	2525.164373
974.950591	2528.428520
975.248595	2526.754857
975.546563	2526.626308
975.844493	2526.018849
976.142386	2525.396266
976.440243	2525.182017
976.738062	2525.076153
977.035845	2525.799558
977.333590	2527.450536
977.631299	2525.678571
977.928971	2526.510361
978.226606	2524.433406
978.524204	2528.244518
978.821765	2526.091945
979.119290	2528.456247
979.416777	2524.695546
979.714228	2526.308715
980.011642	2526.359127
980.309020	2530.581093
980.606360	2525.088756
980.903664	2526.250742
981.200931	2523.107582
981.498162	2523.190761
981.795356	2525.194620
982.092513	2526.858201
982.389633	2525.900382
982.686717	2523.624301
982.983764	2529.456916
983.280775	2528.269724
983.577749	2529.701412
983.874686	2528.824251
984.171587	2526.835516
984.468451	2528.012625
984.765279	2527.067409
985.062070	2527.750485
985.358824	2525.527336
985.655543	2528.184024
985.952224	2525.310567
986.248869	2528.486493
986.545478	2522.795031
986.842050	2522.495082
987.138586	2522.174969
987.435086	2524.204033
987.731549	2521.814526
988.027975	2526.225536
988.324366	2525.131606
988.620719	2523.611698
988.917037	2528.529343
989.213318	2523.674712
989.509563	2524.451050
989.805772	2525.124044
990.101944	2525.383663
990.398080	2525.025741
990.694180	2526.160001
990.990244	2526.525485
991.286271	2526.931298
991.582262	2527.596730
991.878217	2524.665299
992.174136	2524.007428
992.470019	2524.095648
992.765865	2525.849970
993.061676	2525.693694
993.357450	2524.526667
993.653188	2525.189579
993.948890	2525.197141
994.244556	2525.960875
994.540186	2527.642100
994.835780	2522.593385
995.131337	2525.338293
995.426859	2524.272089
995.722345	2523.919208
996.017795	2526.598581
996.313208	2526.134795
996.608586	2526.994312
996.903928	2529.661082
997.199234	2526.341483
997.494504	2523.568848
997.789738	2527.619415
998.084936	2522.638755
998.380099	2526.192768
998.675225	2524.312418
998.970316	2527.450536
999.265371	2527.347193
999.560390	2522.343848
999.855373	2528.267203
1000.150320	2526.490197
1000.445232	2527.011956
1000.740108	2524.067922
1001.034948	2525.081194
1001.329752	2525.423993
1001.624521	2523.659589
1001.919254	2522.353930
1002.213951	2525.628159
1002.508613	2519.563651
1002.803239	2524.325021
1003.097829	2520.309742
1003.392384	2526.084384
1003.686903	2526.394415
1003.981386	2528.408356
1004.275834	2525.527336
1004.570246	2527.566483
1004.864623	2523.039527
1005.158964	2525.078673
1005.453270	2524.995494
1005.747540	2525.058509
1006.041775	2524.904754
1006.335974	2524.811492
1006.630138	2524.186389
1006.924266	2525.613036
1007.218359	2525.416431
1007.512416	2524.728313
1007.806438	2525.219826
1008.100425	2527.130423
1008.394376	2526.953983
1008.688292	2523.034486
1008.982172	2525.212264
1009.276017	2526.701925
1009.569827	2524.120854
1009.863602	2525.963396
1010.157341	2521.779238
1010.451045	2526.240659
1010.744714	2526.225536
1011.038347	2523.281502
1011.331945	2525.567665
1011.625508	2523.077335
1011.919036	2522.608508
1012.212528	2521.779238
1012.505986	2522.858045
1012.799408	2523.962058
1013.092795	2525.607995
1013.386147	2523.619259
1013.679464	2523.304187
1013.972745	2523.256296
1014.265992	2524.302336
1014.559204	2525.759229
1014.852380	2521.587674
1015.145521	2523.508354
1015.438628	2523.150432
1015.731699	2524.887110
1016.024736	2523.972140
1016.317737	2524.680422
1016.610703	2524.718231
1016.903635	2521.068436
1017.196531	2523.324352
1017.489393	2521.701100
1017.782219	2518.557941
1018.075011	2526.573376
1018.367768	2523.689836
1018.660490	2526.417100
1018.953177	2526.417100
1019.245829	2526.417100
