Dividing Wavelength (nm)	Counts (n)	Blue Motor Position (mm): 0.000000	Red Motor Position (mm): 14.300000	
326.493990	2127.218209
326.888308	2127.218209
327.282561	2127.218209
327.676750	2094.866604
328.070874	2093.427355
328.464933	2096.401636
328.858929	2101.117635
329.252859	2111.719182
329.646726	2125.466408
330.040528	2137.595424
330.434265	2153.036478
330.827938	2170.642708
331.221547	2189.189113
331.615091	2208.499253
332.008571	2228.996585
332.401986	2246.731364
332.795338	2266.311205
333.188625	2285.023968
333.581847	2307.288224
333.975006	2325.791780
334.368100	2341.142093
334.761129	2357.730010
335.154095	2374.945550
335.546996	2393.524723
335.939833	2407.105591
336.332606	2421.298960
336.725315	2436.563574
337.117960	2443.354008
337.510540	2454.764660
337.903056	2462.903603
338.295508	2470.566156
338.687896	2479.940182
339.080220	2488.752119
339.472480	2492.490134
339.864676	2499.068840
340.256807	2502.297699
340.648875	2507.296003
341.040879	2508.904131
341.432818	2511.860768
341.824694	2514.174658
342.216506	2510.678617
342.608253	2513.725995
342.999937	2515.006448
343.391557	2514.295645
343.783113	2511.661642
344.174605	2511.028978
344.566033	2507.013699
344.957397	2505.085457
345.348697	2505.531599
345.739934	2504.382216
346.131106	2501.544047
346.522215	2503.063955
346.913260	2499.595641
347.304241	2495.996257
347.695159	2495.570279
348.086012	2493.994919
348.476802	2494.052892
348.867528	2491.862511
349.258191	2489.084835
349.648789	2488.293374
350.039324	2487.421254
350.429796	2484.772128
350.820203	2482.617035
351.210548	2482.717858
351.600828	2482.501088
351.991045	2480.245172
352.381198	2484.530152
352.771288	2479.728453
353.161314	2478.233751
353.551276	2481.767600
353.941175	2480.613176
354.331010	2481.467652
354.720782	2479.413381
355.110490	2480.371201
355.500135	2478.309369
355.889717	2479.670480
356.279235	2478.329533
356.668689	2482.223825
357.058080	2478.223669
357.447408	2479.428505
357.836672	2476.557568
358.225873	2481.374390
358.615010	2478.327013
359.004084	2484.877992
359.393095	2484.633496
359.782043	2487.522077
360.170927	2484.736840
360.559748	2486.839001
360.948505	2486.909577
361.337199	2488.762201
361.725830	2487.985863
362.114398	2492.306132
362.502903	2489.183138
362.891344	2488.860504
363.279722	2489.074753
363.668037	2491.716317
364.056289	2492.313694
364.444478	2493.692450
364.832603	2489.256234
365.220665	2494.461226
365.608665	2494.312512
365.996601	2495.502224
366.384474	2495.744199
366.772284	2498.466422
367.160031	2497.506082
367.547715	2500.561022
367.935336	2503.449603
368.322893	2507.636281
368.710388	2509.365397
369.097820	2516.193640
369.485189	2516.042405
369.872495	2524.909795
370.259738	2530.132430
370.646918	2536.207021
371.034035	2544.817311
371.421090	2553.236038
371.808081	2566.572411
372.195010	2572.871332
372.581875	2591.016966
372.968678	2602.415015
373.355418	2611.468927
373.742096	2629.612040
374.128710	2643.253402
374.515262	2657.015752
374.901751	2673.759944
375.288177	2685.508353
375.674540	2709.174050
376.060841	2723.848849
376.447079	2747.320461
376.833254	2767.308636
377.219367	2780.390431
377.605417	2815.116419
377.991404	2823.724189
378.377329	2846.066583
378.763191	2863.335055
379.148991	2903.286200
379.534727	2924.897626
379.920402	2952.412244
380.306013	2968.208699
380.691563	3017.216277
381.077049	3040.524051
381.462474	3058.478121
381.847835	3094.625714
382.233134	3116.063221
382.618371	3114.515587
383.003545	3185.217770
383.388657	3190.463090
383.773706	3223.858214
384.158693	3239.468147
384.543618	3264.232815
384.928480	3300.269503
385.313280	3346.116277
385.698017	3344.785412
386.082692	3397.599061
386.467305	3401.281623
386.851856	3438.041717
387.236344	3456.653657
387.620770	3490.079028
388.005133	3512.673479
388.389435	3538.612737
388.773674	3552.609500
389.157851	3591.696087
389.541965	3606.242336
389.926018	3571.594486
390.310008	3641.026297
390.693936	3658.856859
391.077802	3695.579144
391.461606	3682.913245
391.845348	3741.173860
392.229027	3736.926688
392.612645	3743.744848
392.996200	3812.228923
393.379694	3843.242102
393.763125	3895.523908
394.146494	3855.292980
394.529801	3903.662851
394.913047	3933.521605
395.296230	3886.901015
395.679351	3922.519287
396.062410	3924.994494
396.445408	3890.477713
396.828343	3901.696801
397.211217	3901.691760
397.594028	3807.530568
397.976778	3848.086651
398.359466	3845.114890
398.742092	3843.121114
399.124656	3750.739449
399.507158	3793.954741
399.889598	3786.566930
400.271977	3803.953869
400.654294	3748.702823
401.036549	3722.887074
401.418742	3666.461439
401.800874	3704.771688
402.182944	3681.842000
402.564952	3689.139070
402.946898	3646.974859
403.328783	3603.625977
403.710606	3518.165817
404.092367	3584.146959
404.474067	3529.339534
404.855705	3493.950634
405.237282	3419.875919
405.618797	3435.836213
406.000250	3409.841503
406.381642	3405.695154
406.762972	3347.129549
407.144240	3314.236020
407.525447	3276.429887
407.906593	3261.044285
408.287677	3236.337590
408.668700	3171.883918
409.049661	3153.047646
409.430560	3130.324645
409.811399	3076.374217
410.192176	3076.588466
410.572891	3032.324615
410.953545	3021.120650
411.334138	2965.559573
411.714669	2946.118363
412.095139	2900.838719
412.475547	2894.171793
412.855894	2864.827237
413.236180	2837.547033
413.616405	2808.351190
413.996568	2796.247380
414.376670	2766.870056
414.756711	2742.876684
415.136691	2727.060064
415.516609	2716.012375
415.896466	2703.565767
416.276262	2689.493386
416.655997	2666.455312
417.035670	2663.213851
417.415283	2655.528612
417.794834	2638.688637
418.174324	2626.536936
418.553753	2612.593104
418.933121	2612.144442
419.312428	2603.365272
419.691674	2592.118458
420.070859	2585.207036
420.449983	2575.722105
420.829045	2573.851837
421.208047	2564.220712
421.586988	2561.218705
421.965867	2556.681667
422.344686	2555.577654
422.723444	2553.430123
423.102141	2544.310675
423.480777	2546.828732
423.859352	2544.696324
424.237866	2543.977959
424.616319	2538.951929
424.994712	2542.221117
425.373044	2536.338091
425.751314	2537.825231
426.129524	2534.520755
426.507673	2536.534696
426.885762	2535.458409
427.263789	2536.222144
427.641756	2534.523275
428.019662	2532.698378
428.397508	2532.763913
428.775292	2534.467823
429.153016	2535.208872
429.530679	2532.327853
429.908282	2532.247194
430.285824	2532.348017
430.663305	2532.118645
431.040726	2531.158305
431.418086	2531.738038
431.795385	2530.082019
432.172624	2531.226361
432.549802	2531.702750
432.926920	2531.790970
433.303977	2528.380629
433.680974	2533.222658
434.057910	2532.300126
434.434786	2532.965559
434.811601	2531.465815
435.188355	2534.190559
435.565050	2530.409694
435.941683	2532.282482
436.318257	2530.470187
436.694770	2528.194107
437.071222	2529.550177
437.447614	2529.560259
437.823946	2530.132430
438.200218	2531.478418
438.576429	2532.526978
438.952580	2530.288706
439.328670	2532.837009
439.704700	2530.467667
440.080670	2533.406660
440.456580	2533.434386
440.832429	2534.268697
441.208218	2531.153264
441.583947	2534.452699
441.959616	2530.354241
442.335224	2532.050589
442.710773	2533.822555
443.086261	2535.687782
443.461689	2532.776515
443.837057	2535.559232
444.212365	2532.413552
444.587612	2534.193080
444.962800	2534.079654
445.337927	2534.384643
445.712995	2531.155784
446.088002	2536.539737
446.462949	2532.516896
446.837837	2534.729962
447.212664	2536.476722
447.587431	2534.044366
447.962139	2536.378420
448.336786	2539.115766
448.711374	2537.709284
449.085901	2538.321785
449.460369	2537.328677
449.834776	2537.237937
450.209124	2537.321116
450.583412	2537.177443
450.957640	2539.032587
451.331808	2537.121990
451.705917	2537.953780
452.079965	2535.627288
452.453954	2535.859181
452.827883	2536.693492
453.201752	2535.849099
453.575562	2537.389171
453.949311	2536.837165
454.323001	2536.421270
454.696632	2537.880684
455.070202	2539.768596
455.443713	2536.635519
455.817164	2538.069727
456.190556	2535.110570
456.563888	2536.786753
456.937160	2534.853471
457.310373	2540.648277
457.683526	2538.495704
458.056619	2536.872453
458.429653	2537.668955
458.802628	2539.461085
459.175542	2539.970242
459.548398	2541.389327
459.921194	2540.035777
460.293930	2541.253216
460.666607	2546.339740
461.039224	2546.745553
461.411782	2543.383103
461.784280	2545.840666
462.156719	2544.933258
462.529099	2545.891077
462.901419	2542.700027
463.273680	2544.025850
463.645882	2542.548792
464.018024	2544.590459
464.390106	2545.918803
464.762130	2546.609442
465.134094	2546.498536
465.505999	2549.339226
465.877845	2552.618497
466.249631	2555.474311
466.621358	2553.157900
466.993026	2558.655279
467.364634	2556.018755
467.736184	2552.124464
468.107674	2550.329813
468.479105	2549.969371
468.850477	2551.322920
469.221790	2551.816953
469.593043	2549.203115
469.964238	2549.145142
470.335373	2547.000131
470.706449	2549.818136
471.077467	2551.111192
471.448425	2553.319217
471.819324	2558.471277
472.190164	2558.153684
472.560945	2555.373487
472.931667	2551.622869
473.302330	2551.385935
473.672934	2546.450645
474.043479	2549.296377
474.413965	2552.842828
474.784393	2544.771941
475.154761	2548.572971
475.525070	2546.478372
475.895321	2549.780327
476.265513	2545.775131
476.635645	2552.144628
477.005719	2550.647406
477.375734	2555.134033
477.745691	2553.273847
478.115588	2554.367777
478.485427	2552.807540
478.855207	2556.459856
479.224928	2557.594116
479.594591	2558.796431
479.964194	2556.205278
480.333739	2557.321893
480.703226	2561.049827
481.072653	2556.638817
481.442022	2558.604867
481.811333	2559.242573
482.180584	2558.786349
482.549777	2556.923642
482.918912	2557.286605
483.287988	2557.475649
483.657005	2555.736451
484.025964	2553.518343
484.394864	2555.965823
484.763706	2555.718807
485.132489	2554.539177
485.501213	2557.742830
485.869879	2555.789383
486.238487	2555.602860
486.607036	2553.669577
486.975527	2556.071687
487.343959	2555.416337
487.712333	2556.989177
488.080648	2554.294681
488.448905	2556.434650
488.817104	2554.055226
489.185244	2553.732592
489.553326	2555.726368
489.921350	2556.043961
490.289315	2560.830537
490.657222	2562.955383
491.025070	2561.808520
491.392861	2562.307595
491.760593	2560.767522
492.128267	2560.172666
492.495883	2556.225443
492.863440	2559.784497
493.230939	2554.909701
493.598380	2555.071018
493.965763	2551.574978
494.333088	2553.485575
494.700354	2552.961295
495.067563	2553.954403
495.434713	2549.971891
495.801805	2553.775442
496.168839	2555.560010
496.535815	2556.238045
496.902733	2554.559341
497.269593	2556.714434
497.636395	2555.958261
498.003139	2556.971533
498.369825	2555.139074
498.736453	2558.325083
499.103023	2555.711245
499.469535	2556.449774
499.835989	2555.330638
500.202385	2556.537994
500.568723	2555.575134
500.935003	2557.029507
501.301226	2554.544218
501.667390	2557.770556
502.033497	2557.692418
502.399546	2557.722665
502.765537	2557.611760
503.131470	2558.466235
503.497345	2555.391132
503.863163	2555.212171
504.228923	2554.571944
504.594625	2553.349464
504.960269	2557.082439
505.325856	2557.846173
505.691385	2553.709907
506.056856	2559.038406
506.422270	2556.169990
506.787625	2554.869372
507.152924	2554.302242
507.518164	2557.846173
507.883347	2557.926832
508.248472	2556.797613
508.613540	2555.539846
508.978550	2557.886503
509.343503	2556.457336
509.708398	2555.968344
510.073236	2557.405072
510.438016	2557.616801
510.802738	2553.346944
511.167403	2554.869372
511.532010	2555.000442
511.896561	2557.589075
512.261053	2559.769374
512.625488	2553.072201
512.989866	2552.875596
513.354186	2556.457336
513.718449	2551.779145
514.082655	2557.573951
514.446803	2555.665874
514.810894	2556.565720
515.174927	2559.376164
515.538904	2556.200237
515.902822	2559.779456
516.266684	2556.606050
516.630488	2554.813919
516.994235	2559.121585
517.357925	2558.710731
517.721558	2556.928683
518.085133	2558.927501
518.448651	2557.694939
518.812112	2555.945658
519.175516	2556.243087
519.538863	2555.991029
519.902152	2558.004970
520.265385	2558.461194
520.628560	2556.114537
520.991678	2558.632593
521.354739	2558.819116
521.717743	2559.235011
522.080690	2557.130330
522.443580	2557.226112
522.806413	2561.473284
523.169189	2561.125444
523.531908	2558.703170
523.894569	2557.314332
524.257174	2557.889023
524.619722	2557.054712
524.982213	2559.396328
525.344647	2560.021431
525.707025	2560.777604
526.069345	2559.295505
526.431608	2556.774928
526.793815	2556.822819
527.155964	2555.751574
527.518057	2560.432285
527.880093	2558.342727
528.242072	2560.210475
528.603995	2560.550753
528.965860	2553.840977
529.327669	2558.204095
529.689421	2559.030845
530.051117	2559.590413
530.412755	2560.134857
530.774337	2560.422203
531.135862	2559.411452
531.497331	2556.394321
531.858743	2551.675801
532.220098	2558.098231
532.581396	2554.458518
532.942638	2554.382901
533.303824	2556.081770
533.664953	2558.640155
534.026025	2557.377346
534.387040	2559.787018
534.747999	2557.132850
535.108902	2558.350289
535.469748	2556.744681
535.830537	2556.487582
536.191270	2557.934394
536.551947	2558.171328
536.912567	2557.342058
537.273131	2559.827347
537.633638	2556.885834
537.994089	2559.658468
538.354483	2554.685370
538.714821	2559.716442
539.075103	2559.275341
539.435328	2556.984136
539.795497	2556.893395
540.155609	2558.952707
540.515665	2556.842984
540.875665	2558.209137
541.235609	2556.883313
541.595496	2557.757953
541.955328	2556.737120
542.315102	2555.592778
542.674821	2556.802655
543.034483	2560.689384
543.394090	2557.999929
543.753640	2562.211813
544.113134	2557.042109
544.472571	2557.115206
544.831953	2557.223591
545.191278	2558.861966
545.550548	2559.010680
545.909761	2556.190154
546.268918	2556.056564
546.628019	2559.653427
546.987064	2556.863148
547.346053	2556.908519
547.704986	2555.834753
548.063863	2560.059240
548.422684	2556.490103
548.781449	2558.370453
549.140158	2557.571431
549.498811	2557.883982
549.857408	2557.952038
550.215949	2555.829712
550.574434	2552.666388
550.932864	2554.196378
551.291237	2552.802499
551.649555	2554.927345
552.007817	2555.948179
552.366022	2557.813406
552.724173	2554.093034
553.082267	2558.446071
553.440305	2558.733417
553.798288	2555.507078
554.156215	2556.754764
554.514086	2557.818447
554.871902	2556.059084
555.229661	2556.747202
555.587365	2556.900957
555.945014	2557.800803
556.302606	2556.439692
556.660143	2560.336503
557.017625	2557.778118
557.375050	2557.823488
557.732421	2557.452963
558.089735	2557.137891
558.446994	2559.000598
558.804197	2557.392470
559.161345	2560.500341
559.518437	2558.811554
559.875474	2555.368446
560.232455	2557.614280
560.589381	2558.378015
560.946251	2560.152501
561.303065	2558.957748
561.659825	2556.371636
562.016528	2558.130999
562.373177	2554.743343
562.729770	2558.609908
563.086307	2556.694270
563.442789	2560.825495
563.799216	2559.860114
564.155587	2558.773746
564.511904	2557.762994
564.868164	2557.021945
565.224370	2557.384908
565.580520	2556.903478
565.936615	2559.171997
566.292654	2557.521019
566.648638	2556.767367
567.004567	2558.229301
567.360441	2555.081101
567.716260	2556.180072
568.072023	2554.894578
568.427732	2552.880637
568.783385	2556.076728
569.138982	2551.935421
569.494525	2553.929197
569.850013	2550.395348
570.205445	2557.311811
570.560823	2557.261400
570.916145	2556.827860
571.271412	2555.348282
571.626625	2555.890206
571.981782	2554.934907
572.336884	2555.328117
572.691931	2559.252655
573.046923	2554.758467
573.401860	2556.139743
573.756743	2555.882644
574.111570	2555.108827
574.466342	2557.548745
574.821059	2556.994218
575.175722	2555.658313
575.530330	2554.571944
575.884882	2555.393652
576.239380	2555.902809
576.593823	2559.078736
576.948211	2557.810885
577.302544	2554.513971
577.656823	2555.834753
578.011047	2553.629248
578.365216	2556.197716
578.719330	2555.466749
579.073389	2554.476162
579.427394	2555.870041
579.781344	2553.704866
580.135239	2555.970864
580.489080	2556.520350
580.842866	2554.085473
581.196597	2553.228477
581.550273	2557.178221
581.903895	2552.167314
582.257463	2554.350133
582.610975	2556.033879
582.964434	2556.842984
583.317837	2555.585216
583.671186	2553.866183
584.024481	2556.064126
584.377721	2556.580844
584.730906	2554.944989
585.084037	2554.909701
585.437113	2553.346944
585.790135	2555.988508
586.143103	2554.534135
586.496016	2555.769218
586.848874	2555.552448
587.201679	2552.694114
587.554428	2550.690256
587.907124	2550.468445
588.259765	2551.494320
588.612352	2554.854249
588.964884	2552.865513
589.317362	2552.747046
589.669786	2552.787376
590.022155	2553.830894
590.374470	2554.277037
590.726731	2553.765359
591.078937	2553.969526
591.431090	2555.370967
591.783188	2554.193858
592.135232	2554.133364
592.487222	2553.425082
592.839157	2553.525905
593.191038	2556.164949
593.542866	2554.125802
593.894639	2554.193857
594.246358	2553.941800
594.598022	2551.138918
594.949633	2552.684032
595.301190	2551.920297
595.652692	2552.641182
596.004141	2551.206974
596.355535	2550.975081
596.706876	2553.457849
597.058162	2550.760832
597.409395	2551.953065
597.760573	2553.977088
598.111698	2551.471634
598.462768	2551.247303
598.813785	2550.927190
599.164748	2551.766542
599.515657	2554.292160
599.866511	2553.921635
600.217312	2552.220246
600.568060	2550.675132
600.918753	2553.248641
601.269392	2551.353167
601.619978	2555.166800
601.970510	2552.704197
602.320988	2552.903322
602.671412	2552.802499
603.021783	2550.193702
603.372100	2555.219732
603.722363	2551.958106
604.072572	2552.711758
604.422728	2553.268806
604.772830	2549.525749
605.122878	2546.901828
605.472872	2551.005328
605.822813	2548.494833
606.172701	2550.707900
606.522534	2552.310987
606.872314	2554.012376
607.222041	2555.774259
607.571714	2551.136398
607.921333	2552.699155
608.270899	2552.152190
608.620411	2554.340051
608.969870	2553.641851
609.319276	2555.134033
609.668627	2556.903478
610.017926	2558.781307
610.367171	2559.519837
610.716362	2563.154508
611.065500	2561.130485
611.414585	2555.192006
611.763616	2556.094372
612.112594	2554.322407
612.461518	2555.902809
612.810389	2554.461039
613.159207	2554.125802
613.507971	2552.837787
613.856682	2556.147305
614.205340	2552.295863
614.553945	2551.602704
614.902496	2553.853580
615.250994	2553.041954
615.599439	2552.353836
615.947830	2553.518343
616.296169	2553.563713
616.644454	2551.514484
616.992686	2549.495502
617.340864	2554.687891
617.688990	2552.857952
618.037063	2556.127140
618.385082	2549.301418
618.733048	2552.154711
619.080961	2551.315359
619.428821	2553.236038
619.776628	2555.076059
620.124382	2551.660678
620.472083	2552.915925
620.819731	2555.945658
621.167326	2553.243600
621.514868	2554.138405
621.862357	2555.128992
622.209793	2553.682180
622.557176	2552.542880
622.904506	2549.629093
623.251783	2547.632796
623.599007	2550.831408
623.946179	2551.632951
624.293297	2549.228321
624.640363	2550.178578
624.987376	2552.623538
625.334336	2549.918959
625.681243	2552.701676
626.028097	2549.107333
626.374899	2552.636141
626.721647	2551.663198
627.068343	2550.846531
627.414987	2550.806202
627.761577	2550.468445
628.108115	2550.407951
628.454600	2551.471634
628.801032	2549.508105
629.147412	2551.179247
629.493739	2552.119423
629.840014	2550.758311
630.186236	2549.838301
630.532405	2550.365101
630.878521	2550.415513
631.224585	2549.676984
631.570597	2549.177909
631.916556	2550.276881
632.262462	2549.651778
632.608316	2549.939124
632.954117	2549.114895
633.299866	2552.021120
633.645562	2547.978115
633.991206	2546.473330
634.336797	2546.029709
634.682336	2548.716644
635.027823	2547.537014
635.373257	2545.596170
635.718639	2545.162630
636.063968	2548.086500
636.409245	2548.023485
636.754470	2546.054915
637.099642	2546.753114
637.444762	2550.042467
637.789829	2549.059442
638.134845	2547.259750
638.479808	2548.187323
638.824719	2548.157076
639.169577	2546.748073
639.514383	2544.005686
639.859137	2545.439894
640.203839	2548.434339
640.548489	2548.139432
640.893086	2543.347815
641.237632	2541.906045
641.582125	2545.470141
641.926566	2543.587270
642.270955	2545.467620
642.615292	2547.123639
642.959576	2546.251520
643.303809	2548.459545
643.647990	2549.180430
643.992118	2548.542724
644.336195	2546.725388
644.680219	2543.441076
645.024192	2549.424926
645.368112	2547.481561
645.711981	2545.351674
646.055797	2546.559030
646.399562	2548.585574
646.743274	2546.813608
647.086935	2550.896943
647.430544	2546.448125
647.774101	2547.912580
648.117606	2547.017775
648.461059	2548.071376
648.804460	2546.730429
649.147810	2548.557847
649.491108	2545.523073
649.834354	2545.215563
650.177548	2547.249668
650.520690	2545.749925
650.863781	2546.027188
651.206820	2549.044319
651.549807	2545.588608
651.892742	2547.910059
652.235626	2544.847558
652.578458	2543.297403
652.921238	2544.683721
653.263967	2542.974770
653.606644	2545.386962
653.949269	2544.976108
654.291843	2546.070038
654.634365	2547.287477
654.976836	2544.895449
655.319255	2547.340409
655.661622	2544.086344
656.003938	2546.851417
656.346203	2545.946530
656.688416	2544.535007
657.030577	2541.444779
657.372687	2545.749925
657.714746	2541.016281
658.056753	2545.303783
658.398708	2541.069213
658.740612	2542.909235
659.082465	2540.575180
659.424266	2542.931920
659.766016	2538.979655
660.107715	2545.644061
660.449362	2542.914276
660.790958	2543.526776
661.132503	2545.608773
661.473996	2544.129194
661.815438	2546.533824
662.156829	2547.118598
662.498168	2545.515511
662.839456	2546.871582
663.180693	2545.278577
663.521879	2542.828576
663.863013	2543.748587
664.204097	2545.817980
664.545129	2545.477702
664.886110	2546.584236
665.227040	2543.766231
665.567918	2545.770089
665.908746	2542.105171
666.249522	2543.244471
666.590248	2544.945861
666.930922	2544.993752
667.271545	2546.722867
667.612118	2547.423588
667.952639	2543.103319
668.293109	2546.115408
668.633528	2546.826211
668.973896	2544.658515
669.314213	2544.141797
669.654480	2544.973587
669.994695	2541.906045
670.334859	2546.629606
670.674973	2544.235058
671.015035	2548.252858
671.355047	2545.911242
671.695008	2544.587939
672.034918	2547.237065
672.374777	2545.351674
672.714585	2544.018288
673.054342	2544.824873
673.394049	2546.778320
673.733705	2546.475851
674.073310	2545.533155
674.412864	2543.609955
674.752368	2543.307486
675.091820	2545.029040
675.431223	2542.984852
675.770574	2543.567105
676.109875	2538.853626
676.449125	2542.906714
676.788324	2539.423277
677.127473	2542.226158
677.466571	2538.730118
677.805619	2543.778834
678.144616	2539.902186
678.483562	2541.880839
678.822458	2542.911755
679.161303	2542.495860
679.500098	2543.400747
679.838842	2543.751107
680.177535	2545.560882
680.516179	2545.074410
680.854771	2543.519214
681.193314	2545.442414
681.531805	2543.446117
681.870247	2546.990049
682.208638	2543.425953
682.546978	2546.962322
682.885268	2544.552651
683.223508	2546.133053
683.561697	2546.095244
683.899836	2544.126673
684.237925	2545.560882
684.575963	2543.176416
684.913951	2544.277908
685.251889	2546.921993
685.589776	2544.204811
685.927614	2545.243289
686.265401	2543.564585
686.603137	2546.344781
686.940824	2547.907539
687.278460	2545.820501
687.616046	2545.036602
687.953582	2543.322609
688.291068	2547.789072
688.628504	2542.286652
688.965889	2545.016437
689.303224	2545.558361
689.640510	2546.034750
689.977745	2544.479554
690.314930	2543.950233
690.652065	2544.719009
690.989150	2541.815304
691.326185	2544.172044
691.663170	2541.233051
692.000105	2544.522404
692.336990	2542.485778
692.673825	2541.154913
693.010610	2543.695655
693.347345	2538.122659
693.684030	2536.567463
694.020665	2539.640046
694.357251	2534.911444
694.693786	2541.878319
695.030272	2544.156920
695.366707	2543.062990
695.703093	2540.834800
696.039429	2541.157434
696.375716	2542.097609
696.711952	2543.168854
697.048139	2542.689944
697.384276	2541.283463
697.720363	2540.670962
698.056400	2543.342774
698.392388	2543.632640
698.728326	2542.884029
699.064214	2543.062990
699.400053	2539.667773
699.735842	2541.923689
700.071581	2541.374203
700.407270	2538.977135
700.742910	2539.624923
701.078501	2541.689275
701.414042	2541.212886
701.749533	2539.824048
702.084974	2542.069882
702.420366	2538.311702
702.755709	2541.371683
703.091002	2540.812115
703.426246	2540.691127
703.761440	2542.846220
704.096584	2540.570139
704.431679	2540.575180
704.766725	2539.700540
705.101721	2539.917310
705.436668	2541.827907
705.771565	2541.154913
706.106413	2540.953267
706.441212	2542.286652
706.775961	2540.270191
707.110661	2539.035108
707.445311	2541.885880
707.779913	2541.069213
708.114465	2541.593493
708.448967	2541.848072
708.783421	2539.302289
709.117825	2539.075437
709.452180	2542.463093
709.786485	2540.930582
710.120742	2539.456044
710.454949	2544.731612
710.789107	2537.444624
711.123216	2539.488812
711.457275	2534.359438
711.791286	2537.505118
712.125247	2539.209028
712.459159	2541.112063
712.793023	2540.537372
713.126837	2540.597866
713.460602	2543.380582
713.794318	2542.037115
714.127985	2539.781199
714.461602	2539.387989
714.795171	2539.604758
715.128691	2541.485109
715.462162	2541.858154
715.795584	2541.984183
716.128957	2542.382434
716.462281	2540.456713
716.795556	2538.568801
717.128782	2539.965201
717.461960	2540.068544
717.795088	2537.258101
718.128167	2539.871939
718.461198	2537.527803
718.794180	2540.295396
719.127113	2540.928061
719.459997	2539.897145
719.792833	2539.322454
720.125619	2544.015768
720.458357	2541.187681
720.791046	2541.205325
721.123686	2539.569470
721.456278	2537.731970
721.788821	2538.185673
722.121315	2540.436549
722.453761	2539.934954
722.786158	2539.955118
723.118506	2535.791125
723.450805	2538.493184
723.783056	2538.493184
724.115259	2540.058462
724.447412	2540.083668
724.779518	2539.425797
725.111574	2541.795140
725.443582	2539.327495
725.775542	2539.067875
726.107453	2538.672145
726.439315	2539.448483
726.771129	2542.707588
727.102895	2540.832279
727.434612	2538.289017
727.766281	2538.578883
728.097901	2540.335726
728.429473	2535.649973
728.760996	2535.889428
729.092471	2532.831968
729.423897	2539.289686
729.755276	2537.454706
730.086606	2535.014788
730.417887	2540.421425
730.749120	2540.615510
731.080305	2538.508307
731.411442	2538.979655
731.742530	2538.520910
732.073570	2541.911086
732.404562	2540.784388
732.735506	2539.778678
733.066401	2537.484953
733.397249	2540.335726
733.728048	2537.837834
734.058798	2539.713143
734.389501	2538.258770
734.720156	2539.602238
735.050762	2538.750283
735.381320	2538.042001
735.711831	2540.058462
736.042293	2538.999820
736.372707	2540.456713
736.703073	2538.977135
737.033391	2543.617517
737.363661	2537.923533
737.693883	2541.480068
738.024056	2541.563247
738.354182	2539.798843
738.684260	2538.049562
739.014290	2538.465457
739.344272	2536.330529
739.674207	2539.072917
740.004093	2541.434697
740.333931	2539.536703
740.663722	2537.595858
740.993464	2537.348842
741.323159	2540.610468
741.652806	2537.963863
741.982405	2541.533000
742.311956	2539.763555
742.641460	2542.067362
742.970915	2536.917823
743.300323	2537.613502
743.629683	2538.977135
743.958996	2537.245498
744.288260	2538.110056
744.617477	2538.359593
744.946647	2534.503111
745.275768	2537.532844
745.604842	2534.062010
745.933869	2535.213913
746.262847	2535.329860
746.591778	2536.728780
746.920662	2539.012423
747.249498	2538.861188
747.578286	2536.542257
747.907027	2538.987217
748.235720	2539.186342
748.564365	2538.568801
748.892963	2536.481763
749.221514	2538.583925
749.550017	2536.164171
749.878473	2539.062834
750.206881	2539.146013
750.535242	2535.178625
750.863555	2539.224151
751.191821	2536.512010
751.520039	2538.833462
751.848210	2536.509490
752.176334	2536.466640
752.504411	2536.212062
752.832440	2537.058976
753.160421	2536.753986
753.488356	2535.730632
753.816243	2538.417567
754.144082	2537.235416
754.471875	2538.162988
754.799620	2535.690302
755.127318	2537.308513
755.454969	2535.980169
755.782572	2537.298430
756.110129	2534.974458
756.437638	2534.971938
756.765100	2533.431865
757.092515	2536.844727
757.419882	2536.262473
757.747203	2534.976979
758.074477	2537.923533
758.401703	2534.820703
758.728882	2537.207690
759.056014	2538.677186
759.383099	2537.565612
759.710138	2537.691640
760.037129	2538.629295
760.364073	2536.970755
760.690970	2533.762061
761.017820	2537.018646
761.344623	2536.353214
761.671379	2539.408153
761.998088	2532.111083
762.324751	2535.919675
762.651366	2536.068389
762.977935	2540.917979
763.304456	2537.857998
763.630931	2545.061807
763.957359	2540.519728
764.283740	2540.509645
764.610074	2538.059645
764.936362	2539.498894
765.262602	2539.415715
765.588796	2539.592155
765.914943	2536.459078
766.241044	2537.003523
766.567097	2536.388502
766.893104	2534.661907
767.219064	2538.692309
767.544978	2538.296579
767.870845	2537.860519
768.196665	2536.519572
768.522438	2536.363296
768.848165	2539.108205
769.173846	2535.839016
769.499479	2538.800694
769.825066	2535.460930
770.150607	2536.214582
770.476101	2535.823893
770.801548	2535.922195
771.126949	2540.111394
771.452303	2533.608306
771.777611	2535.493697
772.102872	2534.266176
772.428087	2531.183511
772.753256	2532.635363
773.078378	2531.299457
773.403453	2535.808769
773.728482	2532.935312
774.053465	2533.066382
774.378401	2536.128883
774.703291	2534.765251
775.028135	2534.855991
775.352932	2535.579397
775.677683	2535.239119
776.002388	2537.124511
776.327046	2533.719211
776.651658	2534.528316
776.976224	2534.180477
777.300743	2535.803728
777.625216	2534.432534
777.949643	2535.037473
778.274024	2533.648635
778.598359	2530.137471
778.922647	2528.854498
779.246889	2533.560415
779.571086	2527.427851
779.895236	2534.152750
780.219339	2534.160312
780.543397	2534.220806
780.867409	2534.140147
781.191374	2535.244160
781.515294	2535.828934
781.839167	2534.409849
782.162995	2535.614685
782.486776	2535.776002
782.810511	2533.517565
783.134201	2535.085364
783.457844	2533.638553
783.781441	2535.700385
784.104993	2534.419932
784.428498	2535.924716
784.751958	2532.595034
785.075372	2534.087215
785.398739	2532.088398
785.722061	2534.495549
786.045337	2537.265663
786.368568	2532.612678
786.691752	2533.671320
787.014891	2534.223327
787.337983	2532.524458
787.661030	2537.447144
787.984031	2536.736342
788.306987	2534.964376
788.629897	2535.155940
788.952760	2536.464119
789.275579	2536.252391
789.598351	2534.397246
789.921078	2534.792977
790.243759	2534.908923
790.566395	2536.759027
790.888984	2535.609644
791.211529	2531.349869
791.534027	2531.856505
791.856480	2534.838347
792.178888	2537.600900
792.501249	2533.688964
792.823566	2535.246681
793.145836	2535.823893
793.468062	2535.569315
793.790241	2534.659386
794.112375	2535.350024
794.434464	2536.479243
794.756507	2530.523120
795.078505	2532.693336
795.400457	2530.931453
795.722364	2527.879034
796.044226	2529.338448
796.366042	2531.705270
796.687812	2533.757020
797.009538	2534.891279
797.331218	2534.619057
797.652852	2534.593851
797.974442	2535.680220
798.295986	2534.616537
798.617484	2533.081505
798.938938	2533.084026
799.260346	2534.273738
799.581709	2532.340456
799.903026	2534.697195
800.224299	2533.630991
800.545526	2532.983203
800.866708	2532.537061
801.187845	2535.039993
801.508936	2534.568646
801.829983	2533.373892
802.150984	2532.978162
802.471940	2532.607637
802.792851	2532.219468
803.113717	2531.080167
803.434538	2534.603934
803.755314	2531.627132
804.076045	2533.378933
804.396731	2534.682072
804.717372	2535.312216
805.037967	2530.949097
805.358518	2534.019160
805.679024	2533.235260
805.999485	2533.033614
806.319901	2531.833820
806.640272	2531.425486
806.960598	2530.881042
807.280879	2532.501772
807.601115	2537.366486
807.921306	2536.156609
808.241453	2534.251053
808.561554	2535.753317
808.881611	2533.537730
809.201623	2531.390198
809.521590	2534.561084
809.841513	2535.539068
810.161390	2535.602082
810.481223	2532.831968
810.801011	2532.718542
811.120755	2535.806249
811.440453	2535.763399
811.760107	2531.783408
812.079716	2532.796680
812.399281	2528.433561
812.718801	2530.709642
813.038276	2531.211237
813.357707	2531.881711
813.677093	2533.719211
813.996434	2535.680220
814.315731	2533.893131
814.634983	2536.791794
814.954191	2533.283151
815.273354	2533.164684
815.592473	2532.201824
815.911547	2535.813811
816.230577	2534.528316
816.549562	2534.119983
816.868502	2531.990095
817.187399	2533.031094
817.506250	2532.605116
817.825058	2532.416073
818.143821	2532.925229
818.462539	2534.024201
818.781213	2535.223996
819.099843	2533.255425
819.418429	2534.329191
819.736970	2535.150899
820.055466	2538.289017
820.373919	2535.534027
820.692327	2535.584438
821.010691	2540.330684
821.329011	2544.487116
821.647286	2553.886347
821.965517	2563.096535
822.283704	2570.925447
822.601847	2572.820921
822.919945	2563.315825
823.237999	2558.433468
823.556010	2554.657644
823.873976	2550.135729
824.191897	2545.268495
824.509775	2540.597866
824.827609	2538.858667
825.145398	2537.817669
825.463144	2539.115766
825.780845	2540.499563
826.098502	2539.786240
826.416116	2545.417209
826.733685	2545.104657
827.051210	2548.739329
827.368692	2546.599359
827.686129	2541.502753
828.003522	2540.428987
828.320872	2537.676517
828.638177	2534.729962
828.955439	2534.056968
829.272656	2529.880372
829.589830	2530.644107
829.906960	2534.256094
830.224046	2534.092257
830.541088	2532.257277
830.858086	2531.896834
831.175041	2534.119983
831.491952	2533.371372
831.808819	2536.048224
832.125642	2533.724252
832.442421	2534.026722
832.759157	2537.134593
833.075849	2535.193749
833.392497	2535.392874
833.709101	2541.026364
834.025662	2541.064172
834.342179	2540.512166
834.658653	2539.640046
834.975083	2536.892618
835.291469	2540.746580
835.607811	2535.420601
835.924110	2534.747607
836.240366	2534.523275
836.556578	2530.868439
836.872746	2534.387164
837.188871	2532.713501
837.504952	2535.327339
837.820990	2531.097811
838.136984	2531.115455
838.452935	2532.670651
838.768842	2532.083357
839.084706	2531.009591
839.400526	2532.262318
839.716303	2533.998995
840.032037	2534.724921
840.347727	2533.946063
840.663373	2534.873635
840.978977	2531.982534
841.294537	2532.521937
841.610054	2533.265507
841.925527	2530.802904
842.240957	2532.335414
842.556344	2532.937832
842.871687	2530.858356
843.186987	2534.044366
843.502244	2527.977337
843.817458	2530.379447
844.132629	2533.174767
844.447756	2531.473377
844.762840	2528.327697
845.077881	2528.965403
845.392879	2526.338962
845.707833	2527.914323
846.022745	2527.301822
846.337613	2531.410363
846.652438	2531.324663
846.967221	2533.210055
847.281960	2530.785260
847.596656	2533.303316
847.911309	2531.738038
848.225919	2528.836854
848.540485	2532.317770
848.855009	2531.082688
849.169490	2531.612009
849.483928	2530.371885
849.798323	2529.071267
850.112675	2533.275590
850.426984	2530.704601
850.741251	2532.821886
851.055474	2530.833151
851.369654	2531.680064
851.683792	2532.448840
851.997887	2530.709642
852.311938	2531.967410
852.625947	2529.923222
852.939914	2532.171577
853.253837	2530.548325
853.567718	2532.617719
853.881555	2528.970444
854.195350	2529.429189
854.509103	2531.322142
854.822812	2527.780732
855.136479	2531.503624
855.450103	2530.601257
855.763685	2530.457585
856.077224	2530.848274
856.390720	2532.872297
856.704173	2531.450692
857.017584	2531.763243
857.330953	2530.457585
857.644278	2531.460774
857.957561	2532.441279
858.270802	2529.714014
858.584000	2531.934643
858.897155	2531.024714
859.210268	2527.851308
859.523339	2533.063861
859.836367	2528.950280
860.149352	2528.327697
860.462295	2531.780888
860.775195	2527.669827
861.088054	2526.152439
861.400869	2528.602440
861.713642	2526.989271
862.026373	2530.581093
862.339062	2530.034128
862.651708	2530.240815
862.964312	2528.269724
863.276873	2528.483973
863.589392	2528.773839
863.901869	2531.130579
864.214303	2530.054292
864.526696	2531.102852
864.839045	2532.335414
865.151353	2530.742410
865.463619	2532.116124
865.775842	2531.677544
866.088023	2532.179139
866.400162	2527.725279
866.712258	2529.734179
867.024313	2531.730476
867.336325	2530.006401
867.648296	2528.955321
867.960224	2531.100332
868.272110	2532.879859
868.583954	2531.168387
868.895755	2532.058151
869.207515	2529.101514
869.519233	2530.563449
869.830909	2531.307019
870.142542	2531.246525
870.454134	2530.361803
870.765684	2531.135620
871.077191	2529.285516
871.388657	2532.020342
871.700081	2529.509848
872.011463	2532.980682
872.322803	2530.220650
872.634101	2532.743748
872.945357	2529.938346
873.256571	2531.914478
873.567744	2527.511030
873.878874	2533.502442
874.189963	2529.552697
874.501010	2532.325332
874.812015	2530.689478
875.122979	2532.902544
875.433900	2531.980013
875.744780	2531.228881
876.055618	2532.053110
876.366415	2531.768285
876.677169	2530.129910
876.987882	2529.346010
877.298554	2526.207892
877.609183	2528.521782
877.919771	2529.081350
878.230317	2530.008922
878.540822	2534.926568
878.851285	2531.707791
879.161707	2533.351207
879.472087	2534.397246
879.782425	2534.009077
880.092722	2537.817669
880.402977	2537.908410
880.713191	2543.584749
881.023363	2547.100954
881.333494	2552.235369
881.643583	2553.833415
881.953631	2555.116389
882.263637	2550.407951
882.573602	2550.531459
882.883526	2545.407126
883.193408	2544.724050
883.503248	2543.630120
883.813048	2539.435880
884.122806	2539.445962
884.432522	2537.535365
884.742197	2534.961856
885.051831	2536.365817
885.361424	2533.651156
885.670975	2535.211393
885.980485	2533.557894
886.289954	2533.860363
886.599382	2533.121834
886.908768	2534.354397
887.218113	2531.750641
887.527417	2532.552184
887.836680	2529.895496
888.145901	2532.126207
888.455082	2530.129910
888.764221	2531.228881
889.073319	2530.823068
889.382376	2533.189890
889.691392	2531.012112
890.000366	2529.436751
890.309300	2530.936494
890.618193	2534.215765
890.927044	2531.168387
891.235855	2535.256763
891.544625	2530.490352
891.853353	2531.985054
892.162041	2530.258459
892.470687	2533.046217
892.779293	2533.119314
893.087858	2530.016484
893.396381	2527.828623
893.704864	2528.526823
894.013306	2529.920702
894.321707	2534.727442
894.630068	2535.536547
894.938387	2537.789943
895.246665	2537.472350
895.554903	2536.025539
895.863100	2534.563604
896.171256	2534.440096
896.479371	2533.593182
896.787446	2534.505631
897.095480	2532.932791
897.403473	2531.614529
897.711425	2528.226874
898.019336	2533.608306
898.327207	2534.515713
898.635038	2530.669313
898.942827	2528.831813
899.250576	2531.092770
899.558284	2530.205527
899.865952	2531.773326
900.173579	2528.662934
900.481165	2529.494724
900.788711	2530.487832
901.096216	2530.308871
901.403681	2530.520599
901.711105	2529.983716
902.018489	2529.386339
902.325832	2529.504807
902.633135	2529.212420
902.940397	2529.608150
903.247619	2532.375744
903.554800	2531.458254
903.861941	2533.688964
904.169041	2540.935623
904.476101	2540.789429
904.783121	2540.756662
905.090100	2537.779861
905.397039	2534.351876
905.703938	2533.822555
906.010796	2533.638553
906.317614	2533.779705
906.624391	2535.400436
906.931129	2531.395239
907.237826	2530.482790
907.544483	2535.201310
907.851099	2529.411545
908.157675	2531.639735
908.464211	2529.953469
908.770707	2526.091945
909.077163	2526.119672
909.383578	2526.681760
909.689954	2527.574045
909.996289	2523.770494
910.302584	2531.866587
910.608839	2530.591175
910.915054	2530.160157
911.221229	2529.514889
911.527363	2529.802235
911.833458	2529.721576
912.139513	2531.002029
912.445527	2529.325846
912.751502	2528.685619
913.057436	2527.505989
913.363331	2532.408511
913.669186	2530.931453
913.975000	2531.521268
914.280775	2529.824920
914.586510	2530.571011
914.892205	2532.975641
915.197859	2533.522606
915.503475	2535.249201
915.809050	2537.797505
916.114585	2537.212731
916.420081	2539.214069
916.725536	2541.371683
917.030952	2536.610313
917.336328	2536.474202
917.641665	2534.543440
917.946961	2531.891793
918.252218	2531.886752
918.557435	2534.772812
918.862612	2533.078985
919.167750	2531.196114
919.472848	2531.574200
919.777906	2530.581093
920.082925	2531.433048
920.387904	2531.312060
920.692843	2532.587472
920.997743	2528.620084
921.302603	2529.890455
921.607423	2530.858356
921.912204	2529.835002
922.216946	2527.735362
922.521647	2529.855167
922.826310	2529.227543
923.130932	2531.528830
923.435516	2527.735362
923.740059	2531.226361
924.044564	2528.831813
924.349028	2530.848274
924.653454	2525.260155
924.957840	2526.575896
925.262186	2523.195803
925.566493	2526.830474
925.870761	2522.411903
926.174989	2530.747451
926.479178	2530.782739
926.783328	2526.323838
927.087438	2527.357275
927.391509	2530.669313
927.695541	2528.511699
927.999533	2524.846780
928.303486	2528.481452
928.607400	2528.592358
928.911275	2529.472039
929.215110	2526.722090
929.518906	2527.591689
929.822663	2529.719056
930.126381	2528.615043
930.430060	2525.696215
930.733699	2529.318284
931.037299	2529.008253
931.340861	2529.870290
931.644383	2528.670496
931.947866	2527.261493
932.251309	2530.944056
932.554714	2526.107069
932.858080	2528.990609
933.161407	2527.271575
933.464694	2527.231246
933.767943	2528.917512
934.071153	2527.364837
934.374323	2526.565814
934.677455	2528.083201
934.980548	2528.093283
935.283602	2530.260980
935.586617	2526.447347
935.889593	2525.638242
936.192530	2525.938190
936.495428	2529.151926
936.798287	2526.921215
937.101108	2528.970444
937.403890	2530.792821
937.706632	2530.729807
938.009336	2529.298119
938.312002	2529.290558
938.614628	2527.329549
938.917216	2527.679909
939.219765	2530.076978
939.522275	2529.177132
939.824747	2530.530681
940.127179	2524.040196
940.429573	2526.472552
940.731929	2526.230577
941.034246	2524.882068
941.336524	2525.308046
941.638763	2528.630166
941.940964	2529.373737
942.243126	2528.423479
942.545250	2526.812830
942.847335	2527.964734
943.149381	2527.097656
943.451389	2528.720907
943.753359	2529.295599
944.055290	2527.556401
944.357182	2527.662265
944.659036	2528.521782
944.960851	2526.651513
945.262628	2526.865762
945.564367	2526.762419
945.866067	2530.255938
946.167729	2527.929446
946.469352	2528.035310
946.770937	2529.527492
947.072484	2531.281813
947.373992	2527.508510
947.675462	2528.950280
947.976893	2528.229395
948.278286	2529.409025
948.579641	2528.673016
948.880958	2529.630835
949.182236	2526.457429
949.483476	2528.761236
949.784678	2526.459950
950.085841	2530.424817
950.386967	2527.306863
950.688054	2530.618902
950.989103	2527.120341
951.290114	2529.230064
951.591087	2526.694363
951.892021	2528.315094
952.192917	2527.115300
952.493776	2527.422810
952.794596	2528.516740
953.095378	2526.719569
953.396122	2528.937677
953.696828	2528.239477
953.997496	2528.892306
954.298126	2526.386853
954.598718	2527.183355
954.899272	2526.439785
955.199788	2527.080012
955.500266	2528.521782
955.800706	2526.099507
956.101108	2523.412572
956.401472	2524.211595
956.701798	2521.837212
957.002087	2524.506503
957.302337	2525.567665
957.602550	2526.875845
957.902724	2528.978006
958.202861	2527.218643
958.502960	2527.805938
958.803022	2528.494055
959.103045	2525.817202
959.403031	2528.123530
959.702979	2527.208561
960.002889	2526.669157
960.302762	2528.350382
960.602596	2527.629497
960.902393	2524.408200
961.202153	2530.394570
961.501875	2522.772346
961.801559	2528.781401
962.101205	2527.813499
962.400814	2528.549508
962.700385	2523.422654
962.999918	2529.771988
963.299414	2525.287881
963.598873	2528.415917
963.898293	2527.962213
964.197677	2527.334590
964.497022	2524.493900
964.796331	2524.279651
965.095601	2524.572038
965.394835	2526.843077
965.694030	2525.129085
965.993189	2525.522295
966.292309	2526.591020
966.591393	2525.129085
966.890439	2524.992974
967.189447	2525.681091
967.488419	2525.665968
967.787353	2528.186545
968.086249	2527.006915
968.385108	2529.769467
968.683930	2524.922398
968.982714	2527.947090
969.281462	2529.056144
969.580172	2523.019362
969.878844	2524.146060
970.177480	2527.374919
970.476078	2526.898530
970.774639	2526.782583
971.073162	2528.909950
971.371649	2523.105062
971.670098	2521.393590
971.968510	2524.040196
972.266885	2521.325534
972.565223	2526.729651
972.863524	2526.767460
973.161788	2527.180835
973.460014	2526.666637
973.758204	2525.318128
974.056356	2526.134795
974.354471	2525.116482
974.652550	2528.269724
974.950591	2526.747295
975.248595	2526.366688
975.546563	2526.331400
975.844493	2526.316277
976.142386	2528.383150
976.440243	2524.413241
976.738062	2528.277286
977.035845	2524.798889
977.333590	2527.095135
977.631299	2525.539939
977.928971	2528.947759
978.226606	2526.293592
978.524204	2527.291740
978.821765	2525.723941
979.119290	2525.182017
979.416777	2523.399969
979.714228	2527.339631
980.011642	2527.107738
980.309020	2527.788294
980.606360	2527.626977
980.903664	2527.153108
981.200931	2525.187058
981.498162	2528.247039
981.795356	2525.517254
982.092513	2526.099507
982.389633	2526.674199
982.686717	2528.214271
982.983764	2525.429034
983.280775	2531.672503
983.577749	2526.646472
983.874686	2528.007584
984.171587	2525.804600
984.468451	2527.241328
984.765279	2528.965403
985.062070	2527.858870
985.358824	2527.072450
985.655543	2525.408869
985.952224	2527.291740
986.248869	2526.462470
986.545478	2522.447191
986.842050	2524.193951
987.138586	2523.077335
987.435086	2525.033303
987.731549	2520.415606
988.027975	2525.003056
988.324366	2527.652183
988.620719	2524.967768
988.917037	2525.723941
989.213318	2525.169414
989.509563	2526.550690
989.805772	2526.275948
990.101944	2527.296781
990.398080	2525.061029
990.694180	2526.076822
990.990244	2524.428365
991.286271	2525.900382
991.582262	2525.847449
991.878217	2526.321318
992.174136	2525.645803
992.470019	2527.425331
992.765865	2524.826616
993.061676	2526.129754
993.357450	2526.265865
993.653188	2525.978519
993.948890	2525.930628
994.244556	2526.890968
994.540186	2528.178983
994.835780	2524.536749
995.131337	2523.339475
995.426859	2527.347193
995.722345	2525.953314
996.017795	2525.819723
996.313208	2527.253931
996.608586	2527.760567
996.903928	2524.798889
997.199234	2527.495907
997.494504	2524.846780
997.789738	2526.936339
998.084936	2527.626977
998.380099	2526.190248
998.675225	2524.370391
998.970316	2525.401307
999.265371	2526.674199
999.560390	2523.762932
999.855373	2526.525485
1000.150320	2526.170083
1000.445232	2526.033972
1000.740108	2524.292253
1001.034948	2525.252593
1001.329752	2524.078004
1001.624521	2526.880886
1001.919254	2521.499454
1002.213951	2521.832170
1002.508613	2521.595236
1002.803239	2524.642614
1003.097829	2523.553724
1003.392384	2525.035824
1003.686903	2527.533715
1003.981386	2527.054806
1004.275834	2528.652852
1004.570246	2526.207892
1004.864623	2525.605474
1005.158964	2525.275278
1005.453270	2527.319466
1005.747540	2526.706966
1006.041775	2523.503313
1006.335974	2524.115813
1006.630138	2524.766122
1006.924266	2525.751668
1007.218359	2523.838550
1007.512416	2526.853160
1007.806438	2524.534229
1008.100425	2526.729651
1008.394376	2526.926256
1008.688292	2525.595392
1008.982172	2525.106400
1009.276017	2525.681091
1009.569827	2526.785104
1009.863602	2524.728313
1010.157341	2529.845084
1010.451045	2525.252593
1010.744714	2525.030783
1011.038347	2525.144208
1011.331945	2524.708149
1011.625508	2528.410876
1011.919036	2526.543129
1012.212528	2523.997346
1012.505986	2523.417613
1012.799408	2525.736544
1013.092795	2526.318797
1013.386147	2525.527336
1013.679464	2523.359640
1013.972745	2524.932480
1014.265992	2527.511030
1014.559204	2527.178314
1014.852380	2525.671009
1015.145521	2527.989940
1015.438628	2522.885772
1015.731699	2523.460463
1016.024736	2523.687315
1016.317737	2525.376102
1016.610703	2523.112623
1016.903635	2521.539783
1017.196531	2521.771677
1017.489393	2522.288395
1017.782219	2519.961902
1018.075011	2527.385001
1018.367768	2524.808972
1018.660490	2524.871986
1018.953177	2524.871986
1019.245829	2524.871986
