Dividing Wavelength (nm)	Counts (n)	Blue Motor Position (mm): 0.000000	Red Motor Position (mm): 32.500000	
326.493990	2127.132509
326.888308	2127.132509
327.282561	2127.132509
327.676750	2093.969279
328.070874	2091.690677
328.464933	2096.177304
328.858929	2102.859354
329.252859	2113.276898
329.646726	2123.870883
330.040528	2139.672380
330.434265	2154.606798
330.827938	2170.902328
331.221547	2189.257169
331.615091	2208.713502
332.008571	2226.927191
332.401986	2248.483165
332.795338	2266.616195
333.188625	2285.044133
333.581847	2304.578604
333.975006	2323.387149
334.368100	2339.692761
334.761129	2360.205216
335.154095	2376.087372
335.546996	2396.047820
335.939833	2411.884605
336.332606	2426.758529
336.725315	2438.973245
337.117960	2449.705862
337.510540	2457.479321
337.903056	2471.375262
338.295508	2475.118318
338.687896	2484.933445
339.080220	2495.661020
339.472480	2497.324601
339.864676	2505.433297
340.256807	2510.353463
340.648875	2512.049811
341.040879	2517.716068
341.432818	2515.606345
341.824694	2517.272447
342.216506	2520.403003
342.608253	2515.553413
342.999937	2517.721109
343.391557	2518.704134
343.783113	2518.701614
344.174605	2516.498630
344.566033	2514.378824
344.957397	2513.431088
345.348697	2512.884122
345.739934	2508.223576
346.131106	2510.368587
346.522215	2502.592607
346.913260	2505.372803
347.304241	2503.195025
347.695159	2500.813079
348.086012	2498.128665
348.476802	2497.566576
348.867528	2496.447440
349.258191	2493.657162
349.648789	2495.439209
350.039324	2491.696153
350.429796	2494.408293
350.820203	2492.714466
351.210548	2489.712459
351.600828	2486.050060
351.991045	2488.484938
352.381198	2485.044350
352.771288	2485.719865
353.161314	2485.520739
353.551276	2489.047026
353.941175	2483.791623
354.331010	2487.436378
354.720782	2487.645586
355.110490	2487.207005
355.500135	2487.539721
355.889717	2487.396048
356.279235	2485.440081
356.668689	2488.006028
357.058080	2486.072746
357.447408	2484.018475
357.836672	2482.218783
358.225873	2487.058291
358.615010	2487.832108
359.004084	2491.867552
359.393095	2490.166162
359.782043	2493.634476
360.170927	2490.178765
360.559748	2493.011894
360.948505	2494.594816
361.337199	2492.243118
361.725830	2492.916112
362.114398	2496.172697
362.502903	2495.141781
362.891344	2496.036586
363.279722	2495.567759
363.668037	2497.521206
364.056289	2499.371309
364.444478	2498.116062
364.832603	2498.065651
365.220665	2500.016577
365.608665	2499.189828
365.996601	2498.365599
366.384474	2502.312823
366.772284	2503.736949
367.160031	2506.252484
367.547715	2506.522186
367.935336	2509.493946
368.322893	2511.205418
368.710388	2514.245234
369.097820	2524.637572
369.485189	2522.066584
369.872495	2530.606299
370.259738	2538.437731
370.646918	2547.032898
371.034035	2550.481048
371.421090	2565.105435
371.808081	2575.102043
372.195010	2581.710996
372.581875	2597.063830
372.968678	2608.698813
373.355418	2618.279526
373.742096	2635.535395
374.128710	2651.581388
374.515262	2668.002947
374.901751	2680.999041
375.288177	2693.589323
375.674540	2717.885164
376.060841	2736.993658
376.447079	2756.200454
376.833254	2778.187446
377.219367	2788.610032
377.605417	2823.908191
377.991404	2834.371106
378.377329	2858.583768
378.763191	2873.036756
379.148991	2911.294073
379.534727	2937.008998
379.920402	2967.071919
380.306013	2979.548775
380.691563	3028.105169
381.077049	3051.609549
381.462474	3067.912640
381.847835	3108.829165
382.233134	3128.204840
382.618371	3127.650313
383.003545	3199.930377
383.388657	3204.185111
383.773706	3240.378075
384.158693	3251.292173
384.543618	3278.048097
384.928480	3314.644353
385.313280	3361.471632
385.698017	3362.000953
386.082692	3413.329981
386.467305	3415.124632
386.851856	3450.475723
387.236344	3475.358859
387.620770	3504.589989
388.005133	3531.620656
388.389435	3554.595715
388.773674	3565.363619
389.157851	3613.536886
389.541965	3626.396869
389.926018	3589.283894
390.310008	3664.258455
390.693936	3681.650436
391.077802	3721.299111
391.461606	3713.129921
391.845348	3770.193262
392.229027	3772.560084
392.612645	3785.541055
392.996200	3867.593395
393.379694	3903.677975
393.763125	3972.005774
394.146494	3937.138633
394.529801	3997.861852
394.913047	4045.692320
395.296230	4015.397506
395.679351	4067.916246
396.062410	4091.647478
396.445408	4068.889189
396.828343	4103.025362
397.211217	4131.742295
397.594028	4046.037639
397.976778	4118.284935
398.359466	4142.704284
398.742092	4170.614633
399.124656	4094.856173
399.507158	4176.739634
399.889598	4198.219991
400.271977	4263.202985
400.654294	4229.878437
401.036549	4241.899068
401.418742	4208.158626
401.800874	4316.863547
402.182944	4336.705528
402.564952	4396.609559
402.946898	4382.859812
403.328783	4381.231520
403.710606	4295.904950
404.092367	4491.584898
404.474067	4451.621151
404.855705	4457.610042
405.237282	4389.315010
405.618797	4497.382225
406.000250	4527.878685
406.381642	4611.309781
406.762972	4576.422476
407.144240	4584.979835
407.525447	4585.804063
407.906593	4639.915809
408.287677	4685.394578
408.668700	4617.921254
409.049661	4667.286753
409.430560	4708.858629
409.811399	4634.967916
410.192176	4798.301301
410.572891	4740.184359
410.953545	4841.098176
411.334138	4717.791553
411.714669	4786.517604
412.095139	4680.900389
412.475547	4824.699303
412.855894	4802.475376
413.236180	4813.021470
413.616405	4769.481024
413.996568	4855.525959
414.376670	4797.403975
414.756711	4751.758848
415.136691	4781.257160
415.516609	4859.667267
415.896466	4894.373090
416.276262	4932.239717
416.655997	4911.248353
417.035670	5092.245940
417.415283	5187.254046
417.794834	5130.530983
418.174324	5082.403088
418.553753	4992.047967
418.933121	5176.342469
419.312428	5242.066512
419.691674	5179.657028
420.070859	5308.955062
420.449983	5220.805446
420.829045	5334.438095
421.208047	5242.399228
421.586988	5314.649045
421.965867	5320.900076
422.344686	5455.327484
422.723444	5308.561852
423.102141	5134.846211
423.480777	5429.693217
423.859352	5195.755952
424.237866	5457.971570
424.616319	5449.532678
424.994712	5557.005037
425.373044	5433.453918
425.751314	5575.932049
426.129524	5378.933839
426.507673	5575.291822
426.885762	5655.723432
427.263789	5588.333287
427.641756	5470.735771
428.019662	5591.070634
428.397508	5601.457932
428.775292	5546.118665
429.153016	5644.990816
429.530679	5571.425257
429.908282	5656.308206
430.285824	5527.042939
430.663305	5806.577440
431.040726	5537.039547
431.418086	5533.785482
431.795385	5642.497965
432.172624	5653.593545
432.549802	5649.800076
432.926920	5658.526314
433.303977	5668.051574
433.680974	5710.702256
434.057910	5725.704730
434.434786	5732.046501
434.811601	5700.430905
435.188355	5936.921514
435.565050	5806.758922
435.941683	5792.444566
436.318257	5998.978118
436.694770	5984.240305
437.071222	6024.564494
437.447614	5950.618329
437.823946	5865.284198
438.200218	6018.411766
438.576429	5891.016767
438.952580	5984.971272
439.328670	6028.670514
439.704700	5936.087203
440.080670	5921.334267
440.456580	6192.374424
440.832429	6074.466876
441.208218	5922.864257
441.583947	6079.253452
441.959616	6080.664975
442.335224	6009.947669
442.710773	6146.903216
443.086261	6173.717113
443.461689	5965.658612
443.837057	6117.472960
444.212365	6273.168996
444.587612	6166.162944
444.962800	6319.471994
445.337927	6297.676566
445.712995	5903.050002
446.088002	6484.078270
446.462949	6317.853784
446.837837	6252.084370
447.212664	6417.782056
447.587431	6560.250105
447.962139	7107.132118
448.336786	8029.219651
448.711374	7771.888911
449.085901	6846.305339
449.460369	6765.215859
449.834776	6704.001128
450.209124	7093.737772
450.583412	7243.510453
450.957640	7387.919346
451.331808	7150.939745
451.705917	6708.220573
452.079965	6628.729139
452.453954	6835.643298
452.827883	6719.462346
453.201752	6807.301932
453.575562	6611.274144
453.949311	6816.930535
454.323001	6703.073555
454.696632	6780.112468
455.070202	6917.128509
455.443713	7075.264464
455.817164	7170.978332
456.190556	7255.699963
456.563888	7323.453071
456.937160	7374.444342
457.310373	7032.276025
457.683526	7050.063736
458.056619	6943.886954
458.429653	6929.053359
458.802628	6867.745366
459.175542	6974.128836
459.548398	7331.884401
459.921194	7489.627146
460.293930	7493.884400
460.666607	8026.189917
461.039224	8330.234508
461.411782	8455.688663
461.784280	8479.122467
462.156719	8367.753296
462.529099	8245.187723
462.901419	7838.359045
463.273680	7723.970223
463.645882	7733.455154
464.018024	7607.837162
464.390106	7770.966380
464.762130	8156.730596
465.134094	8634.034604
465.505999	9647.795519
465.877845	10871.386901
466.249631	11523.006447
466.621358	11135.903805
466.993026	10512.706284
467.364634	10255.748590
467.736184	9884.455007
468.107674	9561.269154
468.479105	9590.671684
468.850477	9351.877267
469.221790	9126.419223
469.593043	8800.985016
469.964238	8651.154362
470.335373	8672.702774
470.706449	8728.281496
471.077467	8707.385913
471.448425	10019.628506
471.819324	11089.000910
472.190164	11116.208017
472.560945	9865.903561
472.931667	9075.498528
473.302330	8945.109084
473.672934	8586.302439
474.043479	8942.795195
474.413965	8884.063232
474.784393	8765.906147
475.154761	8924.261392
475.525070	9002.963886
475.895321	8831.504162
476.265513	9013.497377
476.635645	9175.920834
477.005719	9175.419239
477.375734	9284.484602
477.745691	9521.408751
478.115588	9653.161827
478.485427	9901.630218
478.855207	10433.918091
479.224928	11237.566234
479.594591	11867.370187
479.964194	11677.603512
480.333739	11619.489091
480.703226	11533.907942
481.072653	11620.761982
481.442022	11843.621311
481.811333	12034.524766
482.180584	11840.591578
482.549777	11546.578883
482.918912	11366.231604
483.287988	11384.062165
483.657005	11394.943495
484.025964	11068.581716
484.394864	11192.089985
484.763706	11159.017495
485.132489	10910.934753
485.501213	10873.390760
485.869879	10949.081164
486.238487	10773.885944
486.607036	10878.560463
486.975527	10652.815073
487.343959	10836.308032
487.712333	10867.570748
488.080648	10787.527307
488.448905	10819.405043
488.817104	10750.527758
489.185244	11002.517395
489.553326	11143.987295
489.921350	11647.424645
490.289315	12655.388233
490.657222	12982.828819
491.025070	12871.716747
491.392861	12729.344480
491.760593	12353.904547
492.128267	12006.924449
492.495883	11677.313646
492.863440	11341.426606
493.230939	10994.756538
493.598380	10911.701008
493.965763	10761.882957
494.333088	10654.090485
494.700354	10551.838241
495.067563	10586.193704
495.434713	10408.074616
495.801805	10506.747640
496.168839	10414.154247
496.535815	10316.197066
496.902733	10305.401435
497.269593	10207.580365
497.636395	10285.866964
498.003139	10237.418955
498.369825	10089.493857
498.736453	10196.283140
499.103023	10107.465571
499.469535	10106.790056
499.835989	10066.896885
500.202385	10005.089818
500.568723	9827.379063
500.935003	10000.845167
501.301226	9765.027552
501.667390	9974.353903
502.033497	10020.409885
502.399546	9862.377273
502.765537	9741.298840
503.131470	9768.818499
503.497345	9875.234736
503.863163	9502.643056
504.228923	9729.235359
504.594625	9742.360003
504.960269	9487.832146
505.325856	9618.125808
505.691385	9402.440041
506.056856	9481.792843
506.422270	9447.260939
506.787625	9319.064397
507.152924	9362.317497
507.518164	9304.810535
507.883347	9177.244137
508.248472	9064.256755
508.613540	9196.350110
508.978550	9043.585504
509.343503	8972.490111
509.708398	9010.139969
510.073236	9035.769195
510.438016	8983.270619
510.802738	8889.658912
511.167403	8868.959935
511.532010	8719.272954
511.896561	8848.669291
512.261053	8832.046086
512.625488	8667.649018
512.989866	8588.659178
513.354186	8522.068056
513.718449	8383.338023
514.082655	8461.521278
514.446803	8324.976585
514.810894	8341.783792
515.174927	8178.591560
515.538904	8146.174420
515.902822	8169.358686
516.266684	8030.495062
516.630488	7919.113289
516.994235	7905.766834
517.357925	7862.725462
517.721558	7853.416972
518.085133	7786.049512
518.448651	7737.150320
518.812112	7593.492559
519.175516	7524.821961
519.538863	7527.695419
519.902152	7419.529902
520.265385	7425.324708
520.628560	7315.825805
520.991678	7218.763429
521.354739	7192.206631
521.717743	7095.358503
522.080690	7015.471338
522.443580	7002.220666
522.806413	6913.171203
523.169189	6857.320260
523.531908	6815.057747
523.894569	6667.115005
524.257174	6593.851916
524.619722	6580.850780
524.982213	6497.931361
525.344647	6442.413134
525.707025	6367.088213
526.069345	6334.688717
526.431608	6225.845165
526.793815	6205.662905
527.155964	6056.709412
527.518057	6016.561663
527.880093	5928.601090
528.242072	5897.928189
528.603995	5790.733094
528.965860	5701.960895
529.327669	5660.142003
529.689421	5583.140899
530.051117	5508.844374
530.412755	5479.209951
530.774337	5392.668463
531.135862	5318.800435
531.497331	5280.709477
531.858743	5164.881406
532.220098	5168.017003
532.581396	5075.443775
532.942638	5015.244836
533.303824	4953.324343
533.664953	4895.220004
534.026025	4821.077234
534.387040	4795.004386
534.747999	4747.146192
535.108902	4708.341910
535.469748	4599.649592
535.830537	4576.752672
536.191270	4521.688148
536.551947	4480.396057
536.912567	4429.208181
537.273131	4373.987382
537.633638	4323.457376
537.994089	4276.708236
538.354483	4223.866861
538.714821	4214.830593
539.075103	4172.217719
539.435328	4120.492960
539.795497	4054.113567
540.155609	4036.061195
540.515665	4015.515973
540.875665	3933.435906
541.235609	3901.585896
541.595496	3871.447357
541.955328	3846.927185
542.315102	3801.677788
542.674821	3760.680605
543.034483	3727.136767
543.394090	3692.156200
543.753640	3649.379489
544.113134	3641.976555
544.472571	3592.366560
544.831953	3578.493305
545.191278	3530.325080
545.550548	3504.083353
545.909761	3487.404696
546.268918	3458.100468
546.628019	3436.731017
546.987064	3394.629821
547.346053	3365.917929
547.704986	3346.171730
548.063863	3319.614931
548.422684	3298.800007
548.781449	3265.893875
549.140158	3250.523397
549.498811	3219.076679
549.857408	3190.972247
550.215949	3178.712161
550.574434	3148.641678
550.932864	3141.266470
551.291237	3123.819036
551.649555	3102.686519
552.007817	3087.258068
552.366022	3070.662590
552.724173	3051.317162
553.082267	3032.576672
553.440305	3022.965713
553.798288	3001.734893
554.156215	2990.452791
554.514086	2974.449648
554.871902	2954.406020
555.229661	2944.008640
555.587365	2929.661517
555.945014	2914.873292
556.302606	2902.015829
556.660143	2889.601988
557.017625	2881.677294
557.375050	2869.044162
557.732421	2861.595857
558.089735	2849.935668
558.446994	2839.560974
558.804197	2829.277020
559.161345	2819.340906
559.518437	2811.456541
559.875474	2802.536219
560.232455	2795.634880
560.589381	2784.572068
560.946251	2780.539145
561.303065	2773.615120
561.659825	2764.667072
562.016528	2755.671133
562.373177	2747.958167
562.729770	2745.586304
563.086307	2738.228740
563.442789	2736.865108
563.799216	2728.388408
564.155587	2724.340362
564.511904	2719.442881
564.868164	2714.580688
565.224370	2713.595142
565.580520	2703.361600
565.936615	2699.747092
566.292654	2694.957996
566.648638	2694.043027
567.004567	2688.845597
567.360441	2686.491378
567.716260	2681.462827
568.072023	2680.278156
568.427732	2671.105777
568.783385	2672.852537
569.138982	2668.040755
569.494525	2666.712411
569.850013	2663.740651
570.205445	2666.011691
570.560823	2663.004643
570.916145	2658.714621
571.271412	2658.621359
571.626625	2657.981133
571.981782	2654.958961
572.336884	2651.904022
572.691931	2652.997952
573.046923	2650.016110
573.401860	2649.282622
573.756743	2646.865389
574.111570	2647.296407
574.466342	2643.870943
574.821059	2643.381951
575.175722	2640.498411
575.530330	2637.171250
575.884882	2637.272073
576.239380	2635.822741
576.593823	2634.829634
576.948211	2633.627319
577.302544	2629.952317
577.656823	2629.906947
578.011047	2628.893675
578.365216	2629.307050
578.719330	2628.936525
579.073389	2625.256483
579.427394	2624.260855
579.781344	2626.693212
580.135239	2626.972996
580.489080	2622.894702
580.842866	2621.846142
581.196597	2623.013169
581.550273	2620.847994
581.903895	2622.375463
582.257463	2619.975874
582.610975	2619.580143
582.964434	2621.397479
583.317837	2618.783641
583.671186	2620.890843
584.024481	2617.057046
584.377721	2613.906325
584.730906	2616.656274
585.084037	2617.092334
585.437113	2617.203239
585.790135	2616.721809
586.143103	2615.053187
586.496016	2611.577312
586.848874	2609.283587
587.201679	2607.602362
587.554428	2607.541868
587.907124	2608.507249
588.259765	2605.086826
588.612352	2608.386261
588.964884	2609.691920
589.317362	2609.074379
589.669786	2608.716457
590.022155	2609.066817
590.374470	2609.071858
590.726731	2605.243102
591.078937	2609.560850
591.431090	2607.037753
591.783188	2605.112032
592.135232	2604.580190
592.487222	2607.995572
592.839157	2606.160592
593.191038	2605.313678
593.542866	2606.321909
593.894639	2603.546754
594.246358	2601.058944
594.598022	2604.675972
594.949633	2603.332505
595.301190	2600.209510
595.652692	2603.544233
596.004141	2603.035077
596.355535	2604.912906
596.706876	2599.954932
597.058162	2602.772937
597.409395	2601.288317
597.760573	2599.143306
598.111698	2600.295209
598.462768	2599.400405
598.813785	2600.287648
599.164748	2600.562391
599.515657	2596.547112
599.866511	2601.275714
600.217312	2598.296392
600.568060	2597.469643
600.918753	2600.446444
601.269392	2598.059458
601.619978	2595.944694
601.970510	2599.894438
602.320988	2597.164653
602.671412	2595.269179
603.021783	2597.426793
603.372100	2599.922164
603.722363	2598.553491
604.072572	2598.336721
604.422728	2596.204313
604.772830	2593.552666
605.122878	2589.600402
605.472872	2593.673654
605.822813	2592.657861
606.172701	2593.610639
606.522534	2594.258428
606.872314	2598.024170
607.222041	2595.745568
607.571714	2596.975610
607.921333	2596.504262
608.270899	2593.320773
608.620411	2595.465784
608.969870	2596.224478
609.319276	2598.384612
609.668627	2600.174222
610.017926	2603.904676
610.367171	2603.261928
610.716362	2602.130189
611.065500	2599.355034
611.414585	2601.580704
611.763616	2597.688933
612.112594	2599.206320
612.461518	2599.712956
612.810389	2598.790425
613.159207	2599.934767
613.507971	2599.599530
613.856682	2595.803541
614.205340	2597.262955
614.553945	2597.522575
614.902496	2597.245311
615.250994	2597.575507
615.599439	2595.264138
615.947830	2597.504931
616.296169	2596.650455
616.644454	2600.179263
616.992686	2596.106011
617.340864	2598.603902
617.688990	2596.126175
618.037063	2597.043665
618.385082	2597.116762
618.733048	2596.015270
619.080961	2596.715990
619.428821	2594.465115
619.776628	2596.312698
620.124382	2596.665579
620.472083	2594.145002
620.819731	2595.370002
621.167326	2592.148705
621.514868	2596.050558
621.862357	2595.312029
622.209793	2595.054930
622.557176	2593.356061
622.904506	2589.751636
623.251783	2589.897830
623.599007	2591.730289
623.946179	2591.957141
624.293297	2589.181986
624.640363	2589.824733
624.987376	2589.497058
625.334336	2589.096286
625.681243	2589.998653
626.028097	2588.103179
626.374899	2590.195258
626.721647	2586.963878
627.068343	2590.825402
627.414987	2585.244845
627.761577	2590.820361
628.108115	2588.120823
628.454600	2587.740216
628.801032	2587.311718
629.147412	2587.931780
629.493739	2585.449011
629.840014	2588.453539
630.186236	2589.129054
630.532405	2587.629310
630.878521	2589.393714
631.224585	2585.590164
631.570597	2587.097469
631.916556	2587.175607
632.262462	2585.144022
632.608316	2585.154104
632.954117	2586.157293
633.299866	2587.208374
633.645562	2582.565471
633.991206	2583.298959
634.336797	2585.572520
634.682336	2584.518918
635.027823	2581.418609
635.373257	2580.536407
635.718639	2579.465162
636.063968	2583.062025
636.409245	2582.240317
636.754470	2581.980697
637.099642	2578.537589
637.444762	2581.153948
637.789829	2578.270408
638.134845	2581.597570
638.479808	2576.737897
638.824719	2579.558423
639.169577	2578.668659
639.514383	2578.358628
639.859137	2576.511046
640.203839	2577.312589
640.548489	2577.073134
640.893086	2579.016499
641.237632	2573.834193
641.582125	2575.318813
641.926566	2574.887794
642.270955	2575.517938
642.615292	2577.078175
642.959576	2577.274780
643.303809	2576.299317
643.647990	2578.403999
643.992118	2576.337126
644.336195	2576.155644
644.680219	2576.173288
645.024192	2576.763103
645.368112	2576.982393
645.711981	2578.797209
646.055797	2579.598752
646.399562	2579.152610
646.743274	2579.502970
647.086935	2582.515060
647.430544	2577.725964
647.774101	2581.726119
648.117606	2580.642271
648.461059	2583.742581
648.804460	2582.290728
649.147810	2578.706468
649.491108	2577.662949
649.834354	2576.195973
650.177548	2577.632702
650.520690	2576.969791
650.863781	2577.935172
651.206820	2578.640933
651.549807	2575.959039
651.892742	2578.477096
652.235626	2573.340160
652.578458	2574.237485
652.921238	2573.322516
653.263967	2575.129769
653.606644	2575.522979
653.949269	2576.238823
654.291843	2574.265212
654.634365	2577.247054
654.976836	2574.688668
655.319255	2572.551219
655.661622	2575.160016
656.003938	2575.154975
656.346203	2575.258319
656.688416	2573.771178
657.030577	2572.762948
657.372687	2571.507700
657.714746	2573.030129
658.056753	2572.457958
658.398708	2563.744323
658.740612	2572.752865
659.082465	2570.189439
659.424266	2570.461661
659.766016	2567.552915
660.107715	2572.755386
660.449362	2573.461148
660.790958	2575.162537
661.132503	2571.477453
661.473996	2573.753534
661.815438	2573.824111
662.156829	2574.481981
662.498168	2571.162381
662.839456	2573.004923
663.180693	2572.278997
663.521879	2573.824111
663.863013	2574.345870
664.204097	2571.953842
664.545129	2570.532237
664.886110	2573.599779
665.227040	2571.840417
665.567918	2576.022054
665.908746	2572.894018
666.249522	2572.087433
666.590248	2571.724470
666.930922	2574.050963
667.271545	2576.415264
667.612118	2571.739593
667.952639	2571.825293
668.293109	2573.259501
668.633528	2575.260839
668.973896	2570.857392
669.314213	2573.546847
669.654480	2573.660273
669.994695	2571.875705
670.334859	2574.907959
670.674973	2572.596590
671.015035	2574.063565
671.355047	2572.364697
671.695008	2570.350756
672.034918	2571.759758
672.374777	2572.752865
672.714585	2572.231106
673.054342	2573.902248
673.394049	2573.488874
673.733705	2575.691858
674.073310	2575.548185
674.412864	2574.822259
674.752368	2572.926785
675.091820	2572.732701
675.431223	2574.333267
675.770574	2570.408729
676.109875	2568.203224
676.449125	2566.965621
676.788324	2566.995868
677.127473	2573.577094
677.466571	2565.609550
677.805619	2569.259346
678.144616	2568.825807
678.483562	2570.519634
678.822458	2568.747669
679.161303	2571.243040
679.500098	2571.542988
679.838842	2570.030642
680.177535	2569.284552
680.516179	2567.898234
680.854771	2569.713050
681.193314	2572.679769
681.531805	2571.898390
681.870247	2574.726477
682.208638	2574.993658
682.546978	2575.291086
682.885268	2571.956363
683.223508	2573.168761
683.561697	2574.892835
683.899836	2573.607341
684.237925	2571.311095
684.575963	2572.747824
684.913951	2573.609862
685.251889	2572.137845
685.589776	2569.881928
685.927614	2571.427042
686.265401	2571.076682
686.603137	2571.606003
686.940824	2574.129100
687.278460	2573.294789
687.616046	2568.399829
687.953582	2576.185891
688.291068	2572.163050
688.628504	2574.323185
688.965889	2571.711867
689.303224	2572.926785
689.640510	2572.485684
689.977745	2572.838565
690.314930	2569.922257
690.652065	2570.081054
690.989150	2570.065930
691.326185	2573.940057
691.663170	2569.206414
692.000105	2568.742627
692.336990	2567.835220
692.673825	2566.506876
693.010610	2566.479149
693.347345	2565.014694
693.684030	2561.700136
694.020665	2563.537636
694.357251	2559.056050
694.693786	2563.759447
695.030272	2563.658624
695.366707	2563.230126
695.703093	2564.422359
696.039429	2565.181052
696.375716	2562.405897
696.711952	2561.256514
697.048139	2562.864642
697.384276	2563.111659
697.720363	2563.507389
698.056400	2560.497820
698.392388	2562.030331
698.728326	2561.616957
699.064214	2559.023283
699.400053	2563.146947
699.735842	2561.133006
700.071581	2561.639642
700.407270	2562.458829
700.742910	2561.901782
701.078501	2560.666699
701.414042	2555.171841
701.749533	2556.076728
702.084974	2560.747357
702.420366	2559.308108
702.755709	2559.953376
703.091002	2558.861966
703.426246	2557.599157
703.761440	2556.684187
704.096584	2558.234342
704.431679	2557.621842
704.766725	2560.114693
705.101721	2557.889023
705.436668	2560.016390
705.771565	2558.483879
706.106413	2557.901626
706.441212	2558.251986
706.775961	2555.998591
707.110661	2559.787018
707.445311	2559.852553
707.779913	2559.658468
708.114465	2560.192831
708.448967	2558.723334
708.783421	2560.444888
709.117825	2560.081925
709.452180	2561.748027
709.786485	2561.236349
710.120742	2559.635783
710.454949	2563.053685
710.789107	2559.822306
711.123216	2560.923798
711.457275	2562.446226
711.791286	2559.451781
712.125247	2560.187789
712.459159	2563.605692
712.793023	2565.196176
713.126837	2564.235836
713.460602	2564.044272
713.794318	2563.557801
714.127985	2564.112328
714.461602	2560.553273
714.795171	2563.338511
715.128691	2562.453788
715.462162	2559.325752
715.795584	2558.294836
716.128957	2561.647203
716.462281	2558.935063
716.795556	2559.560166
717.128782	2557.705021
717.461960	2556.401883
717.795088	2556.288457
718.128167	2554.521533
718.461198	2554.556821
718.794180	2557.062274
719.127113	2554.587067
719.459997	2554.705535
719.792833	2553.818292
720.125619	2556.537994
720.458357	2554.060267
720.791046	2556.046482
721.123686	2555.270144
721.456278	2554.561862
721.788821	2553.765359
722.121315	2555.680998
722.453761	2552.684032
722.786158	2555.610422
723.118506	2556.391801
723.450805	2554.161090
723.783056	2556.739640
724.115259	2555.386090
724.447412	2553.525905
724.779518	2557.334496
725.111574	2555.738971
725.443582	2556.265772
725.775542	2555.547407
726.107453	2556.341389
726.439315	2555.189485
726.771129	2560.515464
727.102895	2553.770401
727.434612	2556.550597
727.766281	2557.684857
728.097901	2555.053374
728.429473	2554.274516
728.760996	2553.281409
729.092471	2550.503733
729.423897	2557.218550
729.755276	2555.181924
730.086606	2557.891544
730.417887	2559.746688
730.749120	2559.237532
731.080305	2558.335165
731.411442	2558.554456
731.742530	2559.313149
732.073570	2560.034034
732.404562	2560.457491
732.735506	2559.915567
733.066401	2560.752399
733.397249	2560.701987
733.728048	2559.129147
734.058798	2558.287274
734.389501	2555.093703
734.720156	2555.008004
735.050762	2554.834084
735.381320	2555.222253
735.711831	2552.222766
736.042293	2554.672767
736.372707	2552.333672
736.703073	2551.459032
737.033391	2552.366439
737.363661	2555.877603
737.693883	2551.340564
738.024056	2557.067315
738.354182	2553.662016
738.684260	2552.807540
739.014290	2554.715617
739.344272	2553.873744
739.674207	2556.643858
740.004093	2557.526060
740.333931	2553.659495
740.663722	2556.346430
740.993464	2555.310473
741.323159	2556.480021
741.652806	2553.528425
741.982405	2555.665874
742.311956	2553.646892
742.641460	2553.538507
742.970915	2554.067829
743.300323	2552.497509
743.629683	2553.682180
743.958996	2553.326779
744.288260	2551.935421
744.617477	2552.074052
744.946647	2548.608259
745.275768	2548.920811
745.604842	2547.504246
745.933869	2547.930224
746.262847	2545.457538
746.591778	2552.920966
746.920662	2549.205636
747.249498	2550.508774
747.578286	2549.757642
747.907027	2552.321069
748.235720	2553.518343
748.564365	2550.861655
748.892963	2550.990204
749.221514	2554.279557
749.550017	2552.295863
749.878473	2552.053888
750.206881	2552.759649
750.535242	2550.607077
750.863555	2548.915769
751.191821	2552.865513
751.520039	2550.629762
751.848210	2551.695966
752.176334	2552.457180
752.504411	2552.280740
752.832440	2552.777293
753.160421	2555.640669
753.488356	2549.336706
753.816243	2550.201264
754.144082	2549.341747
754.471875	2551.287632
754.799620	2550.654967
755.127318	2547.617672
755.454969	2549.276212
755.782572	2550.687735
756.110129	2548.893084
756.437638	2552.109340
756.765100	2548.426777
757.092515	2549.780327
757.419882	2546.425439
757.747203	2550.919628
758.074477	2550.080276
758.401703	2552.013558
758.728882	2546.833773
759.056014	2552.298384
759.383099	2551.796789
759.710138	2549.823177
760.037129	2553.225956
760.364073	2552.041285
760.690970	2549.850903
761.017820	2550.879299
761.344623	2550.463404
761.671379	2552.936090
761.998088	2547.380738
762.324751	2554.151008
762.651366	2555.870041
762.977935	2565.627194
763.304456	2569.919737
763.630931	2576.327043
763.957359	2571.782443
764.283740	2566.683316
764.610074	2562.037893
764.936362	2558.191492
765.262602	2556.679146
765.588796	2554.813919
765.914943	2552.636141
766.241044	2551.358208
766.567097	2550.102961
766.893104	2551.201933
767.219064	2548.595656
767.544978	2548.114226
767.870845	2546.299411
768.196665	2552.116902
768.522438	2546.367466
768.848165	2548.580533
769.173846	2548.222611
769.499479	2545.417209
769.825066	2544.466951
770.150607	2545.412167
770.476101	2545.197918
770.801548	2546.937117
771.126949	2543.352856
771.452303	2545.334030
771.777611	2544.333361
772.102872	2546.256561
772.428087	2544.519883
772.753256	2544.774462
773.078378	2546.100285
773.403453	2543.511652
773.728482	2541.787578
774.053465	2542.326981
774.378401	2543.640202
774.703291	2546.243958
775.028135	2543.506611
775.352932	2540.920499
775.677683	2540.290355
776.002388	2543.330171
776.327046	2544.136756
776.651658	2542.518545
776.976224	2542.606765
777.300743	2540.839841
777.625216	2545.200439
777.949643	2542.299255
778.274024	2545.417209
778.598359	2540.600386
778.922647	2538.384799
779.246889	2540.933102
779.571086	2535.813811
779.895236	2541.822866
780.219339	2538.029398
780.543397	2542.500901
780.867409	2541.434697
781.191374	2542.432846
781.515294	2542.942002
781.839167	2543.186498
782.162995	2544.819832
782.486776	2544.202291
782.810511	2540.701209
783.134201	2543.458720
783.457844	2543.161292
783.781441	2542.551313
784.104993	2539.786240
784.428498	2541.361600
784.751958	2541.734646
785.075372	2542.838658
785.398739	2538.115097
785.722061	2543.652805
786.045337	2539.897145
786.368568	2541.590973
786.691752	2542.427804
787.014891	2543.171375
787.337983	2541.306148
787.661030	2545.376879
787.984031	2545.288659
788.306987	2544.459389
788.629897	2547.872251
788.952760	2547.579864
789.275579	2545.296221
789.598351	2545.223124
789.921078	2545.525593
790.243759	2543.776313
790.566395	2542.730274
790.888984	2541.805222
791.211529	2540.512166
791.534027	2544.048535
791.856480	2539.975283
792.178888	2541.177598
792.501249	2542.465613
792.823566	2542.972249
793.145836	2543.925027
793.468062	2541.419574
793.790241	2543.035263
794.112375	2542.644574
794.434464	2543.128525
794.756507	2540.353370
795.078505	2542.339584
795.400457	2538.828421
795.722364	2538.800694
796.044226	2538.687268
796.366042	2541.966539
796.687812	2541.565767
797.009538	2543.118442
797.331218	2541.485109
797.652852	2542.760521
797.974442	2542.818494
798.295986	2542.352187
798.617484	2543.047866
798.938938	2543.282280
799.260346	2543.519214
799.581709	2541.996786
799.903026	2542.044677
800.224299	2539.808925
800.545526	2540.804553
800.866708	2539.821528
801.187845	2541.054090
801.508936	2540.882691
801.829983	2540.605427
802.150984	2540.028215
802.471940	2540.877650
802.792851	2540.665921
803.113717	2542.584080
803.434538	2540.628113
803.755314	2540.895294
804.076045	2540.106353
804.396731	2539.982845
804.717372	2541.280942
805.037967	2540.779347
805.358518	2540.227341
805.679024	2539.375386
805.999485	2542.032074
806.319901	2538.929244
806.640272	2541.666590
806.960598	2541.611137
807.280879	2539.637526
807.601115	2539.876981
807.921306	2540.791950
808.241453	2542.505942
808.561554	2539.559388
808.881611	2541.369162
809.201623	2541.520397
809.521590	2540.066024
809.841513	2541.094419
810.161390	2540.943185
810.481223	2541.374203
810.801011	2541.717002
811.120755	2540.739018
811.440453	2541.901004
811.760107	2540.360931
812.079716	2538.339429
812.399281	2534.815662
812.718801	2537.545447
813.038276	2535.309695
813.357707	2536.922864
813.677093	2539.282124
813.996434	2541.001158
814.315731	2536.827083
814.634983	2540.539892
814.954191	2541.323792
815.273354	2543.231868
815.592473	2538.311702
815.911547	2540.607948
816.230577	2539.645088
816.549562	2540.653318
816.868502	2540.234902
817.187399	2541.656508
817.506250	2542.604245
817.825058	2545.311344
818.143821	2542.790767
818.462539	2544.363608
818.781213	2546.730429
819.099843	2543.796478
819.418429	2548.416695
819.736970	2548.527601
820.055466	2550.440718
820.373919	2553.677139
820.692327	2558.972871
821.010691	2565.710373
821.329011	2578.298135
821.647286	2614.047477
821.965517	2649.161634
822.283704	2671.274656
822.601847	2678.017199
822.919945	2662.117400
823.237999	2639.102012
823.556010	2619.829681
823.873976	2604.784357
824.191897	2592.509147
824.509775	2582.583115
824.827609	2574.754203
825.145398	2570.000395
825.463144	2568.402350
825.780845	2568.399829
826.098502	2571.520303
826.416116	2581.710996
826.733685	2592.279775
827.051210	2596.819334
827.368692	2591.251379
827.686129	2584.130750
828.003522	2572.188256
828.320872	2562.312636
828.638177	2555.875082
828.955439	2552.447098
829.272656	2546.551468
829.589830	2541.525438
829.906960	2549.820657
830.224046	2546.427960
830.541088	2545.765048
830.858086	2541.835469
831.175041	2544.610624
831.491952	2542.367311
831.808819	2545.061807
832.125642	2544.003165
832.442421	2546.196067
832.759157	2549.485420
833.075849	2557.621842
833.392497	2562.973027
833.709101	2569.466033
834.025662	2567.386557
834.342179	2566.469067
834.658653	2558.650238
834.975083	2556.827860
835.291469	2554.496327
835.607811	2550.602035
835.924110	2544.325799
836.240366	2544.257743
836.556578	2542.795809
836.872746	2540.459234
837.188871	2538.853626
837.504952	2541.200283
837.820990	2541.810263
838.136984	2540.870088
838.452935	2538.901517
838.768842	2539.214069
839.084706	2541.112063
839.400526	2541.717002
839.716303	2546.919473
840.032037	2552.550441
840.347727	2553.339382
840.663373	2547.433670
840.978977	2542.722712
841.294537	2542.523586
841.610054	2541.696837
841.925527	2539.665252
842.240957	2536.431352
842.556344	2538.772968
842.871687	2535.992772
843.186987	2536.638039
843.502244	2538.132741
843.817458	2537.172402
844.132629	2536.995961
844.447756	2536.569984
844.762840	2529.091432
845.077881	2531.561597
845.392879	2532.176618
845.707833	2535.443286
846.022745	2530.634025
846.337613	2536.610313
846.652438	2535.803728
846.967221	2533.835158
847.281960	2534.311547
847.596656	2532.710980
847.911309	2534.558563
848.225919	2535.249201
848.540485	2535.014788
848.855009	2535.143337
849.169490	2534.593851
849.483928	2533.260466
849.798323	2537.724408
850.112675	2535.589479
850.426984	2534.828265
850.741251	2533.431865
851.055474	2533.623429
851.369654	2536.698533
851.683792	2533.073943
851.997887	2535.660055
852.311938	2534.523275
852.625947	2532.705939
852.939914	2533.038655
853.253837	2534.094777
853.567718	2535.294572
853.881555	2534.435055
854.195350	2536.446475
854.509103	2533.827596
854.822812	2536.136444
855.136479	2534.566125
855.450103	2534.581248
855.763685	2533.749458
856.077224	2533.094108
856.390720	2534.908923
856.704173	2533.567977
857.017584	2535.521424
857.330953	2535.665097
857.644278	2534.185518
857.957561	2537.984027
858.270802	2535.755837
858.584000	2534.677030
858.897155	2536.204500
859.210268	2532.733666
859.523339	2534.097298
859.836367	2533.890610
860.149352	2536.138965
860.462295	2535.118131
860.775195	2531.359951
861.088054	2531.216278
861.400869	2532.312729
861.713642	2527.304343
862.026373	2531.349869
862.339062	2535.455889
862.651708	2532.930271
862.964312	2535.281969
863.276873	2530.397091
863.589392	2534.611495
863.901869	2534.155271
864.214303	2536.819521
864.526696	2536.201979
864.839045	2535.168543
865.151353	2534.566125
865.463619	2535.118131
865.775842	2537.661393
866.088023	2530.571011
866.400162	2535.075282
866.712258	2534.893800
867.024313	2535.844057
867.336325	2534.664427
867.648296	2537.873122
867.960224	2533.797349
868.272110	2538.304141
868.583954	2534.049407
868.895755	2537.210210
869.207515	2531.271731
869.519233	2534.858512
869.830909	2535.342463
870.142542	2535.995292
870.454134	2534.498069
870.765684	2533.998995
871.077191	2533.119314
871.388657	2539.282124
871.700081	2535.629808
872.011463	2537.721887
872.322803	2537.424459
872.634101	2534.417411
872.945357	2537.855478
873.256571	2535.440765
873.567744	2538.654501
873.878874	2537.958822
874.189963	2535.309695
874.501010	2538.694830
874.812015	2538.523431
875.122979	2536.673327
875.433900	2539.070396
875.744780	2538.881353
876.055618	2538.301620
876.366415	2538.848585
876.677169	2538.021836
876.987882	2536.204500
877.298554	2534.956814
877.609183	2534.840868
877.919771	2534.392205
878.230317	2535.866743
878.540822	2541.076775
878.851285	2543.181457
879.161707	2543.960315
879.472087	2546.884184
879.782425	2547.111036
880.092722	2556.417006
880.402977	2568.016701
880.713191	2582.545307
881.023363	2599.102977
881.333494	2616.273147
881.643583	2617.215842
881.953631	2616.633589
882.263637	2612.338526
882.573602	2604.476847
882.883526	2595.488469
883.193408	2586.948755
883.503248	2574.711354
883.813048	2572.823442
884.122806	2565.428069
884.432522	2560.870866
884.742197	2559.108982
885.051831	2552.177396
885.361424	2550.304607
885.670975	2545.855789
885.980485	2545.079451
886.289954	2544.779503
886.599382	2544.650953
886.908768	2544.466951
887.218113	2540.060983
887.527417	2541.553164
887.836680	2538.016795
888.145901	2538.001671
888.455082	2538.677186
888.764221	2537.805066
889.073319	2538.576363
889.382376	2537.807587
889.691392	2537.789943
890.000366	2540.199614
890.309300	2538.500746
890.618193	2539.929913
890.927044	2538.442772
891.235855	2534.397246
891.544625	2538.626774
891.853353	2538.742721
892.162041	2539.687937
892.470687	2539.516538
892.779293	2540.771785
893.087858	2538.120138
893.396381	2539.788760
893.704864	2544.146838
894.013306	2546.412837
894.321707	2557.762994
894.630068	2563.202399
894.938387	2564.457647
895.246665	2561.130485
895.554903	2561.173335
895.863100	2555.078580
896.171256	2553.064639
896.479371	2549.130018
896.787446	2549.477858
897.095480	2545.946530
897.403473	2544.661036
897.711425	2545.321427
898.019336	2540.776827
898.327207	2539.438400
898.635038	2538.566281
898.942827	2538.556198
899.250576	2541.505273
899.558284	2535.788605
899.865952	2540.141641
900.173579	2537.595858
900.481165	2539.347659
900.788711	2538.624254
901.096216	2539.241795
901.403681	2534.979500
901.711105	2539.272042
902.018489	2536.053265
902.325832	2540.486960
902.633135	2537.658873
902.940397	2538.473019
903.247619	2540.928061
903.554800	2546.458207
903.861941	2554.791234
904.169041	2570.068451
904.476101	2575.386868
904.783121	2576.506004
905.090100	2570.539799
905.397039	2564.137533
905.703938	2555.943138
906.010796	2551.418702
906.317614	2547.542055
906.624391	2544.232537
906.931129	2541.096940
907.237826	2541.427135
907.544483	2538.987217
907.851099	2538.072248
908.157675	2535.042514
908.464211	2536.862371
908.770707	2531.342307
909.077163	2532.839530
909.383578	2528.451205
909.689954	2530.129910
909.996289	2529.260311
910.302584	2535.390354
910.608839	2533.961187
910.915054	2534.114942
911.221229	2534.871115
911.527363	2535.350024
911.833458	2535.123173
912.139513	2533.525127
912.445527	2536.512010
912.751502	2537.177443
913.057436	2534.424973
913.363331	2537.938657
913.669186	2538.178112
913.975000	2538.346990
914.280775	2541.152392
914.586510	2542.848741
914.892205	2547.252189
915.197859	2551.582540
915.503475	2554.846687
915.809050	2566.829510
916.114585	2568.878739
916.420081	2573.824111
916.725536	2569.098029
917.030952	2568.036866
917.336328	2561.269117
917.641665	2558.788869
917.946961	2556.026317
918.252218	2550.060111
918.557435	2546.196067
918.862612	2547.249668
919.167750	2545.175233
919.472848	2540.895294
919.777906	2543.284801
920.082925	2542.233720
920.387904	2539.887063
920.692843	2537.404295
920.997743	2535.521424
921.302603	2537.305992
921.607423	2536.035621
921.912204	2539.607279
922.216946	2533.991433
922.521647	2537.341280
922.826310	2533.542771
923.130932	2535.571835
923.435516	2535.034952
923.740059	2535.448327
924.044564	2530.727286
924.349028	2534.510672
924.653454	2528.544467
924.957840	2529.290557
925.262186	2528.839374
925.566493	2530.225692
925.870761	2525.960875
926.174989	2531.977493
926.479178	2529.764426
926.783328	2532.930271
927.087438	2530.553367
927.391509	2532.905065
927.695541	2528.882224
927.999533	2529.535053
928.303486	2531.362472
928.607400	2530.208047
928.911275	2532.269879
929.215110	2532.131248
929.518906	2529.338448
929.822663	2532.068233
930.126381	2533.721732
930.430060	2530.437420
930.733699	2527.286699
931.037299	2530.013963
931.340861	2528.917512
931.644383	2531.803573
931.947866	2531.848943
932.251309	2532.829448
932.554714	2529.320804
932.858080	2531.675023
933.161407	2527.747964
933.464694	2533.126876
933.767943	2529.845084
934.071153	2530.059333
934.374323	2532.302647
934.677455	2530.956659
934.980548	2531.496062
935.283602	2530.049251
935.586617	2531.337266
935.889593	2529.376257
936.192530	2530.571011
936.495428	2528.617563
936.798287	2530.671834
937.101108	2530.371885
937.403890	2530.838192
937.706632	2533.716691
938.009336	2533.046217
938.312002	2532.761392
938.614628	2529.933305
938.917216	2533.946063
939.219765	2530.460105
939.522275	2531.317101
939.824747	2532.489170
940.127179	2528.864580
940.429573	2526.752337
940.731929	2530.843233
941.034246	2525.187058
941.336524	2531.861546
941.638763	2533.497400
941.940964	2533.789787
942.243126	2531.165867
942.545250	2532.799201
942.847335	2532.426155
943.149381	2529.204858
943.451389	2529.625794
943.753359	2531.034797
944.055290	2531.659900
944.357182	2530.482790
944.659036	2531.075126
944.960851	2529.058664
945.262628	2531.644776
945.564367	2530.747451
945.866067	2529.734179
946.167729	2529.129241
946.469352	2532.075795
946.770937	2530.293747
947.072484	2531.438089
947.373992	2529.320804
947.675462	2528.438602
947.976893	2531.997657
948.278286	2529.799714
948.579641	2529.714014
948.880958	2531.506145
949.182236	2530.520599
949.483476	2529.310722
949.784678	2530.563449
950.085841	2532.310209
950.386967	2529.565300
950.688054	2529.887934
950.989103	2530.371885
951.290114	2531.425486
951.591087	2530.533202
951.892021	2530.404653
952.192917	2530.936494
952.493776	2531.727955
952.794596	2529.388860
953.095378	2530.132430
953.396122	2532.776515
953.696828	2530.991947
953.997496	2529.507327
954.298126	2530.387008
954.598718	2529.005732
954.899272	2527.266534
955.199788	2531.107893
955.500266	2530.787780
955.800706	2527.730320
956.101108	2526.938859
956.401472	2529.403983
956.701798	2523.687315
957.002087	2525.055988
957.302337	2527.891637
957.602550	2529.890455
957.902724	2527.342152
958.202861	2525.053468
958.502960	2528.035310
958.803022	2529.590506
959.103045	2527.059847
959.403031	2527.783253
959.702979	2525.907943
960.002889	2528.511699
960.302762	2526.041534
960.602596	2527.246370
960.902393	2526.404497
961.202153	2526.026410
961.501875	2527.148067
961.801559	2526.732172
962.101205	2528.640249
962.400814	2528.274765
962.700385	2526.641431
962.999918	2529.456916
963.299414	2530.472708
963.598873	2526.487676
963.898293	2527.362316
964.197677	2531.478418
964.497022	2527.072450
964.796331	2526.727131
965.095601	2527.740403
965.394835	2528.259642
965.694030	2525.290402
965.993189	2528.299971
966.292309	2527.984899
966.591393	2525.250073
966.890439	2527.788294
967.189447	2526.966586
967.488419	2526.943900
967.787353	2526.021369
968.086249	2526.008766
968.385108	2525.986081
968.683930	2527.329549
968.982714	2526.679240
969.281462	2525.320649
969.580172	2525.512213
969.878844	2530.467667
970.177480	2528.090763
970.476078	2526.119672
970.774639	2529.179652
971.073162	2526.712007
971.371649	2526.308715
971.670098	2524.531708
971.968510	2523.321831
972.266885	2522.099352
972.565223	2527.422810
972.863524	2524.995494
973.161788	2529.459436
973.460014	2526.855680
973.758204	2524.710669
974.056356	2525.547501
974.354471	2525.852491
974.652550	2526.873324
974.950591	2525.638242
975.248595	2526.714528
975.546563	2530.734848
975.844493	2524.040196
976.142386	2527.596730
976.440243	2524.526667
976.738062	2526.013807
977.035845	2523.710000
977.333590	2526.543129
977.631299	2527.732841
977.928971	2524.314939
978.226606	2525.955834
978.524204	2527.233767
978.821765	2528.854498
979.119290	2525.474404
979.416777	2526.661596
979.714228	2526.122192
980.011642	2527.329549
980.309020	2528.801566
980.606360	2524.438447
980.903664	2527.180835
981.200931	2525.169414
981.498162	2525.557583
981.795356	2529.056144
982.092513	2529.030938
982.389633	2526.575896
982.686717	2528.945238
982.983764	2529.008253
983.280775	2530.555887
983.577749	2527.584127
983.874686	2529.459436
984.171587	2531.062523
984.468451	2528.431041
984.765279	2527.763088
985.062070	2525.360978
985.358824	2528.141174
985.655543	2527.299302
985.952224	2527.763088
986.248869	2526.525485
986.545478	2524.826616
986.842050	2524.990453
987.138586	2521.237314
987.435086	2525.363499
987.731549	2523.468025
988.027975	2527.967255
988.324366	2526.066740
988.620719	2526.192768
988.917037	2522.729496
989.213318	2526.596061
989.509563	2526.401976
989.805772	2524.365350
990.101944	2526.953983
990.398080	2522.575741
990.694180	2526.452388
990.990244	2526.767460
991.286271	2527.465660
991.582262	2525.174455
991.878217	2525.227388
992.174136	2527.800897
992.470019	2525.781914
992.765865	2527.137985
993.061676	2523.508354
993.357450	2526.535567
993.653188	2525.542460
993.948890	2527.475742
994.244556	2522.174969
994.540186	2527.916843
994.835780	2525.353416
995.131337	2527.032121
995.426859	2526.061698
995.722345	2523.717562
996.017795	2522.530370
996.313208	2528.342821
996.608586	2525.663447
996.903928	2528.088242
997.199234	2526.212933
997.494504	2526.288550
997.789738	2527.372398
998.084936	2523.155473
998.380099	2526.588499
998.675225	2524.536749
998.970316	2524.814013
999.265371	2529.288037
999.560390	2526.522964
999.855373	2528.408356
1000.150320	2526.704446
1000.445232	2525.436595
1000.740108	2526.298633
1001.034948	2524.897192
1001.329752	2522.724455
1001.624521	2525.776873
1001.919254	2521.812006
1002.213951	2525.912984
1002.508613	2522.245545
1002.803239	2525.560104
1003.097829	2522.013652
1003.392384	2526.563293
1003.686903	2523.805782
1003.981386	2526.565814
1004.275834	2522.946265
1004.570246	2526.013808
1004.864623	2527.158149
1005.158964	2525.272758
1005.453270	2524.176307
1005.747540	2524.803931
1006.041775	2526.545649
1006.335974	2526.157480
1006.630138	2526.205371
1006.924266	2527.420289
1007.218359	2525.197141
1007.512416	2524.405679
1007.806438	2523.989784
1008.100425	2526.825433
1008.394376	2522.916018
1008.688292	2526.381812
1008.982172	2526.245701
1009.276017	2523.513395
1009.569827	2522.737058
1009.863602	2525.176976
1010.157341	2523.818385
1010.451045	2525.723941
1010.744714	2521.920391
1011.038347	2526.560773
1011.331945	2523.755371
1011.625508	2526.336441
1011.919036	2525.524816
1012.212528	2526.016328
1012.505986	2525.086235
1012.799408	2525.829805
1013.092795	2524.130937
1013.386147	2525.020700
1013.679464	2523.115144
1013.972745	2526.596061
1014.265992	2523.498272
1014.559204	2527.412728
1014.852380	2526.553211
1015.145521	2527.949611
1015.438628	2526.505320
1015.731699	2525.358457
1016.024736	2529.908099
1016.317737	2525.819723
1016.610703	2528.241998
1016.903635	2524.521626
1017.196531	2518.505009
1017.489393	2521.958199
1017.782219	2520.211439
1018.075011	2526.298633
1018.367768	2523.306708
1018.660490	2525.061029
1018.953177	2525.061029
1019.245829	2525.061029
