Dividing Wavelength (nm)	Counts (n)	Blue Motor Position (mm): 0.000000	Red Motor Position (mm): 49.800000	
326.493990	2128.823817
326.888308	2128.823817
327.282561	2128.823817
327.676750	2096.341142
328.070874	2093.545822
328.464933	2095.216964
328.858929	2105.183326
329.252859	2110.826897
329.646726	2126.179731
330.040528	2138.157513
330.434265	2153.434730
330.827938	2173.853923
331.221547	2188.886644
331.615091	2207.765765
332.008571	2228.784856
332.401986	2248.941910
332.795338	2268.957811
333.188625	2286.435492
333.581847	2303.623306
333.975006	2324.899495
334.368100	2344.297855
334.761129	2359.799403
335.154095	2376.165509
335.546996	2397.703839
335.939833	2421.049423
336.332606	2439.265632
336.725315	2450.943465
337.117960	2459.475618
337.510540	2467.801083
337.903056	2479.814153
338.295508	2487.259937
338.687896	2494.589775
339.080220	2505.624861
339.472480	2513.408402
339.864676	2514.774555
340.256807	2520.105575
340.648875	2523.836029
341.040879	2523.813344
341.432818	2526.129754
341.824694	2527.180835
342.216506	2531.233922
342.608253	2531.914478
342.999937	2528.340300
343.391557	2529.164529
343.783113	2526.623787
344.174605	2530.417255
344.566033	2526.323838
344.957397	2524.690505
345.348697	2525.577748
345.739934	2518.724299
346.131106	2520.034999
346.522215	2516.917045
346.913260	2516.380162
347.304241	2513.892353
347.695159	2506.880108
348.086012	2510.716426
348.476802	2507.948833
348.867528	2507.648884
349.258191	2505.229130
349.648789	2505.307268
350.039324	2501.057575
350.429796	2502.385919
350.820203	2498.738645
351.210548	2500.823162
351.600828	2494.836792
351.991045	2500.873573
352.381198	2495.787049
352.771288	2501.355003
353.161314	2497.027173
353.551276	2496.008860
353.941175	2497.629591
354.331010	2496.639004
354.720782	2497.823675
355.110490	2495.799652
355.500135	2497.009529
355.889717	2497.223778
356.279235	2496.525578
356.668689	2497.193531
357.058080	2499.383912
357.447408	2493.589106
357.836672	2494.970382
358.225873	2499.202431
358.615010	2497.364930
359.004084	2501.496156
359.393095	2501.092863
359.782043	2501.387771
360.170927	2501.705364
360.559748	2502.905158
360.948505	2504.752741
361.337199	2504.863647
361.725830	2503.411794
362.114398	2506.370952
362.502903	2506.234840
362.891344	2507.686693
363.279722	2506.592762
363.668037	2508.836076
364.056289	2507.124604
364.444478	2512.122908
364.832603	2508.584018
365.220665	2511.959071
365.608665	2510.794564
365.996601	2509.181395
366.384474	2513.751201
366.772284	2513.297497
367.160031	2515.087107
367.547715	2515.770183
367.935336	2522.366533
368.322893	2522.452232
368.710388	2526.119672
369.097820	2532.622760
369.485189	2533.983872
369.872495	2542.760521
370.259738	2547.842004
370.646918	2553.717468
371.034035	2563.245249
371.421090	2572.606672
371.808081	2583.621593
372.195010	2594.843202
372.581875	2605.321240
372.968678	2617.014196
373.355418	2627.827471
373.742096	2648.042498
374.128710	2663.052534
374.515262	2676.582991
374.901751	2691.318283
375.288177	2705.070551
375.674540	2727.947307
376.060841	2745.304000
376.447079	2766.988523
376.833254	2785.161883
377.219367	2796.474232
377.605417	2837.481498
377.991404	2847.931810
378.377329	2866.667258
378.763191	2886.887326
379.148991	2921.542738
379.534727	2944.958898
379.920402	2976.607262
380.306013	2986.858448
380.691563	3039.341901
381.077049	3060.098852
381.462474	3077.105184
381.847835	3117.343674
382.233134	3139.859988
382.618371	3138.685399
383.003545	3205.163095
383.388657	3211.872871
383.773706	3244.602562
384.158693	3258.884151
384.543618	3289.907412
384.928480	3324.235149
385.313280	3371.117879
385.698017	3370.412118
386.082692	3422.794748
386.467305	3428.642486
386.851856	3458.120633
387.236344	3483.525528
387.620770	3513.865712
388.005133	3540.142727
388.389435	3565.857652
388.773674	3578.889035
389.157851	3618.275570
389.541965	3634.823158
389.926018	3599.817385
390.310008	3670.055782
390.693936	3690.527908
391.077802	3732.200606
391.461606	3719.028071
391.845348	3781.682052
392.229027	3783.353194
392.612645	3795.522539
392.996200	3872.727811
393.379694	3910.894386
393.763125	3973.646669
394.146494	3946.681537
394.529801	4007.782843
394.913047	4054.181623
395.296230	4019.904297
395.679351	4074.351279
396.062410	4100.729117
396.445408	4079.641970
396.828343	4113.924337
397.211217	4139.112462
397.594028	4059.469793
397.976778	4124.311634
398.359466	4152.083351
398.742092	4182.673073
399.124656	4103.862194
399.507158	4183.257846
399.889598	4208.428328
400.271977	4271.162967
400.654294	4238.471084
401.036549	4249.344853
401.418742	4221.525245
401.800874	4324.231193
402.182944	4343.498483
402.564952	4406.200355
402.946898	4394.915732
403.328783	4391.245772
403.710606	4304.454747
404.092367	4499.184437
404.474067	4461.564827
404.855705	4472.153770
405.237282	4397.741298
405.618797	4505.425386
406.000250	4543.266807
406.381642	4622.503663
406.762972	4582.555040
407.144240	4596.521556
407.525447	4595.145321
407.906593	4655.137573
408.287677	4694.428326
408.668700	4622.395278
409.049661	4677.860574
409.430560	4715.578487
409.811399	4644.684740
410.192176	4807.229184
410.572891	4744.103856
410.953545	4851.946739
411.334138	4725.822111
411.714669	4794.860713
412.095139	4692.961350
412.475547	4831.514943
412.855894	4812.945853
413.236180	4821.631761
413.616405	4777.501500
413.996568	4859.936968
414.376670	4802.699707
414.756711	4760.288480
415.136691	4792.882060
415.516609	4868.433833
415.896466	4903.217795
416.276262	4943.179021
416.655997	4917.481739
417.035670	5101.917394
417.415283	5188.731104
417.794834	5138.737982
418.174324	5093.685190
418.553753	4999.052650
418.933121	5185.509807
419.312428	5254.152678
419.691674	5188.317730
420.070859	5316.630219
420.449983	5232.069904
420.829045	5346.178942
421.208047	5251.115383
421.586988	5321.568029
421.965867	5334.758208
422.344686	5467.532118
422.723444	5319.725487
423.102141	5141.399711
423.480777	5437.638076
423.859352	5206.445719
424.237866	5466.488599
424.616319	5459.932578
424.994712	5566.242951
425.373044	5444.514209
425.751314	5582.969500
426.129524	5392.653339
426.507673	5581.121917
426.885762	5667.124002
427.263789	5599.668322
427.641756	5480.956711
428.019662	5600.490030
428.397508	5611.096618
428.775292	5556.387496
429.153016	5658.687631
429.530679	5580.668213
429.908282	5665.881357
430.285824	5537.876379
430.663305	5811.860570
431.040726	5543.487183
431.418086	5548.193100
431.795385	5657.939019
432.172624	5668.076780
432.549802	5656.522455
432.926920	5668.361605
433.303977	5683.164953
433.680974	5716.865067
434.057910	5737.984981
434.434786	5740.540846
434.811601	5709.401638
435.188355	5944.763029
435.565050	5820.032280
435.941683	5797.480678
436.318257	6017.973186
436.694770	5998.398385
437.071222	6032.985742
437.447614	5962.704496
437.823946	5880.248863
438.200218	6027.596748
438.576429	5899.712758
438.952580	5994.975442
439.328670	6037.421957
439.704700	5947.807886
440.080670	5928.638898
440.456580	6204.574016
440.832429	6088.539257
441.208218	5935.235248
441.583947	6087.813331
441.959616	6096.297593
442.335224	6023.699937
442.710773	6157.701368
443.086261	6184.530388
443.461689	5981.818030
443.837057	6125.342201
444.212365	6284.670389
444.587612	6174.876579
444.962800	6327.878118
445.337927	6305.906249
445.712995	5917.152629
446.088002	6495.597307
446.462949	6326.940464
446.837837	6259.023519
447.212664	6431.156237
447.587431	6576.507826
447.962139	7110.313086
448.336786	8041.593163
448.711374	7784.582537
449.085901	6858.386464
449.460369	6777.294463
449.834776	6713.695266
450.209124	7104.145235
450.583412	7256.395642
450.957640	7402.442911
451.331808	7164.510531
451.705917	6720.170628
452.079965	6641.745398
452.453954	6855.618871
452.827883	6730.013481
453.201752	6822.836247
453.575562	6626.221165
453.949311	6822.995043
454.323001	6715.033693
454.696632	6791.394571
455.070202	6927.563698
455.443713	7083.542039
455.817164	7179.243303
456.190556	7268.083558
456.563888	7340.141811
456.937160	7385.802062
457.310373	7038.252313
457.683526	7068.037970
458.056619	6954.967410
458.429653	6945.144722
458.802628	6879.430761
459.175542	6982.844991
459.548398	7348.195054
459.921194	7503.477716
460.293930	7505.191708
460.666607	8036.294910
461.039224	8346.585491
461.411782	8472.760531
461.784280	8492.862132
462.156719	8379.322744
462.529099	8255.133919
462.901419	7848.516970
463.273680	7741.800785
463.645882	7753.420644
464.018024	7623.880634
464.390106	7788.481869
464.762130	8175.420674
465.134094	8641.659349
465.505999	9664.295215
465.877845	10886.288552
466.249631	11536.410875
466.621358	11156.771661
466.993026	10529.173213
467.364634	10272.883472
467.736184	9905.146423
468.107674	9579.727339
468.479105	9600.456564
468.850477	9370.438796
469.221790	9147.123242
469.593043	8810.545565
469.964238	8675.356942
470.335373	8686.341616
470.706449	8743.281449
471.077467	8722.794200
471.448425	10032.473366
471.819324	11108.013621
472.190164	11138.845318
472.560945	9891.106809
472.931667	9098.521478
473.302330	8964.401580
473.672934	8607.271118
474.043479	8965.518196
474.413965	8905.848578
474.784393	8789.481103
475.154761	8944.730998
475.525070	9028.865335
475.895321	8853.483592
476.265513	9031.020428
476.635645	9205.295637
477.005719	9200.536788
477.375734	9317.718409
477.745691	9554.874451
478.115588	9687.547537
478.485427	9928.118961
478.855207	10466.277257
479.224928	11281.189859
479.594591	11912.072619
479.964194	11725.076058
480.333739	11660.176243
480.703226	11583.444841
481.072653	11675.420693
481.442022	11906.426526
481.811333	12098.038263
482.180584	11902.111299
482.549777	11613.487597
482.918912	11439.005701
483.287988	11464.806326
483.657005	11471.253962
484.025964	11153.068934
484.394864	11287.829058
484.763706	11251.613409
485.132489	11008.584423
485.501213	10972.507406
485.869879	11052.644108
486.238487	10886.270908
486.607036	10996.533545
486.975527	10778.669999
487.343959	10974.160904
487.712333	11015.846206
488.080648	10944.816348
488.448905	10992.828297
488.817104	10930.592732
489.185244	11199.054339
489.553326	11349.008502
489.921350	11892.089485
490.289315	12948.249024
490.657222	13299.388075
491.025070	13204.695041
491.392861	13076.662336
491.760593	12702.933875
492.128267	12348.797859
492.495883	12016.701767
492.863440	11680.784480
493.230939	11355.516631
493.598380	11282.916454
493.965763	11151.622123
494.333088	11045.213447
494.700354	10971.531943
495.067563	11027.173678
495.434713	10865.009841
495.801805	10983.045938
496.168839	10910.660010
496.535815	10847.665752
496.902733	10851.156751
497.269593	10779.169074
497.636395	10875.787828
498.003139	10859.615807
498.369825	10735.898330
498.736453	10892.196784
499.103023	10822.424694
499.469535	10851.582728
499.835989	10842.836326
500.202385	10797.002155
500.568723	10647.650411
500.935003	10871.797755
501.301226	10679.001347
501.667390	10935.190265
502.033497	11032.401355
502.399546	10893.772145
502.765537	10803.386777
503.131470	10875.409742
503.497345	11055.620909
503.863163	10660.613738
504.228923	10969.260903
504.594625	11035.163907
504.960269	10784.250557
505.325856	11007.069557
505.691385	10802.176900
506.056856	10947.531009
506.422270	10982.085598
506.787625	10864.639317
507.152924	10984.570887
507.518164	10959.796137
507.883347	10884.735876
508.248472	10808.571603
508.613540	11041.092304
508.978550	10916.608572
509.343503	10893.759542
509.708398	11012.408139
510.073236	11126.635644
510.438016	11138.280709
510.802738	11075.246121
511.167403	11129.430963
511.532010	11030.485716
511.896561	11263.825604
512.261053	11332.135760
512.625488	11198.404030
512.989866	11186.605210
513.354186	11170.586943
513.718449	11072.662530
514.082655	11273.252562
514.446803	11162.853813
514.810894	11283.602051
515.174927	11154.493060
515.538904	11182.219406
515.902822	11329.985707
516.266684	11211.145547
516.630488	11158.616724
516.994235	11212.496576
517.357925	11279.352358
517.721558	11364.837725
518.085133	11379.646114
518.448651	11393.012733
518.812112	11270.300967
519.175516	11284.660693
519.538863	11409.240208
519.902152	11324.367342
520.265385	11488.270377
520.628560	11401.151676
520.991678	11374.925073
521.354739	11436.477562
521.717743	11376.013963
522.080690	11357.593587
522.443580	11486.632002
522.806413	11442.211874
523.169189	11476.484159
523.531908	11520.919409
523.894569	11345.540188
524.257174	11351.614778
524.619722	11470.187758
524.982213	11417.069120
525.344647	11468.806482
525.707025	11418.977196
526.069345	11516.672237
526.431608	11429.417426
526.793815	11545.230374
527.155964	11333.693476
527.518057	11390.744214
527.880093	11330.114257
528.242072	11400.461038
528.603995	11306.816564
528.965860	11229.593649
529.327669	11284.350662
529.689421	11228.088865
530.051117	11194.250120
530.412755	11308.296143
530.774337	11192.997393
531.135862	11176.510299
531.497331	11200.780934
531.858743	11053.548995
532.220098	11219.506300
532.581396	11093.026271
532.942638	11070.212529
533.303824	11029.958916
533.664953	11052.868439
534.026025	10961.621034
534.387040	11059.416898
534.747999	11061.151055
535.108902	11121.183636
535.469748	10877.259845
535.830537	10980.883283
536.191270	10962.546086
536.551947	10990.337967
536.912567	10979.622995
537.273131	10911.519527
537.633638	10888.766279
537.994089	10868.470593
538.354483	10818.643829
538.714821	10967.735954
539.075103	10974.536470
539.435328	10944.120669
539.795497	10775.284865
540.155609	10918.670403
540.515665	11016.216730
540.875665	10747.732438
541.235609	10826.543317
541.595496	10817.650722
541.955328	10975.947993
542.315102	10853.692451
542.674821	10804.266458
543.034483	10803.263268
543.394090	10815.115021
543.753640	10736.127702
544.113134	10963.564399
544.472571	10817.635598
544.831953	10968.345933
545.191278	10766.079718
545.550548	10794.211877
545.909761	10928.157855
546.268918	10906.458208
546.628019	10988.787812
546.987064	10844.898158
547.346053	10766.082238
547.704986	10875.669361
548.063863	10855.615651
548.422684	10853.309323
548.781449	10769.207754
549.140158	10873.058043
549.498811	10748.753272
549.857408	10600.868503
550.215949	10828.965591
550.574434	10679.956645
550.932864	10777.921388
551.291237	10843.342962
551.649555	10787.875146
552.007817	10799.061467
552.366022	10769.628690
552.724173	10755.692420
553.082267	10743.175235
553.440305	10876.901923
553.798288	10678.978662
554.156215	10834.036992
554.514086	10810.444392
554.871902	10658.420836
555.229661	10697.751918
555.587365	10672.873824
555.945014	10568.728627
556.302606	10698.009017
556.660143	10582.508621
557.017625	10739.815306
557.375050	10640.149174
557.732421	10773.223033
558.089735	10687.848572
558.446994	10693.305621
558.804197	10722.057842
559.161345	10719.323016
559.518437	10573.268186
559.875474	10665.339820
560.232455	10689.749087
560.589381	10640.741510
560.946251	10640.489452
561.303065	10750.847871
561.659825	10674.514720
562.016528	10612.848805
562.373177	10485.549588
562.729770	10604.697260
563.086307	10518.203662
563.442789	10614.640936
563.799216	10492.476134
564.155587	10540.785511
564.511904	10496.682977
564.868164	10481.466254
565.224370	10502.041723
565.580520	10417.541902
565.936615	10429.912894
566.292654	10297.542276
566.648638	10429.307956
567.004567	10384.512262
567.360441	10370.507937
567.716260	10278.126272
568.072023	10369.711435
568.427732	10323.105967
568.783385	10234.850487
569.138982	10302.822885
569.494525	10322.460700
569.850013	10199.791783
570.205445	10276.540829
570.560823	10173.207258
570.916145	10091.096944
571.271412	10166.240383
571.626625	10109.358524
571.981782	10087.210214
572.336884	10055.544207
572.691931	10068.792359
573.046923	10012.338998
573.401860	9968.584303
573.756743	9904.181042
574.111570	9944.497670
574.466342	9931.375546
574.821059	9961.834198
575.175722	9856.211942
575.530330	9858.241007
575.884882	9849.613072
576.239380	9774.288151
576.593823	9756.767621
576.948211	9769.577193
577.302544	9655.306838
577.656823	9662.422427
578.011047	9668.023149
578.365216	9639.306216
578.719330	9567.265607
579.073389	9574.396319
579.427394	9522.842959
579.781344	9501.506275
580.135239	9457.675963
580.489080	9455.011713
580.842866	9357.793062
581.196597	9368.737407
581.550273	9400.569773
581.903895	9372.092294
582.257463	9432.457591
582.610975	9322.386518
582.964434	9345.139765
583.317837	9266.122199
583.671186	9250.179550
584.024481	9238.917613
584.377721	9163.259976
584.730906	9135.899113
585.084037	9169.642077
585.437113	9106.728477
585.790135	9126.388977
586.143103	9024.179582
586.496016	8996.801076
586.848874	9060.947238
587.201679	9046.952995
587.554428	8939.556253
587.907124	8980.399682
588.259765	8947.007079
588.612352	8950.276267
588.964884	8829.114655
589.317362	8840.704267
589.669786	8845.357252
590.022155	8893.704438
590.374470	8907.411336
590.726731	8843.350873
591.078937	8700.308133
591.431090	8800.606930
591.783188	8680.367849
592.135232	8684.226852
592.487222	8676.186212
592.839157	8722.995846
593.191038	8661.907143
593.542866	8604.546374
593.894639	8509.442487
594.246358	8554.954023
594.598022	8571.788957
594.949633	8467.568142
595.301190	8445.376983
595.652692	8475.177764
596.004141	8582.952592
596.355535	8359.652162
596.706876	8337.488729
597.058162	8275.356508
597.409395	8345.819236
597.760573	8405.955160
598.111698	8322.140936
598.462768	8306.021847
598.813785	8264.006350
599.164748	8243.483812
599.515657	8226.404383
599.866511	8141.670149
600.217312	8270.743852
600.568060	8129.929302
600.918753	8228.970331
601.269392	8198.912451
601.619978	8110.999769
601.970510	8177.124584
602.320988	8170.601331
602.671412	8230.891010
603.021783	8168.133686
603.372100	8141.163513
603.722363	8137.559088
604.072572	8115.143597
604.422728	8126.390412
604.772830	8059.161584
605.122878	8067.575270
605.472872	8057.772746
605.822813	8088.816171
606.172701	8032.128396
606.522534	8109.210159
606.872314	8109.215200
607.222041	8076.994666
607.571714	8133.390054
607.921333	8088.937159
608.270899	8096.539219
608.620411	8184.814864
608.969870	8088.980009
609.319276	8082.366015
609.668627	8098.273376
610.017926	8137.753172
610.367171	8182.773197
610.716362	8158.363930
611.065500	8150.323289
611.414585	8176.227258
611.763616	8167.190990
612.112594	8148.074935
612.461518	8159.412490
612.810389	8223.004125
613.159207	8159.997264
613.507971	8112.857434
613.856682	8229.413952
614.205340	8181.613731
614.553945	8263.013243
614.902496	8160.342583
615.250994	8212.712609
615.599439	8194.297274
615.947830	8209.584573
616.296169	8181.011313
616.644454	8194.836678
616.992686	8189.699742
617.340864	8244.151765
617.688990	8156.218919
618.037063	8246.367353
618.385082	8189.979526
618.733048	8277.062938
619.080961	8220.823826
619.428821	8235.511228
619.776628	8237.457113
620.124382	8187.552211
620.472083	8176.622989
620.819731	8207.270684
621.167326	8101.850075
621.514868	8102.417204
621.862357	7994.528950
622.209793	8011.452104
622.557176	7942.995755
622.904506	7915.317300
623.251783	7846.465221
623.599007	7804.679097
623.946179	7807.862585
624.293297	7765.776512
624.640363	7679.671084
624.987376	7663.239443
625.334336	7609.478058
625.681243	7557.299595
626.028097	7550.378091
626.374899	7523.213833
626.721647	7515.861310
627.068343	7448.345137
627.414987	7423.686333
627.761577	7377.053139
628.108115	7405.644043
628.454600	7300.452807
628.801032	7361.291972
629.147412	7320.168759
629.493739	7306.895401
629.840014	7244.309476
630.186236	7299.152189
630.532405	7183.603902
630.878521	7231.373875
631.224585	7190.931219
631.570597	7111.694362
631.916556	7145.951523
632.262462	7145.011348
632.608316	7101.430573
632.954117	7083.892399
633.299866	7062.875829
633.645562	7057.196969
633.991206	6976.604042
634.336797	6919.880979
634.682336	6883.907305
635.027823	6846.123857
635.373257	6834.216652
635.718639	6770.388083
636.063968	6785.173787
636.409245	6678.422313
636.754470	6671.778072
637.099642	6630.634695
637.444762	6576.575882
637.789829	6588.873777
638.134845	6527.094436
638.479808	6514.224370
638.824719	6520.901379
639.169577	6442.919770
639.514383	6467.145035
639.859137	6393.892028
640.203839	6401.418471
640.548489	6389.564197
640.893086	6363.140990
641.237632	6335.926321
641.582125	6360.985896
641.926566	6322.174053
642.270955	6344.665161
642.615292	6335.822977
642.959576	6352.579772
643.303809	6340.972516
643.647990	6350.192786
643.992118	6340.367577
644.336195	6285.708867
644.680219	6311.678371
645.024192	6303.065559
645.368112	6393.037552
645.711981	6420.549650
646.055797	6493.548078
646.399562	6450.733558
646.743274	6574.025058
647.086935	6634.410519
647.430544	6629.840713
647.774101	6650.731255
648.117606	6652.581358
648.461059	6644.855790
648.804460	6608.894719
649.147810	6515.494741
649.491108	6487.528940
649.834354	6461.088088
650.177548	6377.435181
650.520690	6289.456964
650.863781	6271.278564
651.206820	6289.048631
651.549807	6212.927208
651.892742	6152.569473
652.235626	6157.184649
652.578458	6141.942721
652.921238	6052.416869
653.263967	6093.406491
653.606644	6029.313261
653.949269	6029.744280
654.291843	5977.167566
654.634365	6022.951325
654.976836	5977.961548
655.319255	5977.160004
655.661622	5952.370130
656.003938	5948.690088
656.346203	5910.581485
656.688416	5943.200271
657.030577	5891.352004
657.372687	5864.081882
657.714746	5853.054358
658.056753	5893.249998
658.398708	5837.247820
658.740612	5826.636192
659.082465	5875.525302
659.424266	5867.671184
659.766016	5865.112798
660.107715	5845.842988
660.449362	5856.545357
660.790958	5847.378019
661.132503	5840.973233
661.473996	5874.741402
661.815438	5860.991655
662.156829	5859.035687
662.498168	5850.622002
662.839456	5829.033260
663.180693	5863.809660
663.521879	5865.667325
663.863013	5850.541343
664.204097	5867.892995
664.545129	5912.527371
664.886110	5909.880765
665.227040	5944.337052
665.567918	5903.682666
665.908746	5936.800527
666.249522	5940.452843
666.590248	5923.436428
666.930922	5949.226971
667.271545	5968.143901
667.612118	5971.438295
667.952639	5941.241783
668.293109	5968.297656
668.633528	5922.871818
668.973896	5919.960552
669.314213	5914.082567
669.654480	5896.284773
669.994695	5891.624226
670.334859	5883.129882
670.674973	5873.266865
671.015035	5874.131423
671.355047	5870.647985
671.695008	5856.726839
672.034918	5836.474003
672.374777	5845.308625
672.714585	5825.874977
673.054342	5834.901163
673.394049	5820.964893
673.733705	5855.257343
674.073310	5845.321228
674.412864	5805.503675
674.752368	5795.002951
675.091820	5798.516635
675.431223	5736.243262
675.770574	5742.723665
676.109875	5691.901273
676.449125	5694.736922
676.788324	5659.620244
677.127473	5604.412048
677.466571	5595.872333
677.805619	5587.458647
678.144616	5573.998767
678.483562	5549.539088
678.822458	5513.888048
679.161303	5511.180948
679.500098	5500.856665
679.838842	5484.878728
680.177535	5489.589687
680.516179	5507.354713
680.854771	5515.309653
681.193314	5599.776707
681.531805	5707.942224
681.870247	5856.792374
682.208638	5961.045956
682.546978	5973.931145
682.885268	5951.349297
683.223508	5864.170103
683.561697	5813.453574
683.899836	5782.881497
684.237925	5740.336679
684.575963	5701.066090
684.913951	5662.821377
685.251889	5726.193722
685.589776	5692.909503
685.927614	5663.973280
686.265401	5732.154886
686.603137	5716.552515
686.940824	5789.185460
687.278460	5818.613195
687.616046	5829.736501
687.953582	5894.137242
688.291068	5876.349530
688.628504	5940.276402
688.965889	5906.573768
689.303224	5847.748544
689.640510	5797.422705
689.977745	5723.133741
690.314930	5623.457527
690.652065	5566.270678
690.989150	5478.451257
691.326185	5396.033433
691.663170	5345.954611
692.000105	5268.429226
692.336990	5193.502557
692.673825	5167.533052
693.010610	5099.071663
693.347345	5026.794119
693.684030	5014.140823
694.020665	4974.166994
694.357251	4881.278693
694.693786	4891.630702
695.030272	4852.670145
695.366707	4822.745856
695.703093	4787.614055
696.039429	4808.481911
696.375716	4794.979180
696.711952	4763.897946
697.048139	4756.699179
697.384276	4736.615222
697.720363	4747.904886
698.056400	4754.024847
698.392388	4708.362075
698.728326	4683.965411
699.064214	4662.661495
699.400053	4654.570443
699.735842	4628.013644
700.071581	4603.228812
700.407270	4577.498762
700.742910	4555.456317
701.078501	4504.064274
701.414042	4501.518492
701.749533	4473.774501
702.084974	4405.081218
702.420366	4466.986588
702.755709	4406.185231
703.091002	4345.129296
703.426246	4394.179723
703.761440	4354.785627
704.096584	4314.292558
704.431679	4336.687884
704.766725	4322.116429
705.101721	4308.505314
705.436668	4338.222916
705.771565	4288.381028
706.106413	4315.381448
706.441212	4350.039380
706.775961	4356.371069
707.110661	4334.469777
707.445311	4362.435577
707.779913	4385.564391
708.114465	4399.510743
708.448967	4421.243158
708.783421	4483.904700
709.117825	4524.702758
709.452180	4527.314076
709.786485	4574.867280
710.120742	4660.503881
710.454949	4644.946880
710.789107	4711.792580
711.123216	4787.135145
711.457275	4777.713228
711.791286	4847.989434
712.125247	4865.870406
712.459159	4770.590078
712.793023	4845.352910
713.126837	4803.644924
713.460602	4798.714675
713.794318	4714.008167
714.127985	4729.171958
714.461602	4639.315911
714.795171	4608.330459
715.128691	4543.874266
715.462162	4490.317048
715.795584	4437.659675
716.128957	4420.378600
716.462281	4367.257441
716.795556	4340.952700
717.128782	4303.411228
717.461960	4236.431937
717.795088	4248.102208
718.128167	4205.786763
718.461198	4142.127072
718.794180	4141.416269
719.127113	4119.993886
719.459997	4102.695167
719.792833	4058.532138
720.125619	4046.216600
720.458357	4008.526413
720.791046	4018.031508
721.123686	3988.124863
721.456278	3944.959983
721.788821	3961.774752
722.121315	3936.153088
722.453761	3911.930343
722.786158	3925.589350
723.118506	3947.452834
723.450805	3898.286461
723.783056	3922.426026
724.115259	3935.984209
724.447412	3942.204993
724.779518	3935.369188
725.111574	3939.286165
725.443582	3968.570227
725.775542	3953.540027
726.107453	4006.704036
726.439315	4002.719004
726.771129	4020.451262
727.102895	4058.927869
727.434612	4103.368161
727.766281	4113.848720
728.097901	4118.088330
728.429473	4121.549082
728.760996	4127.744660
729.092471	4123.933548
729.423897	4107.489304
729.755276	4115.229996
730.086606	4115.013226
730.417887	4152.123680
730.749120	4216.726067
731.080305	4277.043473
731.411442	4310.650325
731.742530	4280.660500
732.073570	4278.686889
732.404562	4333.295188
732.735506	4327.507943
733.066401	4290.659629
733.397249	4226.652099
733.728048	4151.102847
734.058798	4067.021442
734.389501	3992.853466
734.720156	3935.011266
735.050762	3887.884040
735.381320	3880.904562
735.711831	3831.586954
736.042293	3799.731903
736.372707	3821.756704
736.703073	3791.910553
737.033391	3781.538379
737.363661	3802.817089
737.693883	3828.630317
738.024056	3837.041483
738.354182	3828.980678
738.684260	3895.891912
739.014290	3915.602824
739.344272	3911.567380
739.674207	3953.121612
740.004093	3961.414310
740.333931	3953.413998
740.663722	3955.523721
740.993464	3952.350315
741.323159	3928.795524
741.652806	3902.145464
741.982405	3869.466184
742.311956	3840.663552
742.641460	3830.344310
742.970915	3805.632573
743.300323	3766.354423
743.629683	3730.796645
743.958996	3720.762228
744.288260	3695.458156
744.617477	3659.625635
744.946647	3648.741783
745.275768	3622.598360
745.604842	3621.731281
745.933869	3575.647573
746.262847	3561.549987
746.591778	3599.220009
746.920662	3569.804876
747.249498	3540.530896
747.578286	3586.337340
747.907027	3605.334928
748.235720	3606.864918
748.564365	3629.497179
748.892963	3627.132877
749.221514	3607.633694
749.550017	3590.004779
749.878473	3586.145776
750.206881	3554.741908
750.535242	3556.798699
750.863555	3555.702248
751.191821	3545.940054
751.520039	3529.647044
751.848210	3510.019312
752.176334	3541.493756
752.504411	3549.461300
752.832440	3505.986389
753.160421	3490.729337
753.488356	3498.757374
753.816243	3512.063500
754.144082	3470.063127
754.471875	3454.559058
754.799620	3473.085298
755.127318	3467.376192
755.454969	3466.425934
755.782572	3469.168322
756.110129	3446.727625
756.437638	3438.679423
756.765100	3450.644602
757.092515	3458.622228
757.419882	3468.994402
757.747203	3442.220834
758.074477	3443.218982
758.401703	3458.624748
758.728882	3476.601503
759.056014	3484.979901
759.383099	3491.780417
759.710138	3484.432936
760.037129	3505.124352
760.364073	3533.732900
760.690970	3521.099768
761.017820	3496.788804
761.344623	3517.160106
761.671379	3560.418247
761.998088	3614.900518
762.324751	3741.307450
762.651366	3987.401458
762.977935	4459.288746
763.304456	4905.042692
763.630931	5003.531715
763.957359	4648.440400
764.283740	4300.706649
764.610074	4104.656176
764.936362	3908.830034
765.262602	3749.809356
765.588796	3636.285092
765.914943	3547.858213
766.241044	3459.784214
766.567097	3427.893875
766.893104	3382.591546
767.219064	3347.971422
767.544978	3321.182730
767.870845	3267.587703
768.196665	3248.406112
768.522438	3254.979777
768.848165	3252.096237
769.173846	3214.151472
769.499479	3200.434492
769.825066	3185.134591
770.150607	3165.945438
770.476101	3180.998324
770.801548	3175.947088
771.126949	3130.589306
771.452303	3113.525000
771.777611	3124.282822
772.102872	3126.929428
772.428087	3099.140068
772.753256	3091.853080
773.078378	3083.109198
773.403453	3048.519321
773.728482	3038.898279
774.053465	3056.670867
774.378401	3048.819270
774.703291	3015.804753
775.028135	3015.643437
775.352932	3012.762417
775.677683	2998.284223
776.002388	2995.710714
776.327046	2994.883965
776.651658	2984.645382
776.976224	2975.682210
777.300743	2976.108188
777.625216	2968.642239
777.949643	2962.224850
778.274024	2964.488328
778.598359	2954.148921
778.922647	2956.896350
779.246889	2955.820064
779.571086	2941.838424
779.895236	2936.366251
780.219339	2946.572067
780.543397	2958.882565
780.867409	2964.221147
781.191374	2953.836370
781.515294	2951.467028
781.839167	2951.469548
782.162995	2945.286573
782.486776	2952.384518
782.810511	2950.448714
783.134201	2935.690737
783.457844	2944.298507
783.781441	2934.579162
784.104993	2913.353384
784.428498	2914.843045
784.751958	2925.999118
785.075372	2923.342430
785.398739	2909.012950
785.722061	2923.531473
786.045337	2933.018925
786.368568	2921.184816
786.691752	2911.009247
787.014891	2957.632359
787.337983	2990.863645
787.661030	3016.712161
787.984031	3083.217583
788.306987	3132.371354
788.629897	3124.542442
788.952760	3104.728187
789.275579	3093.428440
789.598351	3031.835623
789.921078	2987.375166
790.243759	2977.181953
790.566395	2960.407514
790.888984	2937.167795
791.211529	2920.552152
791.534027	2910.585790
791.856480	2900.246384
792.178888	2886.703324
792.501249	2880.205277
792.823566	2874.599514
793.145836	2872.421735
793.468062	2868.217413
793.790241	2864.625591
794.112375	2871.171529
794.434464	2885.248951
794.756507	2891.126937
795.078505	2893.521485
795.400457	2909.005389
795.722364	2944.502673
796.044226	2971.442600
796.366042	2973.232209
796.687812	2959.348872
797.009538	2981.247644
797.331218	2968.249029
797.652852	2956.888788
797.974442	2938.722991
798.295986	2932.809717
798.617484	2926.132709
798.938938	2912.844227
799.260346	2899.165056
799.581709	2891.003428
799.903026	2883.431615
800.224299	2881.815925
800.545526	2870.105325
800.866708	2853.860207
801.187845	2844.657580
801.508936	2845.300327
801.829983	2853.247707
802.150984	2838.101560
802.471940	2826.093531
802.792851	2824.054385
803.113717	2825.758295
803.434538	2831.048986
803.755314	2823.676298
804.076045	2817.117757
804.396731	2817.211018
804.717372	2818.201605
805.037967	2812.986531
805.358518	2821.453149
805.679024	2834.050993
805.999485	2825.821309
806.319901	2832.009325
806.640272	2823.265444
806.960598	2827.590754
807.280879	2836.836230
807.601115	2844.282014
807.921306	2833.088132
808.241453	2828.682164
808.561554	2836.155674
808.881611	2837.451251
809.201623	2832.899089
809.521590	2828.828357
809.841513	2825.964982
810.161390	2829.531598
810.481223	2823.459528
810.801011	2813.442756
811.120755	2811.688434
811.440453	2812.616007
811.760107	2810.841520
812.079716	2813.057107
812.399281	2800.670992
812.718801	2794.135137
813.038276	2789.779580
813.357707	2795.642442
813.677093	2800.867597
813.996434	2796.796866
814.315731	2793.220167
814.634983	2786.628858
814.954191	2792.045578
815.273354	2803.468833
815.592473	2811.118784
815.911547	2813.828404
816.230577	2820.886019
816.549562	2828.256186
816.868502	2827.333655
817.187399	2841.567353
817.506250	2855.541432
817.825058	2851.175792
818.143821	2861.668954
818.462539	2879.406254
818.781213	2907.374575
819.099843	2942.639967
819.418429	3000.547701
819.736970	3063.670509
820.055466	3136.124493
820.373919	3244.862181
820.692327	3385.384345
821.010691	3554.023544
821.329011	4000.027027
821.647286	4900.069594
821.965517	6294.825793
822.283704	7055.745117
822.601847	7042.728857
822.919945	6404.175982
823.237999	5888.415532
823.556010	5303.981964
823.873976	4739.395418
824.191897	4330.530115
824.509775	4030.354609
824.827609	3757.194647
825.145398	3630.782673
825.463144	3620.496198
825.780845	3706.654559
826.098502	3812.896876
826.416116	4093.918518
826.733685	4419.761058
827.051210	4486.228672
827.368692	4370.690467
827.686129	4099.554528
828.003522	3772.570166
828.320872	3513.689272
828.638177	3316.428922
828.955439	3175.067406
829.272656	3091.686722
829.589830	3023.868079
829.906960	2970.830099
830.224046	2925.447112
830.541088	2889.334806
830.858086	2877.747714
831.175041	2859.012266
831.491952	2860.653162
831.808819	2871.610109
832.125642	2893.713048
832.442421	2942.513938
832.759157	3022.748943
833.075849	3202.642518
833.392497	3488.153307
833.709101	3691.374822
834.025662	3643.640136
834.342179	3487.029130
834.658653	3307.347283
834.975083	3154.333141
835.291469	3053.194992
835.607811	2969.443782
835.924110	2910.071593
836.240366	2859.965044
836.556578	2815.386121
836.872746	2794.629170
837.188871	2769.491456
837.504952	2753.145515
837.820990	2745.611510
838.136984	2733.411918
838.452935	2722.533108
838.768842	2723.077552
839.084706	2739.345356
839.400526	2818.572130
839.716303	2951.923252
840.032037	3035.578679
840.347727	3018.300125
840.663373	2960.082359
840.978977	2886.446225
841.294537	2809.193063
841.610054	2759.998963
841.925527	2736.915520
842.240957	2715.248641
842.556344	2695.152081
842.871687	2680.404185
843.186987	2669.676610
843.502244	2664.658141
843.817458	2658.966678
844.132629	2647.487971
844.447756	2641.239461
844.762840	2633.965076
845.077881	2634.975827
845.392879	2635.437093
845.707833	2630.559777
846.022745	2622.826647
846.337613	2628.170270
846.652438	2625.591719
846.967221	2626.239508
847.281960	2621.357150
847.596656	2621.251286
847.911309	2618.899588
848.225919	2617.140225
848.540485	2614.957405
848.855009	2613.041767
849.169490	2615.237189
849.483928	2613.361880
849.798323	2612.194853
850.112675	2611.751232
850.426984	2612.860285
850.741251	2611.632764
851.055474	2610.861468
851.369654	2614.334823
851.683792	2614.995214
851.997887	2611.080758
852.311938	2614.392796
852.625947	2615.222066
852.939914	2616.973867
853.253837	2616.270626
853.567718	2609.535644
853.881555	2609.170161
854.195350	2612.605707
854.509103	2614.816253
854.822812	2610.354832
855.136479	2612.822477
855.450103	2613.412292
855.763685	2613.525718
856.077224	2612.056221
856.390720	2609.323916
856.704173	2614.725512
857.017584	2611.940275
857.330953	2617.127622
857.644278	2619.774228
857.957561	2621.311780
858.270802	2615.090996
858.584000	2616.288270
858.897155	2617.646861
859.210268	2618.085441
859.523339	2613.203084
859.836367	2611.715943
860.149352	2609.399533
860.462295	2609.759976
860.775195	2607.239399
861.088054	2607.103288
861.400869	2606.173195
861.713642	2605.343925
862.026373	2607.788885
862.339062	2606.768051
862.651708	2613.440018
862.964312	2616.721809
863.276873	2611.226952
863.589392	2611.897425
863.901869	2620.285905
864.214303	2626.562142
864.526696	2629.140692
864.839045	2628.261010
865.151353	2630.600106
865.463619	2632.664458
865.775842	2631.280662
866.088023	2631.895682
866.400162	2630.796711
866.712258	2630.663120
867.024313	2633.614716
867.336325	2628.452574
867.648296	2627.817389
867.960224	2634.504479
868.272110	2632.619088
868.583954	2626.703294
868.895755	2628.528192
869.207515	2632.374592
869.519233	2641.095788
869.830909	2634.819552
870.142542	2631.162194
870.454134	2632.248563
870.765684	2636.629326
871.077191	2638.126548
871.388657	2644.571664
871.700081	2641.342805
872.011463	2641.549492
872.322803	2644.654843
872.634101	2646.157107
872.945357	2657.262768
873.256571	2659.503561
873.567744	2658.339055
873.878874	2656.073056
874.189963	2655.402583
874.501010	2661.595640
874.812015	2666.228461
875.122979	2667.685354
875.433900	2657.580361
875.744780	2656.499034
876.055618	2664.222081
876.366415	2669.764830
876.677169	2669.598472
876.987882	2659.624549
877.298554	2659.682522
877.609183	2672.391271
877.919771	2679.905111
878.230317	2685.515915
878.540822	2694.244673
878.851285	2711.777806
879.161707	2734.878894
879.472087	2773.713422
879.782425	2823.993891
880.092722	2939.514452
880.402977	3129.908750
880.713191	3393.886251
881.023363	3693.136705
881.333494	3894.346799
881.643583	4068.027152
881.953631	4067.628901
882.263637	3889.882857
882.573602	3667.323477
882.883526	3536.283723
883.193408	3415.502718
883.503248	3310.220741
883.813048	3190.279088
884.122806	3072.951273
884.432522	2987.090341
884.742197	2920.668098
885.051831	2883.209804
885.361424	2846.850482
885.670975	2809.734987
885.980485	2780.246758
886.289954	2757.717841
886.599382	2745.493043
886.908768	2732.038203
887.218113	2712.138249
887.527417	2698.766588
887.836680	2691.159487
888.145901	2686.433405
888.455082	2677.591221
888.764221	2667.314829
889.073319	2659.886689
889.382376	2658.545742
889.691392	2657.482059
890.000366	2661.172183
890.309300	2657.209836
890.618193	2658.402069
890.927044	2661.099087
891.235855	2663.949859
891.544625	2661.194868
891.853353	2663.596978
892.162041	2669.356497
892.470687	2688.424661
892.779293	2701.965200
893.087858	2709.111036
893.396381	2733.548029
893.704864	2775.200563
894.013306	2848.224197
894.321707	2943.459155
894.630068	2998.881600
894.938387	3018.879857
895.246665	3013.155627
895.554903	2964.516054
895.863100	2921.036102
896.171256	2863.808924
896.479371	2801.109573
896.787446	2761.196237
897.095480	2738.143041
897.403473	2732.580127
897.711425	2717.955740
898.019336	2699.784901
898.327207	2686.430885
898.635038	2682.324865
898.942827	2681.397292
899.250576	2669.182577
899.558284	2659.717810
899.865952	2655.059784
900.173579	2651.616676
900.481165	2651.246151
900.788711	2642.035963
901.096216	2636.843575
901.403681	2630.433748
901.711105	2633.087915
902.018489	2629.977523
902.325832	2635.116980
902.633135	2634.189407
902.940397	2651.447797
903.247619	2688.722089
903.554800	2762.491814
903.861941	2889.170969
904.169041	3021.682739
904.476101	3088.818305
904.783121	3078.057962
905.090100	3019.270547
905.397039	2944.502673
905.703938	2867.536857
906.010796	2802.480767
906.317614	2749.997314
906.624391	2712.042467
906.931129	2685.662109
907.237826	2659.281751
907.544483	2644.506129
907.851099	2630.431227
908.157675	2618.962602
908.464211	2611.111005
908.770707	2599.203800
909.077163	2595.911926
909.383578	2593.645927
909.689954	2588.163673
909.996289	2585.993456
910.302584	2590.875813
910.608839	2586.527818
910.915054	2587.651996
911.221229	2589.784404
911.527363	2590.664085
911.833458	2592.103334
912.139513	2589.784404
912.445527	2591.402614
912.751502	2597.066350
913.057436	2603.854264
913.363331	2610.122939
913.669186	2621.248765
913.975000	2633.171094
914.280775	2652.362767
914.586510	2671.120900
914.892205	2709.458875
915.197859	2778.011006
915.503475	2863.614839
915.809050	2935.572269
916.114585	2953.478448
916.420081	2963.749799
916.725536	2978.225472
917.030952	2947.776903
917.336328	2899.175139
917.641665	2848.715709
917.946961	2798.543626
918.252218	2764.611619
918.557435	2733.328739
918.862612	2710.714123
919.167750	2694.156453
919.472848	2676.406550
919.777906	2659.450629
920.082925	2643.921355
920.387904	2635.676548
920.692843	2628.545836
920.997743	2623.608025
921.302603	2619.474279
921.607423	2612.411623
921.912204	2605.820314
922.216946	2601.258070
922.521647	2599.775971
922.826310	2595.392687
923.130932	2592.506627
923.435516	2584.322313
923.740059	2582.073959
924.044564	2583.861048
924.349028	2582.222673
924.653454	2572.213462
924.957840	2569.143399
925.262186	2567.585683
925.566493	2568.031825
925.870761	2560.991853
926.174989	2567.305899
926.479178	2562.857080
926.783328	2560.664178
927.087438	2562.179045
927.391509	2558.625032
927.695541	2559.285423
927.999533	2555.577654
928.303486	2557.959599
928.607400	2556.875751
928.911275	2554.526574
929.215110	2556.588406
929.518906	2551.910215
929.822663	2553.667057
930.126381	2553.483055
930.430060	2554.181255
930.733699	2554.660164
931.037299	2553.518343
931.340861	2558.420865
931.644383	2556.149825
931.947866	2552.913404
932.251309	2556.447253
932.554714	2552.774773
932.858080	2556.926163
933.161407	2553.205791
933.464694	2553.636810
933.767943	2552.769732
934.071153	2550.463404
934.374323	2553.034392
934.677455	2552.807540
934.980548	2553.495658
935.283602	2550.440718
935.586617	2551.138918
935.889593	2552.931048
936.192530	2550.526418
936.495428	2553.488096
936.798287	2552.971378
937.101108	2555.640669
937.403890	2556.565720
937.706632	2560.003787
938.009336	2562.317677
938.312002	2566.978224
938.614628	2570.292782
938.917216	2576.112794
939.219765	2576.213617
939.522275	2576.004410
939.824747	2576.029615
940.127179	2569.546692
940.429573	2565.838923
940.731929	2566.683316
941.034246	2562.915054
941.336524	2566.292627
941.638763	2565.854046
941.940964	2565.440672
942.243126	2562.599982
942.545250	2564.198027
942.847335	2558.819116
943.149381	2559.131668
943.451389	2561.208623
943.753359	2556.825340
944.055290	2555.570093
944.357182	2558.163766
944.659036	2555.993549
944.960851	2556.341389
945.262628	2556.308622
945.564367	2555.801986
945.866067	2557.064795
946.167729	2555.002963
946.469352	2556.805175
946.770937	2555.554969
947.072484	2554.476162
947.373992	2556.006152
947.675462	2554.284598
947.976893	2555.617983
948.278286	2550.826367
948.579641	2555.134033
948.880958	2553.775442
949.182236	2551.058260
949.483476	2551.527087
949.784678	2552.164793
950.085841	2553.273847
950.386967	2551.254865
950.688054	2552.454659
950.989103	2555.723848
951.290114	2552.971378
951.591087	2554.216543
951.892021	2558.052861
952.192917	2558.360371
952.493776	2557.521019
952.794596	2559.015721
953.095378	2560.210475
953.396122	2561.967317
953.696828	2557.339537
953.997496	2556.900957
954.298126	2556.515309
954.598718	2552.802499
954.899272	2554.168652
955.199788	2550.024823
955.500266	2550.387786
955.800706	2545.354194
956.101108	2541.580891
956.401472	2544.741694
956.701798	2540.310520
957.002087	2542.919317
957.302337	2543.078113
957.602550	2543.035263
957.902724	2543.178936
958.202861	2540.597866
958.502960	2540.731456
958.803022	2539.713143
959.103045	2536.403626
959.403031	2540.464275
959.702979	2538.251208
960.002889	2540.676003
960.302762	2536.932947
960.602596	2539.327495
960.902393	2538.505787
961.202153	2540.020653
961.501875	2537.590817
961.801559	2535.178625
962.101205	2539.556867
962.400814	2535.465971
962.700385	2537.671476
962.999918	2535.564273
963.299414	2534.649304
963.598873	2535.365148
963.898293	2533.951104
964.197677	2534.493028
964.497022	2534.876156
964.796331	2537.782381
965.095601	2534.964376
965.394835	2539.408153
965.694030	2535.397915
965.993189	2535.231557
966.292309	2536.890097
966.591393	2535.385313
966.890439	2535.183666
967.189447	2537.144675
967.488419	2533.560415
967.787353	2535.002185
968.086249	2535.622247
968.385108	2533.724252
968.683930	2532.695857
968.982714	2536.075951
969.281462	2534.059489
969.580172	2533.704088
969.878844	2536.522093
970.177480	2536.922864
970.476078	2538.064686
970.774639	2536.345652
971.073162	2536.627957
971.371649	2533.603265
971.670098	2532.300126
971.968510	2533.537730
972.266885	2532.705939
972.565223	2533.315919
972.863524	2534.140148
973.161788	2536.418749
973.460014	2537.069058
973.758204	2538.626774
974.056356	2535.287010
974.354471	2536.779192
974.652550	2535.236598
974.950591	2535.627288
975.248595	2537.018646
975.546563	2535.438245
975.844493	2534.104859
976.142386	2535.710467
976.440243	2536.121321
976.738062	2534.384643
977.035845	2535.160981
977.333590	2534.843388
977.631299	2535.793646
977.928971	2537.847916
978.226606	2534.543440
978.524204	2534.213244
978.821765	2533.749458
979.119290	2535.662576
979.416777	2535.718029
979.714228	2534.422452
980.011642	2534.104859
980.309020	2536.209541
980.606360	2533.978831
980.903664	2535.627288
981.200931	2535.561753
981.498162	2535.425642
981.795356	2538.394881
982.092513	2540.318082
982.389633	2546.543907
982.686717	2545.916283
982.983764	2548.638506
983.280775	2551.365770
983.577749	2551.075904
983.874686	2550.856614
984.171587	2544.721529
984.468451	2545.379400
984.765279	2543.627599
985.062070	2541.414532
985.358824	2537.333718
985.655543	2541.664070
985.952224	2536.166691
986.248869	2535.773481
986.545478	2529.771988
986.842050	2532.980682
987.138586	2531.067564
987.435086	2530.699560
987.731549	2527.687471
988.027975	2535.589479
988.324366	2533.734335
988.620719	2531.488501
988.917037	2533.298275
989.213318	2531.632173
989.509563	2531.735517
989.805772	2532.647966
990.101944	2531.881711
990.398080	2531.299457
990.694180	2528.920033
990.990244	2530.991947
991.286271	2536.375899
991.582262	2531.793490
991.878217	2532.211906
992.174136	2531.301978
992.470019	2530.845753
992.765865	2532.133768
993.061676	2533.542771
993.357450	2530.790301
993.653188	2532.335414
993.948890	2533.648635
994.244556	2533.199972
994.540186	2531.974972
994.835780	2534.636701
995.131337	2533.194931
995.426859	2533.661238
995.722345	2533.512524
996.017795	2536.149047
996.313208	2535.201310
996.608586	2538.611651
996.903928	2535.965045
997.199234	2534.911444
997.494504	2533.867925
997.789738	2534.374561
998.084936	2532.942873
998.380099	2533.124355
998.675225	2532.199303
998.970316	2534.288862
999.265371	2533.686444
999.560390	2532.703419
999.855373	2530.739889
1000.150320	2531.793490
1000.445232	2531.758202
1000.740108	2528.441123
1001.034948	2529.351051
1001.329752	2530.961700
1001.624521	2529.409025
1001.919254	2527.707635
1002.213951	2527.730320
1002.508613	2528.022707
1002.803239	2532.295085
1003.097829	2527.667306
1003.392384	2530.818027
1003.686903	2531.428007
1003.981386	2530.886083
1004.275834	2531.548994
1004.570246	2527.974816
1004.864623	2528.287368
1005.158964	2530.485311
1005.453270	2531.546474
1005.747540	2532.491690
1006.041775	2531.606968
1006.335974	2527.357275
1006.630138	2532.385826
1006.924266	2527.768129
1007.218359	2529.565300
1007.512416	2531.352389
1007.806438	2529.827440
1008.100425	2530.896165
1008.394376	2527.574045
1008.688292	2530.049251
1008.982172	2527.669827
1009.276017	2529.343490
1009.569827	2529.587986
1009.863602	2528.579755
1010.157341	2529.252749
1010.451045	2529.285516
1010.744714	2527.024559
1011.038347	2531.077647
1011.331945	2526.255783
1011.625508	2530.276103
1011.919036	2528.317615
1012.212528	2531.077647
1012.505986	2527.561442
1012.799408	2529.363654
1013.092795	2529.121679
1013.386147	2529.703932
1013.679464	2529.227543
1013.972745	2528.370547
1014.265992	2528.695701
1014.559204	2527.508510
1014.852380	2528.892306
1015.145521	2529.020856
1015.438628	2529.771988
1015.731699	2528.884745
1016.024736	2529.472039
1016.317737	2531.342307
1016.610703	2529.681247
1016.903635	2527.069929
1017.196531	2525.076153
1017.489393	2524.488858
1017.782219	2521.877541
1018.075011	2528.945238
1018.367768	2526.507841
1018.660490	2529.472039
1018.953177	2529.472039
1019.245829	2529.472039
