Dividing Wavelength (nm)	Counts (n)	Blue Motor Position (mm): 0.000000	Red Motor Position (mm): 42.000000	
326.493990	2127.538322
326.888308	2127.538322
327.282561	2127.538322
327.676750	2096.217633
328.070874	2093.326532
328.464933	2094.843919
328.858929	2104.442276
329.252859	2112.137597
329.646726	2124.183434
330.040528	2136.320012
330.434265	2156.895482
330.827938	2170.761175
331.221547	2188.823630
331.615091	2210.561085
332.008571	2229.351986
332.401986	2247.721951
332.795338	2266.853129
333.188625	2287.244597
333.581847	2304.364355
333.975006	2323.445123
334.368100	2342.351970
334.761129	2360.875690
335.154095	2374.491846
335.546996	2398.084446
335.939833	2418.531366
336.332606	2434.347987
336.725315	2445.819132
337.117960	2454.139557
337.510540	2463.644652
337.903056	2475.995479
338.295508	2480.111581
338.687896	2490.761019
339.080220	2500.440034
339.472480	2506.938081
339.864676	2510.585356
340.256807	2515.286232
340.648875	2517.635410
341.040879	2521.214629
341.432818	2522.202695
341.824694	2526.228057
342.216506	2522.603467
342.608253	2523.319311
342.999937	2525.837367
343.391557	2524.892151
343.783113	2521.272602
344.174605	2521.633045
344.566033	2520.924763
344.957397	2521.466687
345.348697	2515.313958
345.739934	2517.216994
346.131106	2512.906808
346.522215	2514.088958
346.913260	2506.764162
347.304241	2509.834224
347.695159	2504.268790
348.086012	2506.015550
348.476802	2501.539006
348.867528	2501.319715
349.258191	2499.212513
349.648789	2501.770899
350.039324	2498.179077
350.429796	2497.304436
350.820203	2493.720176
351.210548	2492.913591
351.600828	2494.622543
351.991045	2493.924343
352.381198	2495.441730
352.771288	2493.198417
353.161314	2492.170021
353.551276	2493.901657
353.941175	2490.680360
354.331010	2492.999291
354.720782	2490.592140
355.110490	2491.948210
355.500135	2491.774291
355.889717	2493.589106
356.279235	2491.055926
356.668689	2495.953407
357.058080	2493.770587
357.447408	2491.202120
357.836672	2488.830257
358.225873	2494.332676
358.615010	2490.889568
359.004084	2497.052379
359.393095	2495.724035
359.782043	2497.193531
360.170927	2497.468274
360.559748	2496.381905
360.948505	2501.619664
361.337199	2502.002792
361.725830	2500.936588
362.114398	2500.399705
362.502903	2500.117400
362.891344	2500.989520
363.279722	2501.715446
363.668037	2503.459685
364.056289	2502.655621
364.444478	2504.609068
364.832603	2506.416322
365.220665	2505.287103
365.608665	2509.758607
365.996601	2507.268277
366.384474	2509.128463
366.772284	2510.320696
367.160031	2511.155007
367.547715	2515.646675
367.935336	2519.997190
368.322893	2518.300842
368.710388	2524.899713
369.097820	2529.048582
369.485189	2529.625794
369.872495	2538.833462
370.259738	2543.425953
370.646918	2551.872406
371.034035	2559.918088
371.421090	2571.182546
371.808081	2578.146900
372.195010	2587.563775
372.581875	2602.276383
372.968678	2615.179216
373.355418	2624.008797
373.742096	2644.735501
374.128710	2658.389466
374.515262	2670.626867
374.901751	2687.449198
375.288177	2701.884542
375.674540	2721.401369
376.060841	2743.032960
376.447079	2761.728079
376.833254	2780.899587
377.219367	2795.589509
377.605417	2829.788697
377.991404	2841.176664
378.377329	2864.005529
378.763191	2880.666542
379.148991	2919.740526
379.534727	2943.673404
379.920402	2969.572332
380.306013	2982.391986
380.691563	3032.501055
381.077049	3056.164231
381.462474	3071.620409
381.847835	3109.492077
382.233134	3134.380254
382.618371	3131.037969
383.003545	3203.686037
383.388657	3204.152343
383.773706	3240.589803
384.158693	3258.425406
384.543618	3284.715023
384.928480	3315.904642
385.313280	3364.559338
385.698017	3364.453474
386.082692	3417.030188
386.467305	3424.259203
386.851856	3451.357925
387.236344	3478.086123
387.620770	3508.605268
388.005133	3534.557128
388.389435	3562.265830
388.773674	3572.489290
389.157851	3613.753655
389.541965	3629.146818
389.926018	3596.475100
390.310008	3668.475380
390.693936	3686.442052
391.077802	3727.310687
391.461606	3715.804253
391.845348	3780.651136
392.229027	3778.044859
392.612645	3791.116571
392.996200	3870.330742
393.379694	3911.935385
393.763125	3974.609530
394.146494	3939.931432
394.529801	4001.597347
394.913047	4053.392682
395.296230	4016.640150
395.679351	4070.628387
396.062410	4093.217797
396.445408	4081.338318
396.828343	4110.710601
397.211217	4134.005773
397.594028	4054.428639
397.976778	4120.941623
398.359466	4149.005727
398.742092	4177.911703
399.124656	4099.070577
399.507158	4177.596631
399.889598	4204.103018
400.271977	4268.859159
400.654294	4235.431268
401.036549	4246.993154
401.418742	4216.615161
401.800874	4319.273218
402.182944	4339.253832
402.564952	4402.169952
402.946898	4392.362387
403.328783	4385.410636
403.710606	4297.455104
404.092367	4492.940968
404.474067	4454.781954
404.855705	4465.595229
405.237282	4391.172675
405.618797	4500.162421
406.000250	4531.604098
406.381642	4617.361686
406.762972	4579.144699
407.144240	4589.103498
407.525447	4591.394703
407.906593	4649.720853
408.287677	4687.413560
408.668700	4617.749855
409.049661	4670.041744
409.430560	4711.154874
409.811399	4637.712824
410.192176	4801.535201
410.572891	4738.470366
410.953545	4843.107076
411.334138	4728.272112
411.714669	4791.460455
412.095139	4686.105381
412.475547	4828.575950
412.855894	4809.497703
413.236180	4814.717818
413.616405	4773.929842
413.996568	4856.622410
414.376670	4799.329696
414.756711	4752.469651
415.136691	4784.964928
415.516609	4864.683215
415.896466	4902.930449
416.276262	4938.067291
416.655997	4916.917130
417.035670	5101.274647
417.415283	5188.058110
417.794834	5136.822343
418.174324	5087.376186
418.553753	4996.277495
418.933121	5182.016288
419.312428	5244.405608
419.691674	5187.937123
420.070859	5312.622501
420.449983	5227.278287
420.829045	5340.295915
421.208047	5243.470473
421.586988	5316.756248
421.965867	5332.018341
422.344686	5461.621365
422.723444	5314.215506
423.102141	5132.222290
423.480777	5435.218322
423.859352	5203.105955
424.237866	5460.882836
424.616319	5455.836641
424.994712	5565.033074
425.373044	5441.829795
425.751314	5583.430765
426.129524	5386.845930
426.507673	5579.866670
426.885762	5661.961860
427.263789	5595.126242
427.641756	5475.608046
428.019662	5598.191264
428.397508	5606.665443
428.775292	5552.888935
429.153016	5651.224202
429.530679	5573.603036
429.908282	5661.913969
430.285824	5533.049474
430.663305	5805.589374
431.040726	5543.293098
431.418086	5548.072112
431.795385	5649.613554
432.172624	5662.791130
432.549802	5653.328884
432.926920	5668.137273
433.303977	5680.188152
433.680974	5711.680240
434.057910	5736.119754
434.434786	5739.426751
434.811601	5706.903747
435.188355	5939.084169
435.565050	5814.744110
435.941683	5801.221214
436.318257	6013.688205
436.694770	5995.867726
437.071222	6030.626482
437.447614	5964.557120
437.823946	5878.456733
438.200218	6030.011461
438.576429	5893.970883
438.952580	5995.572819
439.328670	6036.380959
439.704700	5946.797135
440.080670	5933.274239
440.456580	6202.234921
440.832429	6086.726962
441.208218	5928.797695
441.583947	6084.460964
441.959616	6087.737714
442.335224	6019.926633
442.710773	6156.312530
443.086261	6183.905285
443.461689	5978.402649
443.837057	6124.132324
444.212365	6278.058916
444.587612	6169.127143
444.962800	6329.158572
445.337927	6307.171579
445.712995	5918.158340
446.088002	6493.860629
446.462949	6322.731100
446.837837	6252.669144
447.212664	6423.896976
447.587431	6570.985242
447.962139	7112.236287
448.336786	8046.014255
448.711374	7779.881661
449.085901	6854.872780
449.460369	6774.599967
449.834776	6710.312652
450.209124	7100.124914
450.583412	7251.362050
450.957640	7396.748927
451.331808	7160.558267
451.705917	6711.489762
452.079965	6639.907898
452.453954	6848.478076
452.827883	6728.808646
453.201752	6817.905999
453.575562	6616.801769
453.949311	6819.647717
454.323001	6709.990018
454.696632	6783.782428
455.070202	6928.627381
455.443713	7078.105154
455.817164	7182.119282
456.190556	7258.656600
456.563888	7336.663415
456.937160	7378.396607
457.310373	7035.628392
457.683526	7059.122690
458.056619	6955.101001
458.429653	6943.513908
458.802628	6872.226952
459.175542	6985.478994
459.548398	7338.856317
459.921194	7500.077458
460.293930	7508.024837
460.666607	8032.622429
461.039224	8341.085592
461.411782	8467.933626
461.784280	8484.695462
462.156719	8378.687559
462.529099	8262.592306
462.901419	7846.654264
463.273680	7733.301399
463.645882	7745.803461
464.018024	7612.837987
464.390106	7785.628576
464.762130	8167.609406
465.134094	8636.474522
465.505999	9657.396396
465.877845	10883.271421
466.249631	11531.352077
466.621358	11154.064562
466.993026	10526.428305
467.364634	10265.861145
467.736184	9903.513089
468.107674	9570.817100
468.479105	9597.520092
468.850477	9368.881079
469.221790	9134.406932
469.593043	8808.128331
469.964238	8669.511724
470.335373	8685.852624
470.706449	8736.974965
471.077467	8724.838387
471.448425	10031.767604
471.819324	11105.692170
472.190164	11136.692746
472.560945	9884.533145
472.931667	9094.425541
473.302330	8960.086352
473.672934	8603.316333
474.043479	8959.574675
474.413965	8897.853308
474.784393	8782.491543
475.154761	8943.672355
475.525070	9025.550776
475.895321	8852.505609
476.265513	9025.782669
476.635645	9194.898257
477.005719	9198.152322
477.375734	9314.376124
477.745691	9544.343480
478.115588	9681.359521
478.485427	9928.081152
478.855207	10460.507657
479.224928	11276.133582
479.594591	11905.524160
479.964194	11714.431662
480.333739	11661.302941
480.703226	11575.484859
481.072653	11665.615648
481.442022	11900.094837
481.811333	12095.857964
482.180584	11899.275650
482.549777	11606.843356
482.918912	11437.579054
483.287988	11454.950870
483.657005	11465.459155
484.025964	11145.696246
484.394864	11278.543253
484.763706	11248.815569
485.132489	11006.245328
485.501213	10969.306273
485.869879	11039.731193
486.238487	10884.342666
486.607036	10998.250058
486.975527	10776.610688
487.343959	10963.773607
487.712333	11014.532985
488.080648	10944.564290
488.448905	10992.190591
488.817104	10927.184912
489.185244	11193.748525
489.553326	11345.663696
489.921350	11880.583051
490.289315	12950.333541
490.657222	13296.469247
491.025070	13194.448896
491.392861	13072.163106
491.760593	12691.876104
492.128267	12344.273423
492.495883	12018.032631
492.863440	11682.279182
493.230939	11344.766371
493.598380	11270.086717
493.965763	11152.043059
494.333088	11044.636235
494.700354	10970.087652
495.067563	11023.690241
495.434713	10855.401402
495.801805	10983.303037
496.168839	10908.116748
496.535815	10842.392705
496.902733	10839.428506
497.269593	10782.972624
497.636395	10878.263035
498.003139	10868.097548
498.369825	10728.502957
498.736453	10894.992104
499.103023	10813.703498
499.469535	10842.256593
499.835989	10826.868471
500.202385	10797.002155
500.568723	10644.345935
500.935003	10862.027999
501.301226	10671.898361
501.667390	10930.738926
502.033497	11024.451455
502.399546	10892.844572
502.765537	10798.091045
503.131470	10864.014213
503.497345	11045.757892
503.863163	10651.950515
504.228923	10968.724020
504.594625	11034.538804
504.960269	10783.522110
505.325856	11005.476552
505.691385	10792.800354
506.056856	10950.969076
506.422270	10977.460340
506.787625	10866.209636
507.152924	10981.200876
507.518164	10961.162289
507.883347	10878.651204
508.248472	10793.422936
508.613540	11032.020748
508.978550	10918.320043
509.343503	10888.773841
509.708398	11015.011895
510.073236	11129.831735
510.438016	11121.992741
510.802738	11081.872718
511.167403	11127.497681
511.532010	11018.601196
511.896561	11250.058213
512.261053	11332.423105
512.625488	11197.161386
512.989866	11174.496358
513.354186	11172.137098
513.718449	11064.163145
514.082655	11257.703123
514.446803	11161.888432
514.810894	11274.570824
515.174927	11141.247428
515.538904	11171.922849
515.902822	11322.184522
516.266684	11209.045906
516.630488	11149.000723
516.994235	11204.271933
517.357925	11267.651840
517.721558	11363.869823
518.085133	11376.482790
518.448651	11380.782894
518.812112	11264.004565
519.175516	11286.236054
519.538863	11403.430278
519.902152	11317.161012
520.265385	11480.252421
520.628560	11391.180274
520.991678	11372.283509
521.354739	11428.227714
521.717743	11363.050636
522.080690	11341.373674
522.443580	11477.265538
522.806413	11426.904411
523.169189	11460.286932
523.531908	11519.023936
523.894569	11339.974754
524.257174	11343.322080
524.619722	11463.447735
524.982213	11409.068808
525.344647	11456.175871
525.707025	11406.926318
526.069345	11509.196206
526.431608	11424.885429
526.793815	11527.692200
527.155964	11319.689151
527.518057	11370.022551
527.880093	11322.393730
528.242072	11387.298586
528.603995	11300.860441
528.965860	11225.790099
529.327669	11275.024528
529.689421	11222.077289
530.051117	11190.270129
530.412755	11295.262240
530.774337	11183.167143
531.135862	11163.219297
531.497331	11188.717453
531.858743	11039.133816
532.220098	11202.018538
532.581396	11079.526061
532.942638	11050.899869
533.303824	11017.812256
533.664953	11026.782989
534.026025	10945.322984
534.387040	11045.314270
534.747999	11045.747810
535.108902	11109.901533
535.469748	10866.807013
535.830537	10963.816457
536.191270	10942.653693
536.551947	10967.834256
536.912567	10961.121960
537.273131	10897.923535
537.633638	10865.309790
537.994089	10860.974398
538.354483	10807.974227
538.714821	10949.232399
539.075103	10958.621548
539.435328	10923.051166
539.795497	10749.068344
540.155609	10909.291337
540.515665	10997.629996
540.875665	10727.686290
541.235609	10798.582557
541.595496	10796.682042
541.955328	10952.683068
542.315102	10832.378453
542.674821	10786.773654
543.034483	10783.169229
543.394090	10787.187029
543.753640	10720.182532
544.113134	10942.386512
544.472571	10794.433688
544.831953	10938.096490
545.191278	10746.000802
545.550548	10776.582962
545.909761	10910.176059
546.268918	10885.141689
546.628019	10967.667898
546.987064	10832.567496
547.346053	10752.496329
547.704986	10849.092398
548.063863	10836.552528
548.422684	10826.684469
548.781449	10744.042314
549.140158	10847.575011
549.498811	10722.435928
549.857408	10580.025853
550.215949	10804.483228
550.574434	10660.323872
550.932864	10758.265929
551.291237	10817.189456
551.649555	10762.528225
552.007817	10778.488518
552.366022	10744.213713
552.724173	10734.693494
553.082267	10721.841072
553.440305	10855.257729
553.798288	10656.568212
554.156215	10806.867693
554.514086	10787.423963
554.871902	10635.307146
555.229661	10673.198979
555.587365	10642.342076
555.945014	10543.273321
556.302606	10674.670996
556.660143	10561.829808
557.017625	10717.122552
557.375050	10613.179001
557.732421	10749.481719
558.089735	10664.979377
558.446994	10665.533904
558.804197	10701.074039
559.161345	10703.748371
559.518437	10546.880266
559.875474	10642.326953
560.232455	10668.694708
560.589381	10619.147727
560.946251	10621.443973
561.303065	10725.939530
561.659825	10658.549386
562.016528	10586.022305
562.373177	10465.566455
562.729770	10584.061296
563.086307	10503.312094
563.442789	10592.908521
563.799216	10468.386980
564.155587	10518.291883
564.511904	10467.466970
564.868164	10462.521598
565.224370	10473.692795
565.580520	10401.926928
565.936615	10400.371732
566.292654	10266.241752
566.648638	10409.213916
567.004567	10367.110199
567.360441	10352.427839
567.716260	10257.515515
568.072023	10351.336429
568.427732	10301.418924
568.783385	10210.042969
569.138982	10281.314802
569.494525	10296.269385
569.850013	10176.020222
570.205445	10257.278581
570.560823	10150.363269
570.916145	10069.286392
571.271412	10140.071754
571.626625	10086.285163
571.981782	10059.347757
572.336884	10037.564931
572.691931	10048.821828
573.046923	9992.519701
573.401860	9948.001272
573.756743	9879.827227
574.111570	9920.811808
574.466342	9906.459643
574.821059	9935.060630
575.175722	9824.540893
575.530330	9833.829219
575.884882	9828.742695
576.239380	9753.591694
576.593823	9737.245753
576.948211	9749.168082
577.302544	9628.440009
577.656823	9643.354262
578.011047	9645.416094
578.365216	9615.184295
578.719330	9549.430004
579.073389	9550.395385
579.427394	9500.024176
579.781344	9483.895004
580.135239	9429.584133
580.489080	9438.832130
580.842866	9335.654834
581.196597	9340.438889
581.550273	9375.008602
581.903895	9349.739818
582.257463	9422.216487
582.610975	9291.937948
582.964434	9315.260847
583.317837	9246.612934
583.671186	9226.370181
584.024481	9215.829128
584.377721	9137.797108
584.730906	9113.191236
585.084037	9145.499991
585.437113	9080.978263
585.790135	9097.871169
586.143103	9000.423145
586.496016	8977.833734
586.848874	9028.943473
587.201679	9020.388635
587.554428	8897.565962
587.907124	8946.203015
588.259765	8917.949868
588.612352	8914.831914
588.964884	8794.532339
589.317362	8811.692427
589.669786	8812.788878
590.022155	8863.457515
590.374470	8875.704999
590.726731	8808.738311
591.078937	8662.577617
591.431090	8780.245709
591.783188	8647.292838
592.135232	8637.213051
592.487222	8640.346128
592.839157	8692.491824
593.191038	8615.674722
593.542866	8568.701250
593.894639	8465.299623
594.246358	8517.480606
594.598022	8534.527268
594.949633	8428.453829
595.301190	8402.380982
595.652692	8425.366123
596.004141	8540.543885
596.355535	8317.142632
596.706876	8299.344838
597.058162	8229.996205
597.409395	8304.534706
597.760573	8370.470478
598.111698	8273.108153
598.462768	8260.291019
598.813785	8221.970688
599.164748	8187.398455
599.515657	8176.295314
599.866511	8087.661747
600.217312	8212.662198
600.568060	8069.566525
600.918753	8175.544182
601.269392	8142.950602
601.619978	8048.980974
601.970510	8119.521839
602.320988	8115.723330
602.671412	8168.448758
603.021783	8097.796987
603.372100	8074.118687
603.722363	8071.300682
604.072572	8044.338071
604.422728	8055.363074
604.772830	7987.499061
605.122878	7993.399732
605.472872	7985.540573
605.822813	8008.865992
606.172701	7953.698125
606.522534	8033.292903
606.872314	8020.052312
607.222041	7995.108683
607.571714	8046.919142
607.921333	7999.481884
608.270899	8000.611102
608.620411	8092.287006
608.969870	7994.899475
609.319276	7982.599060
609.668627	7997.694795
610.017926	8028.153447
610.367171	8071.550219
610.716362	8048.239924
611.065500	8028.218982
611.414585	8056.696460
611.763616	8037.098974
612.112594	8016.319338
612.461518	8024.536419
612.810389	8083.023886
613.159207	8022.298146
613.507971	7962.585679
613.856682	8079.762259
614.205340	8026.789814
614.553945	8102.570960
614.902496	7994.097932
615.250994	8047.662712
615.599439	8019.560800
615.947830	8034.149899
616.296169	7994.844022
616.644454	8007.167123
616.992686	7998.012388
617.340864	8046.926703
617.688990	7945.259233
618.037063	8028.334928
618.385082	7968.141031
618.733048	8042.626599
619.080961	7975.269222
619.428821	7988.661047
619.776628	7984.257599
620.124382	7936.659025
620.472083	7905.547544
620.819731	7933.929240
621.167326	7821.541756
621.514868	7826.492169
621.862357	7712.521763
622.209793	7726.921819
622.557176	7656.912795
622.904506	7622.685881
623.251783	7558.154071
623.599007	7504.619537
623.946179	7499.157447
624.293297	7454.714635
624.640363	7373.289918
624.987376	7348.295877
625.334336	7293.664893
625.681243	7239.626244
626.028097	7224.565797
626.374899	7197.701488
626.721647	7178.535021
627.068343	7107.827797
627.414987	7071.576860
627.761577	7022.155908
628.108115	7052.564148
628.454600	6944.413754
628.801032	6985.448747
629.147412	6943.438291
629.493739	6920.359889
629.840014	6853.688109
630.186236	6889.518110
630.532405	6778.469052
630.878521	6815.398025
631.224585	6763.388440
631.570597	6687.060330
631.916556	6705.253854
632.262462	6696.066351
632.608316	6644.054247
632.954117	6619.927284
633.299866	6603.057063
633.645562	6579.184679
633.991206	6506.808833
634.336797	6445.016890
634.682336	6401.171454
635.027823	6363.831628
635.373257	6351.574062
635.718639	6281.476818
636.063968	6290.402181
636.409245	6186.178846
636.754470	6172.812226
637.099642	6132.873685
637.444762	6071.888326
637.789829	6073.677936
638.134845	6013.292474
638.479808	5992.170040
638.824719	5990.025029
639.169577	5917.818062
639.514383	5930.458755
639.859137	5860.122056
640.203839	5858.360173
640.548489	5836.592470
640.893086	5811.386701
641.237632	5776.794303
641.582125	5786.397702
641.926566	5750.610550
642.270955	5747.137195
642.615292	5739.943469
642.959576	5742.685857
643.303809	5727.156582
643.647990	5724.189863
643.992118	5708.642945
644.336195	5654.720242
644.680219	5667.353374
645.024192	5654.624461
645.368112	5715.730807
645.711981	5725.495522
646.055797	5772.310197
646.399562	5723.227003
646.743274	5807.741947
647.086935	5848.799624
647.430544	5827.475544
647.774101	5831.831101
648.117606	5836.622717
648.461059	5814.968441
648.804460	5771.727944
649.147810	5699.881419
649.491108	5665.304145
649.834354	5635.354650
650.177548	5558.330860
650.520690	5484.301516
650.863781	5456.915448
651.206820	5465.124967
651.549807	5394.195932
651.892742	5331.655378
652.235626	5332.388866
652.578458	5309.038241
652.921238	5228.868771
653.263967	5255.617134
653.606644	5202.203588
653.949269	5187.770765
654.291843	5140.666223
654.634365	5163.447197
654.976836	5112.428200
655.319255	5115.790649
655.661622	5075.567283
656.003938	5066.510850
656.346203	5031.926014
656.688416	5042.550246
657.030577	4999.773535
657.372687	4967.921004
657.714746	4951.557419
658.056753	4975.780163
658.398708	4917.517028
658.740612	4917.005350
659.082465	4923.856278
659.424266	4918.207666
659.766016	4908.074946
660.107715	4874.707549
660.449362	4881.765164
660.790958	4866.684553
661.132503	4849.960525
661.473996	4857.360939
661.815438	4845.665462
662.156829	4837.748330
662.498168	4817.530782
662.839456	4800.123678
663.180693	4807.367816
663.521879	4807.811437
663.863013	4787.432573
664.204097	4784.223879
664.545129	4808.602899
664.886110	4788.755876
665.227040	4799.732988
665.567918	4775.054020
665.908746	4778.855050
666.249522	4774.249956
666.590248	4761.465590
666.930922	4764.696969
667.271545	4763.771917
667.612118	4756.951236
667.952639	4734.056836
668.293109	4732.758739
668.633528	4698.486455
668.973896	4693.178120
669.314213	4677.411911
669.654480	4651.016429
669.994695	4644.394874
670.334859	4627.703613
670.674973	4607.546560
671.015035	4605.638483
671.355047	4589.247171
671.695008	4572.145057
672.034918	4555.161410
672.374777	4545.978948
672.714585	4530.074108
673.054342	4521.531872
673.394049	4507.648535
673.733705	4511.656252
674.073310	4490.853931
674.412864	4467.725117
674.752368	4443.724183
675.091820	4437.513482
675.431223	4400.660127
675.770574	4388.752921
676.109875	4353.341336
676.449125	4342.964121
676.788324	4316.528310
677.127473	4277.850057
677.466571	4259.583436
677.805619	4247.225048
678.144616	4227.622521
678.483562	4208.466136
678.822458	4185.627189
679.161303	4171.486752
679.500098	4157.842869
679.838842	4144.604799
680.177535	4136.188593
680.516179	4137.758912
680.854771	4133.330259
681.193314	4171.895086
681.531805	4220.607755
681.870247	4291.113333
682.208638	4336.115713
682.546978	4334.812575
682.885268	4311.918175
683.223508	4260.815998
683.561697	4223.433322
683.899836	4199.003890
684.237925	4165.560876
684.575963	4148.511693
684.913951	4120.291314
685.251889	4132.624497
685.589776	4123.227786
685.927614	4102.879169
686.265401	4122.978249
686.603137	4114.385603
686.940824	4137.234632
687.278460	4145.711333
687.616046	4144.619923
687.953582	4178.073020
688.291068	4161.868231
688.628504	4176.666538
688.965889	4157.270698
689.303224	4127.560658
689.640510	4095.191409
689.977745	4046.839182
690.314930	3989.911952
690.652065	3957.320893
690.989150	3911.481681
691.326185	3861.581819
691.663170	3821.509687
692.000105	3782.322278
692.336990	3742.597986
692.673825	3717.364490
693.010610	3683.578677
693.347345	3651.348060
693.684030	3623.679687
694.020665	3603.305864
694.357251	3563.092580
694.693786	3558.709296
695.030272	3544.145403
695.366707	3521.745036
695.703093	3501.847602
696.039429	3501.328363
696.375716	3483.510404
696.711952	3472.913899
697.048139	3464.497693
697.384276	3452.570323
697.720363	3452.812298
698.056400	3446.410033
698.392388	3422.169644
698.728326	3413.448448
699.064214	3402.549474
699.400053	3394.108062
699.735842	3369.025801
700.071581	3357.801672
700.407270	3346.769106
700.742910	3328.149605
701.078501	3305.187149
701.414042	3294.749440
701.749533	3274.547016
702.084974	3254.478182
702.420366	3263.237187
702.755709	3239.379927
703.091002	3217.009806
703.426246	3221.052812
703.761440	3208.843137
704.096584	3194.763194
704.431679	3193.495344
704.766725	3185.305990
705.101721	3176.564629
705.436668	3176.057993
705.771565	3158.673574
706.106413	3165.887465
706.441212	3168.902075
706.775961	3165.937877
707.110661	3164.367557
707.445311	3169.885100
707.779913	3168.408042
708.114465	3176.332736
708.448967	3181.310875
708.783421	3198.959955
709.117825	3206.501521
709.452180	3209.657283
709.786485	3220.757904
710.120742	3247.486102
710.454949	3246.747573
710.789107	3264.303391
711.123216	3283.830301
711.457275	3285.435908
711.791286	3306.046666
712.125247	3307.576656
712.459159	3283.807615
712.793023	3302.651448
713.126837	3270.362858
713.460602	3266.319853
713.794318	3239.997468
714.127985	3230.764595
714.461602	3196.058771
714.795171	3181.608303
715.128691	3151.689055
715.462162	3125.699387
715.795584	3107.768003
716.128957	3093.294850
716.462281	3080.011409
716.795556	3064.537588
717.128782	3047.538817
717.461960	3023.497554
717.795088	3024.871269
718.128167	3005.203207
718.461198	2988.443891
718.794180	2981.598004
719.127113	2971.193063
719.459997	2962.033286
719.792833	2949.911832
720.125619	2946.325051
720.458357	2929.177566
720.791046	2927.609767
721.123686	2918.906215
721.456278	2909.476737
721.788821	2906.973804
722.121315	2901.151271
722.453761	2892.215826
722.786158	2888.606360
723.118506	2891.714231
723.450805	2884.308776
723.783056	2888.364384
724.115259	2882.887171
724.447412	2885.044784
724.779518	2881.783158
725.111574	2879.353322
725.443582	2888.934035
725.775542	2880.769886
726.107453	2893.319838
726.439315	2889.768346
726.771129	2898.976013
727.102895	2909.000348
727.434612	2915.395051
727.766281	2918.765063
728.097901	2919.301945
728.429473	2912.410688
728.760996	2911.694844
729.092471	2905.446334
729.423897	2902.313257
729.755276	2898.991137
730.086606	2896.120199
730.417887	2903.462640
730.749120	2915.926893
731.080305	2927.408121
731.411442	2930.861311
731.742530	2922.729930
732.073570	2917.822367
732.404562	2923.536515
732.735506	2921.351174
733.066401	2916.221800
733.397249	2893.367729
733.728048	2869.896117
734.058798	2845.315451
734.389501	2824.465239
734.720156	2813.475523
735.050762	2801.603606
735.381320	2794.757719
735.711831	2784.929990
736.042293	2780.642488
736.372707	2783.026954
736.703073	2774.857764
737.033391	2773.758793
737.363661	2775.865995
737.693883	2775.382044
738.024056	2780.713064
738.354182	2780.687859
738.684260	2792.068263
739.014290	2798.372226
739.344272	2801.386836
739.674207	2805.064358
740.004093	2808.096612
740.333931	2804.587969
740.663722	2804.356076
740.993464	2797.558080
741.323159	2794.646814
741.652806	2784.834208
741.982405	2778.507560
742.311956	2768.868873
742.641460	2763.404263
742.970915	2755.230032
743.300323	2747.620410
743.629683	2739.020202
743.958996	2733.227916
744.288260	2726.661813
744.617477	2718.157386
744.946647	2711.717312
745.275768	2709.738659
745.604842	2702.045859
745.933869	2698.489325
746.262847	2696.130065
746.591778	2700.147864
746.920662	2696.855991
747.249498	2693.891792
747.578286	2695.827595
747.907027	2700.911599
748.235720	2701.738348
748.564365	2704.226158
748.892963	2699.691640
749.221514	2700.162988
749.550017	2692.175279
749.878473	2692.197965
750.206881	2686.811492
750.535242	2684.721933
750.863555	2683.466686
751.191821	2683.050791
751.520039	2675.453772
751.848210	2676.487209
752.176334	2675.849503
752.504411	2678.818742
752.832440	2666.830878
753.160421	2671.937567
753.488356	2669.162412
753.816243	2670.100067
754.144082	2663.720487
754.471875	2663.438182
754.799620	2664.794252
755.127318	2659.488438
755.454969	2662.225784
755.782572	2660.438695
756.110129	2657.333345
756.437638	2658.732265
756.765100	2655.329486
757.092515	2655.793272
757.419882	2657.991215
757.747203	2655.954589
758.074477	2657.655978
758.401703	2656.088180
758.728882	2660.315187
759.056014	2659.584220
759.383099	2660.446257
759.710138	2661.706546
760.037129	2663.254180
760.364073	2663.115548
760.690970	2661.217554
761.017820	2660.441216
761.344623	2657.842501
761.671379	2663.037410
761.998088	2661.968686
762.324751	2676.109122
762.651366	2709.048021
762.977935	2777.827004
763.304456	2825.554128
763.630931	2832.599140
763.957359	2786.091976
764.283740	2740.010788
764.610074	2713.890050
764.936362	2690.534384
765.262602	2673.457475
765.588796	2657.638334
765.914943	2651.828405
766.241044	2642.459420
766.567097	2638.507156
766.893104	2633.287041
767.219064	2625.916874
767.544978	2622.718262
767.870845	2614.967488
768.196665	2613.147631
768.522438	2613.712240
768.848165	2610.349791
769.173846	2608.585387
769.499479	2610.488422
769.825066	2605.222937
770.150607	2603.980293
770.476101	2602.294027
770.801548	2602.528441
771.126949	2597.189859
771.452303	2595.473346
771.777611	2594.752461
772.102872	2594.502924
772.428087	2592.483942
772.753256	2589.018148
773.078378	2591.107707
773.403453	2588.587130
773.728482	2586.414392
774.053465	2587.226018
774.378401	2583.417426
774.703291	2582.865420
775.028135	2580.980028
775.352932	2582.608321
775.677683	2583.246027
776.002388	2579.588670
776.327046	2579.175295
776.651658	2578.320820
776.976224	2575.580953
777.300743	2578.300655
777.625216	2576.783268
777.949643	2577.221848
778.274024	2576.498443
778.598359	2572.536096
778.922647	2571.631209
779.246889	2571.038873
779.571086	2570.549881
779.895236	2573.032649
780.219339	2572.432752
780.543397	2572.546178
780.867409	2573.975345
781.191374	2572.606672
781.515294	2573.047773
781.839167	2572.309244
782.162995	2572.107598
782.486776	2572.710016
782.810511	2571.762279
783.134201	2570.907803
783.457844	2572.213462
783.781441	2569.627350
784.104993	2570.600293
784.428498	2567.058882
784.751958	2573.655232
785.075372	2571.086764
785.398739	2569.428224
785.722061	2566.413614
786.045337	2569.067782
786.368568	2569.103070
786.691752	2567.832699
787.014891	2571.709347
787.337983	2575.906107
787.661030	2579.508012
787.984031	2585.643096
788.306987	2589.804568
788.629897	2585.040678
788.952760	2583.518249
789.275579	2582.144535
789.598351	2576.916858
789.921078	2572.710016
790.243759	2572.374779
790.566395	2570.980900
790.888984	2569.518965
791.211529	2562.720969
791.534027	2566.811866
791.856480	2562.070660
792.178888	2565.022256
792.501249	2562.559652
792.823566	2563.323387
793.145836	2562.668037
793.468062	2560.621329
793.790241	2560.485217
794.112375	2564.888665
794.434464	2562.103428
794.756507	2561.400187
795.078505	2564.712225
795.400457	2564.732390
795.722364	2565.959911
796.044226	2566.403532
796.366042	2565.969993
796.687812	2566.953018
797.009538	2567.343707
797.331218	2566.637946
797.652852	2566.247256
797.974442	2566.849674
798.295986	2565.977555
798.617484	2566.295147
798.938938	2563.444375
799.260346	2564.094684
799.581709	2562.300033
799.903026	2562.542008
800.224299	2561.969837
800.545526	2562.002605
800.866708	2558.410783
801.187845	2560.742316
801.508936	2558.143602
801.829983	2558.090669
802.150984	2556.328786
802.471940	2557.747871
802.792851	2558.867007
803.113717	2559.905485
803.434538	2557.677295
803.755314	2557.437840
804.076045	2555.005483
804.396731	2557.838612
804.717372	2554.604712
805.037967	2558.410783
805.358518	2555.633107
805.679024	2560.323901
805.999485	2555.867521
806.319901	2559.169476
806.640272	2558.141081
806.960598	2560.664178
807.280879	2555.756615
807.601115	2557.246276
807.921306	2554.450956
808.241453	2559.189641
808.561554	2557.581513
808.881611	2556.684187
809.201623	2556.411965
809.521590	2556.729558
809.841513	2558.128478
810.161390	2558.735937
810.481223	2555.870041
810.801011	2555.801986
811.120755	2556.525391
811.440453	2556.328786
811.760107	2556.923642
812.079716	2554.612273
812.399281	2553.074721
812.718801	2553.200750
813.038276	2548.935934
813.357707	2554.274516
813.677093	2553.016748
813.996434	2553.805689
814.315731	2552.240410
814.634983	2554.561862
814.954191	2552.590771
815.273354	2554.574465
815.592473	2551.456511
815.911547	2553.677139
816.230577	2555.612942
816.549562	2556.091852
816.868502	2556.633776
817.187399	2557.241235
817.506250	2558.216698
817.825058	2559.250135
818.143821	2558.166287
818.462539	2557.684857
818.781213	2561.508572
819.099843	2564.215671
819.418429	2567.653738
819.736970	2570.844789
820.055466	2577.320151
820.373919	2580.420460
820.692327	2589.935638
821.010691	2603.856785
821.329011	2640.886580
821.647286	2721.459342
821.965517	2835.301199
822.283704	2896.510889
822.601847	2895.346382
822.919945	2838.872856
823.237999	2783.286573
823.556010	2732.943091
823.873976	2690.456246
824.191897	2662.450116
824.509775	2641.950264
824.827609	2622.171297
825.145398	2614.642333
825.463144	2614.697786
825.780845	2616.011007
826.098502	2625.201030
826.416116	2644.334729
826.733685	2665.696619
827.051210	2673.457475
827.368692	2661.338541
827.686129	2642.209883
828.003522	2619.333127
828.320872	2599.206320
828.638177	2588.940010
828.955439	2577.199163
829.272656	2571.046435
829.589830	2566.832030
829.906960	2566.559808
830.224046	2564.324056
830.541088	2562.703325
830.858086	2560.119734
831.175041	2560.664178
831.491952	2558.587223
831.808819	2560.142419
832.125642	2559.865156
832.442421	2563.824982
832.759157	2571.835375
833.075849	2582.464648
833.392497	2596.340424
833.709101	2607.889708
834.025662	2611.516818
834.342179	2600.196907
834.658653	2585.532190
834.975083	2579.813001
835.291469	2578.479616
835.607811	2565.402863
835.924110	2562.736093
836.240366	2559.111503
836.556578	2556.820299
836.872746	2556.169990
837.188871	2553.639331
837.504952	2552.532797
837.820990	2550.060111
838.136984	2549.866027
838.452935	2548.769576
838.768842	2549.278732
839.084706	2552.389124
839.400526	2556.893395
839.716303	2564.245918
840.032037	2570.842268
840.347727	2571.038873
840.663373	2565.947308
840.978977	2557.442881
841.294537	2558.849363
841.610054	2553.057077
841.925527	2551.327962
842.240957	2547.990718
842.556344	2547.723537
842.871687	2546.702703
843.186987	2547.647919
843.502244	2544.882846
843.817458	2544.454348
844.132629	2541.011240
844.447756	2546.858979
844.762840	2539.798843
845.077881	2540.129038
845.392879	2539.488812
845.707833	2544.411498
846.022745	2539.932433
846.337613	2542.856302
846.652438	2543.534338
846.967221	2544.121632
847.281960	2540.192053
847.596656	2543.486447
847.911309	2542.168185
848.225919	2541.260777
848.540485	2542.778165
848.855009	2542.344625
849.169490	2542.314378
849.483928	2545.520552
849.798323	2544.146838
850.112675	2542.238761
850.426984	2540.935623
850.741251	2543.352856
851.055474	2540.678524
851.369654	2541.124666
851.683792	2539.690458
851.997887	2540.670962
852.311938	2541.381765
852.625947	2541.588452
852.939914	2540.766744
853.253837	2542.808412
853.567718	2539.617361
853.881555	2541.936292
854.195350	2540.986034
854.509103	2542.427804
854.822812	2542.387475
855.136479	2543.786395
855.450103	2539.856816
855.763685	2541.275901
856.077224	2542.213555
856.390720	2543.504091
856.704173	2543.325130
857.017584	2543.725902
857.330953	2542.664739
857.644278	2542.165664
857.957561	2545.724719
858.270802	2541.717002
858.584000	2543.612476
858.897155	2542.821014
859.210268	2539.496373
859.523339	2544.903011
859.836367	2541.986703
860.149352	2543.867054
860.462295	2541.497712
860.775195	2541.013761
861.088054	2538.833462
861.400869	2539.801363
861.713642	2537.900848
862.026373	2542.115253
862.339062	2542.551313
862.651708	2543.304965
862.964312	2541.830428
863.276873	2541.843031
863.589392	2542.170706
863.901869	2543.423432
864.214303	2541.112063
864.526696	2543.524255
864.839045	2542.478216
865.151353	2543.181457
865.463619	2542.581560
865.775842	2542.616848
866.088023	2545.260933
866.400162	2542.823535
866.712258	2541.777496
867.024313	2540.444110
867.336325	2542.337064
867.648296	2545.026519
867.960224	2543.410829
868.272110	2544.277908
868.583954	2542.543751
868.895755	2543.811601
869.207515	2542.483257
869.519233	2545.938968
869.830909	2541.439738
870.142542	2545.623896
870.454134	2545.132383
870.765684	2545.681869
871.077191	2544.038453
871.388657	2546.848896
871.700081	2543.945192
872.011463	2547.448794
872.322803	2543.983000
872.634101	2547.282436
872.945357	2547.594987
873.256571	2549.165307
873.567744	2545.402085
873.878874	2545.331509
874.189963	2548.789741
874.501010	2545.628937
874.812015	2547.191695
875.122979	2547.446273
875.433900	2545.593649
875.744780	2549.187992
876.055618	2547.310162
876.366415	2547.605069
876.677169	2548.346119
876.987882	2547.753783
877.298554	2544.255223
877.609183	2545.013916
877.919771	2543.183978
878.230317	2547.484082
878.540822	2550.317210
878.851285	2552.817622
879.161707	2555.292829
879.472087	2558.315001
879.782425	2566.194324
880.092722	2573.060376
880.402977	2587.740216
880.713191	2617.145266
881.023363	2647.188022
881.333494	2667.960097
881.643583	2673.560819
881.953631	2668.980931
882.263637	2658.361740
882.573602	2645.143835
882.883526	2634.315436
883.193408	2619.625514
883.503248	2608.403905
883.813048	2598.624067
884.122806	2587.344485
884.432522	2583.112437
884.742197	2574.424008
885.051831	2569.660117
885.361424	2564.192986
885.670975	2562.736093
885.980485	2560.855742
886.289954	2557.218550
886.599382	2555.565051
886.908768	2556.916081
887.218113	2551.953065
887.527417	2551.196892
887.836680	2552.217725
888.145901	2551.509443
888.455082	2549.099772
888.764221	2548.509957
889.073319	2547.879812
889.382376	2547.602549
889.691392	2547.030378
890.000366	2549.094730
890.309300	2549.291335
890.618193	2548.283105
890.927044	2549.329144
891.235855	2548.852755
891.544625	2547.438711
891.853353	2550.234031
892.162041	2546.785882
892.470687	2553.694783
892.779293	2551.068342
893.087858	2551.209494
893.396381	2552.338713
893.704864	2557.515978
894.013306	2563.474622
894.321707	2577.186560
894.630068	2581.423650
894.938387	2586.288363
895.246665	2583.732498
895.554903	2581.753846
895.863100	2576.347208
896.171256	2570.610375
896.479371	2564.482853
896.787446	2559.555125
897.095480	2558.299877
897.403473	2555.746533
897.711425	2553.977088
898.019336	2556.338868
898.327207	2550.841490
898.635038	2552.812581
898.942827	2551.635472
899.250576	2549.412323
899.558284	2547.680687
899.865952	2548.436860
900.173579	2548.182282
900.481165	2548.111705
900.788711	2544.093906
901.096216	2549.624052
901.403681	2547.534493
901.711105	2545.754966
902.018489	2543.889739
902.325832	2547.453835
902.633135	2547.567261
902.940397	2548.706562
903.247619	2552.749567
903.554800	2561.642162
903.861941	2574.386199
904.169041	2591.647110
904.476101	2599.221444
904.783121	2599.844026
905.090100	2590.553180
905.397039	2581.161510
905.703938	2574.880232
906.010796	2565.067626
906.317614	2561.495969
906.624391	2556.613611
906.931129	2552.865513
907.237826	2550.105482
907.544483	2547.156407
907.851099	2548.993907
908.157675	2541.485109
908.464211	2542.931920
908.770707	2539.085519
909.077163	2540.887732
909.383578	2539.382948
909.689954	2539.579552
909.996289	2538.162988
910.302584	2544.174564
910.608839	2540.796991
910.915054	2543.115922
911.221229	2542.931920
911.527363	2542.440407
911.833458	2541.336395
912.139513	2543.405788
912.445527	2540.605427
912.751502	2544.575336
913.057436	2542.168185
913.363331	2543.330171
913.669186	2546.687579
913.975000	2549.918959
914.280775	2550.057591
914.586510	2556.611091
914.892205	2562.000084
915.197859	2564.823130
915.503475	2573.395612
915.809050	2583.573702
916.114585	2592.972933
916.420081	2594.218098
916.725536	2594.447471
917.030952	2588.498909
917.336328	2581.249730
917.641665	2576.102712
917.946961	2568.535940
918.252218	2565.659962
918.557435	2560.659137
918.862612	2558.884651
919.167750	2554.851728
919.472848	2552.358877
919.777906	2551.335523
920.082925	2548.547765
920.387904	2544.955943
920.692843	2546.319575
920.997743	2546.843855
921.302603	2543.360418
921.607423	2544.474513
921.912204	2546.009544
922.216946	2545.301262
922.521647	2542.846220
922.826310	2544.663556
923.130932	2542.548792
923.435516	2542.304296
923.740059	2541.495191
924.044564	2541.691796
924.349028	2539.682896
924.653454	2536.890097
924.957840	2536.534696
925.262186	2536.771630
925.566493	2538.062165
925.870761	2534.329191
926.174989	2541.873278
926.479178	2540.905376
926.783328	2536.761548
927.087438	2536.756506
927.391509	2540.726415
927.695541	2539.768596
927.999533	2537.361445
928.303486	2536.854809
928.607400	2540.043339
928.911275	2536.174253
929.215110	2533.890610
929.518906	2538.316743
929.822663	2536.048224
930.126381	2536.005374
930.430060	2535.934798
930.733699	2537.374048
931.037299	2537.333718
931.340861	2537.331198
931.644383	2534.424973
931.947866	2536.448996
932.251309	2536.368337
932.554714	2534.351876
932.858080	2536.965714
933.161407	2535.786084
933.464694	2536.948070
933.767943	2536.562422
934.071153	2536.827083
934.374323	2538.631816
934.677455	2540.449152
934.980548	2534.813142
935.283602	2535.869263
935.586617	2536.786753
935.889593	2534.283820
936.192530	2537.426980
936.495428	2536.658204
936.798287	2535.692823
937.101108	2538.168029
937.403890	2536.365817
937.706632	2539.685417
938.009336	2539.733308
938.312002	2541.129707
938.614628	2541.585932
938.917216	2541.119625
939.219765	2540.078627
939.522275	2539.181301
939.824747	2541.303627
940.127179	2535.886907
940.429573	2535.967566
940.731929	2537.558050
941.034246	2537.550488
941.336524	2536.315405
941.638763	2540.890252
941.940964	2537.197607
942.243126	2536.454037
942.545250	2540.091230
942.847335	2537.948739
943.149381	2538.566281
943.451389	2535.506300
943.753359	2536.033101
944.055290	2537.938657
944.357182	2535.992772
944.659036	2538.021836
944.960851	2534.238450
945.262628	2535.665097
945.564367	2537.026208
945.866067	2539.030067
946.167729	2537.464788
946.469352	2538.394881
946.770937	2536.534696
947.072484	2537.386651
947.373992	2539.597197
947.675462	2536.819521
947.976893	2537.888245
948.278286	2536.375899
948.579641	2536.285158
948.880958	2536.262473
949.182236	2534.951773
949.483476	2537.716846
949.784678	2534.808100
950.085841	2535.007226
950.386967	2535.982689
950.688054	2536.968235
950.989103	2534.881197
951.290114	2535.597041
951.591087	2536.380940
951.892021	2537.782381
952.192917	2537.245498
952.493776	2538.435211
952.794596	2536.698533
953.095378	2539.261960
953.396122	2538.155427
953.696828	2538.162988
953.997496	2538.788091
954.298126	2535.319778
954.598718	2538.309182
954.899272	2534.132586
955.199788	2535.493697
955.500266	2537.406815
955.800706	2534.301464
956.101108	2532.423635
956.401472	2532.411032
956.701798	2530.523120
957.002087	2530.714683
957.302337	2536.378420
957.602550	2531.561597
957.902724	2534.336752
958.202861	2535.637370
958.502960	2534.240971
958.803022	2534.616537
959.103045	2535.501259
959.403031	2535.665097
959.702979	2534.878677
960.002889	2532.794159
960.302762	2532.849612
960.602596	2532.141330
960.902393	2534.094777
961.202153	2532.065713
961.501875	2532.920188
961.801559	2533.867925
962.101205	2532.584952
962.400814	2533.242822
962.700385	2531.117976
962.999918	2534.273738
963.299414	2531.992616
963.598873	2533.719211
963.898293	2532.388347
964.197677	2532.363141
964.497022	2532.421114
964.796331	2533.326001
965.095601	2531.140661
965.394835	2534.382123
965.694030	2530.659231
965.993189	2533.706608
966.292309	2531.551515
966.591393	2532.554705
966.890439	2532.748789
967.189447	2533.038655
967.488419	2531.657379
967.787353	2531.690147
968.086249	2531.468336
968.385108	2531.117976
968.683930	2532.942873
968.982714	2532.196783
969.281462	2532.562266
969.580172	2532.388347
969.878844	2532.655528
970.177480	2531.753161
970.476078	2532.065713
970.774639	2531.695188
971.073162	2531.927081
971.371649	2528.531864
971.670098	2528.141174
971.968510	2529.222502
972.266885	2524.332583
972.565223	2532.312729
972.863524	2531.669982
973.161788	2532.892462
973.460014	2530.104704
973.758204	2532.786598
974.056356	2531.294416
974.354471	2530.639066
974.652550	2529.235105
974.950591	2531.657379
975.248595	2531.765764
975.546563	2527.395084
975.844493	2531.170908
976.142386	2529.197296
976.440243	2533.709129
976.738062	2531.730476
977.035845	2531.390198
977.333590	2530.581093
977.631299	2531.896834
977.928971	2532.161495
978.226606	2529.303160
978.524204	2533.152081
978.821765	2530.790301
979.119290	2531.236443
979.416777	2532.411032
979.714228	2531.838861
980.011642	2531.112935
980.309020	2532.930271
980.606360	2531.208717
980.903664	2533.991433
981.200931	2532.945394
981.498162	2532.458923
981.795356	2529.845084
982.092513	2534.137627
982.389633	2530.616381
982.686717	2533.625950
982.983764	2533.565456
983.280775	2536.854809
983.577749	2533.038655
983.874686	2534.326670
984.171587	2532.363141
984.468451	2530.185362
984.765279	2531.836340
985.062070	2530.634025
985.358824	2529.797193
985.655543	2533.056299
985.952224	2531.274252
986.248869	2530.114786
986.545478	2528.307532
986.842050	2530.931453
987.138586	2527.624456
987.435086	2529.756864
987.731549	2525.653365
988.027975	2532.529499
988.324366	2530.490352
988.620719	2530.944056
988.917037	2533.963707
989.213318	2530.518078
989.509563	2529.109076
989.805772	2529.214940
990.101944	2530.036648
990.398080	2528.985568
990.694180	2531.798532
990.990244	2530.124868
991.286271	2528.546987
991.582262	2529.898017
991.878217	2530.815507
992.174136	2530.175280
992.470019	2530.795342
992.765865	2530.114786
993.061676	2528.637728
993.357450	2530.865918
993.653188	2528.552028
993.948890	2530.893644
994.244556	2530.634025
994.540186	2529.938346
994.835780	2530.792821
995.131337	2530.147554
995.426859	2529.673685
995.722345	2526.805269
996.017795	2527.387522
996.313208	2532.796680
996.608586	2532.290044
996.903928	2531.307019
997.199234	2530.223171
997.494504	2529.351051
997.789738	2530.568490
998.084936	2531.717873
998.380099	2529.409025
998.675225	2527.700073
998.970316	2529.847605
999.265371	2530.785260
999.560390	2530.276103
999.855373	2530.200486
1000.150320	2530.770136
1000.445232	2531.569159
1000.740108	2526.359127
1001.034948	2527.135464
1001.329752	2527.906761
1001.624521	2528.176462
1001.919254	2523.326872
1002.213951	2524.488858
1002.508613	2528.736031
1002.803239	2527.894158
1003.097829	2523.883920
1003.392384	2524.657737
1003.686903	2528.030269
1003.981386	2529.973634
1004.275834	2529.779549
1004.570246	2527.561442
1004.864623	2529.109076
1005.158964	2529.162008
1005.453270	2527.246370
1005.747540	2529.419107
1006.041775	2529.509848
1006.335974	2527.473222
1006.630138	2529.444313
1006.924266	2529.734179
1007.218359	2527.059847
1007.512416	2527.896678
1007.806438	2526.089425
1008.100425	2529.461957
1008.394376	2529.194776
1008.688292	2528.315094
1008.982172	2527.458098
1009.276017	2530.800383
1009.569827	2529.293078
1009.863602	2530.800383
1010.157341	2523.238652
1010.451045	2527.689991
1010.744714	2526.616225
1011.038347	2529.640918
1011.331945	2528.887265
1011.625508	2525.852491
1011.919036	2527.793335
1012.212528	2526.674199
1012.505986	2526.903571
1012.799408	2528.557070
1013.092795	2527.740403
1013.386147	2530.984385
1013.679464	2528.758716
1013.972745	2526.223015
1014.265992	2528.788963
1014.559204	2528.332738
1014.852380	2528.705784
1015.145521	2528.947759
1015.438628	2528.035310
1015.731699	2527.143026
1016.024736	2526.228057
1016.317737	2526.570855
1016.610703	2528.839374
1016.903635	2525.239990
1017.196531	2522.860566
1017.489393	2527.135464
1017.782219	2524.783766
1018.075011	2526.291071
1018.367768	2524.476256
1018.660490	2531.032276
1018.953177	2531.032276
1019.245829	2531.032276
