Dividing Wavelength (nm)	Counts (n)	Blue Motor Position (mm): 0.000000	Red Motor Position (mm): 35.600000	
326.493990	2129.025463
326.888308	2129.025463
327.282561	2129.025463
327.676750	2095.968096
328.070874	2092.277972
328.464933	2096.391553
328.858929	2103.134097
329.252859	2112.263626
329.646726	2124.780811
330.040528	2139.165744
330.434265	2152.386170
330.827938	2170.786381
331.221547	2189.536953
331.615091	2210.125025
332.008571	2227.532129
332.401986	2249.599780
332.795338	2265.829775
333.188625	2284.787034
333.581847	2304.913841
333.975006	2323.306491
334.368100	2342.719974
334.761129	2359.000381
335.154095	2371.283152
335.546996	2397.275341
335.939833	2415.234452
336.332606	2429.405135
336.725315	2442.928030
337.117960	2451.414813
337.510540	2459.843622
337.903056	2470.112453
338.295508	2479.579739
338.687896	2490.317397
339.080220	2493.233705
339.472480	2501.556650
339.864676	2503.845333
340.256807	2511.848165
340.648875	2514.862775
341.040879	2514.988804
341.432818	2519.659433
341.824694	2518.406706
342.216506	2519.974505
342.608253	2522.369053
342.999937	2520.345030
343.391557	2518.066428
343.783113	2516.458300
344.174605	2517.350585
344.566033	2513.882271
344.957397	2514.252796
345.348697	2514.139370
345.739934	2511.618793
346.131106	2511.215500
346.522215	2509.085613
346.913260	2506.602845
347.304241	2504.697288
347.695159	2501.276866
348.086012	2502.436331
348.476802	2496.699498
348.867528	2498.786536
349.258191	2495.676144
349.648789	2496.003819
350.039324	2493.412666
350.429796	2490.939980
350.820203	2489.079794
351.210548	2492.601040
351.600828	2492.369147
351.991045	2489.047026
352.381198	2488.754639
352.771288	2489.225987
353.161314	2486.155925
353.551276	2489.001656
353.941175	2489.473004
354.331010	2488.525267
354.720782	2488.467294
355.110490	2487.529639
355.500135	2488.832777
355.889717	2486.322283
356.279235	2489.861173
356.668689	2491.784373
357.058080	2485.871099
357.447408	2487.562407
357.836672	2486.987715
358.225873	2488.111892
358.615010	2486.841522
359.004084	2490.766060
359.393095	2494.183962
359.782043	2493.556338
360.170927	2490.025010
360.559748	2495.862666
360.948505	2494.816627
361.337199	2497.158243
361.725830	2495.600526
362.114398	2497.221257
362.502903	2496.399549
362.891344	2500.472802
363.279722	2496.530619
363.668037	2501.554129
364.056289	2500.130003
364.444478	2501.659993
364.832603	2499.336021
365.220665	2501.750734
365.608665	2504.009171
365.996601	2503.195025
366.384474	2505.692916
366.772284	2505.047649
367.160031	2508.503360
367.547715	2510.950840
367.935336	2508.818432
368.322893	2514.890502
368.710388	2519.382170
369.097820	2523.939373
369.485189	2526.212933
369.872495	2534.409849
370.259738	2537.545447
370.646918	2547.405944
371.034035	2553.281409
371.421090	2565.465878
371.808081	2572.969635
372.195010	2583.351891
372.581875	2601.069027
372.968678	2609.712085
373.355418	2618.027468
373.742096	2637.191414
374.128710	2654.817809
374.515262	2665.426917
374.901751	2684.520287
375.288177	2695.590661
375.674540	2719.677294
376.060841	2737.250757
376.447079	2756.240783
376.833254	2779.233486
377.219367	2789.580454
377.605417	2828.301557
377.991404	2836.521158
378.377329	2861.091742
378.763191	2877.656973
379.148991	2914.064187
379.534727	2938.591921
379.920402	2966.711477
380.306013	2982.472644
380.691563	3032.435520
381.077049	3047.979918
381.462474	3067.670665
381.847835	3107.268928
382.233134	3128.593009
382.618371	3127.337762
383.003545	3200.550439
383.388657	3206.378013
383.773706	3239.148033
384.158693	3252.338212
384.543618	3280.893828
384.928480	3319.090651
385.313280	3361.582537
385.698017	3364.256869
386.082692	3415.207811
386.467305	3419.429777
386.851856	3450.430353
387.236344	3476.387254
387.620770	3506.228364
388.005133	3529.647044
388.389435	3557.227197
388.773674	3570.876121
389.157851	3611.853140
389.541965	3628.073053
389.926018	3590.730706
390.310008	3662.738547
390.693936	3680.677493
391.077802	3725.044688
391.461606	3710.843758
391.845348	3775.804066
392.229027	3774.863891
392.612645	3790.509112
392.996200	3867.328735
393.379694	3905.744848
393.763125	3969.023931
394.146494	3938.872790
394.529801	3997.445957
394.913047	4046.806415
395.296230	4016.050335
395.679351	4067.586051
396.062410	4089.116819
396.445408	4071.543357
396.828343	4104.578038
397.211217	4132.405207
397.594028	4048.984193
397.976778	4118.589925
398.359466	4144.960201
398.742092	4172.920960
399.124656	4095.816512
399.507158	4174.264428
399.889598	4197.257131
400.271977	4262.966050
400.654294	4228.643354
401.036549	4240.754727
401.418742	4208.952608
401.800874	4315.295748
402.182944	4336.105631
402.564952	4404.032658
402.946898	4384.757807
403.328783	4382.630440
403.710606	4295.947799
404.092367	4490.425432
404.474067	4453.360349
404.855705	4468.085559
405.237282	4393.259713
405.618797	4498.801310
406.000250	4530.822719
406.381642	4613.066623
406.762972	4574.411056
407.144240	4584.364814
407.525447	4586.272891
407.906593	4645.902179
408.287677	4689.430022
408.668700	4618.609372
409.049661	4669.600643
409.430560	4709.226633
409.811399	4635.429182
410.192176	4800.106034
410.572891	4738.026745
410.953545	4840.110110
411.334138	4721.922779
411.714669	4790.033808
412.095139	4681.318805
412.475547	4821.677131
412.855894	4805.099297
413.236180	4810.221109
413.616405	4769.468421
413.996568	4859.934448
414.376670	4798.734840
414.756711	4749.601234
415.136691	4784.455772
415.516609	4862.011403
415.896466	4901.922218
416.276262	4935.080408
416.655997	4914.240278
417.035670	5094.627886
417.415283	5186.409653
417.794834	5129.666425
418.174324	5088.018933
418.553753	4991.004448
418.933121	5178.984033
419.312428	5242.598354
419.691674	5181.111400
420.070859	5308.619825
420.449983	5222.711002
420.829045	5333.671839
421.208047	5244.007356
421.586988	5316.335311
421.965867	5328.159338
422.344686	5454.883863
422.723444	5310.621163
423.102141	5133.442250
423.480777	5431.477786
423.859352	5199.859452
424.237866	5455.534172
424.616319	5449.144509
424.994712	5557.506632
425.373044	5438.127067
425.751314	5581.053861
426.129524	5384.882401
426.507673	5577.265434
426.885762	5659.879863
427.263789	5591.340336
427.641756	5472.250638
428.019662	5590.211117
428.397508	5599.872489
428.775292	5551.353903
429.153016	5645.946114
429.530679	5571.135391
429.908282	5663.181819
430.285824	5527.108474
430.663305	5803.814888
431.040726	5538.219177
431.418086	5537.906626
431.795385	5641.988808
432.172624	5660.991438
432.549802	5648.640611
432.926920	5662.861706
433.303977	5676.392163
433.680974	5707.296957
434.057910	5729.798147
434.434786	5732.432150
434.811601	5701.013158
435.188355	5938.522081
435.565050	5810.391073
435.941683	5792.621006
436.318257	6006.141598
436.694770	5992.548126
437.071222	6027.352253
437.447614	5957.650739
437.823946	5868.722264
438.200218	6018.694071
438.576429	5888.302106
438.952580	5987.756510
439.328670	6032.262336
439.704700	5939.200116
440.080670	5922.276962
440.456580	6197.897008
440.832429	6081.017856
441.208218	5925.016829
441.583947	6079.676909
441.959616	6086.938691
442.335224	6013.612588
442.710773	6151.268855
443.086261	6177.523184
443.461689	5968.963088
443.837057	6117.684688
444.212365	6274.971209
444.587612	6161.920813
444.962800	6321.158260
445.337927	6296.814528
445.712995	5908.156690
446.088002	6488.569938
446.462949	6317.909237
446.837837	6249.354586
447.212664	6424.287665
447.587431	6568.469706
447.962139	7111.840556
448.336786	8033.678551
448.711374	7775.009386
449.085901	6850.635690
449.460369	6769.153000
449.834776	6705.178237
450.209124	7096.444872
450.583412	7245.431133
450.957640	7396.126345
451.331808	7157.405025
451.705917	6713.909515
452.079965	6630.417925
452.453954	6842.728640
452.827883	6721.307409
453.201752	6815.002294
453.575562	6610.555779
453.949311	6818.445402
454.323001	6706.846859
454.696632	6777.324710
455.070202	6915.507778
455.443713	7071.158444
455.817164	7173.309865
456.190556	7257.174501
456.563888	7331.897004
456.937160	7375.606328
457.310373	7029.790736
457.683526	7055.621608
458.056619	6942.528363
458.429653	6936.927641
458.802628	6871.788372
459.175542	6977.035061
459.548398	7340.093920
459.921194	7498.986048
460.293930	7499.908579
460.666607	8029.088581
461.039224	8336.936723
461.411782	8464.619067
461.784280	8484.894588
462.156719	8375.398206
462.529099	8252.134433
462.901419	7838.018767
463.273680	7732.353662
463.645882	7743.497133
464.018024	7607.718695
464.390106	7780.186651
464.762130	8163.957090
465.134094	8630.601578
465.505999	9647.616558
465.877845	10874.948476
466.249631	11523.934019
466.621358	11143.526030
466.993026	10517.018991
467.364634	10260.215053
467.736184	9889.034895
468.107674	9566.771574
468.479105	9593.638403
468.850477	9361.251293
469.221790	9129.590109
469.593043	8806.653794
469.964238	8669.549533
470.335373	8673.524483
470.706449	8733.884738
471.077467	8713.170637
471.448425	10030.771977
471.819324	11101.215625
472.190164	11130.378700
472.560945	9877.583914
472.931667	9088.890354
473.302330	8950.384652
473.672934	8601.937577
474.043479	8954.097462
474.413965	8894.725272
474.784393	8776.328733
475.154761	8925.879603
475.525070	9015.521401
475.895321	8842.934978
476.265513	9023.821660
476.635645	9190.754429
477.005719	9187.790230
477.375734	9311.210279
477.745691	9536.496924
478.115588	9672.421555
478.485427	9919.435573
478.855207	10453.719743
479.224928	11268.173600
479.594591	11899.651216
479.964194	11714.542567
480.333739	11658.943681
480.703226	11568.064280
481.072653	11659.757828
481.442022	11890.662838
481.811333	12089.798497
482.180584	11898.481668
482.549777	11599.785741
482.918912	11417.399315
483.287988	11447.822679
483.657005	11460.246602
484.025964	11146.699436
484.394864	11276.010073
484.763706	11247.845147
485.132489	10999.646458
485.501213	10952.826741
485.869879	11031.546879
486.238487	10882.086750
486.607036	10986.322688
486.975527	10768.837229
487.343959	10958.631630
487.712333	11006.381439
488.080648	10941.345513
488.448905	10978.791204
488.817104	10923.424212
489.185244	11188.687206
489.553326	11336.135915
489.921350	11867.526463
490.289315	12933.468361
490.657222	13279.646916
491.025070	13193.642311
491.392861	13065.687744
491.760593	12686.325794
492.128267	12333.833193
492.495883	12005.094510
492.863440	11668.705876
493.230939	11330.822539
493.598380	11267.064546
493.965763	11135.437498
494.333088	11035.801613
494.700354	10958.679521
495.067563	11022.296362
495.434713	10846.501245
495.801805	10967.499020
496.168839	10889.245188
496.535815	10835.355254
496.902733	10827.213790
497.269593	10765.134501
497.636395	10864.016734
498.003139	10848.280772
498.369825	10720.933664
498.736453	10878.875535
499.103023	10802.774277
499.469535	10833.484986
499.835989	10816.997892
500.202385	10783.073447
500.568723	10633.497372
500.935003	10853.188336
501.301226	10654.506380
501.667390	10915.101267
502.033497	11008.569300
502.399546	10872.939576
502.765537	10781.286358
503.131470	10851.363438
503.497345	11030.553772
503.863163	10641.853084
504.228923	10952.476381
504.594625	11011.886379
504.960269	10759.601835
505.325856	10971.720986
505.691385	10765.931004
506.056856	10916.578325
506.422270	10953.938316
506.787625	10835.877013
507.152924	10954.845723
507.518164	10931.316138
507.883347	10852.270846
508.248472	10772.204720
508.613540	11000.458083
508.978550	10882.439631
509.343503	10858.557164
509.708398	10971.138733
510.073236	11075.044475
510.438016	11076.256873
510.802738	11019.097750
511.167403	11068.490975
511.532010	10969.966664
511.896561	11205.194465
512.261053	11262.499781
512.625488	11131.321396
512.989866	11110.080494
513.354186	11097.588515
513.718449	10995.701755
514.082655	11179.908037
514.446803	11079.279044
514.810894	11191.104440
515.174927	11053.727956
515.538904	11073.169166
515.902822	11222.863709
516.266684	11101.906263
516.630488	11037.644155
516.994235	11079.959600
517.357925	11143.543674
517.721558	11220.998482
518.085133	11227.297404
518.448651	11230.801006
518.812112	11106.168559
519.175516	11115.083840
519.538863	11217.890611
519.902152	11130.300562
520.265385	11278.346648
520.628560	11185.168481
520.991678	11149.572894
521.354739	11199.155162
521.717743	11125.219079
522.080690	11093.333781
522.443580	11215.281813
522.806413	11155.415591
523.169189	11175.391163
523.531908	11222.364635
523.894569	11031.083093
524.257174	11023.410457
524.619722	11119.590631
524.982213	11058.832124
525.344647	11090.293966
525.707025	11028.181909
526.069345	11104.310894
526.431608	10994.610345
526.793815	11092.451579
527.155964	10865.639986
527.518057	10905.361757
527.880093	10841.762560
528.242072	10884.929961
528.603995	10773.510378
528.965860	10683.193066
529.327669	10707.012518
529.689421	10645.303754
530.051117	10590.642523
530.412755	10657.664663
530.774337	10543.664010
531.135862	10491.732564
531.497331	10492.355146
531.858743	10333.621814
532.220098	10464.341454
532.581396	10318.621861
532.942638	10278.879925
533.303824	10224.788344
533.664953	10196.799858
534.026025	10100.050033
534.387040	10154.469289
534.747999	10122.692376
535.108902	10147.593155
535.469748	9903.129961
535.830537	9971.717380
536.191270	9916.385675
536.551947	9906.537781
536.912567	9871.174087
537.273131	9776.959963
537.633638	9726.296367
537.994089	9676.928347
538.354483	9597.142005
538.714821	9693.332262
539.075103	9664.816975
539.435328	9604.537378
539.795497	9416.630889
540.155609	9509.372996
540.515665	9546.417915
540.875665	9288.285632
541.235609	9297.886510
541.595496	9268.980534
541.955328	9346.929375
542.315102	9225.114933
542.674821	9135.989854
543.034483	9103.950801
543.394090	9065.050737
543.753640	8963.073236
544.113134	9092.537628
544.472571	8945.587994
544.831953	9006.482612
545.191278	8812.236872
545.550548	8805.847209
545.909761	8865.201755
546.268918	8793.093090
546.628019	8814.240730
546.987064	8664.168101
547.346053	8575.446314
547.704986	8586.877130
548.063863	8544.014720
548.422684	8497.822627
548.781449	8391.688694
549.140158	8412.375069
549.498811	8281.700800
549.857408	8141.392885
550.215949	8237.520127
550.574434	8100.746062
550.932864	8109.018595
551.291237	8116.789534
551.649555	8018.918053
552.007817	7993.495514
552.366022	7920.844925
552.724173	7867.522120
553.082267	7813.785941
553.440305	7839.891556
553.798288	7680.865838
554.156215	7713.078811
554.514086	7650.591188
554.871902	7512.602204
555.229661	7488.835685
555.587365	7424.114831
555.945014	7321.829819
556.302606	7334.475554
556.660143	7241.360401
557.017625	7261.464523
557.375050	7160.890983
557.732421	7193.628236
558.089735	7091.847340
558.446994	7048.957203
558.804197	7015.461256
559.161345	6965.387475
559.518437	6852.692481
559.875474	6830.163564
560.232455	6799.352032
560.589381	6743.097796
560.946251	6668.007289
561.303065	6698.259253
561.659825	6603.178051
562.016528	6524.805752
562.373177	6429.926196
562.729770	6419.722900
563.086307	6339.878585
563.442789	6344.506364
563.799216	6222.835596
564.155587	6208.896805
564.511904	6135.666484
564.868164	6086.444658
565.224370	6054.120779
565.580520	5959.972190
565.936615	5936.253561
566.292654	5821.973124
566.648638	5842.634293
567.004567	5777.633656
567.360441	5731.270164
567.716260	5646.959386
568.072023	5645.225229
568.427732	5573.973561
568.783385	5514.394684
569.138982	5484.112473
569.494525	5450.805569
569.850013	5366.996387
570.205445	5351.948543
570.560823	5288.359428
570.916145	5207.040575
571.271412	5193.212690
571.626625	5133.931242
571.981782	5087.444241
572.336884	5036.773083
572.691931	5012.411708
573.046923	4943.327735
573.401860	4892.923758
573.756743	4838.005428
574.111570	4812.040966
574.466342	4772.954379
574.821059	4742.667127
575.175722	4680.819731
575.530330	4639.285664
575.884882	4611.231643
576.239380	4552.250143
576.593823	4514.517107
576.948211	4481.396726
577.302544	4424.340947
577.656823	4383.676479
578.011047	4352.869988
578.365216	4314.642918
578.719330	4271.077267
579.073389	4240.159870
579.427394	4197.650341
579.781344	4162.637007
580.135239	4117.400213
580.489080	4098.415227
580.842866	4042.909603
581.196597	4020.310110
581.550273	4004.806041
581.903895	3967.231801
582.257463	3960.562355
582.610975	3904.706370
582.964434	3891.493506
583.317837	3845.278728
583.671186	3822.533042
584.024481	3795.918270
584.377721	3759.385028
584.730906	3727.575347
585.084037	3711.574725
585.437113	3681.673121
585.790135	3656.805109
586.143103	3621.365797
586.496016	3597.105245
586.848874	3580.938264
587.201679	3566.054258
587.554428	3517.964170
587.907124	3506.916482
588.259765	3486.507370
588.612352	3468.308805
588.964884	3436.728497
589.317362	3418.381217
589.669786	3401.896644
590.022155	3393.508164
590.374470	3370.477653
590.726731	3350.572657
591.078937	3315.357677
591.431090	3306.732263
591.783188	3278.554733
592.135232	3258.463214
592.487222	3247.090371
592.839157	3238.028897
593.191038	3212.649208
593.542866	3193.739840
593.894639	3166.905778
594.246358	3160.498472
594.598022	3147.860299
594.949633	3121.956330
595.301190	3107.170626
595.652692	3098.164604
596.004141	3090.920466
596.355535	3063.070612
596.706876	3045.048487
597.058162	3028.437885
597.409395	3023.961340
597.760573	3019.754498
598.111698	2998.324553
598.462768	2984.388283
598.813785	2973.471664
599.164748	2960.679736
599.515657	2952.991977
599.866511	2933.986827
600.217312	2935.852053
600.568060	2916.609969
600.918753	2916.282294
601.269392	2905.635377
601.619978	2888.729868
601.970510	2886.342882
602.320988	2879.673435
602.671412	2873.354349
603.021783	2861.694160
603.372100	2854.840711
603.722363	2844.710512
604.072572	2839.596262
604.422728	2834.108966
604.772830	2817.901656
605.122878	2811.118784
605.472872	2807.118628
605.822813	2798.180662
606.172701	2796.050775
606.522534	2791.911988
606.872314	2786.777572
607.222041	2779.233486
607.571714	2775.334153
607.921333	2770.325767
608.270899	2764.291506
608.620411	2764.694798
608.969870	2759.643562
609.319276	2751.035792
609.668627	2753.185844
610.017926	2751.739033
610.367171	2750.715678
610.716362	2741.815521
611.065500	2737.951477
611.414585	2732.985940
611.763616	2728.970661
612.112594	2725.890516
612.461518	2722.465052
612.810389	2719.526060
613.159207	2713.481716
613.507971	2708.107846
613.856682	2707.699513
614.205340	2702.212217
614.553945	2704.150540
614.902496	2697.329859
615.250994	2699.832792
615.599439	2694.050589
615.947830	2692.087059
616.296169	2687.643282
616.644454	2687.902902
616.992686	2682.773527
617.340864	2682.992818
617.688990	2680.280677
618.037063	2680.923424
618.385082	2674.818587
618.733048	2678.733043
619.080961	2673.611230
619.428821	2672.789522
619.776628	2668.980931
620.124382	2666.604027
620.472083	2667.362720
620.819731	2663.793583
621.167326	2658.916267
621.514868	2657.010711
621.862357	2652.672798
622.209793	2649.524597
622.557176	2650.850421
622.904506	2645.118629
623.251783	2640.407671
623.599007	2636.513379
623.946179	2636.720067
624.293297	2633.889459
624.640363	2633.743265
624.987376	2632.341824
625.334336	2632.566156
625.681243	2629.198665
626.028097	2628.001391
626.374899	2629.344858
626.721647	2624.296143
627.068343	2624.855711
627.414987	2624.991822
627.761577	2622.478807
628.108115	2619.718775
628.454600	2617.931686
628.801032	2618.632407
629.147412	2618.493775
629.493739	2616.903291
629.840014	2620.911008
630.186236	2616.409258
630.532405	2614.042436
630.878521	2614.894391
631.224585	2613.838269
631.570597	2609.492795
631.916556	2611.907507
632.262462	2610.886674
632.608316	2608.088833
632.954117	2610.206118
633.299866	2608.134204
633.645562	2609.391972
633.991206	2607.199070
634.336797	2603.390478
634.682336	2605.757300
635.027823	2603.708071
635.373257	2602.674634
635.718639	2601.079109
636.063968	2602.946856
636.409245	2599.002153
636.754470	2600.116248
637.099642	2598.830754
637.444762	2599.289499
637.789829	2595.793459
638.134845	2596.453850
638.479808	2595.521237
638.824719	2598.654314
639.169577	2592.370516
639.514383	2594.724734
639.859137	2591.810947
640.203839	2594.472677
640.548489	2591.831112
640.893086	2590.608632
641.237632	2586.860534
641.582125	2588.836667
641.926566	2583.964392
642.270955	2591.274065
642.615292	2588.267016
642.959576	2589.252562
643.303809	2592.196596
643.647990	2590.538056
643.992118	2588.287181
644.336195	2589.751636
644.680219	2588.564444
645.024192	2590.296081
645.368112	2586.900864
645.711981	2590.192737
646.055797	2592.103334
646.399562	2589.426482
646.743274	2589.993612
647.086935	2594.626432
647.430544	2593.887903
647.774101	2589.681060
648.117606	2591.137953
648.461059	2589.421441
648.804460	2592.922522
649.147810	2589.040833
649.491108	2587.967068
649.834354	2586.885740
650.177548	2588.350195
650.520690	2588.047726
650.863781	2587.432705
651.206820	2589.809609
651.549807	2585.000349
651.892742	2583.692169
652.235626	2584.798702
652.578458	2581.910121
652.921238	2581.804257
653.263967	2584.312231
653.606644	2581.829463
653.949269	2583.510688
654.291843	2582.807447
654.634365	2581.486664
654.976836	2581.388362
655.319255	2579.392065
655.661622	2580.581777
656.003938	2581.912642
656.346203	2579.059349
656.688416	2579.346695
657.030577	2579.359297
657.372687	2581.244689
657.714746	2578.721592
658.056753	2578.212435
658.398708	2578.144379
658.740612	2579.354256
659.082465	2573.052814
659.424266	2578.434246
659.766016	2574.003072
660.107715	2576.952147
660.449362	2579.429874
660.790958	2578.537589
661.132503	2578.751838
661.473996	2582.600759
661.815438	2581.259812
662.156829	2580.959864
662.498168	2580.188567
662.839456	2579.807960
663.180693	2580.392734
663.521879	2579.563464
663.863013	2577.879719
664.204097	2579.790316
664.545129	2578.588001
664.886110	2579.928948
665.227040	2579.190419
665.567918	2579.298804
665.908746	2579.669328
666.249522	2578.754359
666.590248	2582.686459
666.930922	2580.932137
667.271545	2578.734194
667.612118	2579.823084
667.952639	2578.855182
668.293109	2582.948599
668.633528	2579.916345
668.973896	2578.671180
669.314213	2579.744946
669.654480	2575.132290
669.994695	2581.597570
670.334859	2578.323340
670.674973	2577.882239
671.015035	2579.432394
671.355047	2579.021540
671.695008	2579.359297
672.034918	2578.083886
672.374777	2579.102199
672.714585	2577.763772
673.054342	2581.348033
673.394049	2576.989955
673.733705	2578.739236
674.073310	2579.286201
674.412864	2579.389544
674.752368	2580.334761
675.091820	2578.151941
675.431223	2575.979204
675.770574	2575.449883
676.109875	2573.350242
676.449125	2575.165057
676.788324	2572.064748
677.127473	2574.688668
677.466571	2570.965776
677.805619	2575.283525
678.144616	2574.333267
678.483562	2573.199008
678.822458	2574.015674
679.161303	2578.126735
679.500098	2574.862588
679.838842	2572.410067
680.177535	2574.751683
680.516179	2574.111456
680.854771	2573.251940
681.193314	2575.129769
681.531805	2579.266036
681.870247	2577.894842
682.208638	2579.465162
682.546978	2579.008937
682.885268	2580.922055
683.223508	2579.674370
683.561697	2578.774524
683.899836	2577.196642
684.237925	2576.954667
684.575963	2577.206725
684.913951	2573.952660
685.251889	2578.522466
685.589776	2576.425346
685.927614	2575.732187
686.265401	2576.828638
686.603137	2577.972980
686.940824	2578.772003
687.278460	2580.221335
687.616046	2575.321333
687.953582	2580.143197
688.291068	2577.980542
688.628504	2579.250913
688.965889	2579.858372
689.303224	2580.112950
689.640510	2578.051118
689.977745	2576.695048
690.314930	2578.194791
690.652065	2577.005079
690.989150	2575.134811
691.326185	2572.359655
691.663170	2569.750858
692.000105	2571.215313
692.336990	2570.335632
692.673825	2571.517783
693.010610	2570.242371
693.347345	2567.943605
693.684030	2564.031669
694.020665	2566.179201
694.357251	2565.090312
694.693786	2567.187432
695.030272	2566.945456
695.366707	2567.142061
695.703093	2565.702812
696.039429	2566.695919
696.375716	2565.833882
696.711952	2567.494942
697.048139	2565.261711
697.384276	2566.090981
697.720363	2566.771536
698.056400	2563.595609
698.392388	2566.756413
698.728326	2564.850857
699.064214	2566.552246
699.400053	2563.943449
699.735842	2564.815569
700.071581	2563.116700
700.407270	2563.688871
700.742910	2562.728531
701.078501	2563.451937
701.414042	2562.862122
701.749533	2562.443706
702.084974	2563.189797
702.420366	2561.727862
702.755709	2563.809858
703.091002	2557.858776
703.426246	2561.266596
703.761440	2562.421021
704.096584	2563.348593
704.431679	2559.890361
704.766725	2560.316339
705.101721	2560.938921
705.436668	2562.657955
705.771565	2561.541339
706.106413	2566.456464
706.441212	2561.412790
706.775961	2562.494117
707.110661	2561.823644
707.445311	2564.659293
707.779913	2560.772563
708.114465	2563.608212
708.448967	2564.281206
708.783421	2564.097204
709.117825	2565.657441
709.452180	2564.167780
709.786485	2562.942780
710.120742	2567.525189
710.454949	2565.128120
710.789107	2562.834395
711.123216	2562.380691
711.457275	2568.235992
711.791286	2565.004612
712.125247	2566.161557
712.459159	2566.254818
712.793023	2570.746486
713.126837	2566.189283
713.460602	2567.804973
713.794318	2567.116855
714.127985	2566.839592
714.461602	2564.908830
714.795171	2564.797925
715.128691	2563.555280
715.462162	2563.910682
715.795584	2561.662327
716.128957	2561.009498
716.462281	2564.770198
716.795556	2563.167111
717.128782	2562.700805
717.461960	2558.504044
717.795088	2559.592933
718.128167	2560.696946
718.461198	2556.553117
718.794180	2558.342727
719.127113	2560.883469
719.459997	2557.442881
719.792833	2558.496482
720.125619	2558.703170
720.458357	2558.362892
720.791046	2558.221739
721.123686	2556.853066
721.456278	2557.120247
721.788821	2559.698797
722.121315	2559.419013
722.453761	2556.537994
722.786158	2556.076728
723.118506	2559.000598
723.450805	2557.069836
723.783056	2558.302398
724.115259	2556.815257
724.447412	2553.654454
724.779518	2559.534960
725.111574	2557.442881
725.443582	2559.986143
725.775542	2558.390618
726.107453	2559.968499
726.439315	2557.805844
726.771129	2564.699622
727.102895	2557.626883
727.434612	2557.742830
727.766281	2559.663509
728.097901	2558.403221
728.429473	2554.458518
728.760996	2558.080587
729.092471	2554.881975
729.423897	2558.103272
729.755276	2560.001267
730.086606	2559.421534
730.417887	2560.044117
730.749120	2562.511761
731.080305	2561.891699
731.411442	2563.857749
731.742530	2562.698284
732.073570	2564.639128
732.404562	2563.419169
732.735506	2564.182904
733.066401	2563.078891
733.397249	2562.882286
733.728048	2561.201061
734.058798	2558.982954
734.389501	2558.957748
734.720156	2558.357851
735.050762	2558.022614
735.381320	2557.775597
735.711831	2555.403734
736.042293	2556.676626
736.372707	2558.100752
736.703073	2555.849877
737.033391	2553.828374
737.363661	2558.453632
737.693883	2555.229815
738.024056	2559.519837
738.354182	2557.820968
738.684260	2559.073694
739.014290	2559.146791
739.344272	2557.886503
739.674207	2558.647717
740.004093	2559.275341
740.333931	2558.499003
740.663722	2558.549414
740.993464	2557.556307
741.323159	2557.435319
741.652806	2558.398180
741.982405	2557.901626
742.311956	2554.788714
742.641460	2555.348282
742.970915	2557.372305
743.300323	2557.130330
743.629683	2554.960113
743.958996	2556.195196
744.288260	2555.940617
744.617477	2553.006666
744.946647	2552.452139
745.275768	2555.189485
745.604842	2550.125646
745.933869	2550.937272
746.262847	2546.160779
746.591778	2554.387942
746.920662	2553.568754
747.249498	2553.498178
747.578286	2554.360216
747.907027	2554.284598
748.235720	2556.273333
748.564365	2551.438867
748.892963	2554.755946
749.221514	2556.326266
749.550017	2555.552448
749.878473	2551.680842
750.206881	2552.316028
750.535242	2555.670916
750.863555	2551.746377
751.191821	2557.657130
751.520039	2553.611604
751.848210	2554.788714
752.176334	2555.282747
752.504411	2553.798127
752.832440	2549.843342
753.160421	2554.970195
753.488356	2552.406768
753.816243	2553.951882
754.144082	2553.490617
754.471875	2554.103117
754.799620	2552.232849
755.127318	2551.519525
755.454969	2552.550441
755.782572	2553.049516
756.110129	2553.755277
756.437638	2550.453321
756.765100	2551.711089
757.092515	2552.189999
757.419882	2552.903322
757.747203	2554.027499
758.074477	2553.581357
758.401703	2553.830894
758.728882	2552.847869
759.056014	2554.622356
759.383099	2552.184958
759.710138	2553.762839
760.037129	2553.772921
760.364073	2554.100596
760.690970	2554.609753
761.017820	2552.653785
761.344623	2554.239228
761.671379	2555.197047
761.998088	2553.606563
762.324751	2554.105637
762.651366	2559.025803
762.977935	2568.588872
763.304456	2573.299831
763.630931	2577.471385
763.957359	2574.454255
764.283740	2570.607854
764.610074	2566.159036
764.936362	2561.311967
765.262602	2555.885165
765.588796	2557.084959
765.914943	2555.461708
766.241044	2551.396017
766.567097	2553.790565
766.893104	2551.794268
767.219064	2550.528939
767.544978	2552.936090
767.870845	2551.358208
768.196665	2552.114382
768.522438	2549.586243
768.848165	2550.024823
769.173846	2546.584236
769.499479	2548.764535
769.825066	2548.119267
770.150607	2548.620862
770.476101	2546.652291
770.801548	2550.102961
771.126949	2545.134904
771.452303	2548.182282
771.777611	2545.515511
772.102872	2546.639688
772.428087	2545.119781
772.753256	2546.811088
773.078378	2545.659184
773.403453	2545.432332
773.728482	2542.397557
774.053465	2544.217414
774.378401	2543.458720
774.703291	2545.376879
775.028135	2546.077600
775.352932	2541.964018
775.677683	2545.023999
776.002388	2545.891077
776.327046	2546.039791
776.651658	2545.576005
776.976224	2541.270860
777.300743	2544.613145
777.625216	2542.949564
777.949643	2545.835624
778.274024	2545.694472
778.598359	2541.303627
778.922647	2539.380427
779.246889	2541.545602
779.571086	2539.766075
779.895236	2542.430325
780.219339	2542.246323
780.543397	2544.230017
780.867409	2543.486447
781.191374	2543.766231
781.515294	2544.408978
781.839167	2542.586601
782.162995	2545.817980
782.486776	2545.467620
782.810511	2541.477547
783.134201	2545.278577
783.457844	2543.310006
783.781441	2546.622044
784.104993	2544.051056
784.428498	2543.267157
784.751958	2542.868905
785.075372	2543.320089
785.398739	2543.299924
785.722061	2542.942002
786.045337	2543.113401
786.368568	2545.328988
786.691752	2543.297403
787.014891	2543.625078
787.337983	2547.431150
787.661030	2548.809905
787.984031	2549.475337
788.306987	2548.633465
788.629897	2546.168341
788.952760	2548.799823
789.275579	2548.091541
789.598351	2546.760676
789.921078	2545.908721
790.243759	2544.517363
790.566395	2543.483926
790.888984	2543.758669
791.211529	2542.821014
791.534027	2543.909904
791.856480	2542.805891
792.178888	2542.334543
792.501249	2543.299924
792.823566	2543.935109
793.145836	2544.557692
793.468062	2544.686241
793.790241	2544.146838
794.112375	2542.125335
794.434464	2545.248330
794.756507	2543.103319
795.078505	2543.733463
795.400457	2543.027702
795.722364	2541.260777
796.044226	2543.257074
796.366042	2542.085006
796.687812	2541.888401
797.009538	2546.001982
797.331218	2544.184647
797.652852	2542.843700
797.974442	2543.183977
798.295986	2544.106509
798.617484	2544.847558
798.938938	2544.048535
799.260346	2544.035933
799.581709	2541.497712
799.903026	2543.730943
800.224299	2543.090716
800.545526	2542.677342
800.866708	2543.544420
801.187845	2543.647764
801.508936	2542.810932
801.829983	2543.373021
802.150984	2542.369831
802.471940	2542.543751
802.792851	2541.893442
803.113717	2541.137269
803.434538	2538.432690
803.755314	2539.695499
804.076045	2541.646426
804.396731	2542.120294
804.717372	2538.374717
805.037967	2540.907897
805.358518	2542.281611
805.679024	2542.599204
805.999485	2541.681714
806.319901	2543.504091
806.640272	2541.853113
806.960598	2544.194729
807.280879	2542.382434
807.601115	2543.257074
807.921306	2544.592980
808.241453	2541.994265
808.561554	2544.202291
808.881611	2541.991745
809.201623	2543.083154
809.521590	2542.011909
809.841513	2543.068031
810.161390	2543.304965
810.481223	2538.546116
810.801011	2542.299255
811.120755	2541.013761
811.440453	2542.392516
811.760107	2540.101312
812.079716	2538.530992
812.399281	2538.094933
812.718801	2539.773637
813.038276	2538.294058
813.357707	2538.268852
813.677093	2543.776313
813.996434	2541.848072
814.315731	2542.281611
814.634983	2542.049718
814.954191	2541.996786
815.273354	2540.580222
815.592473	2542.861344
815.911547	2544.643392
816.230577	2545.273536
816.549562	2541.389327
816.868502	2541.843031
817.187399	2543.322609
817.506250	2545.654143
817.825058	2542.533669
818.143821	2541.918648
818.462539	2546.407795
818.781213	2544.416540
819.099843	2547.574823
819.418429	2549.515667
819.736970	2550.652447
820.055466	2553.223435
820.373919	2556.149825
820.692327	2563.819941
821.010691	2567.726835
821.329011	2585.300297
821.647286	2620.016203
821.965517	2657.870227
822.283704	2678.533917
822.601847	2687.918025
822.919945	2671.614933
823.237999	2647.271202
823.556010	2629.002060
823.873976	2607.544389
824.191897	2593.310691
824.509775	2585.466655
824.827609	2578.963567
825.145398	2574.207238
825.463144	2572.941909
825.780845	2573.183884
826.098502	2578.015830
826.416116	2585.988415
826.733685	2596.960486
827.051210	2603.440889
827.368692	2597.832606
827.686129	2586.021182
828.003522	2576.493402
828.320872	2565.168449
828.638177	2561.226267
828.955439	2552.510112
829.272656	2553.140256
829.589830	2546.052394
829.906960	2548.754453
830.224046	2547.751263
830.541088	2549.109854
830.858086	2547.968033
831.175041	2547.955430
831.491952	2545.026519
831.808819	2543.788916
832.125642	2547.403423
832.442421	2546.743032
832.759157	2551.975750
833.075849	2560.545711
833.392497	2567.767164
833.709101	2572.926785
834.025662	2575.240675
834.342179	2570.053327
834.658653	2561.208623
834.975083	2558.700649
835.291469	2560.555794
835.607811	2552.056408
835.924110	2547.468958
836.240366	2546.443083
836.556578	2539.813966
836.872746	2546.337219
837.188871	2541.956457
837.504952	2542.503422
837.820990	2539.602238
838.136984	2536.499407
838.452935	2539.622402
838.768842	2539.526620
839.084706	2541.747249
839.400526	2542.417722
839.716303	2549.961809
840.032037	2553.641851
840.347727	2553.427602
840.663373	2548.686397
840.978977	2545.344112
841.294537	2545.628937
841.610054	2541.893442
841.925527	2541.154913
842.240957	2537.958822
842.556344	2538.863709
842.871687	2538.256250
843.186987	2536.212062
843.502244	2537.694161
843.817458	2535.970086
844.132629	2537.570653
844.447756	2539.907228
844.762840	2533.598223
845.077881	2535.289531
845.392879	2532.612678
845.707833	2535.690302
846.022745	2531.017153
846.337613	2536.191897
846.652438	2534.762730
846.967221	2535.319778
847.281960	2534.072092
847.596656	2536.748945
847.911309	2533.063861
848.225919	2534.450178
848.540485	2534.019160
848.855009	2537.978986
849.169490	2536.086033
849.483928	2536.199459
849.798323	2534.727442
850.112675	2536.136444
850.426984	2535.372710
850.741251	2533.605785
851.055474	2535.289531
851.369654	2535.750796
851.683792	2534.145189
851.997887	2535.229037
852.311938	2535.292051
852.625947	2535.720549
852.939914	2535.531506
853.253837	2536.164171
853.567718	2535.342463
853.881555	2538.712474
854.195350	2536.544778
854.509103	2535.922195
854.822812	2534.513193
855.136479	2534.581248
855.450103	2535.687782
855.763685	2535.937319
856.077224	2534.240971
856.390720	2535.239119
856.704173	2535.508821
857.017584	2533.825075
857.330953	2533.845240
857.644278	2537.830272
857.957561	2538.009233
858.270802	2537.721887
858.584000	2533.875487
858.897155	2535.070240
859.210268	2537.626105
859.523339	2534.004036
859.836367	2536.249870
860.149352	2535.387833
860.462295	2534.001516
860.775195	2531.738038
861.088054	2533.565456
861.400869	2532.196783
861.713642	2531.107893
862.026373	2535.329860
862.339062	2532.829448
862.651708	2535.294572
862.964312	2536.080992
863.276873	2536.144006
863.589392	2536.033101
863.901869	2534.311547
864.214303	2536.489325
864.526696	2537.300951
864.839045	2534.737524
865.151353	2537.011085
865.463619	2536.514531
865.775842	2534.167874
866.088023	2538.094933
866.400162	2539.267001
866.712258	2534.823224
867.024313	2537.560570
867.336325	2538.742721
867.648296	2537.555529
867.960224	2537.512679
868.272110	2535.271887
868.583954	2539.113246
868.895755	2535.629808
869.207515	2538.818338
869.519233	2538.445293
869.830909	2535.196269
870.142542	2539.287166
870.454134	2536.822041
870.765684	2537.681558
871.077191	2537.507638
871.388657	2538.667104
871.700081	2537.583256
872.011463	2536.045704
872.322803	2537.132072
872.634101	2540.958308
872.945357	2538.946888
873.256571	2538.220962
873.567744	2539.113246
873.878874	2538.256250
874.189963	2538.568801
874.501010	2541.003678
874.812015	2537.704243
875.122979	2537.729449
875.433900	2541.064172
875.744780	2540.154244
876.055618	2538.203317
876.366415	2539.725746
876.677169	2537.837834
876.987882	2538.916641
877.298554	2534.339273
877.609183	2538.341949
877.919771	2536.441434
878.230317	2536.985879
878.540822	2542.901673
878.851285	2543.186498
879.161707	2546.838814
879.472087	2549.046839
879.782425	2554.319886
880.092722	2555.476831
880.402977	2570.494428
880.713191	2587.306677
881.023363	2607.199070
881.333494	2621.228601
881.643583	2626.000053
881.953631	2623.242542
882.263637	2618.143415
882.573602	2612.406582
882.883526	2600.721187
883.193408	2589.945721
883.503248	2581.048084
883.813048	2575.457444
884.122806	2568.460323
884.432522	2563.426731
884.742197	2559.328273
885.051831	2554.014897
885.361424	2553.432643
885.670975	2550.995245
885.980485	2547.625234
886.289954	2549.830739
886.599382	2545.770089
886.908768	2544.267826
887.218113	2542.412681
887.527417	2542.337064
887.836680	2542.712630
888.145901	2542.127856
888.455082	2536.373379
888.764221	2540.219779
889.073319	2540.131559
889.382376	2539.982845
889.691392	2537.805066
890.000366	2539.846734
890.309300	2539.055272
890.618193	2540.900335
890.927044	2539.632485
891.235855	2539.629964
891.544625	2538.863709
891.853353	2540.880170
892.162041	2542.775644
892.470687	2542.652136
892.779293	2545.018957
893.087858	2543.501570
893.396381	2543.874616
893.704864	2546.543907
894.013306	2551.431305
894.321707	2557.150494
894.630068	2569.513924
894.938387	2568.848492
895.246665	2563.930846
895.554903	2564.129972
895.863100	2559.933211
896.171256	2554.881975
896.479371	2552.789896
896.787446	2554.123281
897.095480	2547.325285
897.403473	2544.794626
897.711425	2543.183978
898.019336	2547.007693
898.327207	2540.660880
898.635038	2541.732125
898.942827	2539.854295
899.250576	2542.508463
899.558284	2539.713143
899.865952	2543.342774
900.173579	2540.587783
900.481165	2538.919161
900.788711	2539.324974
901.096216	2539.730787
901.403681	2537.361445
901.711105	2538.679707
902.018489	2539.556867
902.325832	2541.028884
902.633135	2537.381609
902.940397	2538.120138
903.247619	2543.980480
903.554800	2551.068342
903.861941	2559.842470
904.169041	2573.246898
904.476101	2580.470872
904.783121	2578.807291
905.090100	2571.890828
905.397039	2566.290106
905.703938	2560.931360
906.010796	2552.868034
906.317614	2548.729247
906.624391	2548.444422
906.931129	2543.942671
907.237826	2541.268339
907.544483	2541.517876
907.851099	2541.659028
908.157675	2539.027546
908.464211	2536.048224
908.770707	2532.859694
909.077163	2534.286341
909.383578	2534.205683
909.689954	2532.418593
909.996289	2530.334076
910.302584	2538.170550
910.608839	2534.036804
910.915054	2533.278110
911.221229	2536.080992
911.527363	2533.603265
911.833458	2533.320960
912.139513	2535.024870
912.445527	2535.806249
912.751502	2537.169881
913.057436	2535.465971
913.363331	2539.244316
913.669186	2539.771116
913.975000	2541.144831
914.280775	2541.311189
914.586510	2545.056766
914.892205	2546.274205
915.197859	2553.475493
915.503475	2561.221226
915.809050	2569.524006
916.114585	2574.560119
916.420081	2579.162692
916.725536	2576.251426
917.030952	2572.170612
917.336328	2565.942267
917.641665	2560.946483
917.946961	2557.500854
918.252218	2554.297201
918.557435	2552.706717
918.862612	2550.186140
919.167750	2547.300080
919.472848	2544.666077
919.777906	2541.127187
920.082925	2540.126518
920.387904	2543.735984
920.692843	2537.729449
920.997743	2539.728267
921.302603	2539.640046
921.607423	2538.430169
921.912204	2536.295241
922.216946	2538.757844
922.521647	2539.042670
922.826310	2538.052083
923.130932	2537.288348
923.435516	2535.193749
923.740059	2533.683923
924.044564	2535.370189
924.349028	2534.137627
924.653454	2530.608819
924.957840	2532.463964
925.262186	2528.736031
925.566493	2526.066740
925.870761	2529.051103
926.174989	2534.112421
926.479178	2531.828778
926.783328	2532.005219
927.087438	2530.823068
927.391509	2532.055630
927.695541	2532.700898
927.999533	2530.389529
928.303486	2533.215096
928.607400	2532.252235
928.911275	2533.078985
929.215110	2533.061341
929.518906	2531.614529
929.822663	2531.831299
930.126381	2530.792821
930.430060	2530.671834
930.733699	2532.466484
931.037299	2531.841381
931.340861	2532.095960
931.644383	2531.801052
931.947866	2532.017822
932.251309	2534.177956
932.554714	2531.995137
932.858080	2534.830786
933.161407	2535.135775
933.464694	2529.756864
933.767943	2529.446833
934.071153	2531.657379
934.374323	2529.847605
934.677455	2530.785260
934.980548	2529.756864
935.283602	2532.232071
935.586617	2531.790970
935.889593	2527.087573
936.192530	2531.760723
936.495428	2531.569159
936.798287	2530.336597
937.101108	2532.453882
937.403890	2532.252235
937.706632	2531.062523
938.009336	2531.528830
938.312002	2537.177443
938.614628	2532.630322
938.917216	2534.440096
939.219765	2532.557225
939.522275	2534.349355
939.824747	2534.193080
940.127179	2529.605630
940.429573	2531.158305
940.731929	2532.141330
941.034246	2529.630835
941.336524	2532.869777
941.638763	2534.369520
941.940964	2533.643594
942.243126	2532.058151
942.545250	2529.708973
942.847335	2532.068233
943.149381	2530.729807
943.451389	2532.143851
943.753359	2532.093439
944.055290	2530.414735
944.357182	2533.779705
944.659036	2531.559077
944.960851	2532.902544
945.262628	2531.561597
945.564367	2529.058664
945.866067	2532.809283
946.167729	2532.968079
946.469352	2529.923222
946.770937	2529.174611
947.072484	2532.479087
947.373992	2534.591331
947.675462	2531.667462
947.976893	2531.690147
948.278286	2528.597399
948.579641	2527.594209
948.880958	2530.437420
949.182236	2529.895496
949.483476	2530.011443
949.784678	2530.303829
950.085841	2531.052441
950.386967	2528.491535
950.688054	2529.668644
950.989103	2533.091587
951.290114	2531.657379
951.591087	2529.809796
951.892021	2532.453882
952.192917	2533.376413
952.493776	2532.098480
952.794596	2531.622091
953.095378	2531.019673
953.396122	2532.907585
953.696828	2530.755013
953.997496	2532.806762
954.298126	2532.542102
954.598718	2533.051258
954.899272	2530.971782
955.199788	2530.966741
955.500266	2530.742410
955.800706	2528.534384
956.101108	2528.136133
956.401472	2528.201668
956.701798	2527.364837
957.002087	2525.852491
957.302337	2528.940197
957.602550	2529.053623
957.902724	2528.330218
958.202861	2528.592358
958.502960	2526.754857
958.803022	2528.657893
959.103045	2527.064888
959.403031	2529.071267
959.702979	2530.530681
960.002889	2530.258459
960.302762	2529.464477
960.602596	2530.782739
960.902393	2530.581093
961.202153	2528.257121
961.501875	2529.101514
961.801559	2525.847449
962.101205	2528.511699
962.400814	2528.060516
962.700385	2525.837367
962.999918	2528.506658
963.299414	2529.464477
963.598873	2530.613860
963.898293	2527.425331
964.197677	2526.969106
964.497022	2526.139836
964.796331	2528.783922
965.095601	2530.185362
965.394835	2528.557070
965.694030	2524.927439
965.993189	2530.550846
966.292309	2529.003212
966.591393	2528.549508
966.890439	2529.867770
967.189447	2529.439272
967.488419	2527.674868
967.787353	2526.386853
968.086249	2527.395084
968.385108	2526.333921
968.683930	2528.942718
968.982714	2527.334590
969.281462	2528.274765
969.580172	2528.239477
969.878844	2525.847449
970.177480	2526.321318
970.476078	2529.446833
970.774639	2527.327028
971.073162	2529.003212
971.371649	2524.012469
971.670098	2524.070443
971.968510	2525.136647
972.266885	2521.312932
972.565223	2528.030269
972.863524	2528.418438
973.161788	2527.369878
973.460014	2529.008253
973.758204	2527.334590
974.056356	2527.097656
974.354471	2525.933149
974.652550	2527.536236
974.950591	2529.555218
975.248595	2526.908612
975.546563	2527.765608
975.844493	2528.763757
976.142386	2528.216792
976.440243	2524.695546
976.738062	2528.897347
977.035845	2525.166894
977.333590	2527.178314
977.631299	2522.951307
977.928971	2528.199148
978.226606	2528.501617
978.524204	2525.734023
978.821765	2526.321318
979.119290	2528.287368
979.416777	2525.048427
979.714228	2528.776360
980.011642	2524.614887
980.309020	2531.168387
980.606360	2528.617563
980.903664	2526.666637
981.200931	2527.548839
981.498162	2526.991791
981.795356	2527.480783
982.092513	2530.732328
982.389633	2529.328366
982.686717	2532.970600
982.983764	2530.790301
983.280775	2529.517409
983.577749	2529.605630
983.874686	2530.243336
984.171587	2528.887265
984.468451	2527.702594
984.765279	2525.817202
985.062070	2529.681247
985.358824	2528.589837
985.655543	2528.055475
985.952224	2527.226205
986.248869	2529.071267
986.545478	2521.214629
986.842050	2523.243693
987.138586	2524.289733
987.435086	2523.273940
987.731549	2523.233611
988.027975	2528.050434
988.324366	2524.728313
988.620719	2530.676875
988.917037	2526.099507
989.213318	2525.819723
989.509563	2527.178314
989.805772	2528.594878
990.101944	2527.687471
990.398080	2525.877696
990.694180	2524.382994
990.990244	2526.139836
991.286271	2525.975999
991.582262	2527.344672
991.878217	2527.735362
992.174136	2530.220650
992.470019	2527.765608
992.765865	2525.192099
993.061676	2525.683612
993.357450	2527.236287
993.653188	2525.887779
993.948890	2524.410721
994.244556	2526.444826
994.540186	2530.452543
994.835780	2528.085722
995.131337	2527.354754
995.426859	2525.557583
995.722345	2526.013808
996.017795	2527.725279
996.313208	2529.197296
996.608586	2528.302491
996.903928	2526.283509
997.199234	2528.146216
997.494504	2528.718387
997.789738	2526.321318
998.084936	2522.732016
998.380099	2527.949611
998.675225	2526.056657
998.970316	2526.331400
999.265371	2526.926256
999.560390	2526.263345
999.855373	2525.149250
1000.150320	2526.333921
1000.445232	2527.712676
1000.740108	2524.559435
1001.034948	2528.705784
1001.329752	2524.685463
1001.624521	2526.442306
1001.919254	2522.341327
1002.213951	2524.377953
1002.508613	2519.843435
1002.803239	2524.826616
1003.097829	2519.583816
1003.392384	2525.925587
1003.686903	2523.382325
1003.981386	2525.106400
1004.275834	2527.107738
1004.570246	2523.163035
1004.864623	2525.429034
1005.158964	2524.572038
1005.453270	2525.789476
1005.747540	2525.517254
1006.041775	2523.883920
1006.335974	2526.346524
1006.630138	2526.674199
1006.924266	2523.906605
1007.218359	2523.873838
1007.512416	2526.260824
1007.806438	2524.909795
1008.100425	2525.086235
1008.394376	2527.692512
1008.688292	2526.303674
1008.982172	2525.552542
1009.276017	2525.184538
1009.569827	2524.998015
1009.863602	2527.354754
1010.157341	2523.543642
1010.451045	2527.551359
1010.744714	2524.456091
1011.038347	2526.160001
1011.331945	2525.386184
1011.625508	2524.967768
1011.919036	2526.263345
1012.212528	2524.027593
1012.505986	2527.284178
1012.799408	2524.078004
1013.092795	2524.466173
1013.386147	2525.272758
1013.679464	2523.901564
1013.972745	2526.449867
1014.265992	2525.416431
1014.559204	2527.773170
1014.852380	2525.391225
1015.145521	2526.291071
1015.438628	2525.328211
1015.731699	2528.841895
1016.024736	2525.315608
1016.317737	2526.311236
1016.610703	2524.965248
1016.903635	2521.507016
1017.196531	2522.689167
1017.489393	2522.421985
1017.782219	2520.826460
1018.075011	2525.907943
1018.367768	2524.476256
1018.660490	2527.415248
1018.953177	2527.415248
1019.245829	2527.415248
