Dividing Wavelength (nm)	Counts (n)	Blue Motor Position (mm): 0.000000	Red Motor Position (mm): 12.600000	
326.493990	2127.296347
326.888308	2127.296347
327.282561	2127.296347
327.676750	2095.164032
328.070874	2093.674371
328.464933	2098.294589
328.858929	2103.857502
329.252859	2111.066352
329.646726	2125.693260
330.040528	2136.224230
330.434265	2154.223670
330.827938	2169.851247
331.221547	2189.206757
331.615091	2208.625282
332.008571	2227.660679
332.401986	2246.882598
332.795338	2263.757861
333.188625	2286.032199
333.581847	2305.874181
333.975006	2323.009063
334.368100	2342.901456
334.761129	2359.857377
335.154095	2377.027547
335.546996	2391.077243
335.939833	2406.271280
336.332606	2421.024217
336.725315	2436.757658
337.117960	2443.908535
337.510540	2451.082097
337.903056	2466.056844
338.295508	2471.687813
338.687896	2479.766262
339.080220	2491.131543
339.472480	2495.232522
339.864676	2498.985661
340.256807	2505.481188
340.648875	2505.113184
341.040879	2509.562002
341.432818	2508.722650
341.824694	2511.270953
342.216506	2511.643998
342.608253	2512.473268
342.999937	2511.301200
343.391557	2512.392610
343.783113	2512.513598
344.174605	2509.625016
344.566033	2507.600993
344.957397	2508.989831
345.348697	2503.590755
345.739934	2504.314161
346.131106	2500.238388
346.522215	2501.193687
346.913260	2499.401556
347.304241	2497.004488
347.695159	2493.430310
348.086012	2494.168839
348.476802	2489.818323
348.867528	2491.365957
349.258191	2491.323107
349.648789	2488.590802
350.039324	2484.497385
350.429796	2486.198774
350.820203	2484.199957
351.210548	2481.190388
351.600828	2479.990593
351.991045	2480.966057
352.381198	2478.856334
352.771288	2481.369349
353.161314	2477.497743
353.551276	2482.354895
353.941175	2480.978660
354.331010	2480.343474
354.720782	2480.494709
355.110490	2478.037146
355.500135	2480.315748
355.889717	2479.761221
356.279235	2480.217445
356.668689	2483.196767
357.058080	2482.548979
357.447408	2481.404637
357.836672	2479.146200
358.225873	2482.024699
358.615010	2477.326344
359.004084	2482.090234
359.393095	2482.289360
359.782043	2485.334217
360.170927	2482.886736
360.559748	2486.259268
360.948505	2485.949237
361.337199	2485.054433
361.725830	2487.648106
362.114398	2487.930411
362.502903	2490.372850
362.891344	2489.904023
363.279722	2489.654485
363.668037	2490.907212
364.056289	2490.463591
364.444478	2489.672129
364.832603	2491.623056
365.220665	2493.941987
365.608665	2493.319404
365.996601	2495.514827
366.384474	2497.107831
366.772284	2497.811072
367.160031	2496.651607
367.547715	2498.597492
367.935336	2503.363903
368.322893	2501.917092
368.710388	2506.628050
369.097820	2513.577281
369.485189	2518.086593
369.872495	2523.717562
370.259738	2529.829961
370.646918	2535.130734
371.034035	2542.420243
371.421090	2556.537994
371.808081	2563.073850
372.195010	2573.932495
372.581875	2586.399269
372.968678	2598.808069
373.355418	2608.222424
373.742096	2623.255145
374.128710	2642.096457
374.515262	2656.007521
374.901751	2670.702485
375.288177	2683.849814
375.674540	2707.802856
376.060841	2727.140722
376.447079	2743.020357
376.833254	2766.607916
377.219367	2776.954884
377.605417	2811.411171
377.991404	2822.670588
378.377329	2844.975173
378.763191	2864.156763
379.148991	2899.192783
379.534727	2925.537853
379.920402	2952.961730
380.306013	2962.958338
380.691563	3013.596728
381.077049	3036.501211
381.462474	3052.895043
381.847835	3089.612287
382.233134	3115.987604
382.618371	3113.930813
383.003545	3178.608817
383.388657	3190.248841
383.773706	3220.296639
384.158693	3233.932960
384.543618	3262.511261
384.928480	3294.416724
385.313280	3340.263497
385.698017	3339.706450
386.082692	3388.328379
386.467305	3391.708472
386.851856	3420.599325
387.236344	3435.858898
387.620770	3464.227991
388.005133	3482.207266
388.389435	3504.746265
388.773674	3507.433200
389.157851	3535.214999
389.541965	3541.035011
389.926018	3495.084894
390.310008	3551.084551
390.693936	3552.216290
391.077802	3571.670103
391.461606	3545.519117
391.845348	3583.368100
392.229027	3564.632652
392.612645	3557.272567
392.996200	3600.621449
393.379694	3610.045887
393.763125	3633.802324
394.146494	3585.777772
394.529801	3608.765433
394.913047	3609.768623
395.296230	3560.871951
395.679351	3569.386460
396.062410	3554.504974
396.445408	3508.859847
396.828343	3496.806448
397.211217	3479.381699
397.594028	3398.715676
397.976778	3400.396901
398.359466	3381.295969
398.742092	3361.174203
399.124656	3288.314407
399.507158	3293.844553
399.889598	3269.828496
400.271977	3263.897578
400.654294	3212.379507
401.036549	3178.520597
401.418742	3135.726242
401.800874	3137.218423
402.182944	3109.318157
402.564952	3095.245776
402.946898	3060.484500
403.328783	3023.797503
403.710606	2968.274234
404.092367	2983.750577
404.474067	2945.231120
404.855705	2919.440577
405.237282	2881.067314
405.618797	2872.499873
406.000250	2850.964064
406.381642	2837.153823
406.762972	2807.398412
407.144240	2784.193981
407.525447	2765.392998
407.906593	2748.540421
408.287677	2731.781105
408.668700	2705.241950
409.049661	2693.060002
409.430560	2680.963753
409.811399	2662.893737
410.192176	2655.868889
410.572891	2638.013122
410.953545	2628.618932
411.334138	2614.591922
411.714669	2605.386775
412.095139	2590.996801
412.475547	2587.772983
412.855894	2581.499267
413.236180	2572.223544
413.616405	2565.065106
413.996568	2560.530588
414.376670	2554.864331
414.756711	2549.775286
415.136691	2545.949050
415.516609	2541.608617
415.896466	2542.768082
416.276262	2538.596527
416.655997	2532.716022
417.035670	2531.662420
417.415283	2530.263500
417.794834	2530.238294
418.174324	2532.385826
418.553753	2530.918850
418.933121	2532.282482
419.312428	2529.151926
419.691674	2531.491021
420.070859	2528.773839
420.449983	2527.357275
420.829045	2528.385670
421.208047	2527.843746
421.586988	2526.722090
421.965867	2527.032121
422.344686	2528.610002
422.723444	2526.911133
423.102141	2528.562111
423.480777	2527.576565
423.859352	2527.621936
424.237866	2525.885258
424.616319	2526.326359
424.994712	2525.749147
425.373044	2527.644621
425.751314	2528.158818
426.129524	2527.848788
426.507673	2529.582944
426.885762	2529.656041
427.263789	2528.191586
427.641756	2529.068747
428.019662	2527.667306
428.397508	2527.644621
428.775292	2528.864580
429.153016	2526.354085
429.530679	2530.500434
429.908282	2528.199148
430.285824	2526.941380
430.663305	2530.205527
431.040726	2527.909281
431.418086	2525.484486
431.795385	2527.730320
432.172624	2528.763757
432.549802	2528.123530
432.926920	2530.578572
433.303977	2528.998171
433.680974	2530.220650
434.057910	2527.536236
434.434786	2529.870290
434.811601	2529.164529
435.188355	2527.790814
435.565050	2528.698222
435.941683	2531.153264
436.318257	2527.884076
436.694770	2525.423993
437.071222	2527.183355
437.447614	2523.246214
437.823946	2526.875845
438.200218	2530.069416
438.576429	2530.550846
438.952580	2530.565969
439.328670	2531.110414
439.704700	2527.921884
440.080670	2529.449354
440.456580	2528.534384
440.832429	2533.338604
441.208218	2531.949766
441.583947	2528.186545
441.959616	2531.783408
442.335224	2530.772657
442.710773	2530.749972
443.086261	2529.966072
443.461689	2528.489014
443.837057	2533.333563
444.212365	2532.572349
444.587612	2532.713501
444.962800	2534.004036
445.337927	2530.349200
445.712995	2529.000691
446.088002	2534.092257
446.462949	2529.890455
446.837837	2533.542771
447.212664	2530.195445
447.587431	2534.503111
447.962139	2532.889941
448.336786	2540.244985
448.711374	2533.724252
449.085901	2536.690971
449.460369	2531.904396
449.834776	2534.041845
450.209124	2534.377082
450.583412	2535.027391
450.957640	2537.588297
451.331808	2536.328008
451.705917	2533.310878
452.079965	2534.629139
452.453954	2532.151412
452.827883	2536.144006
453.201752	2532.363141
453.575562	2536.023018
453.949311	2534.800539
454.323001	2538.314223
454.696632	2535.599562
455.070202	2539.405633
455.443713	2535.675179
455.817164	2532.116124
456.190556	2531.251566
456.563888	2535.264325
456.937160	2531.659900
457.310373	2534.278779
457.683526	2536.423790
458.056619	2537.298430
458.429653	2535.478574
458.802628	2534.356917
459.175542	2539.095602
459.548398	2538.281455
459.921194	2537.936136
460.293930	2537.278266
460.666607	2539.206507
461.039224	2540.434028
461.411782	2540.446631
461.784280	2542.122815
462.156719	2537.285827
462.529099	2540.638195
462.901419	2538.951929
463.273680	2540.592824
463.645882	2541.222969
464.018024	2538.730118
464.390106	2541.742208
464.762130	2542.841179
465.134094	2542.357228
465.505999	2544.403937
465.877845	2549.135060
466.249631	2549.964329
466.621358	2549.165307
466.993026	2550.869217
467.364634	2548.961140
467.736184	2543.821683
468.107674	2543.685572
468.479105	2546.012065
468.850477	2545.724719
469.221790	2545.306303
469.593043	2542.271529
469.964238	2544.141797
470.335373	2542.175747
470.706449	2546.009544
471.077467	2545.258412
471.448425	2548.615821
471.819324	2546.312013
472.190164	2550.516336
472.560945	2547.930224
472.931667	2543.962836
473.302330	2546.501057
473.672934	2544.124153
474.043479	2547.842004
474.413965	2544.784544
474.784393	2540.708771
475.154761	2543.030222
475.525070	2542.092568
475.895321	2543.741025
476.265513	2539.400592
476.635645	2549.366953
477.005719	2544.686241
477.375734	2545.754966
477.745691	2549.377035
478.115588	2548.953578
478.485427	2546.543907
478.855207	2549.203115
479.224928	2548.794782
479.594591	2553.911553
479.964194	2548.711603
480.333739	2549.306459
480.703226	2550.546583
481.072653	2550.677653
481.442022	2551.648075
481.811333	2552.069011
482.180584	2550.922149
482.549777	2551.481717
482.918912	2550.962478
483.287988	2550.755791
483.657005	2548.152035
484.025964	2549.843342
484.394864	2547.113557
484.763706	2552.013558
485.132489	2548.482230
485.501213	2548.809905
485.869879	2550.148332
486.238487	2547.836962
486.607036	2551.073383
486.975527	2551.199412
487.343959	2548.431819
487.712333	2548.381407
488.080648	2547.932744
488.448905	2548.769576
488.817104	2550.034906
489.185244	2551.257385
489.553326	2550.539021
489.921350	2554.549259
490.289315	2551.108671
490.657222	2556.051523
491.025070	2553.770401
491.392861	2553.999773
491.760593	2550.755791
492.128267	2554.085473
492.495883	2551.063301
492.863440	2552.386604
493.230939	2551.534649
493.598380	2551.143959
493.965763	2545.379400
494.333088	2547.809236
494.700354	2542.667259
495.067563	2546.990049
495.434713	2545.918803
495.801805	2552.285781
496.168839	2549.296377
496.535815	2548.333516
496.902733	2549.513146
497.269593	2549.571119
497.636395	2548.837632
498.003139	2549.041798
498.369825	2551.254865
498.736453	2550.206305
499.103023	2548.935934
499.469535	2549.389638
499.835989	2550.740667
500.202385	2548.522559
500.568723	2551.285112
500.935003	2550.191181
501.301226	2547.874771
501.667390	2549.382076
502.033497	2552.431974
502.399546	2550.828887
502.765537	2551.138918
503.131470	2549.152704
503.497345	2551.761501
503.863163	2549.009031
504.228923	2551.980791
504.594625	2550.163455
504.960269	2550.097920
505.325856	2551.038095
505.691385	2549.503064
506.056856	2553.730071
506.422270	2550.102961
506.787625	2550.372663
507.152924	2549.024154
507.518164	2551.343085
507.883347	2547.360573
508.248472	2552.447098
508.613540	2550.844011
508.978550	2550.612118
509.343503	2550.176058
509.708398	2551.285112
510.073236	2552.439536
510.438016	2552.482386
510.802738	2551.794268
511.167403	2553.195709
511.532010	2549.629093
511.896561	2554.788714
512.261053	2552.704197
512.625488	2549.613969
512.989866	2546.942158
513.354186	2549.613969
513.718449	2545.359235
514.082655	2551.481717
514.446803	2552.247972
514.810894	2550.438198
515.174927	2553.684701
515.538904	2551.327962
515.902822	2552.308466
516.266684	2553.036913
516.630488	2553.243600
516.994235	2551.857283
517.357925	2552.605894
517.721558	2552.525236
518.085133	2553.079763
518.448651	2552.424412
518.812112	2553.722510
519.175516	2551.181768
519.538863	2554.176213
519.902152	2551.942982
520.265385	2553.044474
520.628560	2551.660678
520.991678	2553.719989
521.354739	2550.728064
521.717743	2549.750080
522.080690	2550.780996
522.443580	2553.205791
522.806413	2553.593960
523.169189	2550.924669
523.531908	2551.451470
523.894569	2554.337530
524.257174	2552.943651
524.619722	2551.464073
524.982213	2553.861141
525.344647	2552.963816
525.707025	2551.794268
526.069345	2552.046326
526.431608	2551.438867
526.793815	2553.750236
527.155964	2552.328631
527.518057	2554.924825
527.880093	2552.789896
528.242072	2553.961964
528.603995	2553.697304
528.965860	2550.034906
529.327669	2554.042623
529.689421	2551.544731
530.051117	2554.443395
530.412755	2552.736964
530.774337	2555.706204
531.135862	2554.335010
531.497331	2553.571275
531.858743	2547.418547
532.220098	2549.349309
532.581396	2550.488609
532.942638	2551.481717
533.303824	2551.212015
533.664953	2554.430792
534.026025	2552.442057
534.387040	2552.308466
534.747999	2552.280740
535.108902	2551.816953
535.469748	2552.978939
535.830537	2554.708055
536.191270	2551.680842
536.551947	2553.205791
536.912567	2552.999104
537.273131	2551.030533
537.633638	2552.558003
537.994089	2552.827705
538.354483	2554.382901
538.714821	2553.926676
539.075103	2553.110009
539.435328	2553.195709
539.795497	2553.102448
540.155609	2556.590926
540.515665	2553.644372
540.875665	2552.527756
541.235609	2552.157231
541.595496	2554.665205
541.955328	2552.076573
542.315102	2553.644372
542.674821	2553.563713
543.034483	2554.302242
543.394090	2554.529094
543.753640	2554.370298
544.113134	2552.331151
544.472571	2555.512119
544.831953	2554.196378
545.191278	2554.468600
545.550548	2553.719989
545.909761	2554.458518
546.268918	2552.865513
546.628019	2552.505071
546.987064	2552.290822
547.346053	2556.316183
547.704986	2552.000956
548.063863	2554.455998
548.422684	2554.665205
548.781449	2550.707900
549.140158	2551.320400
549.498811	2553.125133
549.857408	2551.189330
550.215949	2551.075904
550.574434	2548.578012
550.932864	2553.034392
551.291237	2548.835111
551.649555	2552.704197
552.007817	2552.618497
552.366022	2553.213353
552.724173	2552.474824
553.082267	2557.815927
553.440305	2551.451470
553.798288	2551.690925
554.156215	2551.776624
554.514086	2549.835780
554.871902	2554.730740
555.229661	2553.104968
555.587365	2553.006666
555.945014	2550.755791
556.302606	2551.577499
556.660143	2553.074721
557.017625	2551.816953
557.375050	2551.854762
557.732421	2553.750236
558.089735	2553.175544
558.446994	2553.036913
558.804197	2554.519012
559.161345	2553.377191
559.518437	2553.861141
559.875474	2551.980791
560.232455	2552.263096
560.589381	2555.015566
560.946251	2556.414486
561.303065	2553.296532
561.659825	2553.170503
562.016528	2553.011707
562.373177	2553.568754
562.729770	2554.503888
563.086307	2555.474311
563.442789	2552.366439
563.799216	2554.178734
564.155587	2549.437529
564.511904	2553.372149
564.868164	2553.599001
565.224370	2553.193188
565.580520	2553.082283
565.936615	2555.040771
566.292654	2552.933569
566.648638	2555.449105
567.004567	2553.283929
567.360441	2553.316697
567.716260	2550.332334
568.072023	2552.694114
568.427732	2546.881664
568.783385	2550.438198
569.138982	2545.112219
569.494525	2549.508105
569.850013	2547.375697
570.205445	2553.707386
570.560823	2552.973898
570.916145	2553.478014
571.271412	2552.631100
571.626625	2552.772252
571.981782	2552.137067
572.336884	2552.590771
572.691931	2553.546069
573.046923	2550.677653
573.401860	2548.946016
573.756743	2554.629917
574.111570	2553.170503
574.466342	2552.283260
574.821059	2552.580688
575.175722	2553.656975
575.530330	2551.141439
575.884882	2555.315514
576.239380	2550.987684
576.593823	2552.421892
576.948211	2550.854093
577.302544	2554.529094
577.656823	2552.626059
578.011047	2552.643703
578.365216	2551.950544
578.719330	2551.128836
579.073389	2553.805689
579.427394	2553.319217
579.781344	2554.181255
580.135239	2551.590102
580.489080	2551.194371
580.842866	2550.932231
581.196597	2551.096068
581.550273	2553.823333
581.903895	2548.517518
582.257463	2551.085986
582.610975	2550.604556
582.964434	2552.177396
583.317837	2549.697148
583.671186	2552.948692
584.024481	2551.658157
584.377721	2554.014897
584.730906	2552.936090
585.084037	2551.905174
585.437113	2550.463404
585.790135	2551.776624
586.143103	2549.742519
586.496016	2554.095555
586.848874	2545.507949
587.201679	2549.843342
587.554428	2549.470296
587.907124	2551.229659
588.259765	2546.823691
588.612352	2549.530790
588.964884	2550.723023
589.317362	2549.162786
589.669786	2549.674463
590.022155	2551.312838
590.374470	2551.879968
590.726731	2549.866027
591.078937	2546.838814
591.431090	2551.907694
591.783188	2547.567261
592.135232	2552.016079
592.487222	2551.154042
592.839157	2551.368291
593.191038	2548.981304
593.542866	2552.870555
593.894639	2551.247303
594.246358	2549.223280
594.598022	2551.184289
594.949633	2549.961809
595.301190	2551.169165
595.652692	2551.801830
596.004141	2550.082797
596.355535	2552.431974
596.706876	2551.259906
597.058162	2548.726726
597.409395	2548.976263
597.760573	2550.874258
598.111698	2549.503064
598.462768	2548.242775
598.813785	2549.984494
599.164748	2548.754452
599.515657	2550.980122
599.866511	2549.261088
600.217312	2549.051881
600.568060	2552.149670
600.918753	2552.729402
601.269392	2547.741181
601.619978	2548.257899
601.970510	2547.839483
602.320988	2551.431305
602.671412	2551.025492
603.021783	2548.706562
603.372100	2547.347971
603.722363	2550.924669
604.072572	2550.312169
604.422728	2547.579864
604.772830	2544.724050
605.122878	2544.908052
605.472872	2546.415357
605.822813	2543.730943
606.172701	2548.174720
606.522534	2549.520708
606.872314	2550.881819
607.222041	2547.446273
607.571714	2549.374514
607.921333	2550.390307
608.270899	2548.288146
608.620411	2548.998948
608.969870	2548.101623
609.319276	2554.534135
609.668627	2553.732592
610.017926	2555.456667
610.367171	2555.693601
610.716362	2555.794424
611.065500	2554.650082
611.414585	2553.712427
611.763616	2551.068342
612.112594	2551.106151
612.461518	2551.428785
612.810389	2550.334854
613.159207	2548.620862
613.507971	2550.833928
613.856682	2551.695966
614.205340	2550.985163
614.553945	2549.868547
614.902496	2549.853424
615.250994	2551.827036
615.599439	2553.019269
615.947830	2550.561706
616.296169	2550.987684
616.644454	2549.855945
616.992686	2548.318393
617.340864	2549.240924
617.688990	2548.872920
618.037063	2549.775286
618.385082	2549.034237
618.733048	2548.020965
619.080961	2546.231355
619.428821	2550.997766
619.776628	2552.129505
620.124382	2549.765204
620.472083	2550.216387
620.819731	2550.254196
621.167326	2551.222097
621.514868	2547.733619
621.862357	2549.331665
622.209793	2548.593136
622.557176	2548.255378
622.904506	2547.300080
623.251783	2547.189174
623.599007	2545.346632
623.946179	2545.170192
624.293297	2546.894267
624.640363	2546.140614
624.987376	2547.040460
625.334336	2548.550286
625.681243	2548.182282
626.028097	2546.604400
626.374899	2546.276725
626.721647	2550.299566
627.068343	2548.336037
627.414987	2547.647919
627.761577	2549.619010
628.108115	2545.999462
628.454600	2547.058104
628.801032	2549.175389
629.147412	2548.598177
629.493739	2545.944009
629.840014	2549.087169
630.186236	2548.719164
630.532405	2548.449463
630.878521	2545.245809
631.224585	2548.252858
631.570597	2545.951571
631.916556	2546.178423
632.262462	2548.033567
632.608316	2545.051725
632.954117	2543.935109
633.299866	2544.214893
633.645562	2544.676159
633.991206	2547.884853
634.336797	2544.285470
634.682336	2546.637168
635.027823	2548.439380
635.373257	2546.533824
635.718639	2543.350336
636.063968	2545.137425
636.409245	2546.493495
636.754470	2546.818649
637.099642	2546.291849
637.444762	2545.074410
637.789829	2545.661705
638.134845	2545.192877
638.479808	2543.085675
638.824719	2545.482744
639.169577	2544.640871
639.514383	2546.044832
639.859137	2544.565254
640.203839	2543.567105
640.548489	2545.424770
640.893086	2542.821014
641.237632	2541.580891
641.582125	2539.277083
641.926566	2540.434028
642.270955	2543.252033
642.615292	2544.482075
642.959576	2546.019627
643.303809	2542.097609
643.647990	2544.804708
643.992118	2545.802857
644.336195	2544.845038
644.680219	2544.945861
645.024192	2545.003834
645.368112	2542.306817
645.711981	2543.635161
646.055797	2543.098278
646.399562	2543.607434
646.743274	2547.287477
647.086935	2546.448125
647.430544	2543.509132
647.774101	2545.933927
648.117606	2544.693803
648.461059	2545.742363
648.804460	2546.745553
649.147810	2543.506611
649.491108	2543.602393
649.834354	2545.230686
650.177548	2544.025850
650.520690	2543.614996
650.863781	2543.176416
651.206820	2542.561395
651.549807	2543.025181
651.892742	2542.773123
652.235626	2544.971067
652.578458	2543.335212
652.921238	2541.671631
653.263967	2544.960984
653.606644	2543.282280
653.949269	2543.932589
654.291843	2541.616179
654.634365	2543.965356
654.976836	2543.763710
655.319255	2543.012578
655.661622	2542.425284
656.003938	2545.228165
656.346203	2543.277239
656.688416	2544.635830
657.030577	2542.054759
657.372687	2541.969059
657.714746	2542.566436
658.056753	2543.325130
658.398708	2539.478729
658.740612	2541.273380
659.082465	2536.577545
659.424266	2542.198432
659.766016	2535.402957
660.107715	2544.202291
660.449362	2541.727084
660.790958	2543.998124
661.132503	2543.173895
661.473996	2543.667928
661.815438	2543.970398
662.156829	2542.599204
662.498168	2541.177598
662.839456	2542.339584
663.180693	2542.054759
663.521879	2541.454862
663.863013	2543.138607
664.204097	2541.485109
664.545129	2542.316899
664.886110	2542.498381
665.227040	2542.483257
665.567918	2544.320758
665.908746	2541.870757
666.249522	2540.925541
666.590248	2544.303114
666.930922	2544.197249
667.271545	2541.938813
667.612118	2543.501570
667.952639	2542.306817
668.293109	2541.709440
668.633528	2543.221786
668.973896	2540.676003
669.314213	2545.150027
669.654480	2544.577857
669.994695	2542.521066
670.334859	2543.693134
670.674973	2542.934440
671.015035	2544.744215
671.355047	2540.285314
671.695008	2546.271684
672.034918	2541.447300
672.374777	2541.835469
672.714585	2541.588452
673.054342	2541.792619
673.394049	2541.616179
673.733705	2542.374872
674.073310	2542.871426
674.412864	2541.480068
674.752368	2543.025181
675.091820	2542.455531
675.431223	2542.475695
675.770574	2543.980480
676.109875	2538.142824
676.449125	2540.779347
676.788324	2538.369676
677.127473	2539.476209
677.466571	2536.880015
677.805619	2543.181457
678.144616	2541.089378
678.483562	2541.744728
678.822458	2543.206663
679.161303	2542.349667
679.500098	2542.339584
679.838842	2540.265149
680.177535	2543.115922
680.516179	2544.328319
680.854771	2543.249512
681.193314	2542.662218
681.531805	2542.384955
681.870247	2545.354194
682.208638	2543.816642
682.546978	2543.854451
682.885268	2539.962680
683.223508	2544.686241
683.561697	2542.407640
683.899836	2542.684903
684.237925	2540.353370
684.575963	2541.858154
684.913951	2543.078113
685.251889	2543.980480
685.589776	2541.391847
685.927614	2544.774462
686.265401	2541.906045
686.603137	2541.311189
686.940824	2542.863864
687.278460	2542.120294
687.616046	2542.752959
687.953582	2542.553833
688.291068	2544.114070
688.628504	2546.085162
688.965889	2544.469472
689.303224	2539.604758
689.640510	2542.198432
689.977745	2540.733977
690.314930	2542.422763
690.652065	2544.197249
690.989150	2541.361600
691.326185	2540.297917
691.663170	2539.680376
692.000105	2542.127856
692.336990	2539.763555
692.673825	2544.056097
693.010610	2540.421425
693.347345	2535.788605
693.684030	2538.566281
694.020665	2537.888245
694.357251	2539.703061
694.693786	2537.558050
695.030272	2542.213555
695.366707	2540.134079
695.703093	2539.987886
696.039429	2538.916641
696.375716	2540.968390
696.711952	2540.139121
697.048139	2537.842875
697.384276	2539.939995
697.720363	2539.924872
698.056400	2539.887063
698.392388	2538.309182
698.728326	2539.408153
699.064214	2539.824048
699.400053	2540.010571
699.735842	2539.229192
700.071581	2538.412525
700.407270	2538.480581
700.742910	2539.372865
701.078501	2537.978986
701.414042	2538.969573
701.749533	2540.991076
702.084974	2540.807073
702.420366	2540.565098
702.755709	2538.888914
703.091002	2539.259439
703.426246	2541.180119
703.761440	2536.338091
704.096584	2538.765406
704.431679	2540.706250
704.766725	2539.002340
705.101721	2538.142824
705.436668	2540.335726
705.771565	2543.436035
706.106413	2536.590148
706.441212	2539.176260
706.775961	2538.213400
707.110661	2539.004861
707.445311	2539.133410
707.779913	2541.091899
708.114465	2539.498894
708.448967	2538.896476
708.783421	2538.684748
709.117825	2538.528472
709.452180	2538.583925
709.786485	2540.678524
710.120742	2540.751621
710.454949	2539.854295
710.789107	2536.527134
711.123216	2533.361289
711.457275	2539.703061
711.791286	2536.799356
712.125247	2536.297761
712.459159	2536.302802
712.793023	2540.184491
713.126837	2541.510314
713.460602	2538.745242
713.794318	2538.664583
714.127985	2538.982176
714.461602	2539.934954
714.795171	2540.834800
715.128691	2539.430838
715.462162	2539.783719
715.795584	2536.627957
716.128957	2539.882022
716.462281	2538.556198
716.795556	2535.861702
717.128782	2538.712474
717.461960	2536.234747
717.795088	2538.190715
718.128167	2540.350849
718.461198	2539.385468
718.794180	2537.172402
719.127113	2536.088553
719.459997	2537.366486
719.792833	2536.701054
720.125619	2537.900848
720.458357	2539.506456
720.791046	2538.657021
721.123686	2538.415046
721.456278	2537.185004
721.788821	2536.325488
722.121315	2537.250539
722.453761	2538.281455
722.786158	2537.505118
723.118506	2536.968235
723.450805	2537.850437
723.783056	2538.248688
724.115259	2536.900179
724.447412	2539.723225
724.779518	2536.731301
725.111574	2536.703574
725.443582	2536.764068
725.775542	2536.506969
726.107453	2537.938657
726.439315	2540.255067
726.771129	2541.071734
727.102895	2539.816487
727.434612	2538.137783
727.766281	2537.245498
728.097901	2537.827752
728.429473	2535.292051
728.760996	2533.827596
729.092471	2531.831299
729.423897	2537.565612
729.755276	2535.707946
730.086606	2539.143493
730.417887	2537.484953
730.749120	2539.100643
731.080305	2538.268852
731.411442	2540.562577
731.742530	2537.371527
732.073570	2538.175591
732.404562	2540.948226
732.735506	2539.229192
733.066401	2537.477391
733.397249	2539.203987
733.728048	2537.003523
734.058798	2540.950746
734.389501	2535.153419
734.720156	2534.833306
735.050762	2538.977135
735.381320	2539.599717
735.711831	2534.724921
736.042293	2537.011085
736.372707	2538.651980
736.703073	2536.244829
737.033391	2537.726928
737.363661	2535.849099
737.693883	2537.847916
738.024056	2538.785571
738.354182	2537.714326
738.684260	2538.914120
739.014290	2540.086188
739.344272	2535.778522
739.674207	2540.466796
740.004093	2537.875642
740.333931	2536.958153
740.663722	2538.720036
740.993464	2536.176774
741.323159	2538.962011
741.652806	2536.070909
741.982405	2537.880684
742.311956	2537.154757
742.641460	2538.553678
742.970915	2535.274407
743.300323	2534.571166
743.629683	2537.394212
743.958996	2536.423790
744.288260	2534.944212
744.617477	2536.380940
744.946647	2532.544622
745.275768	2536.990920
745.604842	2532.882380
745.933869	2532.093439
746.262847	2534.117462
746.591778	2538.120138
746.920662	2534.939170
747.249498	2537.623585
747.578286	2536.627957
747.907027	2535.042514
748.235720	2534.979500
748.564365	2537.205169
748.892963	2536.262473
749.221514	2537.348842
749.550017	2537.568132
749.878473	2535.178625
750.206881	2537.560570
750.535242	2536.781712
750.863555	2538.422608
751.191821	2536.547298
751.520039	2536.159130
751.848210	2539.496373
752.176334	2535.960004
752.504411	2537.369007
752.832440	2534.903882
753.160421	2537.563091
753.488356	2534.898841
753.816243	2536.355735
754.144082	2535.642411
754.471875	2537.230375
754.799620	2533.830117
755.127318	2533.878008
755.454969	2536.569984
755.782572	2537.880684
756.110129	2536.290200
756.437638	2536.073430
756.765100	2534.626619
757.092515	2537.626105
757.419882	2537.837834
757.747203	2534.041845
758.074477	2536.227185
758.401703	2536.890097
758.728882	2538.253729
759.056014	2534.964376
759.383099	2534.402287
759.710138	2535.907072
760.037129	2537.585776
760.364073	2538.024357
760.690970	2535.352545
761.017820	2535.160981
761.344623	2537.792463
761.671379	2536.212062
761.998088	2529.282996
762.324751	2534.424973
762.651366	2534.440096
762.977935	2538.828421
763.304456	2535.002185
763.630931	2538.102494
763.957359	2537.447144
764.283740	2541.618699
764.610074	2538.336908
764.936362	2539.098122
765.262602	2535.218954
765.588796	2537.500077
765.914943	2535.823893
766.241044	2537.396733
766.567097	2534.311547
766.893104	2534.583769
767.219064	2537.868081
767.544978	2535.768440
767.870845	2535.886907
768.196665	2535.695343
768.522438	2535.770961
768.848165	2536.529654
769.173846	2534.006557
769.499479	2535.367668
769.825066	2534.931609
770.150607	2535.188708
770.476101	2533.338604
770.801548	2537.845396
771.126949	2534.853471
771.452303	2534.089736
771.777611	2536.459078
772.102872	2536.358255
772.428087	2532.506814
772.753256	2536.199459
773.078378	2531.836340
773.403453	2533.124355
773.728482	2531.140661
774.053465	2537.610982
774.378401	2533.605785
774.703291	2531.808614
775.028135	2534.729963
775.352932	2534.177956
775.677683	2537.033770
776.002388	2536.075951
776.327046	2534.913965
776.651658	2533.668800
776.976224	2537.162319
777.300743	2536.363296
777.625216	2534.351876
777.949643	2533.154602
778.274024	2536.549819
778.598359	2527.649662
778.922647	2530.114786
779.246889	2530.954138
779.571086	2529.277955
779.895236	2536.363296
780.219339	2533.941022
780.543397	2536.141486
780.867409	2536.978317
781.191374	2534.301464
781.515294	2530.268541
781.839167	2534.160312
782.162995	2532.910106
782.486776	2532.874818
782.810511	2531.231402
783.134201	2534.102339
783.457844	2534.636701
783.781441	2533.963707
784.104993	2532.743748
784.428498	2533.106711
784.751958	2533.696526
785.075372	2532.831968
785.398739	2531.864067
785.722061	2533.434386
786.045337	2535.599562
786.368568	2532.816845
786.691752	2535.281969
787.014891	2532.728624
787.337983	2532.254756
787.661030	2533.167205
787.984031	2532.872297
788.306987	2537.205169
788.629897	2534.036804
788.952760	2535.458409
789.275579	2531.934643
789.598351	2536.365817
789.921078	2532.529499
790.243759	2536.030580
790.566395	2532.905065
790.888984	2532.605116
791.211529	2531.201155
791.534027	2530.762574
791.856480	2532.655528
792.178888	2532.738707
792.501249	2532.521937
792.823566	2535.745755
793.145836	2534.147709
793.468062	2532.247194
793.790241	2533.147040
794.112375	2534.518234
794.434464	2529.845084
794.756507	2534.009078
795.078505	2533.827596
795.400457	2531.173428
795.722364	2527.526154
796.044226	2530.583613
796.366042	2529.310722
796.687812	2531.692667
797.009538	2532.741227
797.331218	2533.726773
797.652852	2534.281300
797.974442	2534.011598
798.295986	2533.885569
798.617484	2531.158305
798.938938	2534.551002
799.260346	2535.523944
799.581709	2534.979500
799.903026	2535.498738
800.224299	2534.044366
800.545526	2531.307019
800.866708	2534.498069
801.187845	2532.733666
801.508936	2531.180990
801.829983	2535.876825
802.150984	2535.186187
802.471940	2531.453212
802.792851	2533.643594
803.113717	2532.511855
803.434538	2531.170908
803.755314	2533.903213
804.076045	2532.600075
804.396731	2529.741741
804.717372	2531.201155
805.037967	2532.348017
805.358518	2532.491690
805.679024	2532.839530
805.999485	2532.171577
806.319901	2535.055117
806.640272	2529.867770
806.960598	2534.611495
807.280879	2533.429345
807.601115	2534.845909
807.921306	2531.755682
808.241453	2530.447502
808.561554	2536.748945
808.881611	2531.871628
809.201623	2534.170394
809.521590	2534.853471
809.841513	2533.320960
810.161390	2532.421114
810.481223	2529.091432
810.801011	2534.528316
811.120755	2533.076464
811.440453	2535.899510
811.760107	2532.826927
812.079716	2529.943387
812.399281	2525.933149
812.718801	2532.267359
813.038276	2528.294930
813.357707	2531.211237
813.677093	2531.836340
813.996434	2531.178470
814.315731	2530.787780
814.634983	2532.300126
814.954191	2532.864736
815.273354	2532.476567
815.592473	2531.982534
815.911547	2533.073943
816.230577	2532.370702
816.549562	2534.077133
816.868502	2533.268028
817.187399	2532.458923
817.506250	2532.826927
817.825058	2531.564118
818.143821	2531.692667
818.462539	2533.762061
818.781213	2533.600744
819.099843	2532.063192
819.418429	2535.443286
819.736970	2534.248532
820.055466	2534.041845
820.373919	2535.065199
820.692327	2534.382123
821.010691	2540.318082
821.329011	2539.314892
821.647286	2551.418702
821.965517	2555.514640
822.283704	2558.783828
822.601847	2562.559652
822.919945	2554.370298
823.237999	2550.264278
823.556010	2548.562889
823.873976	2542.392516
824.191897	2542.453010
824.509775	2542.153062
824.827609	2540.338246
825.145398	2537.913451
825.463144	2537.477391
825.780845	2538.352032
826.098502	2538.939326
826.416116	2538.843544
826.733685	2544.766900
827.051210	2543.042825
827.368692	2542.818494
827.686129	2538.183153
828.003522	2539.939995
828.320872	2533.704088
828.638177	2534.119983
828.955439	2530.071936
829.272656	2531.193593
829.589830	2529.363654
829.906960	2532.126207
830.224046	2531.198634
830.541088	2533.721732
830.858086	2533.583100
831.175041	2532.925229
831.491952	2532.063192
831.808819	2533.857843
832.125642	2531.639735
832.442421	2532.663089
832.759157	2532.605116
833.075849	2535.803728
833.392497	2535.503780
833.709101	2537.386651
834.025662	2536.320447
834.342179	2536.948070
834.658653	2534.349355
834.975083	2536.368338
835.291469	2542.309337
835.607811	2534.329191
835.924110	2534.412370
836.240366	2531.496062
836.556578	2533.661238
836.872746	2534.724921
837.188871	2533.840199
837.504952	2533.162164
837.820990	2528.204189
838.136984	2532.466484
838.452935	2531.233922
838.768842	2531.669982
839.084706	2534.450178
839.400526	2531.571680
839.716303	2532.799201
840.032037	2535.554191
840.347727	2533.010929
840.663373	2535.768440
840.978977	2533.041176
841.294537	2533.147040
841.610054	2528.579755
841.925527	2530.873480
842.240957	2531.251566
842.556344	2535.095446
842.871687	2527.170752
843.186987	2533.270548
843.502244	2532.032945
843.817458	2530.190403
844.132629	2528.783922
844.447756	2532.337935
844.762840	2527.178314
845.077881	2526.795186
845.392879	2525.817202
845.707833	2529.522451
846.022745	2524.148581
846.337613	2531.879190
846.652438	2531.249046
846.967221	2531.198634
847.281960	2531.271731
847.596656	2532.791639
847.911309	2529.346010
848.225919	2531.450692
848.540485	2530.639066
848.855009	2531.395239
849.169490	2528.592358
849.483928	2533.419263
849.798323	2533.086546
850.112675	2531.659900
850.426984	2529.330887
850.741251	2533.063861
851.055474	2530.901206
851.369654	2532.521937
851.683792	2530.979344
851.997887	2530.717204
852.311938	2530.434899
852.625947	2533.104190
852.939914	2529.066226
853.253837	2531.266690
853.567718	2530.313912
853.881555	2531.806093
854.195350	2529.250228
854.509103	2532.095960
854.822812	2531.291896
855.136479	2532.375744
855.450103	2530.356762
855.763685	2529.945908
856.077224	2527.881555
856.390720	2529.613191
856.704173	2528.756195
857.017584	2531.291896
857.330953	2527.992460
857.644278	2532.012781
857.957561	2536.000333
858.270802	2529.444313
858.584000	2532.587472
858.897155	2532.249715
859.210268	2532.524458
859.523339	2531.170908
859.836367	2531.901875
860.149352	2528.592358
860.462295	2531.932122
860.775195	2530.051772
861.088054	2527.206040
861.400869	2527.193437
861.713642	2526.328880
862.026373	2527.695032
862.339062	2529.519930
862.651708	2525.678571
862.964312	2532.390867
863.276873	2529.235105
863.589392	2528.501617
863.901869	2529.799714
864.214303	2528.730989
864.526696	2530.094622
864.839045	2529.393901
865.151353	2532.211906
865.463619	2530.714683
865.775842	2529.953469
866.088023	2528.945238
866.400162	2530.432379
866.712258	2530.412214
867.024313	2530.190403
867.336325	2532.479087
867.648296	2529.368695
867.960224	2530.548325
868.272110	2528.834333
868.583954	2529.567821
868.895755	2527.538757
869.207515	2528.796524
869.519233	2532.342976
869.830909	2530.878521
870.142542	2531.115455
870.454134	2528.582275
870.765684	2528.975485
871.077191	2528.945238
871.388657	2534.616537
871.700081	2528.584796
872.011463	2531.523789
872.322803	2529.908099
872.634101	2531.138140
872.945357	2528.496576
873.256571	2530.860877
873.567744	2529.656041
873.878874	2529.293078
874.189963	2529.419107
874.501010	2532.050589
874.812015	2531.052441
875.122979	2531.289375
875.433900	2529.028418
875.744780	2531.783408
876.055618	2531.745599
876.366415	2529.643438
876.677169	2530.026566
876.987882	2528.728469
877.298554	2525.960875
877.609183	2529.169570
877.919771	2527.672347
878.230317	2528.753675
878.540822	2531.478418
878.851285	2530.243336
879.161707	2533.441948
879.472087	2530.969262
879.782425	2532.688295
880.092722	2531.909437
880.402977	2537.132072
880.713191	2537.847916
881.023363	2542.001827
881.333494	2548.877961
881.643583	2546.483413
881.953631	2545.586087
882.263637	2544.565254
882.573602	2543.065510
882.883526	2538.294058
883.193408	2538.246167
883.503248	2539.690458
883.813048	2535.158461
884.122806	2535.057637
884.432522	2535.433203
884.742197	2536.438914
885.051831	2533.547812
885.361424	2532.837009
885.670975	2533.578059
885.980485	2532.196783
886.289954	2533.104190
886.599382	2532.746268
886.908768	2530.563449
887.218113	2531.412883
887.527417	2529.179652
887.836680	2530.381967
888.145901	2531.218799
888.455082	2530.961700
888.764221	2531.455733
889.073319	2528.872142
889.382376	2531.843902
889.691392	2530.127389
890.000366	2532.148892
890.309300	2533.212575
890.618193	2530.911288
890.927044	2530.122348
891.235855	2530.203006
891.544625	2527.206040
891.853353	2529.840043
892.162041	2528.667975
892.470687	2532.723583
892.779293	2528.068078
893.087858	2527.543798
893.396381	2527.866432
893.704864	2529.746782
894.013306	2529.371216
894.321707	2533.908254
894.630068	2533.754499
894.938387	2538.374717
895.246665	2533.908254
895.554903	2535.649973
895.863100	2533.464633
896.171256	2534.556043
896.479371	2533.787267
896.787446	2530.281144
897.095480	2531.554036
897.403473	2530.651669
897.711425	2531.123017
898.019336	2531.349869
898.327207	2531.879190
898.635038	2530.729807
898.942827	2530.984385
899.250576	2532.330373
899.558284	2529.522451
899.865952	2531.501103
900.173579	2529.517409
900.481165	2531.677544
900.788711	2530.147554
901.096216	2530.303829
901.403681	2531.117976
901.711105	2530.013963
902.018489	2529.484642
902.325832	2532.469005
902.633135	2529.721576
902.940397	2529.774508
903.247619	2530.308871
903.554800	2528.383150
903.861941	2530.596216
904.169041	2536.159130
904.476101	2535.428162
904.783121	2536.227185
905.090100	2535.400436
905.397039	2536.043183
905.703938	2529.098994
906.010796	2531.422966
906.317614	2531.433048
906.624391	2529.890455
906.931129	2532.378264
907.237826	2530.298788
907.544483	2529.774508
907.851099	2528.219312
908.157675	2527.619415
908.464211	2532.612678
908.770707	2524.602284
909.077163	2526.691843
909.383578	2525.703777
909.689954	2524.566996
909.996289	2525.524816
910.302584	2531.130579
910.608839	2530.044210
910.915054	2528.438602
911.221229	2530.697039
911.527363	2530.190403
911.833458	2528.514220
912.139513	2527.876514
912.445527	2531.228881
912.751502	2530.381967
913.057436	2529.451874
913.363331	2532.484128
913.669186	2526.366688
913.975000	2528.491535
914.280775	2530.548325
914.586510	2530.659231
914.892205	2531.559077
915.197859	2533.194931
915.503475	2534.452699
915.809050	2533.900693
916.114585	2533.000847
916.420081	2536.048224
916.725536	2535.254243
917.030952	2535.763399
917.336328	2533.071423
917.641665	2531.485980
917.946961	2531.334745
918.252218	2530.150074
918.557435	2530.744930
918.862612	2533.252904
919.167750	2530.437420
919.472848	2530.823068
919.777906	2532.098480
920.082925	2529.494724
920.387904	2529.194776
920.692843	2530.308871
920.997743	2527.442975
921.302603	2529.900537
921.607423	2530.444982
921.912204	2528.521782
922.216946	2530.641587
922.521647	2527.390043
922.826310	2528.352903
923.130932	2528.090763
923.435516	2528.065557
923.740059	2527.558921
924.044564	2526.154960
924.349028	2527.919364
924.653454	2523.715041
924.957840	2528.393232
925.262186	2524.196472
925.566493	2526.623787
925.870761	2523.268899
926.174989	2525.660927
926.479178	2530.719725
926.783328	2527.619415
927.087438	2528.541946
927.391509	2527.891637
927.695541	2527.574045
927.999533	2527.200999
928.303486	2525.446678
928.607400	2526.338962
928.911275	2528.647810
929.215110	2527.856349
929.518906	2529.164529
929.822663	2531.097811
930.126381	2525.602953
930.430060	2530.036648
930.733699	2528.728469
931.037299	2528.683098
931.340861	2526.291071
931.644383	2529.131761
931.947866	2529.472039
932.251309	2529.666123
932.554714	2528.433561
932.858080	2529.724097
933.161407	2531.997657
933.464694	2529.656041
933.767943	2527.032121
934.071153	2527.009435
934.374323	2526.550690
934.677455	2528.652852
934.980548	2528.829292
935.283602	2526.671678
935.586617	2528.990609
935.889593	2525.113962
936.192530	2527.087573
936.495428	2528.350382
936.798287	2526.102028
937.101108	2528.809127
937.403890	2529.333407
937.706632	2526.485155
938.009336	2528.960362
938.312002	2530.876000
938.614628	2530.379447
938.917216	2530.939015
939.219765	2530.681916
939.522275	2529.686288
939.824747	2531.130579
940.127179	2523.820906
940.429573	2526.288550
940.731929	2525.439116
941.034246	2522.421985
941.336524	2524.950124
941.638763	2528.657893
941.940964	2529.610671
942.243126	2528.667975
942.545250	2527.841226
942.847335	2526.608664
943.149381	2525.381143
943.451389	2529.444313
943.753359	2527.516071
944.055290	2529.101514
944.357182	2529.051103
944.659036	2526.379291
944.960851	2526.223015
945.262628	2527.117820
945.564367	2527.006915
945.866067	2525.867614
946.167729	2527.793335
946.469352	2527.321987
946.770937	2528.426000
947.072484	2526.737213
947.373992	2526.152439
947.675462	2527.390043
947.976893	2528.741072
948.278286	2525.736544
948.579641	2525.391225
948.880958	2524.511544
949.182236	2527.170752
949.483476	2527.768129
949.784678	2527.755526
950.085841	2527.261493
950.386967	2528.970444
950.688054	2523.813344
950.989103	2526.475073
951.290114	2527.969775
951.591087	2527.453057
951.892021	2528.816689
952.192917	2524.456091
952.493776	2530.596216
952.794596	2529.056144
953.095378	2529.043541
953.396122	2527.959693
953.696828	2528.796524
953.997496	2527.412728
954.298126	2529.527492
954.598718	2527.979857
954.899272	2526.149919
955.199788	2528.236956
955.500266	2527.876514
955.800706	2524.304856
956.101108	2524.319980
956.401472	2523.372243
956.701798	2521.368384
957.002087	2523.538601
957.302337	2524.312418
957.602550	2527.090094
957.902724	2527.052285
958.202861	2529.197296
958.502960	2526.396935
958.803022	2528.108407
959.103045	2525.555063
959.403031	2528.514220
959.702979	2526.207892
960.002889	2528.148736
960.302762	2528.171421
960.602596	2524.365350
960.902393	2527.377440
961.202153	2526.712007
961.501875	2524.365350
961.801559	2526.449867
962.101205	2526.028931
962.400814	2527.725279
962.700385	2529.172090
962.999918	2528.196627
963.299414	2524.042716
963.598873	2523.823426
963.898293	2527.551359
964.197677	2526.651513
964.497022	2524.362830
964.796331	2526.464991
965.095601	2525.534898
965.394835	2528.045392
965.694030	2528.095804
965.993189	2524.352747
966.292309	2527.654703
966.591393	2527.082532
966.890439	2525.219826
967.189447	2527.889117
967.488419	2524.972809
967.787353	2528.983047
968.086249	2528.042872
968.385108	2526.565814
968.683930	2524.380474
968.982714	2525.534898
969.281462	2527.735362
969.580172	2525.945752
969.878844	2528.423479
970.177480	2527.236287
970.476078	2527.221164
970.774639	2526.568334
971.073162	2527.745444
971.371649	2525.736544
971.670098	2521.663292
971.968510	2524.047758
972.266885	2520.125740
972.565223	2525.625639
972.863524	2526.981709
973.161788	2526.021369
973.460014	2527.160670
973.758204	2526.739734
974.056356	2524.128416
974.354471	2526.391894
974.652550	2525.141688
974.950591	2526.212933
975.248595	2528.345341
975.546563	2525.933149
975.844493	2526.928777
976.142386	2525.116482
976.440243	2524.982892
976.738062	2527.417769
977.035845	2524.231760
977.333590	2528.541946
977.631299	2525.875176
977.928971	2526.674199
978.226606	2526.933818
978.524204	2526.069260
978.821765	2525.860052
979.119290	2525.507172
979.416777	2529.464477
979.714228	2525.207223
980.011642	2525.166894
980.309020	2528.078160
980.606360	2526.850639
980.903664	2525.565145
981.200931	2526.928777
981.498162	2525.005577
981.795356	2526.028931
982.092513	2527.246370
982.389633	2526.419620
982.686717	2527.793335
982.983764	2526.482635
983.280775	2525.013138
983.577749	2528.796524
983.874686	2527.074970
984.171587	2528.143695
984.468451	2527.863911
984.765279	2527.246370
985.062070	2527.420289
985.358824	2523.457943
985.655543	2527.775691
985.952224	2524.642614
986.248869	2524.294774
986.545478	2520.771008
986.842050	2523.747809
987.138586	2522.356450
987.435086	2522.910977
987.731549	2522.074146
988.027975	2525.965917
988.324366	2525.129085
988.620719	2525.552542
988.917037	2525.948272
989.213318	2528.819210
989.509563	2525.620598
989.805772	2527.337110
990.101944	2526.616225
990.398080	2523.851152
990.694180	2527.921884
990.990244	2528.068078
991.286271	2527.024559
991.582262	2523.362161
991.878217	2523.863755
992.174136	2526.359127
992.470019	2526.893489
992.765865	2525.502130
993.061676	2528.247039
993.357450	2527.072450
993.653188	2525.091276
993.948890	2525.817203
994.244556	2525.885258
994.540186	2524.871986
994.835780	2526.883407
995.131337	2528.632687
995.426859	2525.948273
995.722345	2524.095648
996.017795	2525.862573
996.313208	2524.178827
996.608586	2526.585978
996.903928	2527.412728
997.199234	2524.100690
997.494504	2527.538757
997.789738	2525.101359
998.084936	2526.492717
998.380099	2525.204702
998.675225	2524.700587
998.970316	2526.669157
999.265371	2525.330731
999.560390	2523.745288
999.855373	2526.260824
1000.150320	2526.326359
1000.445232	2525.108920
1000.740108	2523.936852
1001.034948	2526.119672
1001.329752	2524.294774
1001.624521	2525.708818
1001.919254	2521.996008
1002.213951	2524.287212
1002.508613	2519.450225
1002.803239	2525.562624
1003.097829	2522.447191
1003.392384	2525.625639
1003.686903	2524.319980
1003.981386	2525.829805
1004.275834	2526.437264
1004.570246	2525.907943
1004.864623	2524.690505
1005.158964	2524.738396
1005.453270	2523.596574
1005.747540	2525.461801
1006.041775	2525.292922
1006.335974	2525.607995
1006.630138	2526.714528
1006.924266	2526.583458
1007.218359	2523.031965
1007.512416	2525.860052
1007.806438	2524.788807
1008.100425	2525.519774
1008.394376	2523.828467
1008.688292	2524.108251
1008.982172	2523.402490
1009.276017	2526.654034
1009.569827	2522.260668
1009.863602	2527.216123
1010.157341	2525.877696
1010.451045	2526.001205
1010.744714	2525.169414
1011.038347	2528.627646
1011.331945	2524.821575
1011.625508	2526.827954
1011.919036	2522.253107
1012.212528	2522.059022
1012.505986	2522.769825
1012.799408	2526.676719
1013.092795	2527.072450
1013.386147	2525.764270
1013.679464	2525.965917
1013.972745	2527.753006
1014.265992	2522.643796
1014.559204	2524.854342
1014.852380	2525.315608
1015.145521	2526.898530
1015.438628	2523.132788
1015.731699	2527.269055
1016.024736	2525.605474
1016.317737	2524.143539
1016.610703	2526.822913
1016.903635	2524.529188
1017.196531	2522.487520
1017.489393	2523.397449
1017.782219	2519.477952
1018.075011	2522.331245
1018.367768	2525.701256
1018.660490	2526.006246
1018.953177	2526.006246
1019.245829	2526.006246
