Dividing Wavelength (nm)	Counts (n)	Blue Motor Position (mm): 0.000000	Red Motor Position (mm): 32.900000	
326.493990	2126.388939
326.888308	2126.388939
327.282561	2126.388939
327.676750	2093.538260
328.070874	2093.969279
328.464933	2096.048755
328.858929	2102.677872
329.252859	2112.185488
329.646726	2124.818620
330.040528	2139.022071
330.434265	2152.451705
330.827938	2172.323933
331.221547	2191.807993
331.615091	2209.888091
332.008571	2227.401059
332.401986	2248.110119
332.795338	2267.213572
333.188625	2286.206119
333.581847	2305.102884
333.975006	2322.628456
334.368100	2342.175530
334.761129	2359.000381
335.154095	2375.469830
335.546996	2395.203427
335.939833	2413.618762
336.332606	2428.341452
336.725315	2440.825869
337.117960	2450.353650
337.510540	2458.248097
337.903056	2469.704119
338.295508	2477.974132
338.687896	2485.896305
339.080220	2492.227994
339.472480	2500.959273
339.864676	2504.843482
340.256807	2509.337671
340.648875	2511.928824
341.040879	2516.284381
341.432818	2516.864113
341.824694	2517.733712
342.216506	2517.242200
342.608253	2518.996521
342.999937	2519.263702
343.391557	2517.867303
343.783113	2514.280522
344.174605	2515.586181
344.566033	2513.108454
344.957397	2514.910666
345.348697	2512.143073
345.739934	2510.050994
346.131106	2506.796929
346.522215	2509.488905
346.913260	2503.870539
347.304241	2503.142092
347.695159	2501.234016
348.086012	2501.483553
348.476802	2497.576659
348.867528	2493.037100
349.258191	2496.263438
349.648789	2494.521719
350.039324	2491.071050
350.429796	2493.362254
350.820203	2489.593992
351.210548	2490.198930
351.600828	2487.786738
351.991045	2490.687922
352.381198	2486.138281
352.771288	2485.729947
353.161314	2485.581233
353.551276	2486.120637
353.941175	2486.271871
354.331010	2487.706079
354.720782	2486.370174
355.110490	2489.021821
355.500135	2484.734319
355.889717	2485.908908
356.279235	2488.537870
356.668689	2488.300936
357.058080	2489.442757
357.447408	2483.201808
357.836672	2484.005872
358.225873	2486.155925
358.615010	2484.199957
359.004084	2491.597850
359.393095	2487.499392
359.782043	2492.527943
360.170927	2491.605412
360.559748	2494.332676
360.948505	2491.527274
361.337199	2493.768067
361.725830	2495.083808
362.114398	2492.893427
362.502903	2496.276041
362.891344	2496.518016
363.279722	2498.297544
363.668037	2496.855774
364.056289	2497.203613
364.444478	2498.806700
364.832603	2497.483397
365.220665	2502.496825
365.608665	2499.449447
365.996601	2502.900117
366.384474	2502.736280
366.772284	2504.349449
367.160031	2509.178874
367.547715	2506.507063
367.935336	2511.737260
368.322893	2514.668691
368.710388	2514.419154
369.097820	2522.858045
369.485189	2524.193951
369.872495	2530.094622
370.259738	2539.592155
370.646918	2546.191026
371.034035	2552.026161
371.421090	2563.635939
371.808081	2574.330747
372.195010	2582.517580
372.581875	2599.138265
372.968678	2608.489605
373.355418	2617.238527
373.742096	2641.297434
374.128710	2653.388642
374.515262	2666.782987
374.901751	2681.664474
375.288177	2694.980682
375.674540	2717.118909
376.060841	2736.817217
376.447079	2755.734147
376.833254	2776.980090
377.219367	2787.745474
377.605417	2824.402224
377.991404	2835.127279
378.377329	2858.598891
378.763191	2876.016078
379.148991	2913.169382
379.534727	2939.196859
379.920402	2965.103349
380.306013	2978.969042
380.691563	3028.203471
381.077049	3049.623334
381.462474	3067.421128
381.847835	3106.714401
382.233134	3128.963534
382.618371	3130.937146
383.003545	3197.755119
383.388657	3200.842826
383.773706	3237.214751
384.158693	3252.638161
384.543618	3277.130607
384.928480	3315.493788
385.313280	3361.428782
385.698017	3355.732278
386.082692	3411.038777
386.467305	3420.047319
386.851856	3448.058490
387.236344	3469.858960
387.620770	3502.276100
388.005133	3526.599667
388.389435	3555.188050
388.773674	3567.743044
389.157851	3610.645784
389.541965	3629.172024
389.926018	3589.830860
390.310008	3659.686128
390.693936	3679.797812
391.077802	3720.590829
391.461606	3709.696895
391.845348	3774.032101
392.229027	3774.422790
392.612645	3784.510139
392.996200	3864.195658
393.379694	3902.815937
393.763125	3969.517964
394.146494	3934.444137
394.529801	3999.026358
394.913047	4043.509500
395.296230	4006.782174
395.679351	4064.112696
396.062410	4088.912652
396.445408	4068.972368
396.828343	4103.466463
397.211217	4129.806492
397.594028	4047.421435
397.976778	4116.399543
398.359466	4141.239829
398.742092	4167.713448
399.124656	4088.912652
399.507158	4173.916588
399.889598	4196.153118
400.271977	4261.463787
400.654294	4230.947162
401.036549	4240.747165
401.418742	4210.817834
401.800874	4309.228719
402.182944	4331.951720
402.564952	4396.107965
402.946898	4378.267321
403.328783	4380.059451
403.710606	4291.803971
404.092367	4483.808918
404.474067	4449.188794
404.855705	4457.869661
405.237282	4384.173033
405.618797	4499.174355
406.000250	4532.249365
406.381642	4612.617961
406.762972	4573.153288
407.144240	4584.732818
407.525447	4583.979166
407.906593	4642.181807
408.287677	4684.998847
408.668700	4612.254998
409.049661	4667.145601
409.430560	4707.832754
409.811399	4631.920539
410.192176	4795.682421
410.572891	4731.314448
410.953545	4836.001570
411.334138	4715.954053
411.714669	4782.411584
412.095139	4679.635060
412.475547	4819.801822
412.855894	4801.205005
413.236180	4807.955110
413.616405	4761.614304
413.996568	4851.563612
414.376670	4793.751659
414.756711	4748.550153
415.136691	4780.163229
415.516609	4858.790106
415.896466	4892.596083
416.276262	4927.949695
416.655997	4906.421448
417.035670	5091.162092
417.415283	5183.193397
417.794834	5124.153924
418.174324	5084.049024
418.553753	4987.896576
418.933121	5172.788455
419.312428	5239.755143
419.691674	5176.612171
420.070859	5306.983971
420.449983	5213.742789
420.829045	5330.818546
421.208047	5238.499896
421.586988	5311.573941
421.965867	5321.510056
422.344686	5453.326146
422.723444	5305.181758
423.102141	5128.015448
423.480777	5424.450417
423.859352	5195.859296
424.237866	5452.673317
424.616319	5444.627635
424.994712	5556.251384
425.373044	5435.019196
425.751314	5571.594136
426.129524	5376.224219
426.507673	5571.568930
426.885762	5653.122197
427.263789	5587.078040
427.641756	5469.414989
428.019662	5591.254636
428.397508	5598.624803
428.775292	5544.341658
429.153016	5640.095855
429.530679	5568.272016
429.908282	5653.026415
430.285824	5525.858268
430.663305	5798.146111
431.040726	5534.360174
431.418086	5530.327251
431.795385	5642.079549
432.172624	5652.045910
432.549802	5645.873017
432.926920	5660.477240
433.303977	5666.100647
433.680974	5702.200350
434.057910	5720.434203
434.434786	5729.757817
434.811601	5698.817736
435.188355	5932.734836
435.565050	5805.112985
435.941683	5785.555829
436.318257	5998.244630
436.694770	5983.685778
437.071222	6017.312795
437.447614	5952.602023
437.823946	5859.025605
438.200218	6018.736921
438.576429	5885.426128
438.952580	5980.686291
439.328670	6024.942581
439.704700	5930.990597
440.080670	5925.102529
440.456580	6189.251429
440.832429	6076.327062
441.208218	5921.084729
441.583947	6076.102731
441.959616	6079.971816
442.335224	6008.679819
442.710773	6141.151259
443.086261	6169.898439
443.461689	5966.127439
443.837057	6115.433813
444.212365	6267.283449
444.587612	6163.128170
444.962800	6317.629453
445.337927	6291.057531
445.712995	5905.535290
446.088002	6482.593651
446.462949	6312.726931
446.837837	6241.923925
447.212664	6414.729637
447.587431	6555.042593
447.962139	7100.482836
448.336786	8024.518775
448.711374	7770.119466
449.085901	6842.106058
449.460369	6763.711074
449.834776	6694.611978
450.209124	7092.202741
450.583412	7236.102478
450.957640	7386.331383
451.331808	7149.689539
451.705917	6700.313523
452.079965	6626.846268
452.453954	6839.091448
452.827883	6713.261727
453.201752	6809.590615
453.575562	6605.837259
453.949311	6811.239073
454.323001	6698.097936
454.696632	6775.298166
455.070202	6911.091728
455.443713	7068.811787
455.817164	7164.031622
456.190556	7245.378201
456.563888	7322.661610
456.937160	7363.263063
457.310373	7024.774788
457.683526	7047.780093
458.056619	6940.804288
458.429653	6930.079233
458.802628	6861.580035
459.175542	6969.312013
459.548398	7322.097001
459.921194	7486.264696
460.293930	7490.806776
460.666607	8020.866459
461.039224	8332.051844
461.411782	8453.034496
461.784280	8475.288669
462.156719	8363.170887
462.529099	8240.570026
462.901419	7830.572983
463.273680	7723.473670
463.645882	7735.668221
464.018024	7605.881195
464.390106	7767.946729
464.762130	8155.122468
465.134094	8621.678736
465.505999	9643.240836
465.877845	10862.373318
466.249631	11514.383553
466.621358	11125.450972
466.993026	10503.662454
467.364634	10246.548485
467.736184	9875.239777
468.107674	9549.886229
468.479105	9584.551723
468.850477	9343.592131
469.221790	9119.580898
469.593043	8795.207854
469.964238	8653.783324
470.335373	8663.812700
470.706449	8712.671563
471.077467	8703.020274
471.448425	10013.319502
471.819324	11081.655948
472.190164	11109.097469
472.560945	9853.429225
472.931667	9071.339577
473.302330	8932.793545
473.672934	8579.675842
474.043479	8937.033156
474.413965	8878.646512
474.784393	8760.648224
475.154761	8920.530939
475.525070	9004.846757
475.895321	8835.353083
476.265513	9003.510852
476.635645	9173.370010
477.005719	9174.988220
477.375734	9288.535169
477.745691	9522.497640
478.115588	9652.844234
478.485427	9894.829701
478.855207	10439.113000
479.224928	11242.161246
479.594591	11874.095086
479.964194	11687.804287
480.333739	11622.128135
480.703226	11541.741895
481.072653	11631.817232
481.442022	11862.271060
481.811333	12054.896069
482.180584	11861.976152
482.549777	11568.696945
482.918912	11393.547096
483.287988	11411.803634
483.657005	11418.894017
484.025964	11098.170768
484.394864	11227.221786
484.763706	11196.289266
485.132489	10942.416759
485.501213	10908.328476
485.869879	10979.741462
486.238487	10822.434777
486.607036	10926.569892
486.975527	10704.111334
487.343959	10895.871785
487.712333	10928.871178
488.080648	10854.796464
488.448905	10888.000023
488.817104	10820.655249
489.185244	11083.692575
489.553326	11227.141128
489.921350	11753.092270
490.289315	12769.585491
490.657222	13105.656533
491.025070	13012.427954
491.392861	12871.303373
491.760593	12492.231288
492.128267	12144.643731
492.495883	11819.161633
492.863440	11466.505195
493.230939	11129.478854
493.598380	11053.763244
493.965763	10912.590772
494.333088	10807.424741
494.700354	10706.294154
495.067563	10761.905642
495.434713	10583.466440
495.801805	10688.670280
496.168839	10604.551066
496.535815	10518.314568
496.902733	10506.755202
497.269593	10419.639022
497.636395	10503.584316
498.003139	10466.584768
498.369825	10321.681842
498.736453	10453.901225
499.103023	10365.570127
499.469535	10368.229336
499.835989	10345.256797
500.202385	10280.722467
500.568723	10117.920924
500.935003	10304.272217
501.301226	10090.058466
501.667390	10299.420106
502.033497	10363.803202
502.399546	10212.823165
502.765537	10098.008366
503.131470	10138.612340
503.497345	10264.590774
503.863163	9881.205983
504.228923	10132.129416
504.594625	10156.185802
504.960269	9900.569055
505.325856	10068.295805
505.691385	9840.039921
506.056856	9945.715108
506.422270	9929.845556
506.787625	9800.020721
507.152924	9852.118525
507.518164	9802.778232
507.883347	9689.891674
508.248472	9587.881405
508.613540	9734.452953
508.978550	9594.898692
509.343503	9535.818889
509.708398	9577.665507
510.073236	9627.933373
510.438016	9590.308721
510.802738	9491.824739
511.167403	9485.634202
511.532010	9342.437707
511.896561	9489.878854
512.261053	9489.720058
512.625488	9331.014452
512.989866	9263.311756
513.354186	9198.842960
513.718449	9066.424452
514.082655	9167.865070
514.446803	9025.071867
514.810894	9057.781393
515.174927	8900.149554
515.538904	8868.594451
515.902822	8914.947861
516.266684	8780.212942
516.630488	8670.030963
516.994235	8665.569542
517.357925	8630.296588
517.721558	8637.021488
518.085133	8579.217097
518.448651	8527.751957
518.812112	8394.806648
519.175516	8327.640835
519.538863	8346.262857
519.902152	8237.694047
520.265385	8253.732478
520.628560	8147.533011
520.991678	8051.667909
521.354739	8031.170577
521.717743	7932.996627
522.080690	7850.500664
522.443580	7852.653237
522.806413	7756.291581
523.169189	7719.004687
523.531908	7680.691918
523.894569	7507.787903
524.257174	7440.775844
524.619722	7432.876356
524.982213	7356.366764
525.344647	7301.418188
525.707025	7214.586833
526.069345	7193.668565
526.431608	7075.771100
526.793815	7069.948567
527.155964	6896.411887
527.518057	6863.009202
527.880093	6768.076713
528.242072	6737.940696
528.603995	6622.284024
528.965860	6519.575555
529.327669	6479.596685
529.689421	6394.128962
530.051117	6320.281100
530.412755	6291.027284
530.774337	6195.540268
531.135862	6106.674808
531.497331	6071.663995
531.858743	5938.070897
532.220098	5947.641528
532.581396	5835.869065
532.942638	5776.834633
533.303824	5707.705290
533.664953	5639.995032
534.026025	5556.253905
534.387040	5535.045771
534.747999	5476.212985
535.108902	5440.892140
535.469748	5304.574299
535.830537	5281.664776
536.191270	5216.880907
536.551947	5166.376108
536.912567	5117.373572
537.273131	5049.527203
537.633638	4987.387420
537.994089	4928.889871
538.354483	4867.803689
538.714821	4858.495198
539.075103	4810.221109
539.435328	4748.472016
539.795497	4667.838760
540.155609	4649.904855
540.515665	4628.142194
540.875665	4521.829300
541.235609	4485.449814
541.595496	4445.057568
541.955328	4429.606432
542.315102	4362.962378
542.674821	4307.555056
543.034483	4264.659878
543.394090	4224.441553
543.753640	4171.055733
544.113134	4167.554652
544.472571	4107.511989
544.831953	4085.527517
545.191278	4017.963453
545.550548	3987.086386
545.909761	3968.794559
546.268918	3928.898867
546.628019	3906.243922
546.987064	3846.405426
547.346053	3807.202893
547.704986	3783.391003
548.063863	3747.354314
548.422684	3720.605952
548.781449	3672.825896
549.140158	3656.542969
549.498811	3611.361628
549.857408	3568.249680
550.215949	3555.785427
550.574434	3517.994417
550.932864	3494.860562
551.291237	3479.873212
551.649555	3446.349539
552.007817	3422.462031
552.366022	3397.959503
552.724173	3373.832541
553.082267	3345.022347
553.440305	3332.573217
553.798288	3295.044347
554.156215	3282.247378
554.514086	3259.078235
554.871902	3229.161508
555.229661	3213.425546
555.587365	3190.042154
555.945014	3168.166067
556.302606	3152.288953
556.660143	3130.654841
557.017625	3118.356946
557.375050	3095.281064
557.732421	3087.845363
558.089735	3065.676888
558.446994	3050.986966
558.804197	3037.557332
559.161345	3022.653161
559.518437	3000.721621
559.875474	2986.745022
560.232455	2974.936119
560.589381	2961.657720
560.946251	2948.699434
561.303065	2940.522683
561.659825	2923.405445
562.016528	2909.711150
562.373177	2896.243708
562.729770	2880.500184
563.086307	2872.701519
563.442789	2867.642721
563.799216	2850.926255
564.155587	2844.922241
564.511904	2833.564521
564.868164	2822.670588
565.224370	2815.013075
565.580520	2804.424132
565.936615	2799.393060
566.292654	2786.127264
566.648638	2782.205246
567.004567	2776.191149
567.360441	2770.204779
567.716260	2758.980650
568.072023	2757.740526
568.427732	2744.157137
568.783385	2740.073803
569.138982	2733.643811
569.494525	2729.653738
569.850013	2722.202912
570.205445	2724.907491
570.560823	2717.812067
570.916145	2709.158927
571.271412	2707.253371
571.626625	2703.502752
571.981782	2697.534026
572.336884	2694.355578
572.691931	2694.476566
573.046923	2688.225535
573.401860	2682.249247
573.756743	2684.719413
574.111570	2680.331088
574.466342	2676.703978
574.821059	2673.039059
575.175722	2670.422701
575.530330	2666.780467
575.884882	2664.980775
576.239380	2663.715445
576.593823	2661.036072
576.948211	2659.954745
577.302544	2652.342602
577.656823	2651.354536
578.011047	2651.732623
578.365216	2652.524084
578.719330	2647.258599
579.073389	2645.789102
579.427394	2644.143166
579.781344	2642.361118
580.135239	2640.992444
580.489080	2639.066724
580.842866	2640.659728
581.196597	2641.632671
581.550273	2636.102525
581.903895	2634.542288
582.257463	2635.868112
582.610975	2631.628501
582.964434	2630.355610
583.317837	2631.066412
583.671186	2628.560959
584.024481	2629.629684
584.377721	2628.470218
584.730906	2628.296298
585.084037	2625.574075
585.437113	2624.966616
585.790135	2627.388891
586.143103	2623.124075
586.496016	2623.837398
586.848874	2618.798765
587.201679	2620.122067
587.554428	2616.678959
587.907124	2621.891512
588.259765	2615.753908
588.612352	2617.218363
588.964884	2615.224587
589.317362	2617.321707
589.669786	2617.031840
590.022155	2616.477313
590.374470	2612.998917
590.726731	2616.744494
591.078937	2612.242744
591.431090	2612.076386
591.783188	2611.952878
592.135232	2610.057404
592.487222	2613.472786
592.839157	2613.674432
593.191038	2611.675614
593.542866	2608.963473
593.894639	2609.331478
594.246358	2605.056579
594.598022	2606.553802
594.949633	2605.961466
595.301190	2607.163782
595.652692	2608.532455
596.004141	2607.998092
596.355535	2606.584049
596.706876	2604.706219
597.058162	2603.614809
597.409395	2603.907196
597.760573	2607.010026
598.111698	2604.781836
598.462768	2605.747217
598.813785	2602.223451
599.164748	2601.668924
599.515657	2602.714963
599.866511	2603.214037
600.217312	2603.040118
600.568060	2601.298399
600.918753	2600.993409
601.269392	2603.486260
601.619978	2597.129365
601.970510	2602.193204
602.320988	2597.812441
602.671412	2601.127000
603.021783	2599.788573
603.372100	2599.478542
603.722363	2599.733121
604.072572	2596.789087
604.422728	2599.254211
604.772830	2594.538212
605.122878	2592.700711
605.472872	2595.186000
605.822813	2594.901175
606.172701	2596.204313
606.522534	2596.791607
606.872314	2598.566094
607.222041	2598.913933
607.571714	2598.707246
607.921333	2599.622215
608.270899	2597.575507
608.620411	2598.218254
608.969870	2598.893769
609.319276	2601.356372
609.668627	2602.450303
610.017926	2606.677310
610.367171	2605.434666
610.716362	2605.999275
611.065500	2602.372165
611.414585	2599.302102
611.763616	2601.931064
612.112594	2597.986361
612.461518	2601.071547
612.810389	2600.418718
613.159207	2600.464088
613.507971	2601.260590
613.856682	2600.847216
614.205340	2601.893255
614.553945	2598.724890
614.902496	2599.171032
615.250994	2601.260590
615.599439	2598.298912
615.947830	2598.465271
616.296169	2599.491145
616.644454	2599.312184
616.992686	2596.980651
617.340864	2597.910744
617.688990	2600.443923
618.037063	2600.660693
618.385082	2595.327152
618.733048	2600.217072
619.080961	2597.658686
619.428821	2600.232195
619.776628	2596.995774
620.124382	2597.005857
620.472083	2596.416042
620.819731	2597.431834
621.167326	2596.831937
621.514868	2597.096597
621.862357	2594.366812
622.209793	2598.593820
622.557176	2596.453850
622.904506	2592.819178
623.251783	2589.255082
623.599007	2589.106368
623.946179	2589.050916
624.293297	2590.593509
624.640363	2592.385639
624.987376	2592.662902
625.334336	2593.368664
625.681243	2591.994950
626.028097	2591.604260
626.374899	2590.875813
626.721647	2590.419589
627.068343	2590.689291
627.414987	2586.893302
627.761577	2592.088211
628.108115	2590.396904
628.454600	2588.982860
628.801032	2588.514033
629.147412	2586.106882
629.493739	2588.108220
629.840014	2591.815989
630.186236	2590.182655
630.532405	2586.842890
630.878521	2587.833477
631.224585	2588.992942
631.570597	2589.401276
631.916556	2587.651996
632.262462	2586.522777
632.608316	2585.907756
632.954117	2585.363312
633.299866	2588.206523
633.645562	2585.214598
633.991206	2584.309711
634.336797	2583.608990
634.682336	2584.319793
635.027823	2583.051943
635.373257	2583.601428
635.718639	2582.966243
636.063968	2580.685121
636.409245	2582.573033
636.754470	2579.558423
637.099642	2583.629155
637.444762	2585.098651
637.789829	2580.972467
638.134845	2582.391552
638.479808	2581.257292
638.824719	2579.694534
639.169577	2579.611355
639.514383	2578.892991
639.859137	2577.168916
640.203839	2580.244020
640.548489	2578.363670
640.893086	2574.300500
641.237632	2573.960222
641.582125	2574.900397
641.926566	2573.105746
642.270955	2579.076993
642.615292	2578.840059
642.959576	2577.357959
643.303809	2576.662280
643.647990	2579.006417
643.992118	2576.876529
644.336195	2575.596076
644.680219	2577.113463
645.024192	2576.952147
645.368112	2579.001376
645.711981	2576.894173
646.055797	2580.410378
646.399562	2581.411047
646.743274	2581.108578
647.086935	2579.119843
647.430544	2581.695872
647.774101	2580.775862
648.117606	2580.092785
648.461059	2581.065728
648.804460	2583.845924
649.147810	2578.474575
649.491108	2580.470872
649.834354	2581.075810
650.177548	2578.391396
650.520690	2580.664956
650.863781	2578.177147
651.206820	2581.161510
651.549807	2578.386355
651.892742	2575.306210
652.235626	2574.071127
652.578458	2578.605645
652.921238	2572.654563
653.263967	2576.843762
653.606644	2574.350911
653.949269	2574.023236
654.291843	2575.928792
654.634365	2576.185891
654.976836	2574.580284
655.319255	2577.037846
655.661622	2573.846796
656.003938	2572.379820
656.346203	2574.512228
656.688416	2573.009964
657.030577	2571.169943
657.372687	2575.417115
657.714746	2570.542319
658.056753	2573.173802
658.398708	2568.351938
658.740612	2573.012485
659.082465	2569.723132
659.424266	2569.403019
659.766016	2570.154151
660.107715	2570.517114
660.449362	2572.475602
660.790958	2574.008113
661.132503	2573.872002
661.473996	2573.884604
661.815438	2577.156313
662.156829	2576.135480
662.498168	2573.687999
662.839456	2571.432083
663.180693	2574.169430
663.521879	2575.512897
663.863013	2571.154820
664.204097	2570.514593
664.545129	2573.635067
664.886110	2573.687999
665.227040	2573.491394
665.567918	2574.691189
665.908746	2572.689851
666.249522	2575.056673
666.590248	2571.101887
666.930922	2576.747980
667.271545	2569.536609
667.612118	2576.223700
667.952639	2573.340160
668.293109	2574.141703
668.633528	2576.032136
668.973896	2574.247567
669.314213	2575.704461
669.654480	2571.764799
669.994695	2573.035170
670.334859	2572.190777
670.674973	2571.578277
671.015035	2575.102043
671.355047	2572.652042
671.695008	2572.606672
672.034918	2572.367217
672.374777	2571.172464
672.714585	2572.261353
673.054342	2573.456106
673.394049	2575.787640
673.733705	2572.730180
674.073310	2575.858216
674.412864	2573.685479
674.752368	2573.861919
675.091820	2572.349573
675.431223	2572.450396
675.770574	2573.133472
676.109875	2569.420663
676.449125	2572.783112
676.788324	2568.034345
677.127473	2568.339335
677.466571	2566.534602
677.805619	2572.712536
678.144616	2568.921588
678.483562	2569.108111
678.822458	2571.001064
679.161303	2571.719429
679.500098	2569.251784
679.838842	2570.749007
680.177535	2567.885631
680.516179	2570.529717
680.854771	2568.974521
681.193314	2571.986610
681.531805	2571.273287
681.870247	2572.894018
682.208638	2576.067424
682.546978	2573.650191
682.885268	2576.498443
683.223508	2573.778740
683.561697	2575.147413
683.899836	2573.846796
684.237925	2574.207238
684.575963	2573.773699
684.913951	2576.248906
685.251889	2574.426528
685.589776	2574.025757
685.927614	2573.440983
686.265401	2573.173802
686.603137	2574.976014
686.940824	2572.614234
687.278460	2576.669842
687.616046	2575.175140
687.953582	2575.946436
688.291068	2574.618092
688.628504	2572.765468
688.965889	2574.282856
689.303224	2574.197156
689.640510	2574.771847
689.977745	2572.175653
690.314930	2570.524675
690.652065	2571.648853
690.989150	2569.793708
691.326185	2570.438976
691.663170	2568.195662
692.000105	2570.088616
692.336990	2568.067113
692.673825	2567.915878
693.010610	2569.380333
693.347345	2564.692060
693.684030	2560.394477
694.020665	2561.856411
694.357251	2561.319528
694.693786	2562.562173
695.030272	2564.371947
695.366707	2563.078891
695.703093	2564.369427
696.039429	2562.857080
696.375716	2564.450085
696.711952	2562.521844
697.048139	2563.678788
697.384276	2562.700805
697.720363	2563.046124
698.056400	2562.829354
698.392388	2562.340362
698.728326	2561.470763
699.064214	2562.000084
699.400053	2564.220712
699.735842	2560.031514
700.071581	2562.174004
700.407270	2561.483366
700.742910	2560.192831
701.078501	2562.121072
701.414042	2557.944476
701.749533	2558.274672
702.084974	2560.139898
702.420366	2558.940104
702.755709	2560.482697
703.091002	2558.015052
703.426246	2558.861966
703.761440	2561.647203
704.096584	2557.712583
704.431679	2561.490928
704.766725	2558.627552
705.101721	2554.529094
705.436668	2555.973385
705.771565	2560.575958
706.106413	2557.616801
706.441212	2561.080074
706.775961	2558.168807
707.110661	2555.252500
707.445311	2559.603016
707.779913	2557.503375
708.114465	2562.549570
708.448967	2562.935218
708.783421	2561.349775
709.117825	2560.424724
709.452180	2562.700805
709.786485	2562.042934
710.120742	2563.603171
710.454949	2564.835733
710.789107	2564.528223
711.123216	2560.482697
711.457275	2563.598130
711.791286	2561.019580
712.125247	2562.070660
712.459159	2566.287586
712.793023	2566.776577
713.126837	2565.561659
713.460602	2565.667524
713.794318	2564.934036
714.127985	2563.635939
714.461602	2564.313974
714.795171	2564.792883
715.128691	2564.001422
715.462162	2560.212995
715.795584	2557.508416
716.128957	2559.116544
716.462281	2562.819272
716.795556	2561.206102
717.128782	2559.164435
717.461960	2556.537994
717.795088	2556.084290
718.128167	2555.224773
718.461198	2558.859445
718.794180	2559.512275
719.127113	2556.671585
719.459997	2558.103272
719.792833	2552.358878
720.125619	2558.516647
720.458357	2555.832232
720.791046	2556.727037
721.123686	2554.163611
721.456278	2555.290308
721.788821	2555.781821
722.121315	2556.752243
722.453761	2555.665874
722.786158	2553.014227
723.118506	2552.850390
723.450805	2553.420040
723.783056	2554.196378
724.115259	2552.999104
724.447412	2553.840977
724.779518	2554.287119
725.111574	2556.353992
725.443582	2556.003632
725.775542	2558.297357
726.107453	2556.666543
726.439315	2556.474980
726.771129	2560.790207
727.102895	2556.837943
727.434612	2556.298539
727.766281	2557.904147
728.097901	2555.953220
728.429473	2553.951882
728.760996	2556.774928
729.092471	2553.503219
729.423897	2557.838612
729.755276	2557.536142
730.086606	2557.563869
730.417887	2556.651420
730.749120	2559.129147
731.080305	2557.768036
731.411442	2559.245094
731.742530	2562.405897
732.073570	2559.393808
732.404562	2559.577810
732.735506	2560.432285
733.066401	2560.071843
733.397249	2558.567058
733.728048	2558.176369
734.058798	2558.504044
734.389501	2558.138560
734.720156	2554.907181
735.050762	2552.973898
735.381320	2554.224104
735.711831	2554.148487
736.042293	2554.246790
736.372707	2556.197716
736.703073	2554.075390
737.033391	2556.747202
737.363661	2554.309804
737.693883	2554.677808
738.024056	2556.243087
738.354182	2554.637479
738.684260	2556.245607
739.014290	2553.611604
739.344272	2555.136553
739.674207	2553.969526
740.004093	2559.023283
740.333931	2557.364743
740.663722	2557.949517
740.993464	2555.071018
741.323159	2557.004301
741.652806	2556.238045
741.982405	2553.820812
742.311956	2553.490617
742.641460	2554.264434
742.970915	2553.084804
743.300323	2554.808878
743.629683	2555.358364
743.958996	2554.314845
744.288260	2554.009855
744.617477	2552.691594
744.946647	2546.783361
745.275768	2550.047508
745.604842	2548.686397
745.933869	2549.987015
746.262847	2548.711603
746.591778	2550.334854
746.920662	2551.149001
747.249498	2553.069680
747.578286	2552.144628
747.907027	2552.520194
748.235720	2553.097407
748.564365	2552.449618
748.892963	2551.890050
749.221514	2552.668908
749.550017	2550.385266
749.878473	2552.943651
750.206881	2552.124464
750.535242	2552.510112
750.863555	2551.101110
751.191821	2553.062118
751.520039	2551.138918
751.848210	2549.886192
752.176334	2550.360060
752.504411	2552.734443
752.832440	2550.443239
753.160421	2553.649413
753.488356	2553.203271
753.816243	2551.217056
754.144082	2549.586243
754.471875	2550.503733
754.799620	2550.551624
755.127318	2547.950388
755.454969	2550.402910
755.782572	2549.419885
756.110129	2548.641027
756.437638	2548.888043
756.765100	2547.564740
757.092515	2548.666232
757.419882	2550.995245
757.747203	2552.999104
758.074477	2550.836449
758.401703	2553.112530
758.728882	2549.039278
759.056014	2549.951727
759.383099	2550.838970
759.710138	2550.176058
760.037129	2553.775442
760.364073	2552.152190
760.690970	2551.317879
761.017820	2549.238403
761.344623	2553.420040
761.671379	2551.713610
761.998088	2549.205636
762.324751	2551.496840
762.651366	2555.713765
762.977935	2567.890673
763.304456	2572.762948
763.630931	2572.831003
763.957359	2572.652042
764.283740	2566.648028
764.610074	2562.529405
764.936362	2563.068809
765.262602	2557.374826
765.588796	2556.096893
765.914943	2552.772252
766.241044	2553.407438
766.567097	2550.889381
766.893104	2549.187992
767.219064	2549.697148
767.544978	2549.152704
767.870845	2547.685728
768.196665	2549.467776
768.522438	2548.673794
768.848165	2547.801674
769.173846	2548.719164
769.499479	2547.574822
769.825066	2548.643547
770.150607	2548.199926
770.476101	2544.308155
770.801548	2550.271840
771.126949	2546.299411
771.452303	2546.624565
771.777611	2545.941489
772.102872	2544.713968
772.428087	2545.991900
772.753256	2543.877136
773.078378	2546.964843
773.403453	2544.829914
773.728482	2543.005017
774.053465	2544.224976
774.378401	2544.885367
774.703291	2546.405275
775.028135	2544.875285
775.352932	2545.119781
775.677683	2543.635161
776.002388	2545.303783
776.327046	2545.896118
776.651658	2543.166333
776.976224	2543.705737
777.300743	2541.835469
777.625216	2543.594832
777.949643	2542.788247
778.274024	2544.552651
778.598359	2539.997968
778.922647	2539.703061
779.246889	2541.545602
779.571086	2539.821528
779.895236	2542.856303
780.219339	2543.244471
780.543397	2541.737166
780.867409	2543.786395
781.191374	2541.550644
781.515294	2541.684234
781.839167	2542.589121
782.162995	2545.152548
782.486776	2543.204142
782.810511	2543.647764
783.134201	2542.168185
783.457844	2540.796991
783.781441	2544.376210
784.104993	2543.105840
784.428498	2542.911755
784.751958	2544.829914
785.075372	2540.343287
785.398739	2541.291024
785.722061	2540.411343
786.045337	2545.364277
786.368568	2542.513504
786.691752	2541.401930
787.014891	2543.783875
787.337983	2542.697506
787.661030	2544.734132
787.984031	2545.886036
788.306987	2546.407795
788.629897	2546.737991
788.952760	2545.316386
789.275579	2548.094061
789.598351	2544.812270
789.921078	2543.998124
790.243759	2543.272198
790.566395	2541.843031
790.888984	2542.468134
791.211529	2543.166333
791.534027	2545.225645
791.856480	2543.922507
792.178888	2542.843700
792.501249	2541.480068
792.823566	2543.209183
793.145836	2541.593493
793.468062	2544.408978
793.790241	2541.414532
794.112375	2542.347146
794.434464	2544.146838
794.756507	2541.855633
795.078505	2542.737835
795.400457	2541.094419
795.722364	2539.745911
796.044226	2538.916641
796.366042	2539.887063
796.687812	2540.141641
797.009538	2542.518545
797.331218	2540.733977
797.652852	2542.803370
797.974442	2544.212373
798.295986	2541.154913
798.617484	2543.282280
798.938938	2541.036446
799.260346	2543.428473
799.581709	2540.973432
799.903026	2543.264636
800.224299	2545.495347
800.545526	2543.478885
800.866708	2538.977135
801.187845	2542.382434
801.508936	2539.899666
801.829983	2542.427804
802.150984	2539.201466
802.471940	2540.340767
802.792851	2542.377393
803.113717	2543.609955
803.434538	2541.197763
803.755314	2542.775644
804.076045	2541.449821
804.396731	2541.462423
804.717372	2540.418905
805.037967	2538.064686
805.358518	2540.935623
805.679024	2541.573329
805.999485	2537.827752
806.319901	2543.821683
806.640272	2541.250695
806.960598	2538.977135
807.280879	2538.619213
807.601115	2542.596683
807.921306	2539.438400
808.241453	2542.372352
808.561554	2540.277752
808.881611	2541.757331
809.201623	2542.057280
809.521590	2541.958977
809.841513	2541.028884
810.161390	2541.469985
810.481223	2541.694317
810.801011	2542.037115
811.120755	2540.688606
811.440453	2542.957126
811.760107	2541.182639
812.079716	2537.517721
812.399281	2538.112577
812.718801	2539.365303
813.038276	2532.973120
813.357707	2540.476878
813.677093	2539.687937
813.996434	2541.008720
814.315731	2538.992258
814.634983	2540.590304
814.954191	2542.236241
815.273354	2540.164326
815.592473	2541.356559
815.911547	2539.980324
816.230577	2541.711961
816.549562	2541.762372
816.868502	2540.950746
817.187399	2542.110212
817.506250	2542.125335
817.825058	2543.297403
818.143821	2544.668597
818.462539	2542.115253
818.781213	2543.925027
819.099843	2546.095244
819.418429	2544.184647
819.736970	2551.249824
820.055466	2555.358364
820.373919	2551.968188
820.692327	2558.788869
821.010691	2566.506876
821.329011	2583.447673
821.647286	2614.453290
821.965517	2652.224135
822.283704	2672.454286
822.601847	2681.137673
822.919945	2660.773932
823.237999	2641.912455
823.556010	2621.957048
823.873976	2603.914758
824.191897	2592.564600
824.509775	2581.191757
824.827609	2576.122877
825.145398	2571.212793
825.463144	2570.428893
825.780845	2571.424521
826.098502	2573.135993
826.416116	2585.670822
826.733685	2592.247007
827.051210	2596.852101
827.368692	2594.505444
827.686129	2582.152097
828.003522	2572.946950
828.320872	2560.747357
828.638177	2556.560679
828.955439	2551.990873
829.272656	2548.751932
829.589830	2545.182795
829.906960	2548.333516
830.224046	2545.770089
830.541088	2545.210521
830.858086	2543.720860
831.175041	2545.777651
831.491952	2543.068031
831.808819	2543.231868
832.125642	2545.482744
832.442421	2546.039791
832.759157	2553.364588
833.075849	2557.208467
833.392497	2565.576783
833.709101	2569.549212
834.025662	2570.285221
834.342179	2563.847667
834.658653	2558.453633
834.975083	2556.696790
835.291469	2558.105793
835.607811	2548.144473
835.924110	2545.369318
836.240366	2547.025337
836.556578	2540.676003
836.872746	2540.754141
837.188871	2540.658359
837.504952	2539.811446
837.820990	2538.009233
838.136984	2538.747762
838.452935	2538.750283
838.768842	2538.246167
839.084706	2538.611651
839.400526	2542.216076
839.716303	2547.708413
840.032037	2550.889381
840.347727	2550.675132
840.663373	2550.362581
840.978977	2544.633309
841.294537	2542.778165
841.610054	2542.364790
841.925527	2540.396219
842.240957	2537.479912
842.556344	2539.466127
842.871687	2537.036290
843.186987	2538.790612
843.502244	2537.144675
843.817458	2537.558050
844.132629	2535.836496
844.447756	2535.491177
844.762840	2529.981196
845.077881	2533.562935
845.392879	2533.358769
845.707833	2534.661907
846.022745	2529.963552
846.337613	2536.741383
846.652438	2534.364479
846.967221	2534.427493
847.281960	2534.656866
847.596656	2536.146527
847.911309	2536.028060
848.225919	2533.767102
848.540485	2533.449509
848.855009	2534.472864
849.169490	2535.095446
849.483928	2532.695857
849.798323	2533.404139
850.112675	2533.875487
850.426984	2533.681402
850.741251	2534.523275
851.055474	2533.003367
851.369654	2533.820034
851.683792	2533.250384
851.997887	2534.409849
852.311938	2536.632998
852.625947	2538.077289
852.939914	2535.665097
853.253837	2537.051414
853.567718	2533.346166
853.881555	2533.968748
854.195350	2532.925229
854.509103	2534.251053
854.822812	2532.784077
855.136479	2534.961856
855.450103	2534.374561
855.763685	2537.038811
856.077224	2532.365661
856.390720	2534.190559
856.704173	2535.085364
857.017584	2536.088553
857.330953	2537.326157
857.644278	2534.878677
857.957561	2538.931764
858.270802	2537.764737
858.584000	2535.924716
858.897155	2536.995961
859.210268	2533.320960
859.523339	2535.425642
859.836367	2534.732483
860.149352	2536.149047
860.462295	2536.272556
860.775195	2533.469674
861.088054	2532.456402
861.400869	2533.590662
861.713642	2531.768285
862.026373	2530.916330
862.339062	2533.988913
862.651708	2534.551002
862.964312	2532.710980
863.276873	2535.541588
863.589392	2534.210724
863.901869	2536.489325
864.214303	2532.842050
864.526696	2536.244829
864.839045	2537.374048
865.151353	2535.700385
865.463619	2537.346321
865.775842	2535.463450
866.088023	2536.721218
866.400162	2536.552340
866.712258	2538.548637
867.024313	2536.728780
867.336325	2535.060158
867.648296	2535.813811
867.960224	2535.511341
868.272110	2535.186187
868.583954	2535.062679
868.895755	2533.479756
869.207515	2538.473019
869.519233	2537.202648
869.830909	2535.549150
870.142542	2536.975797
870.454134	2537.361445
870.765684	2537.200128
871.077191	2532.768954
871.388657	2535.062679
871.700081	2535.279448
872.011463	2535.710467
872.322803	2534.785415
872.634101	2537.358924
872.945357	2537.679038
873.256571	2537.109387
873.567744	2536.023018
873.878874	2537.653832
874.189963	2538.931764
874.501010	2541.671631
874.812015	2536.862371
875.122979	2535.685261
875.433900	2537.701723
875.744780	2538.987217
876.055618	2536.512010
876.366415	2537.195087
876.677169	2540.567619
876.987882	2535.644932
877.298554	2535.844058
877.609183	2537.517721
877.919771	2533.368851
878.230317	2536.900179
878.540822	2540.933102
878.851285	2543.753628
879.161707	2543.393185
879.472087	2543.098278
879.782425	2547.842004
880.092722	2555.834753
880.402977	2567.242884
880.713191	2584.670153
881.023363	2602.125148
881.333494	2617.556120
881.643583	2617.387242
881.953631	2617.800616
882.263637	2611.098402
882.573602	2608.482043
882.883526	2595.659868
883.193408	2589.955803
883.503248	2577.226889
883.813048	2574.986097
884.122806	2567.202555
884.432522	2561.732903
884.742197	2556.195196
885.051831	2553.518343
885.361424	2550.680173
885.670975	2548.157076
885.980485	2547.879812
886.289954	2546.496016
886.599382	2543.877136
886.908768	2544.058618
887.218113	2540.764224
887.527417	2542.972249
887.836680	2541.328833
888.145901	2540.870088
888.455082	2537.676517
888.764221	2539.972763
889.073319	2536.350693
889.382376	2538.273894
889.691392	2537.202648
890.000366	2539.824048
890.309300	2539.153575
890.618193	2537.737011
890.927044	2543.632640
891.235855	2536.569984
891.544625	2536.867412
891.853353	2540.199614
892.162041	2536.988399
892.470687	2541.066693
892.779293	2539.801363
893.087858	2543.161292
893.396381	2544.471992
893.704864	2544.996272
894.013306	2547.844524
894.321707	2557.400031
894.630068	2561.342214
894.938387	2565.236505
895.246665	2561.997564
895.554903	2560.260886
895.863100	2555.514640
896.171256	2552.389124
896.479371	2551.078424
896.787446	2548.031047
897.095480	2549.399720
897.403473	2541.442259
897.711425	2543.456200
898.019336	2542.876467
898.327207	2543.189019
898.635038	2541.008720
898.942827	2540.353370
899.250576	2540.605427
899.558284	2538.473019
899.865952	2538.954449
900.173579	2539.135931
900.481165	2537.936136
900.788711	2536.779192
901.096216	2539.241795
901.403681	2536.131403
901.711105	2538.231044
902.018489	2535.725590
902.325832	2540.199614
902.633135	2536.126362
902.940397	2541.054090
903.247619	2539.972762
903.554800	2546.385110
903.861941	2557.407593
904.169041	2570.456620
904.476101	2572.820921
904.783121	2577.047928
905.090100	2572.578946
905.397039	2564.795404
905.703938	2557.173179
906.010796	2551.663198
906.317614	2550.491130
906.624391	2544.867723
906.931129	2541.036446
907.237826	2540.658359
907.544483	2536.857329
907.851099	2536.280117
908.157675	2538.205838
908.464211	2534.707277
908.770707	2529.981196
909.077163	2532.569828
909.383578	2531.937163
909.689954	2532.383305
909.996289	2527.775691
910.302584	2534.450178
910.608839	2531.213758
910.915054	2535.579397
911.221229	2532.857174
911.527363	2536.819521
911.833458	2534.924047
912.139513	2535.246681
912.445527	2534.417411
912.751502	2536.411187
913.057436	2536.393543
913.363331	2537.505118
913.669186	2535.342463
913.975000	2537.472350
914.280775	2539.037628
914.586510	2544.560212
914.892205	2547.715975
915.197859	2553.780483
915.503475	2557.556307
915.809050	2566.804304
916.114585	2570.481826
916.420081	2573.183884
916.725536	2573.085582
917.030952	2566.479149
917.336328	2561.899261
917.641665	2560.981771
917.946961	2556.883313
918.252218	2552.658826
918.557435	2547.905018
918.862612	2546.453166
919.167750	2542.347146
919.472848	2542.783206
919.777906	2542.170706
920.082925	2542.054759
920.387904	2539.592155
920.692843	2538.190715
920.997743	2539.501415
921.302603	2536.731301
921.607423	2534.661907
921.912204	2537.951260
922.216946	2533.573018
922.521647	2538.072247
922.826310	2536.915303
923.130932	2536.179294
923.435516	2535.493697
923.740059	2536.048224
924.044564	2531.322142
924.349028	2534.666948
924.653454	2527.344672
924.957840	2528.178983
925.262186	2528.189065
925.566493	2531.990095
925.870761	2527.400125
926.174989	2532.907585
926.479178	2533.383974
926.783328	2534.389685
927.087438	2531.727955
927.391509	2533.278110
927.695541	2531.594365
927.999533	2533.751979
928.303486	2527.931967
928.607400	2531.901875
928.911275	2530.611340
929.215110	2534.855991
929.518906	2531.927081
929.822663	2531.884231
930.126381	2532.486649
930.430060	2531.112935
930.733699	2530.722245
931.037299	2532.272400
931.340861	2535.450848
931.644383	2533.262987
931.947866	2530.306350
932.251309	2534.891279
932.554714	2530.298788
932.858080	2531.299457
933.161407	2527.400125
933.464694	2532.562266
933.767943	2529.797193
934.071153	2533.900693
934.374323	2530.752492
934.677455	2530.651669
934.980548	2528.453726
935.283602	2528.950280
935.586617	2528.400794
935.889593	2531.115455
936.192530	2529.197296
936.495428	2531.448171
936.798287	2530.099663
937.101108	2530.792821
937.403890	2532.158974
937.706632	2532.138809
938.009336	2531.060002
938.312002	2534.732483
938.614628	2533.265507
938.917216	2534.056968
939.219765	2531.732997
939.522275	2533.638553
939.824747	2534.172915
940.127179	2531.173428
940.429573	2528.194107
940.731929	2530.444982
941.034246	2529.741741
941.336524	2529.330887
941.638763	2530.596216
941.940964	2530.515558
942.243126	2528.831813
942.545250	2531.591844
942.847335	2533.381454
943.149381	2531.871628
943.451389	2530.117307
943.753359	2532.728624
944.055290	2533.320960
944.357182	2529.608150
944.659036	2530.119827
944.960851	2532.718542
945.262628	2531.498583
945.564367	2531.624612
945.866067	2530.346679
946.167729	2532.736186
946.469352	2530.029087
946.770937	2529.182173
947.072484	2531.188552
947.373992	2530.777698
947.675462	2529.524971
947.976893	2530.571011
948.278286	2529.131761
948.579641	2533.288193
948.880958	2530.139992
949.182236	2532.340456
949.483476	2530.676875
949.784678	2530.356762
950.085841	2531.463295
950.386967	2532.642925
950.688054	2528.998171
950.989103	2532.791639
951.290114	2534.598892
951.591087	2532.733666
951.892021	2533.159643
952.192917	2531.231402
952.493776	2530.722245
952.794596	2531.644776
953.095378	2533.620909
953.396122	2529.635877
953.696828	2532.479087
953.997496	2528.559590
954.298126	2532.287523
954.598718	2530.697039
954.899272	2531.342307
955.199788	2530.087060
955.500266	2528.589837
955.800706	2527.833664
956.101108	2524.942562
956.401472	2527.619415
956.701798	2525.103879
957.002087	2525.335772
957.302337	2530.424817
957.602550	2530.545805
957.902724	2528.667975
958.202861	2530.578572
958.502960	2531.697708
958.803022	2532.484128
959.103045	2528.849457
959.403031	2526.286030
959.702979	2526.001205
960.002889	2528.403314
960.302762	2529.895496
960.602596	2526.006246
960.902393	2527.226205
961.202153	2526.790145
961.501875	2531.596885
961.801559	2528.030269
962.101205	2527.221164
962.400814	2526.641431
962.700385	2529.230064
962.999918	2527.042203
963.299414	2528.393232
963.598873	2526.848118
963.898293	2526.724610
964.197677	2527.006915
964.497022	2525.618077
964.796331	2527.364837
965.095601	2528.584796
965.394835	2527.987419
965.694030	2528.289888
965.993189	2527.450536
966.292309	2528.955321
966.591393	2527.979858
966.890439	2528.773839
967.189447	2527.760567
967.488419	2527.495907
967.787353	2528.335259
968.086249	2526.807789
968.385108	2524.980371
968.683930	2525.171935
968.982714	2528.723428
969.281462	2526.333921
969.580172	2529.945908
969.878844	2527.082532
970.177480	2527.546318
970.476078	2527.236287
970.774639	2528.415917
971.073162	2529.146885
971.371649	2525.219826
971.670098	2525.824764
971.968510	2522.164887
972.266885	2521.809485
972.565223	2526.142357
972.863524	2524.408200
973.161788	2527.415248
973.460014	2527.178314
973.758204	2528.143695
974.056356	2529.182173
974.354471	2527.846267
974.652550	2528.799045
974.950591	2526.162522
975.248595	2528.705784
975.546563	2525.310567
975.844493	2528.347862
976.142386	2526.560773
976.440243	2526.407018
976.738062	2529.482121
977.035845	2526.129754
977.333590	2528.569673
977.631299	2528.428520
977.928971	2527.256452
978.226606	2529.459436
978.524204	2529.943387
978.821765	2527.571524
979.119290	2528.098325
979.416777	2526.959024
979.714228	2525.890299
980.011642	2529.134282
980.309020	2526.807789
980.606360	2527.122861
980.903664	2526.417100
981.200931	2526.228057
981.498162	2525.366019
981.795356	2527.400125
982.092513	2528.476411
982.389633	2527.213602
982.686717	2528.373068
982.983764	2529.764426
983.280775	2528.864580
983.577749	2529.880373
983.874686	2528.667975
984.171587	2531.732997
984.468451	2532.295085
984.765279	2527.253931
985.062070	2528.988088
985.358824	2527.722759
985.655543	2526.706966
985.952224	2525.391225
986.248869	2527.904240
986.545478	2520.150946
986.842050	2525.597912
987.138586	2522.792510
987.435086	2525.829805
987.731549	2525.502130
988.027975	2525.363499
988.324366	2525.441637
988.620719	2526.848118
988.917037	2526.291071
989.213318	2526.717048
989.509563	2527.405166
989.805772	2526.079342
990.101944	2521.630524
990.398080	2527.001874
990.694180	2525.063550
990.990244	2526.409538
991.286271	2525.111441
991.582262	2526.951462
991.878217	2525.078673
992.174136	2527.677388
992.470019	2524.904754
992.765865	2526.394415
993.061676	2526.482635
993.357450	2526.999353
993.653188	2525.819723
993.948890	2526.154960
994.244556	2525.855011
994.540186	2528.184024
994.835780	2526.923736
995.131337	2527.538757
995.426859	2526.908612
995.722345	2526.016328
996.017795	2524.254445
996.313208	2524.937521
996.608586	2522.855525
996.903928	2525.290402
997.199234	2526.028931
997.494504	2525.189579
997.789738	2526.611184
998.084936	2528.771319
998.380099	2523.858714
998.675225	2527.059847
998.970316	2525.209743
999.265371	2526.364168
999.560390	2526.323838
999.855373	2528.166380
1000.150320	2528.955321
1000.445232	2525.986081
1000.740108	2525.048427
1001.034948	2526.233098
1001.329752	2523.336955
1001.624521	2527.266534
1001.919254	2523.208405
1002.213951	2525.915505
1002.508613	2521.522139
1002.803239	2524.176307
1003.097829	2523.324352
1003.392384	2526.598581
1003.686903	2525.671009
1003.981386	2526.928777
1004.275834	2526.369209
1004.570246	2525.713859
1004.864623	2525.885258
1005.158964	2525.098838
1005.453270	2526.391894
1005.747540	2527.624456
1006.041775	2525.658406
1006.335974	2525.282840
1006.630138	2525.053468
1006.924266	2527.014477
1007.218359	2526.144878
1007.512416	2525.991122
1007.806438	2525.766791
1008.100425	2523.878879
1008.394376	2525.517254
1008.688292	2526.149919
1008.982172	2526.124713
1009.276017	2526.117151
1009.569827	2525.108920
1009.863602	2527.463139
1010.157341	2525.832326
1010.451045	2525.149250
1010.744714	2524.456091
1011.038347	2526.391894
1011.331945	2526.681760
1011.625508	2528.879703
1011.919036	2522.676564
1012.212528	2527.538757
1012.505986	2522.023734
1012.799408	2525.098838
1013.092795	2525.723941
1013.386147	2523.541122
1013.679464	2525.703777
1013.972745	2525.693694
1014.265992	2523.684794
1014.559204	2525.197141
1014.852380	2527.150588
1015.145521	2526.812830
1015.438628	2523.750329
1015.731699	2525.880217
1016.024736	2525.247552
1016.317737	2526.593540
1016.610703	2525.161852
1016.903635	2523.102541
1017.196531	2521.386028
1017.489393	2523.430216
1017.782219	2522.018693
1018.075011	2523.392407
1018.367768	2524.277130
1018.660490	2527.085053
1018.953177	2527.085053
1019.245829	2527.085053
