Dividing Wavelength (nm)	Counts (n)	Blue Motor Position (mm): 0.000000	Red Motor Position (mm): 25.500000	
326.493990	2126.583024
326.888308	2126.583024
327.282561	2126.583024
327.676750	2094.274269
328.070874	2094.556573
328.464933	2095.970617
328.858929	2102.317430
329.252859	2114.123812
329.646726	2123.797786
330.040528	2135.377317
330.434265	2152.202168
330.827938	2169.662204
331.221547	2189.660461
331.615091	2207.682586
332.008571	2227.842160
332.401986	2247.815212
332.795338	2265.118973
333.188625	2287.468928
333.581847	2301.687503
333.975006	2321.151398
334.368100	2341.550427
334.761129	2357.178003
335.154095	2374.348173
335.546996	2393.444064
335.939833	2410.226065
336.332606	2425.500762
336.725315	2438.227154
337.117960	2445.183947
337.510540	2454.157201
337.903056	2463.221195
338.295508	2471.864253
338.687896	2481.513022
339.080220	2490.700525
339.472480	2497.130517
339.864676	2499.358707
340.256807	2505.531599
340.648875	2506.249964
341.040879	2510.403875
341.432818	2513.017713
341.824694	2515.485358
342.216506	2512.478309
342.608253	2515.712210
342.999937	2513.569719
343.391557	2512.538803
343.783113	2512.221211
344.174605	2510.902949
344.566033	2509.320027
344.957397	2508.518483
345.348697	2509.488905
345.739934	2505.067813
346.131106	2502.143944
346.522215	2504.530930
346.913260	2501.670076
347.304241	2499.557832
347.695159	2496.823006
348.086012	2493.984837
348.476802	2491.665906
348.867528	2492.154898
349.258191	2494.035248
349.648789	2487.189361
350.039324	2491.066008
350.429796	2488.419403
350.820203	2486.904536
351.210548	2485.245996
351.600828	2484.628455
351.991045	2486.130719
352.381198	2482.574185
352.771288	2481.830615
353.161314	2482.427991
353.551276	2482.962354
353.941175	2482.816160
354.331010	2484.222642
354.720782	2484.918321
355.110490	2481.626448
355.500135	2481.986890
355.889717	2483.126191
356.279235	2483.620224
356.668689	2481.233238
357.058080	2484.570482
357.447408	2482.153248
357.836672	2480.061170
358.225873	2484.860348
358.615010	2481.074442
359.004084	2487.118785
359.393095	2486.692807
359.782043	2486.980153
360.170927	2487.925370
360.559748	2489.984681
360.948505	2490.385453
361.337199	2491.020638
361.725830	2489.853611
362.114398	2488.676502
362.502903	2493.316884
362.891344	2492.023828
363.279722	2493.253869
363.668037	2495.940804
364.056289	2493.644559
364.444478	2492.046513
364.832603	2495.540033
365.220665	2496.089518
365.608665	2494.753613
365.996601	2498.325270
366.384474	2498.171515
366.772284	2500.999602
367.160031	2500.361896
367.547715	2502.252329
367.935336	2506.010509
368.322893	2506.645694
368.710388	2511.991838
369.097820	2517.249762
369.485189	2521.244876
369.872495	2527.135464
370.259738	2532.055630
370.646918	2541.054090
371.034035	2546.188505
371.421090	2557.359702
371.808081	2568.881259
372.195010	2575.583473
372.581875	2593.444281
372.968678	2606.147989
373.355418	2614.722992
373.742096	2634.239819
374.128710	2649.222128
374.515262	2662.881134
374.901751	2677.709688
375.288177	2689.566482
375.674540	2713.224617
376.060841	2732.272617
376.447079	2749.757859
376.833254	2775.228289
377.219367	2782.359001
377.605417	2821.012048
377.991404	2831.585868
378.377329	2851.841225
378.763191	2869.757485
379.148991	2906.691499
379.534727	2933.666713
379.920402	2958.564972
380.306013	2973.539720
380.691563	3021.602080
381.077049	3043.692417
381.462474	3060.487021
381.847835	3099.220726
382.233134	3122.830970
382.618371	3120.118829
383.003545	3191.055426
383.388657	3194.876620
383.773706	3230.794842
384.158693	3245.578025
384.543618	3274.292438
384.928480	3307.717808
385.313280	3353.040302
385.698017	3353.110878
386.082692	3405.569125
386.467305	3412.566246
386.851856	3446.344498
387.236344	3467.832416
387.620770	3497.247549
388.005133	3526.481200
388.389435	3550.885426
388.773674	3561.194585
389.157851	3606.675875
389.541965	3620.342443
389.926018	3584.182247
390.310008	3655.794358
390.693936	3675.694312
391.077802	3717.961867
391.461606	3702.919064
391.845348	3766.838374
392.229027	3768.900206
392.612645	3778.337246
392.996200	3857.160727
393.379694	3898.893920
393.763125	3964.171821
394.146494	3930.481790
394.529801	3988.049246
394.913047	4040.988923
395.296230	4004.624560
395.679351	4060.180596
396.062410	4088.108588
396.445408	4065.294846
396.828343	4098.720217
397.211217	4117.952219
397.594028	4040.948594
397.976778	4104.935960
398.359466	4136.765805
398.742092	4163.209178
399.124656	4089.142025
399.507158	4169.399714
399.889598	4189.889484
400.271977	4253.342488
400.654294	4226.193354
401.036549	4230.286771
401.418742	4201.665620
401.800874	4303.953152
402.182944	4324.899146
402.564952	4389.183940
402.946898	4378.763875
403.328783	4372.656517
403.710606	4288.738949
404.092367	4478.417404
404.474067	4441.780818
404.855705	4450.849854
405.237282	4378.857136
405.618797	4490.327130
406.000250	4520.687479
406.381642	4606.278710
406.762972	4564.820260
407.144240	4575.565480
407.525447	4577.327363
407.906593	4638.312722
408.287677	4677.976520
408.668700	4606.460191
409.049661	4661.847348
409.430560	4696.331361
409.811399	4626.962564
410.192176	4786.464672
410.572891	4724.322368
410.953545	4829.886650
411.334138	4708.800655
411.714669	4777.826654
412.095139	4667.871527
412.475547	4809.890913
412.855894	4796.068070
413.236180	4807.675326
413.616405	4757.500722
413.996568	4843.338969
414.376670	4786.457110
414.756711	4738.840891
415.136691	4773.503865
415.516609	4847.452551
415.896466	4885.604003
416.276262	4923.657153
416.655997	4903.762239
417.035670	5081.432665
417.415283	5174.550339
417.794834	5117.557574
418.174324	5076.401594
418.553753	4976.732941
418.933121	5167.265871
419.312428	5227.598401
419.691674	5173.050595
420.070859	5300.584226
420.449983	5206.294484
420.829045	5326.175643
421.208047	5233.557044
421.586988	5296.395027
421.965867	5312.289785
422.344686	5444.990598
422.723444	5301.766377
423.102141	5119.828614
423.480777	5418.262401
423.859352	5187.632133
424.237866	5445.499755
424.616319	5437.421306
424.994712	5547.759561
425.373044	5427.255819
425.751314	5563.321603
426.129524	5368.163414
426.507673	5562.177261
426.885762	5643.100383
427.263789	5573.502213
427.641756	5460.822342
428.019662	5579.145785
428.397508	5586.888997
428.775292	5532.857910
429.153016	5631.220904
429.530679	5558.497218
429.908282	5640.073170
430.285824	5511.667420
430.663305	5786.299399
431.040726	5518.528430
431.418086	5523.017578
431.795385	5623.008864
432.172624	5635.634434
432.549802	5630.573116
432.926920	5640.373119
433.303977	5647.576927
433.680974	5685.120921
434.057910	5704.173962
434.434786	5706.555907
434.811601	5677.332338
435.188355	5911.778759
435.565050	5780.749089
435.941683	5755.417291
436.318257	5966.263550
436.694770	5951.886179
437.071222	5977.308718
437.447614	5907.672740
437.823946	5812.899047
438.200218	5962.162572
438.576429	5823.034287
438.952580	5913.770015
439.328670	5948.054903
439.704700	5855.453948
440.080670	5833.676163
440.456580	6088.141006
440.832429	5969.409230
441.208218	5806.877389
441.583947	5945.148677
441.959616	5939.006031
442.335224	5859.176840
442.710773	5980.151929
443.086261	5989.314226
443.461689	5778.427637
443.837057	5908.028141
444.212365	6036.068408
444.587612	5919.474081
444.962800	6052.666407
445.337927	6009.735940
445.712995	5629.111181
446.088002	6137.314941
446.462949	5962.361697
446.837837	5879.706939
447.212664	6023.349576
447.587431	6115.890037
447.962139	6568.502474
448.336786	7333.981521
448.711374	7085.273675
449.085901	6259.121821
449.460369	6152.677858
449.834776	6059.860133
450.209124	6357.696543
450.583412	6438.100427
450.957640	6530.913110
451.331808	6294.311596
451.705917	5890.910903
452.079965	5790.586900
452.453954	5919.501807
452.827883	5780.912926
453.201752	5817.539429
453.575562	5619.422083
453.949311	5719.746086
454.323001	5601.435246
454.696632	5612.475373
455.070202	5660.268032
455.443713	5727.396037
455.817164	5740.891206
456.190556	5741.498665
456.563888	5735.862655
456.937160	5711.864242
457.310373	5436.985246
457.683526	5390.969594
458.056619	5273.200678
458.429653	5210.037541
458.802628	5117.091267
459.175542	5130.606601
459.548398	5273.886275
459.921194	5312.647707
460.293930	5255.854068
460.666607	5458.082475
461.039224	5565.433846
461.411782	5561.221962
461.784280	5499.803064
462.156719	5372.859249
462.529099	5243.722531
462.901419	4979.676975
463.273680	4862.845714
463.645882	4810.694977
464.018024	4679.937529
464.390106	4688.235268
464.762130	4779.938898
465.134094	4911.994443
465.505999	5245.519703
465.877845	5639.405217
466.249631	5790.322240
466.621358	5542.935177
466.993026	5212.364034
467.364634	5035.981622
467.736184	4830.869675
468.107674	4647.132220
468.479105	4574.337959
468.850477	4450.499494
469.221790	4309.352228
469.593043	4157.384124
469.964238	4047.960839
470.335373	3991.028568
470.706449	3949.812094
471.077467	3895.390318
471.448425	4123.668887
471.819324	4289.157365
472.190164	4231.950351
472.560945	3921.372425
472.931667	3707.894683
473.302330	3637.815082
473.672934	3530.456150
474.043479	3540.735062
474.413965	3486.726661
474.784393	3422.441867
475.154761	3401.362282
475.525070	3370.573435
475.895321	3311.047490
476.265513	3294.431847
476.635645	3281.624796
477.005719	3238.235585
477.375734	3217.564333
477.745691	3208.412118
478.115588	3185.421936
478.485427	3169.736386
478.855207	3189.631300
479.224928	3225.405848
479.594591	3245.804877
479.964194	3179.501101
480.333739	3138.720687
480.703226	3089.082966
481.072653	3068.830130
481.442022	3057.762277
481.811333	3042.754762
482.180584	3001.674399
482.549777	2958.280147
482.918912	2926.553645
483.287988	2908.534041
483.657005	2885.264075
484.025964	2851.982377
484.394864	2834.209789
484.763706	2818.118426
485.132489	2795.902061
485.501213	2778.820111
485.869879	2769.660335
486.238487	2747.693507
486.607036	2742.606982
486.975527	2726.455126
487.343959	2719.831049
487.712333	2713.690924
488.080648	2702.045859
488.448905	2696.334231
488.817104	2686.287212
489.185244	2683.141532
489.553326	2682.778569
489.921350	2684.358970
490.289315	2692.986905
490.657222	2695.731813
491.025070	2685.742767
491.392861	2681.409895
491.760593	2668.862463
492.128267	2663.128151
492.495883	2654.623724
492.863440	2648.584422
493.230939	2640.352218
493.598380	2636.994809
493.965763	2625.969806
494.333088	2629.168418
494.700354	2621.417644
495.067563	2625.904271
495.434713	2618.607201
495.801805	2622.761112
496.168839	2619.307921
496.535815	2617.437653
496.902733	2616.636110
497.269593	2614.871706
497.636395	2615.980760
498.003139	2612.721654
498.369825	2609.714605
498.736453	2610.226282
499.103023	2608.940788
499.469535	2607.786364
499.835989	2606.125304
500.202385	2608.928185
500.568723	2603.103132
500.935003	2605.326281
501.301226	2604.386106
501.667390	2604.184460
502.033497	2607.748555
502.399546	2604.655807
502.765537	2601.351331
503.131470	2599.899479
503.497345	2604.088678
503.863163	2599.392843
504.228923	2601.540374
504.594625	2599.153388
504.960269	2600.423759
505.325856	2600.680858
505.691385	2595.906885
506.056856	2600.814448
506.422270	2595.937132
506.787625	2598.868563
507.152924	2596.421083
507.518164	2596.448809
507.883347	2596.347986
508.248472	2595.682554
508.613540	2596.930239
508.978550	2593.938314
509.343503	2595.831268
509.708398	2596.484097
510.073236	2598.808069
510.438016	2596.801690
510.802738	2595.906885
511.167403	2596.869745
511.532010	2591.831112
511.896561	2594.800352
512.261053	2596.927719
512.625488	2590.774990
512.989866	2593.988726
513.354186	2590.979157
513.718449	2587.069742
514.082655	2594.326483
514.446803	2594.434868
514.810894	2598.641711
515.174927	2595.183479
515.538904	2593.066195
515.902822	2595.760692
516.266684	2595.067533
516.630488	2593.933273
516.994235	2594.480238
517.357925	2594.603747
517.721558	2594.649117
518.085133	2592.831781
518.448651	2597.270517
518.812112	2592.138622
519.175516	2592.814137
519.538863	2597.051227
519.902152	2593.968561
520.265385	2596.736155
520.628560	2598.409818
520.991678	2592.166349
521.354739	2593.900506
521.717743	2595.352358
522.080690	2592.504106
522.443580	2595.531319
522.806413	2597.653645
523.169189	2598.361927
523.531908	2595.990064
523.894569	2593.842532
524.257174	2596.360589
524.619722	2594.722214
524.982213	2594.434868
525.344647	2596.905033
525.707025	2598.235898
526.069345	2593.421596
526.431608	2600.015425
526.793815	2596.723552
527.155964	2592.567121
527.518057	2595.344796
527.880093	2597.116762
528.242072	2597.963676
528.603995	2596.302616
528.965860	2595.299426
529.327669	2596.206834
529.689421	2595.390167
530.051117	2593.189703
530.412755	2594.578541
530.774337	2593.640886
531.135862	2595.720362
531.497331	2592.862028
531.858743	2592.226843
532.220098	2594.313880
532.581396	2591.584096
532.942638	2591.528643
533.303824	2592.252048
533.664953	2593.754312
534.026025	2591.984867
534.387040	2594.087028
534.747999	2592.166349
535.108902	2593.560228
535.469748	2594.487800
535.830537	2594.782708
536.191270	2593.993767
536.551947	2593.280444
536.912567	2594.024014
537.273131	2593.938314
537.633638	2591.379929
537.994089	2592.950248
538.354483	2592.609970
538.714821	2596.098449
539.075103	2596.133737
539.435328	2590.843046
539.795497	2592.330186
540.155609	2595.397728
540.515665	2594.956627
540.875665	2592.123499
541.235609	2592.327666
541.595496	2593.030907
541.955328	2595.763212
542.315102	2592.872110
542.674821	2592.252048
543.034483	2594.568459
543.394090	2594.427306
543.753640	2594.278592
544.113134	2592.705752
544.472571	2591.800865
544.831953	2592.758684
545.191278	2595.826227
545.550548	2592.070567
545.909761	2597.136927
546.268918	2593.167018
546.628019	2595.070053
546.987064	2592.234404
547.346053	2593.973602
547.704986	2595.238932
548.063863	2592.105855
548.422684	2592.191555
548.781449	2594.576020
549.140158	2594.933942
549.498811	2595.654827
549.857408	2591.269023
550.215949	2590.946390
550.574434	2591.321956
550.932864	2592.282295
551.291237	2591.584096
551.649555	2592.927563
552.007817	2592.315063
552.366022	2595.770774
552.724173	2594.316401
553.082267	2594.182810
553.440305	2594.770105
553.798288	2595.637183
554.156215	2593.419076
554.514086	2592.690629
554.871902	2595.692636
555.229661	2595.891762
555.587365	2595.793459
555.945014	2594.825557
556.302606	2593.035948
556.660143	2593.706421
557.017625	2591.848756
557.375050	2592.398242
557.732421	2594.797831
558.089735	2597.066350
558.446994	2597.159612
558.804197	2594.197934
559.161345	2593.706421
559.518437	2596.353027
559.875474	2596.862184
560.232455	2595.959817
560.589381	2592.461256
560.946251	2597.028542
561.303065	2595.501072
561.659825	2592.418407
562.016528	2593.666092
562.373177	2593.035948
562.729770	2593.940835
563.086307	2594.301278
563.442789	2592.597367
563.799216	2593.719024
564.155587	2594.805393
564.511904	2594.989395
564.868164	2593.434199
565.224370	2594.366812
565.580520	2592.632656
565.936615	2596.597523
566.292654	2593.822368
566.648638	2597.227667
567.004567	2592.148705
567.360441	2593.895465
567.716260	2595.410331
568.072023	2593.885382
568.427732	2591.763057
568.783385	2589.973447
569.138982	2591.395052
569.494525	2592.209199
569.850013	2590.512850
570.205445	2594.530650
570.560823	2591.485793
570.916145	2593.310691
571.271412	2591.692480
571.626625	2590.593509
571.981782	2591.465628
572.336884	2591.669795
572.691931	2592.345310
573.046923	2591.959662
573.401860	2593.519899
573.756743	2590.802717
574.111570	2592.247007
574.466342	2592.693149
574.821059	2592.194075
575.175722	2592.970413
575.530330	2590.202819
575.884882	2590.762388
576.239380	2588.471183
576.593823	2593.187182
576.948211	2590.512850
577.302544	2588.181317
577.656823	2589.872624
578.011047	2588.793817
578.365216	2588.382963
578.719330	2587.674681
579.073389	2588.551842
579.427394	2585.532190
579.781344	2590.432192
580.135239	2590.172572
580.489080	2590.525453
580.842866	2588.067891
581.196597	2594.550815
581.550273	2587.861203
581.903895	2588.072932
582.257463	2587.473035
582.610975	2586.288363
582.964434	2588.196440
583.317837	2588.314907
583.671186	2590.291040
584.024481	2589.134095
584.377721	2585.622931
584.730906	2586.547983
585.084037	2589.270206
585.437113	2587.052098
585.790135	2586.863055
586.143103	2584.287025
586.496016	2586.101841
586.848874	2581.388362
587.201679	2586.452201
587.554428	2582.396593
587.907124	2583.034299
588.259765	2580.609504
588.612352	2587.795668
588.964884	2584.773497
589.317362	2584.833991
589.669786	2587.099989
590.022155	2585.280133
590.374470	2586.676532
590.726731	2588.680391
591.078937	2583.218301
591.431090	2585.154104
591.783188	2584.478589
592.135232	2585.839701
592.487222	2587.278950
592.839157	2585.007910
593.191038	2583.835842
593.542866	2585.640575
593.894639	2580.614545
594.246358	2582.479772
594.598022	2583.646799
594.949633	2583.629155
595.301190	2584.271902
595.652692	2583.054463
596.004141	2583.742581
596.355535	2585.023034
596.706876	2581.670667
597.058162	2582.653692
597.409395	2581.196798
597.760573	2583.760225
598.111698	2583.266192
598.462768	2585.499423
598.813785	2582.336099
599.164748	2580.375090
599.515657	2581.582446
599.866511	2580.768300
600.217312	2580.654874
600.568060	2582.820050
600.918753	2583.911459
601.269392	2580.117991
601.619978	2582.414237
601.970510	2581.494226
602.320988	2578.305696
602.671412	2579.109760
603.021783	2580.785944
603.372100	2582.802406
603.722363	2582.973805
604.072572	2578.887950
604.422728	2580.070100
604.772830	2579.447518
605.122878	2576.407702
605.472872	2580.181006
605.822813	2575.008782
606.172701	2579.051787
606.522534	2579.581108
606.872314	2580.251582
607.222041	2577.012640
607.571714	2581.020358
607.921333	2581.053125
608.270899	2579.893660
608.620411	2580.201170
608.969870	2584.410534
609.319276	2582.701582
609.668627	2585.857345
610.017926	2587.223497
610.367171	2587.909094
610.716362	2587.470514
611.065500	2583.722416
611.414585	2582.978846
611.763616	2585.292736
612.112594	2584.241655
612.461518	2583.377097
612.810389	2582.310893
613.159207	2582.961202
613.507971	2580.927096
613.856682	2582.580595
614.205340	2582.320975
614.553945	2585.693507
614.902496	2584.551686
615.250994	2583.780389
615.599439	2579.790316
615.947830	2581.244689
616.296169	2582.615883
616.644454	2582.860379
616.992686	2580.889288
617.340864	2581.801737
617.688990	2582.094123
618.037063	2581.690831
618.385082	2577.839390
618.733048	2584.546645
619.080961	2582.946078
619.428821	2583.823239
619.776628	2580.551530
620.124382	2583.122519
620.472083	2583.271233
620.819731	2583.218301
621.167326	2581.806778
621.514868	2582.686459
621.862357	2581.494226
622.209793	2579.263516
622.557176	2579.422312
622.904506	2577.332754
623.251783	2573.524162
623.599007	2574.986097
623.946179	2574.048442
624.293297	2576.417784
624.640363	2578.058680
624.987376	2577.504153
625.334336	2575.122208
625.681243	2576.100192
626.028097	2576.402661
626.374899	2576.057342
626.721647	2574.834862
627.068343	2575.364183
627.414987	2575.270922
627.761577	2577.083217
628.108115	2577.005079
628.454600	2575.560788
628.801032	2574.502146
629.147412	2574.870150
629.493739	2575.490212
629.840014	2574.318144
630.186236	2572.089954
630.532405	2571.474933
630.878521	2575.598597
631.224585	2575.228072
631.570597	2573.395612
631.916556	2575.036508
632.262462	2572.215982
632.608316	2573.259501
632.954117	2570.252453
633.299866	2573.047773
633.645562	2571.742114
633.991206	2573.476271
634.336797	2570.711198
634.682336	2574.744121
635.027823	2569.082905
635.373257	2572.142886
635.718639	2570.658266
636.063968	2570.068451
636.409245	2568.125086
636.754470	2570.355797
637.099642	2567.716753
637.444762	2567.568039
637.789829	2570.910324
638.134845	2568.041907
638.479808	2569.133317
638.824719	2565.642318
639.169577	2567.671382
639.514383	2568.798080
639.859137	2567.285734
640.203839	2568.724983
640.548489	2566.763975
640.893086	2564.031669
641.237632	2563.472101
641.582125	2564.775239
641.926566	2563.983778
642.270955	2566.519479
642.615292	2566.413614
642.959576	2569.672720
643.303809	2564.881104
643.647990	2567.870508
643.992118	2565.196176
644.336195	2567.152143
644.680219	2565.193655
645.024192	2567.633574
645.368112	2563.663665
645.711981	2568.248594
646.055797	2569.050138
646.399562	2567.106773
646.743274	2566.796742
647.086935	2567.426886
647.430544	2570.212124
647.774101	2569.844120
648.117606	2565.975034
648.461059	2569.115673
648.804460	2568.402350
649.147810	2566.988306
649.491108	2568.092319
649.834354	2565.924622
650.177548	2566.073337
650.520690	2564.876063
650.863781	2565.307081
651.206820	2565.695250
651.549807	2564.651731
651.892742	2566.887483
652.235626	2563.073850
652.578458	2567.724314
652.921238	2563.734241
653.263967	2566.547205
653.606644	2563.255332
653.949269	2565.231464
654.291843	2563.230126
654.634365	2565.831361
654.976836	2561.057388
655.319255	2563.615774
655.661622	2562.433623
656.003938	2562.602502
656.346203	2563.411607
656.688416	2563.174673
657.030577	2563.910682
657.372687	2562.123592
657.714746	2560.001267
658.056753	2564.949159
658.398708	2558.619991
658.740612	2558.294836
659.082465	2559.159394
659.424266	2559.270299
659.766016	2558.657799
660.107715	2559.275341
660.449362	2561.785835
660.790958	2563.094015
661.132503	2563.882955
661.473996	2564.359344
661.815438	2560.603685
662.156829	2562.352965
662.498168	2561.748027
662.839456	2561.402707
663.180693	2561.995043
663.521879	2559.597974
663.863013	2560.747357
664.204097	2561.501010
664.545129	2563.449416
664.886110	2563.278017
665.227040	2562.355486
665.567918	2562.317677
665.908746	2561.541339
666.249522	2564.145095
666.590248	2566.151474
666.930922	2560.825495
667.271545	2561.657286
667.612118	2566.799263
667.952639	2560.845660
668.293109	2564.510579
668.633528	2561.621998
668.973896	2562.431103
669.314213	2561.869014
669.654480	2558.332645
669.994695	2565.024777
670.334859	2564.003943
670.674973	2563.588048
671.015035	2563.504869
671.355047	2562.378171
671.695008	2562.075702
672.034918	2560.921277
672.374777	2563.043603
672.714585	2564.916392
673.054342	2559.587892
673.394049	2563.348593
673.733705	2562.489076
674.073310	2561.806000
674.412864	2563.462019
674.752368	2562.567214
675.091820	2560.701987
675.431223	2561.012018
675.770574	2560.820454
676.109875	2557.004301
676.449125	2560.177707
676.788324	2555.885165
677.127473	2558.383056
677.466571	2556.734599
677.805619	2560.414641
678.144616	2563.494786
678.483562	2560.621329
678.822458	2559.915567
679.161303	2562.504200
679.500098	2556.477500
679.838842	2559.585372
680.177535	2555.665874
680.516179	2561.367419
680.854771	2558.856925
681.193314	2562.456309
681.531805	2561.158212
681.870247	2562.501679
682.208638	2562.552091
682.546978	2564.077040
682.885268	2562.373130
683.223508	2561.558983
683.561697	2562.289951
683.899836	2562.597461
684.237925	2559.484548
684.575963	2559.204764
684.913951	2558.864487
685.251889	2563.368757
685.589776	2561.193500
685.927614	2562.247101
686.265401	2561.783315
686.603137	2561.160732
686.940824	2559.943293
687.278460	2561.437996
687.616046	2560.641493
687.953582	2564.192986
688.291068	2560.298695
688.628504	2562.015208
688.965889	2563.237687
689.303224	2564.611402
689.640510	2561.924467
689.977745	2559.056050
690.314930	2560.409600
690.652065	2559.872717
690.989150	2558.110834
691.326185	2557.324414
691.663170	2557.047151
692.000105	2560.407080
692.336990	2555.716286
692.673825	2558.075546
693.010610	2557.208467
693.347345	2552.875596
693.684030	2552.227807
694.020665	2551.305276
694.357251	2548.656150
694.693786	2553.508261
695.030272	2554.766028
695.366707	2557.795762
695.703093	2552.920966
696.039429	2553.185627
696.375716	2552.298384
696.711952	2553.276367
697.048139	2552.563044
697.384276	2552.641182
697.720363	2551.421223
698.056400	2551.247303
698.392388	2553.256203
698.728326	2552.129505
699.064214	2553.624207
699.400053	2549.803013
699.735842	2551.363250
700.071581	2553.455328
700.407270	2550.901984
700.742910	2550.821326
701.078501	2547.632796
701.414042	2549.795451
701.749533	2551.302756
702.084974	2551.595143
702.420366	2552.016079
702.755709	2553.399876
703.091002	2547.635316
703.426246	2548.956099
703.761440	2550.307128
704.096584	2552.368960
704.431679	2549.762683
704.766725	2552.462221
705.101721	2549.931562
705.436668	2550.586912
705.771565	2551.413661
706.106413	2547.378218
706.441212	2553.019269
706.775961	2548.116747
707.110661	2551.630431
707.445311	2550.654968
707.779913	2553.006666
708.114465	2551.607746
708.448967	2551.267468
708.783421	2550.468445
709.117825	2551.224618
709.452180	2552.905843
709.786485	2552.747046
710.120742	2549.240924
710.454949	2553.967006
710.789107	2553.157900
711.123216	2550.967519
711.457275	2553.697304
711.791286	2551.151521
712.125247	2554.995401
712.459159	2555.882644
712.793023	2555.948179
713.126837	2553.838456
713.460602	2553.674619
713.794318	2553.946841
714.127985	2553.939279
714.461602	2553.488096
714.795171	2551.716130
715.128691	2552.154711
715.462162	2551.753939
715.795584	2549.510626
716.128957	2552.353836
716.462281	2551.327962
716.795556	2549.694628
717.128782	2549.997097
717.461960	2548.431819
717.795088	2549.510626
718.128167	2549.596325
718.461198	2547.226983
718.794180	2550.765873
719.127113	2546.075079
719.459997	2548.726726
719.792833	2548.134391
720.125619	2548.411654
720.458357	2548.235214
720.791046	2548.298228
721.123686	2548.469627
721.456278	2549.840821
721.788821	2546.972405
722.121315	2547.489123
722.453761	2544.431663
722.786158	2546.821170
723.118506	2546.853938
723.450805	2549.465255
723.783056	2545.870912
724.115259	2548.330996
724.447412	2545.392003
724.779518	2546.254040
725.111574	2546.526263
725.443582	2546.884184
725.775542	2545.520552
726.107453	2546.831252
726.439315	2546.329658
726.771129	2551.149001
727.102895	2548.681356
727.434612	2549.732436
727.766281	2550.085317
728.097901	2546.329658
728.429473	2544.151879
728.760996	2546.833773
729.092471	2543.483926
729.423897	2547.237065
729.755276	2547.476520
730.086606	2548.514998
730.417887	2547.209339
730.749120	2549.061963
731.080305	2548.935934
731.411442	2552.200081
731.742530	2551.166645
732.073570	2553.510781
732.404562	2552.008517
732.735506	2550.067673
733.066401	2551.557334
733.397249	2550.412992
733.728048	2548.711603
734.058798	2547.690769
734.389501	2548.782179
734.720156	2547.370656
735.050762	2546.332178
735.381320	2545.512991
735.711831	2547.915100
736.042293	2546.624565
736.372707	2546.546427
736.703073	2546.972405
737.033391	2547.862168
737.363661	2547.284956
737.693883	2546.561551
738.024056	2547.675646
738.354182	2548.376366
738.684260	2548.570450
739.014290	2548.174720
739.344272	2547.141283
739.674207	2544.834955
740.004093	2549.815615
740.333931	2548.013403
740.663722	2549.797971
740.993464	2546.816129
741.323159	2550.344937
741.652806	2547.887374
741.982405	2546.312013
742.311956	2544.287990
742.641460	2547.705893
742.970915	2544.441745
743.300323	2546.624565
743.629683	2546.816129
743.958996	2546.901828
744.288260	2545.891077
744.617477	2544.958464
744.946647	2541.107022
745.275768	2542.445448
745.604842	2543.355377
745.933869	2543.289842
746.262847	2542.203473
746.591778	2544.345963
746.920662	2546.468289
747.249498	2544.348484
747.578286	2545.717157
747.907027	2544.161961
748.235720	2545.928886
748.564365	2546.153217
748.892963	2544.204811
749.221514	2548.525080
749.550017	2546.657333
749.878473	2544.552651
750.206881	2543.408309
750.535242	2546.122970
750.863555	2544.555171
751.191821	2546.826211
751.520039	2546.223793
751.848210	2545.502908
752.176334	2544.913093
752.504411	2545.482744
752.832440	2546.075079
753.160421	2543.761190
753.488356	2542.758000
753.816243	2543.390665
754.144082	2544.650953
754.471875	2545.089534
754.799620	2542.415202
755.127318	2543.320089
755.454969	2545.553320
755.782572	2543.194060
756.110129	2543.738504
756.437638	2540.302958
756.765100	2543.287321
757.092515	2544.280428
757.419882	2543.065510
757.747203	2543.695655
758.074477	2542.160623
758.401703	2542.758000
758.728882	2542.505942
759.056014	2547.481561
759.383099	2544.782023
759.710138	2544.587939
760.037129	2546.420398
760.364073	2546.294369
760.690970	2543.723381
761.017820	2545.810419
761.344623	2543.632640
761.671379	2545.190357
761.998088	2539.226672
762.324751	2542.652136
762.651366	2546.317055
762.977935	2556.154866
763.304456	2555.885165
763.630931	2559.209806
763.957359	2557.485731
764.283740	2556.164949
764.610074	2551.680842
764.936362	2550.844011
765.262602	2548.164637
765.588796	2545.192877
765.914943	2543.625078
766.241044	2543.380582
766.567097	2543.642723
766.893104	2544.734132
767.219064	2541.843031
767.544978	2544.340922
767.870845	2542.579039
768.196665	2540.605427
768.522438	2540.428987
768.848165	2540.902855
769.173846	2539.778678
769.499479	2541.656508
769.825066	2540.653318
770.150607	2541.623740
770.476101	2539.435880
770.801548	2542.347146
771.126949	2539.844213
771.452303	2540.043339
771.777611	2539.009902
772.102872	2538.914120
772.428087	2540.181970
772.753256	2538.614172
773.078378	2538.588966
773.403453	2538.331867
773.728482	2539.398071
774.053465	2536.688451
774.378401	2540.187012
774.703291	2539.050231
775.028135	2539.231713
775.352932	2537.356404
775.677683	2541.074255
776.002388	2536.247350
776.327046	2538.346990
776.651658	2538.737680
776.976224	2537.023687
777.300743	2538.407484
777.625216	2537.512679
777.949643	2539.546785
778.274024	2539.234233
778.598359	2534.271218
778.922647	2531.622091
779.246889	2536.247350
779.571086	2533.474715
779.895236	2537.376568
780.219339	2534.750127
780.543397	2536.789274
780.867409	2536.464119
781.191374	2540.252547
781.515294	2537.656352
781.839167	2538.568801
782.162995	2538.208359
782.486776	2538.369676
782.810511	2536.539737
783.134201	2539.324974
783.457844	2538.107536
783.781441	2536.756506
784.104993	2538.770447
784.428498	2538.160468
784.751958	2536.864891
785.075372	2538.470499
785.398739	2536.587628
785.722061	2535.917154
786.045337	2539.859337
786.368568	2541.500232
786.691752	2537.177443
787.014891	2538.324305
787.337983	2537.621064
787.661030	2538.117618
787.984031	2540.791950
788.306987	2540.144162
788.629897	2541.764893
788.952760	2540.139121
789.275579	2538.127700
789.598351	2540.078627
789.921078	2537.890766
790.243759	2539.554347
790.566395	2536.663245
790.888984	2539.975283
791.211529	2537.424459
791.534027	2538.021836
791.856480	2534.850950
792.178888	2540.174409
792.501249	2537.676517
792.823566	2539.375386
793.145836	2536.575025
793.468062	2541.021323
793.790241	2536.396064
794.112375	2537.699202
794.434464	2535.410518
794.756507	2536.569984
795.078505	2539.438400
795.400457	2536.191897
795.722364	2535.849099
796.044226	2535.128214
796.366042	2532.726104
796.687812	2532.032945
797.009538	2539.027546
797.331218	2535.700385
797.652852	2537.094264
797.974442	2535.637370
798.295986	2538.127700
798.617484	2539.387989
798.938938	2538.122659
799.260346	2536.282638
799.581709	2537.689120
799.903026	2535.183666
800.224299	2538.180632
800.545526	2540.103832
800.866708	2535.584438
801.187845	2536.315405
801.508936	2538.699871
801.829983	2535.808769
802.150984	2536.859850
802.471940	2538.513348
802.792851	2535.443286
803.113717	2537.999151
803.434538	2536.615354
803.755314	2536.330529
804.076045	2537.815149
804.396731	2538.946888
804.717372	2536.945550
805.037967	2537.275745
805.358518	2536.136444
805.679024	2536.779192
805.999485	2536.506969
806.319901	2537.021167
806.640272	2537.439583
806.960598	2536.411187
807.280879	2537.074099
807.601115	2536.391023
807.921306	2533.570497
808.241453	2539.753472
808.561554	2536.020498
808.881611	2539.715664
809.201623	2534.808100
809.521590	2535.544109
809.841513	2537.285827
810.161390	2533.865405
810.481223	2536.277597
810.801011	2535.871784
811.120755	2535.788605
811.440453	2536.080992
811.760107	2535.856660
812.079716	2533.497400
812.399281	2532.269879
812.718801	2534.419932
813.038276	2530.797863
813.357707	2537.356404
813.677093	2536.859850
813.996434	2534.762730
814.315731	2534.140148
814.634983	2534.888759
814.954191	2536.227185
815.273354	2535.571835
815.592473	2537.144675
815.911547	2536.431352
816.230577	2535.559232
816.549562	2537.845396
816.868502	2537.903369
817.187399	2537.283307
817.506250	2538.672145
817.825058	2538.541075
818.143821	2536.317926
818.462539	2537.474871
818.781213	2536.340611
819.099843	2541.953936
819.418429	2541.054090
819.736970	2540.353370
820.055466	2546.022147
820.373919	2543.771272
820.692327	2550.244113
821.010691	2555.192006
821.329011	2564.329097
821.647286	2587.841039
821.965517	2611.562188
822.283704	2623.935700
822.601847	2629.806124
822.919945	2619.396141
823.237999	2603.995416
823.556010	2587.064701
823.873976	2579.644123
824.191897	2569.299675
824.509775	2562.665517
824.827609	2560.943963
825.145398	2557.228632
825.463144	2555.499516
825.780845	2554.481203
826.098502	2558.708211
826.416116	2563.421690
826.733685	2575.061714
827.051210	2573.433421
827.368692	2572.415108
827.686129	2562.030331
828.003522	2560.089487
828.320872	2545.409647
828.638177	2545.878474
828.955439	2541.694317
829.272656	2540.247505
829.589830	2537.043852
829.906960	2540.534851
830.224046	2539.846734
830.541088	2541.505273
830.858086	2537.830272
831.175041	2537.734490
831.491952	2537.031249
831.808819	2537.437062
832.125642	2539.065355
832.442421	2540.915458
832.759157	2542.889070
833.075849	2549.450132
833.392497	2554.203940
833.709101	2552.757129
834.025662	2556.076728
834.342179	2551.600184
834.658653	2547.572302
834.975083	2544.824873
835.291469	2549.019113
835.607811	2540.015612
835.924110	2538.926723
836.240366	2536.063348
836.556578	2538.445293
836.872746	2537.036290
837.188871	2538.026877
837.504952	2534.853471
837.820990	2536.454037
838.136984	2533.124355
838.452935	2534.205682
838.768842	2536.204500
839.084706	2533.784746
839.400526	2538.036959
839.716303	2539.231713
840.032037	2540.802032
840.347727	2544.013247
840.663373	2544.035933
840.978977	2539.604758
841.294537	2534.200641
841.610054	2533.232740
841.925527	2534.858512
842.240957	2532.040507
842.556344	2533.411701
842.871687	2534.062010
843.186987	2535.251722
843.502244	2534.377082
843.817458	2533.779705
844.132629	2535.652494
844.447756	2533.504962
844.762840	2529.739220
845.077881	2530.540764
845.392879	2528.806607
845.707833	2529.683768
846.022745	2528.385670
846.337613	2530.255938
846.652438	2531.906916
846.967221	2533.562935
847.281960	2531.634694
847.596656	2531.768285
847.911309	2533.207534
848.225919	2530.016484
848.540485	2531.269210
848.855009	2532.663089
849.169490	2530.681916
849.483928	2533.484798
849.798323	2534.177956
850.112675	2530.593696
850.426984	2529.482121
850.741251	2530.628984
851.055474	2531.327184
851.369654	2530.558408
851.683792	2531.241484
851.997887	2531.007070
852.311938	2534.208203
852.625947	2534.515713
852.939914	2535.123172
853.253837	2531.957328
853.567718	2533.320960
853.881555	2530.623943
854.195350	2530.757533
854.509103	2529.134282
854.822812	2530.490352
855.136479	2531.168387
855.450103	2529.419107
855.763685	2532.095960
856.077224	2534.419932
856.390720	2533.242822
856.704173	2530.586134
857.017584	2534.180477
857.330953	2529.948428
857.644278	2532.363141
857.957561	2535.501259
858.270802	2534.452699
858.584000	2531.170908
858.897155	2533.938501
859.210268	2532.837009
859.523339	2532.915147
859.836367	2530.480270
860.149352	2533.192411
860.462295	2532.216947
860.775195	2530.833151
861.088054	2526.878365
861.400869	2530.082019
861.713642	2528.035310
862.026373	2531.528830
862.339062	2533.903213
862.651708	2531.463295
862.964312	2534.767771
863.276873	2533.958666
863.589392	2530.691998
863.901869	2533.998995
864.214303	2532.158974
864.526696	2532.128727
864.839045	2533.381454
865.151353	2531.523789
865.463619	2533.131917
865.775842	2532.151412
866.088023	2530.571011
866.400162	2533.381454
866.712258	2532.710980
867.024313	2533.857843
867.336325	2533.762061
867.648296	2533.537730
867.960224	2531.528830
868.272110	2536.640560
868.583954	2531.556556
868.895755	2532.854653
869.207515	2532.595034
869.519233	2533.411701
869.830909	2533.207534
870.142542	2536.804397
870.454134	2534.369520
870.765684	2532.804242
871.077191	2529.948428
871.388657	2535.982689
871.700081	2532.673172
872.011463	2531.717873
872.322803	2533.084026
872.634101	2533.058820
872.945357	2535.251722
873.256571	2535.864222
873.567744	2535.599562
873.878874	2536.113759
874.189963	2532.879859
874.501010	2533.406660
874.812015	2534.460261
875.122979	2536.144006
875.433900	2534.041845
875.744780	2534.540919
876.055618	2534.825744
876.366415	2534.969417
876.677169	2533.179808
876.987882	2533.416742
877.298554	2529.272913
877.609183	2533.361289
877.919771	2531.541433
878.230317	2533.830117
878.540822	2536.678368
878.851285	2533.658717
879.161707	2536.174253
879.472087	2539.745911
879.782425	2542.284132
880.092722	2546.415357
880.402977	2554.866852
880.713191	2564.429920
881.023363	2578.383834
881.333494	2584.660071
881.643583	2589.287850
881.953631	2586.331213
882.263637	2583.314083
882.573602	2579.568505
882.883526	2573.244378
883.193408	2566.779098
883.503248	2558.345248
883.813048	2558.372974
884.122806	2553.793086
884.432522	2550.405430
884.742197	2545.298742
885.051831	2543.393185
885.361424	2540.872608
885.670975	2539.874460
885.980485	2540.817156
886.289954	2537.210210
886.599382	2537.303472
886.908768	2538.868750
887.218113	2536.065868
887.527417	2538.765406
887.836680	2532.960518
888.145901	2533.255425
888.455082	2531.995137
888.764221	2535.833975
889.073319	2533.467153
889.382376	2534.152750
889.691392	2534.697195
890.000366	2534.591331
890.309300	2534.374561
890.618193	2536.244829
890.927044	2533.935981
891.235855	2534.460261
891.544625	2536.302802
891.853353	2535.372710
892.162041	2535.962525
892.470687	2535.402957
892.779293	2534.334232
893.087858	2534.845909
893.396381	2535.387833
893.704864	2539.781199
894.013306	2535.483615
894.321707	2546.760676
894.630068	2548.646068
894.938387	2549.908877
895.246665	2549.588763
895.554903	2547.128680
895.863100	2543.181457
896.171256	2544.592980
896.479371	2541.570808
896.787446	2543.846889
897.095480	2538.084850
897.403473	2537.137113
897.711425	2535.241640
898.019336	2538.437731
898.327207	2534.891279
898.635038	2535.528985
898.942827	2534.379602
899.250576	2536.141486
899.558284	2535.675179
899.865952	2537.028729
900.173579	2534.142668
900.481165	2534.931609
900.788711	2533.676361
901.096216	2534.213244
901.403681	2530.283665
901.711105	2533.757020
902.018489	2532.121165
902.325832	2536.900179
902.633135	2534.855991
902.940397	2533.663758
903.247619	2537.663914
903.554800	2537.298430
903.861941	2542.858823
904.169041	2557.606719
904.476101	2561.748027
904.783121	2556.812737
905.090100	2553.241079
905.397039	2550.395348
905.703938	2545.626417
906.010796	2540.670962
906.317614	2540.171888
906.624391	2541.490150
906.931129	2535.460930
907.237826	2536.711136
907.544483	2534.369520
907.851099	2531.899355
908.157675	2531.233922
908.464211	2533.598223
908.770707	2529.535053
909.077163	2530.898686
909.383578	2526.722090
909.689954	2529.066226
909.996289	2526.366688
910.302584	2531.654859
910.608839	2528.783922
910.915054	2531.727955
911.221229	2530.724766
911.527363	2531.586803
911.833458	2530.639066
912.139513	2530.306350
912.445527	2532.090918
912.751502	2530.152595
913.057436	2535.357586
913.363331	2533.449509
913.669186	2533.313398
913.975000	2535.526465
914.280775	2534.614016
914.586510	2539.776157
914.892205	2540.008051
915.197859	2544.955943
915.503475	2546.236396
915.809050	2551.612787
916.114585	2555.749053
916.420081	2555.648230
916.725536	2556.233004
917.030952	2551.189330
917.336328	2548.827549
917.641665	2547.539534
917.946961	2544.348484
918.252218	2544.275387
918.557435	2540.151723
918.862612	2538.765406
919.167750	2538.639377
919.472848	2536.353214
919.777906	2539.571991
920.082925	2535.652494
920.387904	2536.456558
920.692843	2533.459592
920.997743	2532.937832
921.302603	2532.781557
921.607423	2533.759540
921.912204	2530.571011
922.216946	2534.215765
922.521647	2532.947915
922.826310	2532.474046
923.130932	2530.351720
923.435516	2530.807945
923.740059	2530.228212
924.044564	2532.035466
924.349028	2530.444982
924.653454	2524.362830
924.957840	2529.535053
925.262186	2526.447347
925.566493	2529.628315
925.870761	2524.957686
926.174989	2530.142512
926.479178	2527.790814
926.783328	2531.433048
927.087438	2527.374919
927.391509	2529.456916
927.695541	2526.896009
927.999533	2530.417255
928.303486	2527.400125
928.607400	2529.199817
928.911275	2528.534384
929.215110	2529.928263
929.518906	2525.973478
929.822663	2530.767616
930.126381	2530.082019
930.430060	2527.445495
930.733699	2528.562111
931.037299	2528.814168
931.340861	2531.060002
931.644383	2527.871473
931.947866	2529.353572
932.251309	2528.942718
932.554714	2526.273427
932.858080	2531.112935
933.161407	2530.581093
933.464694	2529.340969
933.767943	2529.454395
934.071153	2530.525640
934.374323	2528.572193
934.677455	2530.011442
934.980548	2528.809127
935.283602	2528.501617
935.586617	2527.440454
935.889593	2529.189734
936.192530	2527.291740
936.495428	2527.569003
936.798287	2526.573376
937.101108	2526.293592
937.403890	2530.818027
937.706632	2530.087060
938.009336	2531.314581
938.312002	2530.704601
938.614628	2529.610671
938.917216	2528.410876
939.219765	2528.768798
939.522275	2531.425486
939.824747	2529.651000
940.127179	2531.009591
940.429573	2525.270237
940.731929	2527.851308
941.034246	2525.731503
941.336524	2528.186545
941.638763	2530.041689
941.940964	2530.079498
942.243126	2529.963552
942.545250	2526.986750
942.847335	2529.716535
943.149381	2529.623274
943.451389	2526.873324
943.753359	2529.232584
944.055290	2527.747964
944.357182	2529.177132
944.659036	2527.599250
944.960851	2529.603109
945.262628	2532.158974
945.564367	2529.252749
945.866067	2528.047913
946.167729	2531.032276
946.469352	2529.605630
946.770937	2528.988088
947.072484	2526.908612
947.373992	2530.931453
947.675462	2526.964065
947.976893	2527.223684
948.278286	2527.495907
948.579641	2531.493542
948.880958	2529.855167
949.182236	2527.090094
949.483476	2525.613036
949.784678	2532.310209
950.085841	2526.981709
950.386967	2530.311391
950.688054	2527.357275
950.989103	2527.810979
951.290114	2530.805424
951.591087	2526.197810
951.892021	2527.727800
952.192917	2529.338448
952.493776	2528.423479
952.794596	2532.900024
953.095378	2528.063037
953.396122	2526.437264
953.696828	2531.062523
953.997496	2529.918181
954.298126	2527.193438
954.598718	2529.703932
954.899272	2527.989940
955.199788	2526.598581
955.500266	2527.538757
955.800706	2524.395597
956.101108	2522.963909
956.401472	2524.897192
956.701798	2522.737058
957.002087	2523.662109
957.302337	2527.258972
957.602550	2529.184693
957.902724	2526.565814
958.202861	2527.705115
958.502960	2526.800228
958.803022	2525.436595
959.103045	2527.667306
959.403031	2527.720238
959.702979	2526.318797
960.002889	2528.849457
960.302762	2526.976668
960.602596	2526.661596
960.902393	2527.185876
961.202153	2526.961544
961.501875	2525.000536
961.801559	2524.216636
962.101205	2526.694363
962.400814	2528.360465
962.700385	2528.557070
962.999918	2527.805938
963.299414	2524.735875
963.598873	2525.580268
963.898293	2527.117820
964.197677	2526.696884
964.497022	2526.308715
964.796331	2528.075639
965.095601	2526.409538
965.394835	2526.762419
965.694030	2526.033972
965.993189	2528.332738
966.292309	2525.330731
966.591393	2525.040865
966.890439	2526.089425
967.189447	2527.024559
967.488419	2524.675381
967.787353	2528.189065
968.086249	2526.648993
968.385108	2526.021369
968.683930	2528.410876
968.982714	2526.185207
969.281462	2526.696884
969.580172	2527.944569
969.878844	2526.681760
970.177480	2527.016997
970.476078	2527.163191
970.774639	2528.083201
971.073162	2527.319466
971.371649	2523.420134
971.670098	2521.081038
971.968510	2525.759229
972.266885	2519.311593
972.565223	2526.643952
972.863524	2526.727131
973.161788	2524.524147
973.460014	2527.689991
973.758204	2528.259642
974.056356	2523.911646
974.354471	2525.650844
974.652550	2527.137985
974.950591	2526.379291
975.248595	2528.667975
975.546563	2524.735875
975.844493	2524.443488
976.142386	2528.186545
976.440243	2524.652696
976.738062	2527.011956
977.035845	2522.865607
977.333590	2525.744106
977.631299	2523.334434
977.928971	2527.047244
978.226606	2527.740403
978.524204	2529.169570
978.821765	2525.860052
979.119290	2527.319466
979.416777	2523.394928
979.714228	2526.792666
980.011642	2524.970289
980.309020	2528.103366
980.606360	2527.339631
980.903664	2525.968437
981.200931	2525.449198
981.498162	2527.884076
981.795356	2526.880886
982.092513	2526.835516
982.389633	2526.308715
982.686717	2529.391381
982.983764	2526.699404
983.280775	2527.319466
983.577749	2528.433561
983.874686	2528.942718
984.171587	2529.840043
984.468451	2526.185207
984.765279	2527.523633
985.062070	2525.131606
985.358824	2525.625639
985.655543	2526.815351
985.952224	2525.303005
986.248869	2529.227543
986.545478	2518.333610
986.842050	2525.804600
987.138586	2521.854856
987.435086	2524.887110
987.731549	2524.078004
988.027975	2524.277130
988.324366	2527.085053
988.620719	2525.597912
988.917037	2526.890968
989.213318	2527.553880
989.509563	2524.327542
989.805772	2525.832326
990.101944	2527.080012
990.398080	2526.081863
990.694180	2525.562624
990.990244	2526.021369
991.286271	2525.161853
991.582262	2527.765608
991.878217	2522.477438
992.174136	2524.234280
992.470019	2526.338962
992.765865	2523.674712
993.061676	2525.035824
993.357450	2525.565145
993.653188	2524.491379
993.948890	2524.045237
994.244556	2525.267717
994.540186	2526.971627
994.835780	2524.256965
995.131337	2525.867614
995.426859	2525.550021
995.722345	2524.776204
996.017795	2527.135464
996.313208	2525.865093
996.608586	2526.777542
996.903928	2528.955321
997.199234	2525.655886
997.494504	2523.485669
997.789738	2525.822244
998.084936	2525.209743
998.380099	2526.162522
998.675225	2524.796369
998.970316	2526.570855
999.265371	2525.867614
999.560390	2529.363654
999.855373	2526.462470
1000.150320	2523.863755
1000.445232	2524.294774
1000.740108	2524.443488
1001.034948	2525.562624
1001.329752	2523.339475
1001.624521	2526.812830
1001.919254	2520.415606
1002.213951	2525.466842
1002.508613	2517.590039
1002.803239	2525.781914
1003.097829	2517.889988
1003.392384	2525.885258
1003.686903	2526.023890
1003.981386	2527.478263
1004.275834	2523.936852
1004.570246	2525.484486
1004.864623	2524.009949
1005.158964	2525.086235
1005.453270	2522.991636
1005.747540	2525.539939
1006.041775	2524.599764
1006.335974	2524.415762
1006.630138	2524.869466
1006.924266	2524.632531
1007.218359	2524.814013
1007.512416	2526.490197
1007.806438	2525.812161
1008.100425	2524.120854
1008.394376	2523.253776
1008.688292	2525.749147
1008.982172	2527.591689
1009.276017	2525.358458
1009.569827	2521.736388
1009.863602	2529.325846
1010.157341	2523.450381
1010.451045	2525.381143
1010.744714	2522.681605
1011.038347	2523.939373
1011.331945	2524.130937
1011.625508	2525.189579
1011.919036	2525.736544
1012.212528	2524.138498
1012.505986	2527.581606
1012.799408	2524.103210
1013.092795	2523.949455
1013.386147	2524.854342
1013.679464	2527.069929
1013.972745	2525.655886
1014.265992	2525.512213
1014.559204	2525.272758
1014.852380	2523.843591
1015.145521	2526.669157
1015.438628	2523.316790
1015.731699	2524.965247
1016.024736	2526.349044
1016.317737	2524.141019
1016.610703	2522.545494
1016.903635	2521.988446
1017.196531	2522.608508
1017.489393	2523.052130
1017.782219	2519.891326
1018.075011	2523.740247
1018.367768	2524.536749
1018.660490	2524.919877
1018.953177	2524.919877
1019.245829	2524.919877
