Dividing Wavelength (nm)	Counts (n)	Blue Motor Position (mm): 0.000000	Red Motor Position (mm): 30.300000	
326.493990	2127.286265
326.888308	2127.286265
327.282561	2127.286265
327.676750	2095.988261
328.070874	2093.782756
328.464933	2096.973807
328.858929	2103.736514
329.252859	2112.755139
329.646726	2123.996912
330.040528	2135.843623
330.434265	2152.935655
330.827938	2173.170847
331.221547	2187.901098
331.615091	2207.664942
332.008571	2225.694629
332.401986	2246.088617
332.795338	2267.236257
333.188625	2284.751746
333.581847	2302.279838
333.975006	2322.668785
334.368100	2341.915910
334.761129	2359.391070
335.154095	2376.379758
335.546996	2396.206617
335.939833	2410.707496
336.332606	2423.995977
336.725315	2442.557506
337.117960	2450.948506
337.510540	2457.703652
337.903056	2470.596403
338.295508	2473.696713
338.687896	2485.445122
339.080220	2494.879641
339.472480	2496.886021
339.864676	2503.172339
340.256807	2507.356497
340.648875	2511.961591
341.040879	2513.849503
341.432818	2515.495440
341.824694	2514.940913
342.216506	2518.139525
342.608253	2517.557272
342.999937	2515.956706
343.391557	2517.758918
343.783113	2515.603825
344.174605	2512.745491
344.566033	2514.202384
344.957397	2512.150634
345.348697	2509.398164
345.739934	2508.697444
346.131106	2506.882629
346.522215	2502.620333
346.913260	2501.821310
347.304241	2502.045642
347.695159	2499.852740
348.086012	2498.219406
348.476802	2496.291164
348.867528	2495.376195
349.258191	2494.259579
349.648789	2492.406955
350.039324	2494.925012
350.429796	2492.573313
350.820203	2487.123826
351.210548	2489.442757
351.600828	2486.072746
351.991045	2485.155256
352.381198	2485.165338
352.771288	2486.801192
353.161314	2486.208857
353.551276	2488.046357
353.941175	2484.618373
354.331010	2483.942858
354.720782	2485.087200
355.110490	2486.763384
355.500135	2484.008393
355.889717	2485.866058
356.279235	2484.860348
356.668689	2487.625421
357.058080	2486.909577
357.447408	2484.084010
357.836672	2484.802375
358.225873	2485.009062
358.615010	2484.152066
359.004084	2488.941162
359.393095	2491.524753
359.782043	2490.055257
360.170927	2490.030051
360.559748	2491.683550
360.948505	2490.272027
361.337199	2492.787563
361.725830	2492.154898
362.114398	2496.689416
362.502903	2494.947697
362.891344	2495.741679
363.279722	2496.828047
363.668037	2497.470794
364.056289	2496.132368
364.444478	2495.383757
364.832603	2499.830054
365.220665	2498.433655
365.608665	2499.025990
365.996601	2499.061278
366.384474	2501.425580
366.772284	2503.416835
367.160031	2504.578821
367.547715	2504.425066
367.935336	2504.311640
368.322893	2511.351612
368.710388	2514.628362
369.097820	2524.793848
369.485189	2525.602953
369.872495	2532.075795
370.259738	2536.756506
370.646918	2544.159441
371.034035	2551.300235
371.421090	2562.249621
371.808081	2572.871332
372.195010	2579.712178
372.581875	2594.961669
372.968678	2607.882146
373.355418	2616.242900
373.742096	2634.227216
374.128710	2648.554175
374.515262	2665.593275
374.901751	2680.333609
375.288177	2692.177800
375.674540	2715.551110
376.060841	2735.299830
376.447079	2753.868920
376.833254	2772.788371
377.219367	2787.415278
377.605417	2823.893068
377.991404	2834.227433
378.377329	2858.898840
378.763191	2869.177753
379.148991	2911.331881
379.534727	2934.306940
379.920402	2963.356589
380.306013	2976.970225
380.691563	3023.729447
381.077049	3046.510422
381.462474	3067.557239
381.847835	3102.903289
382.233134	3126.634521
382.618371	3127.199130
383.003545	3193.139943
383.388657	3202.221582
383.773706	3233.438927
384.158693	3250.006679
384.543618	3276.697068
384.928480	3311.954898
385.313280	3357.771425
385.698017	3356.627083
386.082692	3408.694640
386.467305	3416.795774
386.851856	3447.977832
387.236344	3468.530616
387.620770	3498.913650
388.005133	3524.883154
388.389435	3550.494736
388.773674	3563.165676
389.157851	3606.277624
389.541965	3622.800006
389.926018	3590.559306
390.310008	3662.128567
390.693936	3678.096422
391.077802	3717.593863
391.461606	3707.637584
391.845348	3769.396760
392.229027	3771.083026
392.612645	3782.138276
392.996200	3860.104761
393.379694	3897.830236
393.763125	3965.094352
394.146494	3929.652520
394.529801	3995.648785
394.913047	4042.070251
395.296230	4012.032535
395.679351	4061.120771
396.062410	4085.570367
396.445408	4070.023449
396.828343	4103.595013
397.211217	4127.527891
397.594028	4045.858678
397.976778	4111.928040
398.359466	4137.547184
398.742092	4166.196061
399.124656	4086.601283
399.507158	4170.624715
399.889598	4194.378632
400.271977	4253.816356
400.654294	4226.117736
401.036549	4233.734920
401.418742	4202.772153
401.800874	4306.730828
402.182944	4327.323941
402.564952	4388.536152
402.946898	4382.219586
403.328783	4375.361096
403.710606	4286.253661
404.092367	4483.085512
404.474067	4448.036890
404.855705	4457.960402
405.237282	4384.868712
405.618797	4490.352336
406.000250	4526.409189
406.381642	4604.615129
406.762972	4566.980395
407.144240	4579.908434
407.525447	4578.542281
407.906593	4635.061178
408.287677	4682.871481
408.668700	4606.908854
409.049661	4661.363398
409.430560	4701.415365
409.811399	4630.524139
410.192176	4788.294610
410.572891	4724.382862
410.953545	4832.871013
411.334138	4709.569431
411.714669	4780.521151
412.095139	4676.373433
412.475547	4817.631605
412.855894	4798.369356
413.236180	4806.941838
413.616405	4761.863841
413.996568	4848.606975
414.376670	4788.183705
414.756711	4745.013784
415.136691	4774.307929
415.516609	4853.393551
415.896466	4891.567688
416.276262	4922.974077
416.655997	4908.437909
417.035670	5085.631947
417.415283	5180.866904
417.794834	5124.027895
418.174324	5076.358744
418.553753	4984.365248
418.933121	5165.519112
419.312428	5233.700717
419.691674	5171.263506
420.070859	5298.111540
420.449983	5211.418817
420.829045	5327.501467
421.208047	5233.436057
421.586988	5307.193179
421.965867	5316.393284
422.344686	5449.590651
422.723444	5303.883661
423.102141	5122.848265
423.480777	5423.527886
423.859352	5195.128329
424.237866	5453.487463
424.616319	5438.182520
424.994712	5547.255445
425.373044	5426.968473
425.751314	5569.857459
426.129524	5374.832860
426.507673	5568.914763
426.885762	5647.435775
427.263789	5582.288944
427.641756	5463.428619
428.019662	5587.012505
428.397508	5589.722125
428.775292	5536.301018
429.153016	5637.983612
429.530679	5564.483589
429.908282	5648.600282
430.285824	5523.277197
430.663305	5796.449762
431.040726	5529.911356
431.418086	5526.526221
431.795385	5636.393128
432.172624	5644.622811
432.549802	5643.062574
432.926920	5653.457433
433.303977	5662.992776
433.680974	5696.894536
434.057910	5715.357762
434.434786	5724.502415
434.811601	5687.074368
435.188355	5929.359783
435.565050	5799.245082
435.941683	5784.688750
436.318257	6001.564230
436.694770	5977.051619
437.071222	6012.853894
437.447614	5944.523574
437.823946	5859.814546
438.200218	6010.030848
438.576429	5879.280961
438.952580	5970.619107
439.328670	6023.795718
439.704700	5928.626296
440.080670	5917.422331
440.456580	6188.051634
440.832429	6068.535959
441.208218	5912.476959
441.583947	6069.897070
441.959616	6068.785496
442.335224	5997.561554
442.710773	6137.819057
443.086261	6160.290000
443.461689	5959.697447
443.837057	6113.157732
444.212365	6262.980824
444.587612	6156.917468
444.962800	6308.232742
445.337927	6289.895545
445.712995	5899.793416
446.088002	6469.322813
446.462949	6304.577905
446.837837	6237.691876
447.212664	6410.154790
447.587431	6552.474125
447.962139	7093.173163
448.336786	8016.631889
448.711374	7757.806448
449.085901	6837.072466
449.460369	6754.616833
449.834776	6692.272883
450.209124	7081.034065
450.583412	7230.491673
450.957640	7377.968109
451.331808	7145.686863
451.705917	6692.378747
452.079965	6619.972655
452.453954	6830.463513
452.827883	6707.275357
453.201752	6798.406816
453.575562	6598.048677
453.949311	6801.333205
454.323001	6691.304982
454.696632	6765.084789
455.070202	6903.285501
455.443713	7056.037503
455.817164	7156.994171
456.190556	7236.810760
456.563888	7313.930331
456.937160	7353.528595
457.310373	7018.344796
457.683526	7039.494957
458.056619	6927.765344
458.429653	6915.117089
458.802628	6847.595874
459.175542	6960.888245
459.548398	7315.006618
459.921194	7473.167778
460.293930	7478.917214
460.666607	8003.834920
461.039224	8312.141807
461.411782	8436.141589
461.784280	8447.181716
462.156719	8347.535748
462.529099	8223.067139
462.901419	7810.373080
463.273680	7703.866102
463.645882	7712.985549
464.018024	7579.228614
464.390106	7743.814726
464.762130	8122.612067
465.134094	8582.836645
465.505999	9599.871790
465.877845	10805.824175
466.249631	11442.559714
466.621358	11059.454707
466.993026	10432.493965
467.364634	10173.066106
467.736184	9809.792998
468.107674	9477.258325
468.479105	9493.909257
468.850477	9257.993339
469.221790	9026.432978
469.593043	8695.511475
469.964238	8556.297491
470.335373	8562.006598
470.706449	8604.342208
471.077467	8575.088392
471.448425	9845.524696
471.819324	10874.300688
472.190164	10894.349357
472.560945	9664.484259
472.931667	8880.443683
473.302330	8746.648940
473.672934	8382.571768
474.043479	8717.926966
474.413965	8643.932909
474.784393	8510.765789
475.154761	8654.736102
475.525070	8718.277326
475.895321	8539.659163
476.265513	8688.632821
476.635645	8834.594389
477.005719	8808.524062
477.375734	8899.743741
477.745691	9096.852856
478.115588	9199.231129
478.485427	9394.714472
478.855207	9867.110917
479.224928	10564.108409
479.594591	11110.017480
479.964194	10912.830227
480.333739	10838.034627
480.703226	10712.716584
481.072653	10759.954716
481.442022	10914.584548
481.811333	11041.485514
482.180584	10823.493419
482.549777	10531.764366
482.918912	10322.309465
483.287988	10297.943048
483.657005	10259.068190
484.025964	9935.799159
484.394864	9998.009518
484.763706	9919.491026
485.132489	9664.239763
485.501213	9579.147606
485.869879	9601.394218
486.238487	9403.891893
486.607036	9442.912944
486.975527	9202.807828
487.343959	9301.614443
487.712333	9282.054766
488.080648	9162.370212
488.448905	9129.111200
488.817104	9023.183954
489.185244	9158.715376
489.553326	9208.559784
489.921350	9525.129122
490.289315	10196.681391
490.657222	10374.901303
491.025070	10223.142407
491.392861	10056.532273
491.760593	9719.929389
492.128267	9408.779292
492.495883	9101.470553
492.863440	8793.183831
493.230939	8484.849218
493.598380	8362.550825
493.965763	8184.852673
494.333088	8062.022439
494.700354	7921.943897
495.067563	7905.741628
495.434713	7701.524486
495.801805	7715.450673
496.168839	7584.403359
496.535815	7459.481046
496.902733	7393.741879
497.269593	7265.079030
497.636395	7259.044769
498.003139	7160.724625
498.369825	7025.510796
498.736453	7027.635643
499.103023	6925.154026
499.469535	6846.199475
499.835989	6779.439474
500.202385	6678.248393
500.568723	6531.011413
500.935003	6576.361633
501.301226	6383.020780
501.667390	6452.245904
502.033497	6411.662095
502.399546	6276.206292
502.765537	6155.505945
503.131470	6111.559686
503.497345	6106.395024
503.863163	5882.661055
504.228923	5926.360297
504.594625	5881.733483
504.960269	5710.762750
505.325856	5721.470161
505.691385	5565.832097
506.056856	5560.024688
506.422270	5493.494060
506.787625	5401.334206
507.152924	5359.822825
507.518164	5297.499040
507.883347	5192.852248
508.248472	5105.045430
508.613540	5108.801090
508.978550	5006.339638
509.343503	4938.276499
509.708398	4905.277106
510.073236	4868.786714
510.438016	4809.515347
510.802738	4729.663471
511.167403	4688.880536
511.532010	4599.175724
511.896561	4606.951704
512.261053	4563.814550
512.625488	4469.635714
512.989866	4409.154471
513.354186	4355.635061
513.718449	4274.411990
514.082655	4269.592647
514.446803	4193.015000
514.810894	4168.343593
515.174927	4088.988269
515.538904	4051.812280
515.902822	4021.358670
516.266684	3961.068991
516.630488	3897.837798
516.994235	3868.495762
517.357925	3824.196622
517.721558	3797.629742
518.085133	3756.072990
518.448651	3719.055797
518.812112	3660.341478
519.175516	3619.440077
519.538863	3597.929473
519.902152	3555.233421
520.265385	3526.161087
520.628560	3489.312773
520.991678	3446.387348
521.354739	3418.108995
521.717743	3382.120198
522.080690	3351.306145
522.443580	3324.391424
522.806413	3293.358081
523.169189	3269.430245
523.531908	3242.268508
523.894569	3204.893393
524.257174	3176.688137
524.619722	3160.105262
524.982213	3136.263125
525.344647	3106.510235
525.707025	3086.824529
526.069345	3071.191911
526.431608	3041.663352
526.793815	3030.164480
527.155964	2999.277331
527.518057	2980.993066
527.880093	2961.067905
528.242072	2948.114660
528.603995	2927.448450
528.965860	2906.716705
529.327669	2896.026938
529.689421	2880.341388
530.051117	2866.919316
530.412755	2855.740557
530.774337	2839.588700
531.135862	2827.056392
531.497331	2817.054742
531.858743	2797.530354
532.220098	2794.170425
532.581396	2782.275822
532.942638	2770.471960
533.303824	2763.706732
533.664953	2755.018303
534.026025	2747.983373
534.387040	2744.729308
534.747999	2734.752865
535.108902	2730.190621
535.469748	2722.308777
535.830537	2716.438353
536.191270	2710.870398
536.551947	2704.319419
536.912567	2702.539892
537.273131	2698.486804
537.633638	2689.730320
537.994089	2685.702438
538.354483	2681.261181
538.714821	2681.808147
539.075103	2676.724143
539.435328	2674.427897
539.795497	2670.631908
540.155609	2667.705519
540.515665	2669.134686
540.875665	2660.103459
541.235609	2658.573468
541.595496	2658.013900
541.955328	2658.200423
542.315102	2654.512819
542.674821	2651.984680
543.034483	2649.149031
543.394090	2648.861686
543.753640	2646.484782
544.113134	2648.261788
544.472571	2640.760551
544.831953	2642.512352
545.191278	2643.749956
545.550548	2641.700727
545.909761	2640.122845
546.268918	2638.423977
546.628019	2637.690489
546.987064	2637.077988
547.346053	2634.287710
547.704986	2631.441978
548.063863	2635.041362
548.422684	2632.404839
548.781449	2629.317132
549.140158	2630.310239
549.498811	2631.240332
549.857408	2626.252111
550.215949	2624.462501
550.574434	2623.759260
550.932864	2622.874537
551.291237	2622.766153
551.649555	2626.718417
552.007817	2624.747326
552.366022	2623.850001
552.724173	2622.619959
553.082267	2625.216153
553.440305	2623.131636
553.798288	2619.207098
554.156215	2618.317334
554.514086	2623.020731
554.871902	2620.432098
555.229661	2620.500154
555.587365	2620.525360
555.945014	2616.968826
556.302606	2616.668877
556.660143	2614.511263
557.017625	2618.035030
557.375050	2618.713065
557.732421	2619.499485
558.089735	2617.598970
558.446994	2618.375308
558.804197	2617.578805
559.161345	2616.618466
559.518437	2615.607714
559.875474	2616.240379
560.232455	2613.213166
560.589381	2615.254833
560.946251	2616.328599
561.303065	2614.425564
561.659825	2613.298866
562.016528	2615.509412
562.373177	2613.465224
562.729770	2613.974380
563.086307	2613.687035
563.442789	2612.577981
563.799216	2611.715943
564.155587	2611.599997
564.511904	2612.724174
564.868164	2611.395830
565.224370	2612.953547
565.580520	2610.664863
565.936615	2612.041098
566.292654	2610.727877
566.648638	2612.719133
567.004567	2609.848196
567.360441	2612.547734
567.716260	2608.608072
568.072023	2610.659822
568.427732	2605.283431
568.783385	2606.964656
569.138982	2608.108998
569.494525	2604.693616
569.850013	2603.355190
570.205445	2608.789554
570.560823	2608.257712
570.916145	2607.660335
571.271412	2608.030860
571.626625	2607.239399
571.981782	2604.033225
572.336884	2609.507918
572.691931	2606.899121
573.046923	2605.038935
573.401860	2606.107660
573.756743	2605.696806
574.111570	2603.980293
574.466342	2606.944491
574.821059	2602.964500
575.175722	2604.093719
575.530330	2606.929368
575.884882	2606.447938
576.239380	2605.686723
576.593823	2602.989706
576.948211	2602.893924
577.302544	2603.962649
577.656823	2604.013060
578.011047	2606.337032
578.365216	2602.697319
578.719330	2603.282093
579.073389	2601.706732
579.427394	2602.747731
579.781344	2601.585745
580.135239	2600.433841
580.489080	2600.663214
580.842866	2601.631115
581.196597	2599.997781
581.550273	2599.619695
581.903895	2601.069027
582.257463	2602.112545
582.610975	2601.144644
582.964434	2604.287803
583.317837	2600.222113
583.671186	2600.015425
584.024481	2601.825200
584.377721	2598.228336
584.730906	2599.279417
585.084037	2602.435179
585.437113	2599.108018
585.790135	2599.541557
586.143103	2597.126844
586.496016	2597.736824
586.848874	2595.692636
587.201679	2596.279930
587.554428	2592.345310
587.907124	2597.683892
588.259765	2590.797676
588.612352	2594.545773
588.964884	2597.058789
589.317362	2595.493510
589.669786	2594.785228
590.022155	2599.241608
590.374470	2597.240270
590.726731	2598.571135
591.078937	2595.054930
591.431090	2597.252873
591.783188	2595.894282
592.135232	2594.160125
592.487222	2594.449992
592.839157	2595.221288
593.191038	2592.622573
593.542866	2595.150712
593.894639	2593.270362
594.246358	2594.606267
594.598022	2592.935125
594.949633	2593.703901
595.301190	2591.881524
595.652692	2595.841350
596.004141	2595.617019
596.355535	2594.427306
596.706876	2591.868921
597.058162	2588.720720
597.409395	2593.716504
597.760573	2595.876638
598.111698	2590.827922
598.462768	2594.651638
598.813785	2594.003849
599.164748	2593.046030
599.515657	2591.541246
599.866511	2590.071749
600.217312	2591.465628
600.568060	2592.183993
600.918753	2593.527460
601.269392	2590.643920
601.619978	2590.986719
601.970510	2591.382449
602.320988	2592.456215
602.671412	2590.648962
603.021783	2590.722058
603.372100	2591.332038
603.722363	2587.883889
604.072572	2591.006883
604.422728	2590.457398
604.772830	2587.352047
605.122878	2588.904722
605.472872	2587.462952
605.822813	2584.337437
606.172701	2590.142326
606.522534	2591.599219
606.872314	2590.507809
607.222041	2590.885896
607.571714	2592.428489
607.921333	2591.805906
608.270899	2591.019486
608.620411	2591.967223
608.969870	2594.329004
609.319276	2593.015783
609.668627	2595.213726
610.017926	2597.391505
610.367171	2599.491145
610.716362	2598.039293
611.065500	2596.799169
611.414585	2594.765064
611.763616	2596.252204
612.112594	2593.766915
612.461518	2593.222471
612.810389	2591.843715
613.159207	2591.949579
613.507971	2593.245156
613.856682	2591.659713
614.205340	2593.474528
614.553945	2594.737337
614.902496	2591.241297
615.250994	2593.368664
615.599439	2592.854466
615.947830	2594.124837
616.296169	2592.970413
616.644454	2591.886565
616.992686	2590.643920
617.340864	2592.957810
617.688990	2591.357244
618.037063	2592.723396
618.385082	2591.916812
618.733048	2590.843046
619.080961	2592.032758
619.428821	2593.111565
619.776628	2591.992429
620.124382	2590.119640
620.472083	2590.631317
620.819731	2590.626276
621.167326	2591.069898
621.514868	2590.359095
621.862357	2589.144177
622.209793	2591.027048
622.557176	2589.706266
622.904506	2586.459763
623.251783	2585.307859
623.599007	2586.661409
623.946179	2584.967581
624.293297	2587.236100
624.640363	2585.580081
624.987376	2587.112592
625.334336	2585.844742
625.681243	2586.638724
626.028097	2584.707962
626.374899	2587.730133
626.721647	2585.925400
627.068343	2587.604105
627.414987	2584.468507
627.761577	2581.285018
628.108115	2581.489185
628.454600	2586.505133
628.801032	2585.166707
629.147412	2584.796182
629.493739	2583.218301
629.840014	2583.155286
630.186236	2580.901891
630.532405	2583.039340
630.878521	2583.876171
631.224585	2583.919021
631.570597	2583.021696
631.916556	2583.931624
632.262462	2582.000862
632.608316	2582.263002
632.954117	2580.904411
633.299866	2583.309042
633.645562	2580.904411
633.991206	2580.430543
634.336797	2580.564133
634.682336	2584.284505
635.027823	2581.252251
635.373257	2581.582446
635.718639	2577.108422
636.063968	2577.763772
636.409245	2578.842579
636.754470	2575.354101
637.099642	2578.277970
637.444762	2577.990624
637.789829	2577.458782
638.134845	2576.692527
638.479808	2577.052970
638.824719	2577.836869
639.169577	2574.550037
639.514383	2572.510890
639.859137	2574.091292
640.203839	2578.068762
640.548489	2576.511046
640.893086	2572.084912
641.237632	2569.297154
641.582125	2574.799574
641.926566	2568.934191
642.270955	2574.444172
642.615292	2573.342680
642.959576	2575.061714
643.303809	2575.084399
643.647990	2574.456775
643.992118	2574.862588
644.336195	2574.688668
644.680219	2574.154306
645.024192	2572.969635
645.368112	2574.761765
645.711981	2576.712692
646.055797	2577.491550
646.399562	2577.219328
646.743274	2577.410892
647.086935	2578.661098
647.430544	2577.557085
647.774101	2577.541962
648.117606	2578.986252
648.461059	2577.642785
648.804460	2578.585480
649.147810	2578.754359
649.491108	2573.503997
649.834354	2575.908628
650.177548	2574.855027
650.520690	2573.148596
650.863781	2573.287228
651.206820	2575.424677
651.549807	2576.163206
651.892742	2574.686148
652.235626	2574.900397
652.578458	2572.583987
652.921238	2573.178843
653.263967	2575.033987
653.606644	2571.986610
653.949269	2571.429562
654.291843	2570.814542
654.634365	2572.767989
654.976836	2569.340004
655.319255	2573.035170
655.661622	2571.595921
656.003938	2570.413770
656.346203	2568.866136
656.688416	2572.294120
657.030577	2569.753379
657.372687	2572.183215
657.714746	2569.700447
658.056753	2569.408060
658.398708	2564.944118
658.740612	2567.157185
659.082465	2568.115004
659.424266	2568.908986
659.766016	2564.989488
660.107715	2570.081054
660.449362	2570.917885
660.790958	2570.300344
661.132503	2571.732032
661.473996	2570.862433
661.815438	2570.645663
662.156829	2569.153482
662.498168	2569.750858
662.839456	2571.747155
663.180693	2568.414952
663.521879	2572.616754
663.863013	2570.035683
664.204097	2569.745817
664.545129	2567.595765
664.886110	2573.831672
665.227040	2570.673389
665.567918	2569.448389
665.908746	2567.121897
666.249522	2573.844275
666.590248	2568.969479
666.930922	2570.738924
667.271545	2571.119532
667.612118	2574.844944
667.952639	2571.580797
668.293109	2573.153637
668.633528	2573.985427
668.973896	2568.195662
669.314213	2572.876374
669.654480	2570.960735
669.994695	2572.604151
670.334859	2571.404357
670.674973	2570.189439
671.015035	2568.903944
671.355047	2570.547361
671.695008	2568.886300
672.034918	2570.852350
672.374777	2569.057700
672.714585	2571.316137
673.054342	2571.449727
673.394049	2570.897721
673.733705	2573.176322
674.073310	2569.345045
674.412864	2571.520303
674.752368	2568.914027
675.091820	2567.774726
675.431223	2569.924778
675.770574	2568.878739
676.109875	2566.393450
676.449125	2564.129972
676.788324	2568.109963
677.127473	2567.429407
677.466571	2561.826164
677.805619	2567.903275
678.144616	2567.394119
678.483562	2566.617781
678.822458	2567.716753
679.161303	2567.835220
679.500098	2566.832030
679.838842	2569.710529
680.177535	2567.197514
680.516179	2566.564849
680.854771	2567.747000
681.193314	2569.299675
681.531805	2571.132134
681.870247	2572.402505
682.208638	2570.068451
682.546978	2570.824624
682.885268	2572.447876
683.223508	2574.860068
683.561697	2569.682803
683.899836	2567.048800
684.237925	2569.529047
684.575963	2570.053328
684.913951	2568.049469
685.251889	2571.850499
685.589776	2569.571897
685.927614	2569.886969
686.265401	2567.525189
686.603137	2571.600962
686.940824	2569.927299
687.278460	2571.137176
687.616046	2571.293451
687.953582	2575.591035
688.291068	2572.856209
688.628504	2570.620457
688.965889	2571.795046
689.303224	2572.609193
689.640510	2571.127093
689.977745	2570.645663
690.314930	2569.607185
690.652065	2569.614747
690.989150	2571.268246
691.326185	2566.789180
691.663170	2564.538305
692.000105	2565.733059
692.336990	2564.850857
692.673825	2567.376475
693.010610	2566.343038
693.347345	2562.652914
693.684030	2558.093190
694.020665	2559.421534
694.357251	2556.797613
694.693786	2559.078736
695.030272	2563.335990
695.366707	2560.545711
695.703093	2560.543191
696.039429	2559.683674
696.375716	2560.528067
696.711952	2562.615105
697.048139	2560.752399
697.384276	2561.223747
697.720363	2559.663509
698.056400	2563.169632
698.392388	2560.283571
698.728326	2563.240208
699.064214	2559.338355
699.400053	2562.499158
699.735842	2556.936245
700.071581	2561.667368
700.407270	2558.748540
700.742910	2558.814075
701.078501	2558.519168
701.414042	2560.533108
701.749533	2558.907336
702.084974	2559.537481
702.420366	2558.110834
702.755709	2557.430278
703.091002	2556.260731
703.426246	2555.958261
703.761440	2556.674105
704.096584	2559.212326
704.431679	2555.244938
704.766725	2557.276523
705.101721	2555.156718
705.436668	2557.843653
705.771565	2557.954558
706.106413	2555.121430
706.441212	2557.160577
706.775961	2554.627397
707.110661	2557.238714
707.445311	2557.851215
707.779913	2555.436502
708.114465	2559.618139
708.448967	2560.414641
708.783421	2557.407593
709.117825	2558.468756
709.452180	2559.696277
709.786485	2559.986143
710.120742	2558.647717
710.454949	2563.068809
710.789107	2561.304405
711.123216	2560.003787
711.457275	2561.558983
711.791286	2558.065464
712.125247	2557.621842
712.459159	2565.344890
712.793023	2563.847667
713.126837	2560.041596
713.460602	2561.682492
713.794318	2560.525547
714.127985	2560.870866
714.461602	2559.872717
714.795171	2562.005125
715.128691	2557.707542
715.462162	2558.496482
715.795584	2557.344579
716.128957	2558.793910
716.462281	2559.096380
716.795556	2558.715772
717.128782	2555.181924
717.461960	2555.318035
717.795088	2557.362223
718.128167	2555.560010
718.461198	2554.367777
718.794180	2556.588406
719.127113	2556.023796
719.459997	2556.401883
719.792833	2553.500699
720.125619	2556.641338
720.458357	2554.821481
720.791046	2552.570606
721.123686	2554.650082
721.456278	2553.593960
721.788821	2555.023127
722.121315	2552.938610
722.453761	2555.353323
722.786158	2553.762839
723.118506	2553.170503
723.450805	2553.719989
723.783056	2555.587737
724.115259	2551.131357
724.447412	2553.614125
724.779518	2554.239228
725.111574	2552.550441
725.443582	2553.919115
725.775542	2553.200750
726.107453	2553.599001
726.439315	2554.942469
726.771129	2558.418344
727.102895	2551.582540
727.434612	2554.914742
727.766281	2555.121430
728.097901	2553.402396
728.429473	2552.830225
728.760996	2553.150339
729.092471	2549.712272
729.423897	2555.922973
729.755276	2555.728889
730.086606	2556.157387
730.417887	2556.908519
730.749120	2558.007490
731.080305	2555.628066
731.411442	2557.732747
731.742530	2555.058415
732.073570	2560.586041
732.404562	2556.517829
732.735506	2560.233160
733.066401	2557.049671
733.397249	2557.619322
733.728048	2555.401214
734.058798	2553.994732
734.389501	2553.339382
734.720156	2554.027499
735.050762	2551.610266
735.381320	2551.469114
735.711831	2553.170503
736.042293	2553.132695
736.372707	2551.413661
736.703073	2552.041285
737.033391	2554.461039
737.363661	2552.086655
737.693883	2549.697148
738.024056	2557.543704
738.354182	2555.305432
738.684260	2555.817109
739.014290	2553.198230
739.344272	2555.544887
739.674207	2552.941131
740.004093	2554.713096
740.333931	2554.904660
740.663722	2554.067829
740.993464	2552.510112
741.323159	2554.453477
741.652806	2553.919115
741.982405	2552.676470
742.311956	2553.167983
742.641460	2553.989691
742.970915	2551.509443
743.300323	2551.842159
743.629683	2550.889381
743.958996	2551.948023
744.288260	2551.224618
744.617477	2552.585729
744.946647	2545.969215
745.275768	2548.643547
745.604842	2547.247147
745.933869	2547.138763
746.262847	2544.038453
746.591778	2548.956099
746.920662	2546.702703
747.249498	2548.683876
747.578286	2550.642365
747.907027	2553.825853
748.235720	2552.285781
748.564365	2550.458363
748.892963	2550.115564
749.221514	2551.993394
749.550017	2550.279402
749.878473	2551.212015
750.206881	2550.327292
750.535242	2551.196892
750.863555	2549.568599
751.191821	2550.959957
751.520039	2548.814946
751.848210	2551.083466
752.176334	2549.734957
752.504411	2550.223949
752.832440	2549.019113
753.160421	2549.356870
753.488356	2548.552806
753.816243	2548.580533
754.144082	2549.470296
754.471875	2549.354350
754.799620	2547.463917
755.127318	2548.993907
755.454969	2549.026675
755.782572	2547.726057
756.110129	2549.019113
756.437638	2546.639688
756.765100	2547.484082
757.092515	2548.129349
757.419882	2549.873589
757.747203	2549.634134
758.074477	2546.967363
758.401703	2549.485420
758.728882	2550.614638
759.056014	2550.715461
759.383099	2546.443083
759.710138	2550.372663
760.037129	2550.382745
760.364073	2551.050698
760.690970	2549.530790
761.017820	2551.050698
761.344623	2548.507436
761.671379	2550.939793
761.998088	2548.431819
762.324751	2550.594474
762.651366	2554.080432
762.977935	2566.491752
763.304456	2565.765826
763.630931	2570.214644
763.957359	2567.631053
764.283740	2564.684499
764.610074	2559.305588
764.936362	2559.013201
765.262602	2554.824002
765.588796	2553.314176
765.914943	2551.345606
766.241044	2550.337375
766.567097	2546.364946
766.893104	2547.642878
767.219064	2548.262940
767.544978	2549.054401
767.870845	2547.733619
768.196665	2545.084493
768.522438	2546.929555
768.848165	2546.324616
769.173846	2544.151879
769.499479	2542.687424
769.825066	2545.167672
770.150607	2545.563402
770.476101	2543.385624
770.801548	2545.119781
771.126949	2549.185471
771.452303	2546.369987
771.777611	2543.957795
772.102872	2544.232537
772.428087	2545.389482
772.753256	2544.756817
773.078378	2541.250695
773.403453	2542.763041
773.728482	2542.407640
774.053465	2545.291180
774.378401	2541.167516
774.703291	2540.960829
775.028135	2542.047197
775.352932	2543.627599
775.677683	2544.439225
776.002388	2542.276570
776.327046	2541.099460
776.651658	2539.519059
776.976224	2541.071734
777.300743	2541.467465
777.625216	2541.611138
777.949643	2541.429656
778.274024	2544.424101
778.598359	2540.590304
778.922647	2536.368338
779.246889	2538.611651
779.571086	2537.426980
779.895236	2542.700027
780.219339	2541.222969
780.543397	2542.374872
780.867409	2541.220448
781.191374	2542.624409
781.515294	2538.702392
781.839167	2543.136087
782.162995	2542.654656
782.486776	2542.440407
782.810511	2539.632485
783.134201	2544.892929
783.457844	2539.065355
783.781441	2542.596683
784.104993	2540.691127
784.428498	2542.092568
784.751958	2537.379089
785.075372	2542.087527
785.398739	2538.838503
785.722061	2540.350849
786.045337	2539.647608
786.368568	2542.611807
786.691752	2541.505273
787.014891	2543.226827
787.337983	2540.842362
787.661030	2544.303114
787.984031	2546.128011
788.306987	2543.594832
788.629897	2543.310006
788.952760	2546.004503
789.275579	2541.936292
789.598351	2542.150541
789.921078	2542.349667
790.243759	2541.684234
790.566395	2539.655170
790.888984	2543.786395
791.211529	2539.912269
791.534027	2539.624923
791.856480	2540.131559
792.178888	2540.363452
792.501249	2541.359080
792.823566	2541.737166
793.145836	2541.971580
793.468062	2539.524100
793.790241	2540.161806
794.112375	2543.937630
794.434464	2540.716333
794.756507	2541.840510
795.078505	2541.878319
795.400457	2541.170037
795.722364	2538.377237
796.044226	2539.791281
796.366042	2539.834131
796.687812	2540.812115
797.009538	2542.117773
797.331218	2543.609955
797.652852	2541.477547
797.974442	2541.477547
798.295986	2543.425953
798.617484	2543.186498
798.938938	2542.369831
799.260346	2538.858668
799.581709	2541.351518
799.903026	2543.446117
800.224299	2541.104502
800.545526	2541.230530
800.866708	2541.379244
801.187845	2542.631971
801.508936	2538.662062
801.829983	2538.583925
802.150984	2541.298586
802.471940	2542.153062
802.792851	2541.648946
803.113717	2540.791950
803.434538	2539.798843
803.755314	2540.267670
804.076045	2537.033770
804.396731	2540.872608
804.717372	2539.849254
805.037967	2538.629295
805.358518	2541.248174
805.679024	2539.188863
805.999485	2538.770447
806.319901	2540.948226
806.640272	2537.762217
806.960598	2538.062165
807.280879	2535.889428
807.601115	2538.830941
807.921306	2539.007382
808.241453	2539.299768
808.561554	2541.202804
808.881611	2541.233051
809.201623	2539.866898
809.521590	2541.001158
809.841513	2539.456044
810.161390	2540.446631
810.481223	2538.891435
810.801011	2541.860675
811.120755	2540.134079
811.440453	2540.055942
811.760107	2539.632485
812.079716	2536.176774
812.399281	2537.215251
812.718801	2535.473533
813.038276	2535.463450
813.357707	2538.243647
813.677093	2539.692978
813.996434	2538.470499
814.315731	2540.713812
814.634983	2540.534851
814.954191	2539.483771
815.273354	2540.844882
815.592473	2538.042001
815.911547	2542.780685
816.230577	2539.327495
816.549562	2541.447300
816.868502	2540.386137
817.187399	2542.294214
817.506250	2539.766075
817.825058	2538.120138
818.143821	2540.403781
818.462539	2542.188350
818.781213	2544.623227
819.099843	2542.203473
819.418429	2545.437373
819.736970	2545.888557
820.055466	2550.891902
820.373919	2553.329300
820.692327	2555.159238
821.010691	2561.357337
821.329011	2578.656057
821.647286	2606.619337
821.965517	2640.526138
822.283704	2659.974909
822.601847	2667.781136
822.919945	2649.912766
823.237999	2630.831999
823.556010	2612.948506
823.873976	2597.202462
824.191897	2585.837180
824.509775	2575.049111
824.827609	2571.106929
825.145398	2566.743810
825.463144	2563.036041
825.780845	2565.065106
826.098502	2570.096177
826.416116	2578.613207
826.733685	2588.335072
827.051210	2591.311873
827.368692	2589.365988
827.686129	2578.605645
828.003522	2569.158523
828.320872	2559.343396
828.638177	2553.369629
828.955439	2550.377704
829.272656	2548.449463
829.589830	2542.074924
829.906960	2545.722198
830.224046	2541.911086
830.541088	2544.023330
830.858086	2543.342774
831.175041	2543.415871
831.491952	2542.027033
831.808819	2540.517207
832.125642	2543.264636
832.442421	2543.614996
832.759157	2548.477189
833.075849	2555.703683
833.392497	2560.538150
833.709101	2565.478480
834.025662	2566.428738
834.342179	2561.410269
834.658653	2555.890206
834.975083	2554.808878
835.291469	2555.171841
835.607811	2545.969215
835.924110	2544.298072
836.240366	2541.492670
836.556578	2542.669780
836.872746	2540.310520
837.188871	2544.063659
837.504952	2539.645088
837.820990	2540.297917
838.136984	2535.632329
838.452935	2538.185673
838.768842	2539.312371
839.084706	2537.873122
839.400526	2543.226827
839.716303	2543.453679
840.032037	2553.084804
840.347727	2547.804195
840.663373	2548.401572
840.978977	2540.255067
841.294537	2540.746580
841.610054	2540.232382
841.925527	2539.103163
842.240957	2538.420087
842.556344	2538.467978
842.871687	2536.713657
843.186987	2534.861032
843.502244	2533.807431
843.817458	2538.765406
844.132629	2536.108718
844.447756	2534.697195
844.762840	2533.247863
845.077881	2532.849612
845.392879	2532.315250
845.707833	2535.753317
846.022745	2528.957841
846.337613	2534.107380
846.652438	2536.050745
846.967221	2535.103008
847.281960	2534.450178
847.596656	2535.551671
847.911309	2534.606454
848.225919	2533.381454
848.540485	2532.012781
848.855009	2533.726773
849.169490	2535.828934
849.483928	2536.985879
849.798323	2531.183511
850.112675	2536.411187
850.426984	2531.846423
850.741251	2529.983716
851.055474	2535.828934
851.369654	2535.390354
851.683792	2533.666279
851.997887	2531.649817
852.311938	2533.530168
852.625947	2535.523944
852.939914	2535.856660
853.253837	2535.465971
853.567718	2532.146371
853.881555	2533.381454
854.195350	2532.534540
854.509103	2534.419932
854.822812	2535.531506
855.136479	2532.746268
855.450103	2533.820034
855.763685	2531.881711
856.077224	2533.328522
856.390720	2532.582431
856.704173	2535.138296
857.017584	2535.657535
857.330953	2532.905065
857.644278	2533.875487
857.957561	2535.097967
858.270802	2533.144520
858.584000	2533.066382
858.897155	2537.661393
859.210268	2533.865405
859.523339	2533.383974
859.836367	2533.288192
860.149352	2532.519417
860.462295	2534.480425
860.775195	2532.282482
861.088054	2531.417924
861.400869	2532.025383
861.713642	2529.703932
862.026373	2531.954807
862.339062	2531.662420
862.651708	2535.639891
862.964312	2534.840868
863.276873	2534.049407
863.589392	2535.166022
863.901869	2534.218285
864.214303	2535.029911
864.526696	2534.639222
864.839045	2535.065199
865.151353	2535.314736
865.463619	2534.840868
865.775842	2534.699716
866.088023	2534.959335
866.400162	2533.028573
866.712258	2538.959491
867.024313	2536.703574
867.336325	2536.010416
867.648296	2535.511341
867.960224	2535.289531
868.272110	2536.905220
868.583954	2535.173584
868.895755	2532.668131
869.207515	2535.992772
869.519233	2537.608461
869.830909	2534.896321
870.142542	2536.993441
870.454134	2536.007895
870.765684	2535.360107
871.077191	2532.158974
871.388657	2537.210210
871.700081	2535.639891
872.011463	2536.701054
872.322803	2535.402957
872.634101	2536.625436
872.945357	2534.966897
873.256571	2535.738193
873.567744	2536.678368
873.878874	2537.162319
874.189963	2534.760209
874.501010	2538.841023
874.812015	2536.343132
875.122979	2539.781199
875.433900	2536.839685
875.744780	2537.101825
876.055618	2535.513862
876.366415	2534.283820
876.677169	2536.466640
876.987882	2533.303316
877.298554	2534.361958
877.609183	2534.510672
877.919771	2534.752648
878.230317	2536.428831
878.540822	2541.792619
878.851285	2540.655839
879.161707	2542.266488
879.472087	2545.099616
879.782425	2547.088351
880.092722	2553.064639
880.402977	2563.076371
880.713191	2577.196642
881.023363	2596.118613
881.333494	2608.202259
881.643583	2609.943978
881.953631	2609.659153
882.263637	2605.757300
882.573602	2593.776997
882.883526	2589.532346
883.193408	2581.020358
883.503248	2576.024574
883.813048	2564.331618
884.122806	2559.517316
884.432522	2558.073025
884.742197	2553.982129
885.051831	2548.797302
885.361424	2548.441901
885.670975	2546.614483
885.980485	2547.103475
886.289954	2542.072403
886.599382	2542.606765
886.908768	2541.744728
887.218113	2540.222300
887.527417	2539.004861
887.836680	2541.051569
888.145901	2538.455375
888.455082	2537.424459
888.764221	2538.210879
889.073319	2537.495035
889.382376	2539.173740
889.691392	2539.019984
890.000366	2536.043183
890.309300	2536.504449
890.618193	2537.232895
890.927044	2537.769778
891.235855	2539.874460
891.544625	2535.952442
891.853353	2538.415046
892.162041	2538.470499
892.470687	2540.451672
892.779293	2538.246167
893.087858	2538.415046
893.396381	2540.519728
893.704864	2544.512322
894.013306	2545.303783
894.321707	2553.977088
894.630068	2559.930691
894.938387	2561.317008
895.246665	2562.017728
895.554903	2554.904660
895.863100	2553.992211
896.171256	2550.778476
896.479371	2547.912580
896.787446	2546.438042
897.095480	2545.674307
897.403473	2540.391178
897.711425	2541.081816
898.019336	2539.982845
898.327207	2540.701209
898.635038	2539.299768
898.942827	2536.499408
899.250576	2539.317413
899.558284	2537.638708
899.865952	2539.244316
900.173579	2537.810107
900.481165	2539.037628
900.788711	2538.651980
901.096216	2535.849099
901.403681	2536.862371
901.711105	2534.921526
902.018489	2537.152237
902.325832	2538.543595
902.633135	2536.900179
902.940397	2537.754655
903.247619	2540.267670
903.554800	2546.526262
903.861941	2557.924311
904.169041	2565.513768
904.476101	2572.946950
904.783121	2569.587021
905.090100	2565.365054
905.397039	2559.381205
905.703938	2553.772921
906.010796	2549.818136
906.317614	2544.393854
906.624391	2542.064841
906.931129	2541.603576
907.237826	2542.049718
907.544483	2538.964532
907.851099	2534.631660
908.157675	2537.563091
908.464211	2534.475384
908.770707	2528.357944
909.077163	2528.453726
909.383578	2530.112266
909.689954	2531.095291
909.996289	2530.820548
910.302584	2534.951773
910.608839	2532.458923
910.915054	2533.305837
911.221229	2532.978162
911.527363	2533.832637
911.833458	2534.956814
912.139513	2532.947915
912.445527	2534.838347
912.751502	2534.182997
913.057436	2533.073943
913.363331	2538.142824
913.669186	2534.074613
913.975000	2538.180632
914.280775	2537.676517
914.586510	2542.798329
914.892205	2547.249668
915.197859	2547.952909
915.503475	2556.164949
915.809050	2562.993192
916.114585	2566.867318
916.420081	2569.319840
916.725536	2566.877401
917.030952	2563.099056
917.336328	2559.053530
917.641665	2557.906667
917.946961	2553.840977
918.252218	2547.947868
918.557435	2546.833773
918.862612	2545.923845
919.167750	2543.068031
919.472848	2543.128525
919.777906	2539.541744
920.082925	2538.057124
920.387904	2537.109387
920.692843	2537.651311
920.997743	2536.055786
921.302603	2534.916485
921.607423	2538.881353
921.912204	2537.018646
922.216946	2536.207021
922.521647	2535.831455
922.826310	2535.584438
923.130932	2531.342307
923.435516	2530.863397
923.740059	2535.294572
924.044564	2532.032945
924.349028	2531.725435
924.653454	2527.652182
924.957840	2530.049251
925.262186	2529.265352
925.566493	2530.782739
925.870761	2527.730320
926.174989	2531.924560
926.479178	2530.215609
926.783328	2532.463964
927.087438	2531.223840
927.391509	2529.610671
927.695541	2529.484642
927.999533	2527.563962
928.303486	2532.065713
928.607400	2530.200486
928.911275	2531.208717
929.215110	2529.721576
929.518906	2528.695701
929.822663	2531.440610
930.126381	2529.361134
930.430060	2531.871628
930.733699	2528.637728
931.037299	2529.514889
931.340861	2533.567977
931.644383	2530.303829
931.947866	2528.441123
932.251309	2529.509848
932.554714	2530.099663
932.858080	2532.869777
933.161407	2529.104035
933.464694	2529.756864
933.767943	2531.995137
934.071153	2529.761905
934.374323	2530.059333
934.677455	2530.089580
934.980548	2530.407173
935.283602	2531.596885
935.586617	2527.120341
935.889593	2528.935156
936.192530	2531.180990
936.495428	2528.703263
936.798287	2531.160826
937.101108	2531.632173
937.403890	2529.661082
937.706632	2531.982534
938.009336	2530.142512
938.312002	2534.528316
938.614628	2533.336083
938.917216	2532.030425
939.219765	2533.091588
939.522275	2533.217616
939.824747	2532.204344
940.127179	2529.535053
940.429573	2527.304343
940.731929	2529.653521
941.034246	2527.911802
941.336524	2530.649148
941.638763	2532.726104
941.940964	2530.331556
942.243126	2531.803573
942.545250	2533.255425
942.847335	2529.754344
943.149381	2531.889272
943.451389	2527.319466
943.753359	2532.506814
944.055290	2527.785773
944.357182	2530.860877
944.659036	2532.950435
944.960851	2529.703932
945.262628	2533.106711
945.564367	2531.896834
945.866067	2529.479601
946.167729	2530.082019
946.469352	2529.744261
946.770937	2531.911958
947.072484	2529.262831
947.373992	2532.690816
947.675462	2531.763243
947.976893	2532.768954
948.278286	2529.194776
948.579641	2529.847605
948.880958	2530.951618
949.182236	2532.332894
949.483476	2530.480270
949.784678	2530.281144
950.085841	2529.799714
950.386967	2531.485980
950.688054	2529.736700
950.989103	2531.286854
951.290114	2528.657893
951.591087	2529.456916
951.892021	2531.417924
952.192917	2530.336597
952.493776	2530.833151
952.794596	2532.710980
953.095378	2530.064375
953.396122	2533.121834
953.696828	2528.282327
953.997496	2532.597554
954.298126	2528.705784
954.598718	2530.596216
954.899272	2531.170908
955.199788	2532.116124
955.500266	2533.293234
955.800706	2524.209074
956.101108	2527.117820
956.401472	2525.633200
956.701798	2523.982223
957.002087	2523.316790
957.302337	2530.336597
957.602550	2527.846267
957.902724	2526.797707
958.202861	2526.956503
958.502960	2524.892151
958.803022	2531.470857
959.103045	2529.348531
959.403031	2528.796524
959.702979	2526.686802
960.002889	2528.567152
960.302762	2526.850639
960.602596	2528.489014
960.902393	2528.189065
961.202153	2528.506658
961.501875	2527.090094
961.801559	2529.295599
962.101205	2527.760567
962.400814	2529.242667
962.700385	2527.137985
962.999918	2529.068747
963.299414	2526.802748
963.598873	2530.013963
963.898293	2527.695032
964.197677	2526.956503
964.497022	2526.492717
964.796331	2528.806607
965.095601	2527.720238
965.394835	2530.654190
965.694030	2526.996833
965.993189	2528.322656
966.292309	2527.982378
966.591393	2527.266534
966.890439	2529.530012
967.189447	2527.808458
967.488419	2527.926925
967.787353	2526.437264
968.086249	2528.534384
968.385108	2526.407018
968.683930	2527.458098
968.982714	2525.597912
969.281462	2531.763243
969.580172	2527.778211
969.878844	2526.157480
970.177480	2529.356093
970.476078	2526.049096
970.774639	2527.445495
971.073162	2526.674199
971.371649	2526.744775
971.670098	2522.641276
971.968510	2527.601771
972.266885	2522.452232
972.565223	2530.182842
972.863524	2526.878365
973.161788	2527.621936
973.460014	2525.746626
973.758204	2527.344672
974.056356	2526.717048
974.354471	2526.810310
974.652550	2527.155629
974.950591	2526.432223
975.248595	2525.343334
975.546563	2528.766277
975.844493	2525.499610
976.142386	2526.926256
976.440243	2527.548839
976.738062	2525.308046
977.035845	2526.948942
977.333590	2528.756195
977.631299	2527.377440
977.928971	2526.217974
978.226606	2526.338962
978.524204	2526.565814
978.821765	2522.878210
979.119290	2526.384332
979.416777	2525.998684
979.714228	2526.442306
980.011642	2527.110258
980.309020	2531.246525
980.606360	2526.336441
980.903664	2526.969106
981.200931	2524.904754
981.498162	2525.030782
981.795356	2526.873324
982.092513	2526.659075
982.389633	2529.484642
982.686717	2529.151926
982.983764	2530.076977
983.280775	2528.194107
983.577749	2531.095291
983.874686	2528.710825
984.171587	2528.569672
984.468451	2527.185876
984.765279	2526.991791
985.062070	2528.420958
985.358824	2525.272758
985.655543	2527.478263
985.952224	2529.194776
986.248869	2526.344003
986.545478	2519.961902
986.842050	2524.342665
987.138586	2524.322500
987.435086	2523.515916
987.731549	2521.323014
988.027975	2526.212933
988.324366	2526.086904
988.620719	2525.391225
988.917037	2526.608664
989.213318	2527.417769
989.509563	2525.174455
989.805772	2528.768798
990.101944	2525.681091
990.398080	2526.732172
990.694180	2526.286030
990.990244	2527.899199
991.286271	2525.451719
991.582262	2526.719569
991.878217	2529.028418
992.174136	2526.759898
992.470019	2525.076153
992.765865	2524.355268
993.061676	2524.831657
993.357450	2527.778211
993.653188	2527.372398
993.948890	2526.807789
994.244556	2528.184024
994.540186	2526.076822
994.835780	2524.624970
995.131337	2525.320649
995.426859	2525.575227
995.722345	2523.939373
996.017795	2527.321987
996.313208	2529.603109
996.608586	2527.233767
996.903928	2526.470032
997.199234	2527.057326
997.494504	2526.807789
997.789738	2525.940711
998.084936	2527.523633
998.380099	2526.742254
998.675225	2526.457429
998.970316	2523.894002
999.265371	2524.831657
999.560390	2525.272758
999.855373	2527.437933
1000.150320	2528.040351
1000.445232	2528.027748
1000.740108	2525.444157
1001.034948	2527.100176
1001.329752	2524.811492
1001.624521	2524.897192
1001.919254	2522.101872
1002.213951	2522.038858
1002.508613	2526.580937
1002.803239	2523.894002
1003.097829	2521.325534
1003.392384	2523.994825
1003.686903	2523.722603
1003.981386	2526.401976
1004.275834	2525.134126
1004.570246	2525.136647
1004.864623	2525.839888
1005.158964	2527.385001
1005.453270	2524.438447
1005.747540	2525.517254
1006.041775	2526.999353
1006.335974	2524.730834
1006.630138	2523.281502
1006.924266	2527.228726
1007.218359	2525.897861
1007.512416	2526.170083
1007.806438	2525.471883
1008.100425	2523.911646
1008.394376	2525.393746
1008.688292	2523.445340
1008.982172	2527.170752
1009.276017	2524.763601
1009.569827	2525.121523
1009.863602	2527.301822
1010.157341	2524.932480
1010.451045	2525.073632
1010.744714	2526.706966
1011.038347	2529.809796
1011.331945	2524.864424
1011.625508	2523.725124
1011.919036	2526.694363
1012.212528	2528.305012
1012.505986	2524.158663
1012.799408	2524.519105
1013.092795	2526.674199
1013.386147	2522.364012
1013.679464	2525.353416
1013.972745	2524.589682
1014.265992	2526.104548
1014.559204	2525.895340
1014.852380	2525.814682
1015.145521	2526.802748
1015.438628	2525.988602
1015.731699	2524.730834
1016.024736	2525.529857
1016.317737	2527.448016
1016.610703	2525.721421
1016.903635	2523.669671
1017.196531	2518.918383
1017.489393	2524.531708
1017.782219	2519.692201
1018.075011	2526.472553
1018.367768	2525.169414
1018.660490	2525.282840
1018.953177	2525.282840
1019.245829	2525.282840
