Dividing Wavelength (nm)	Counts (n)	Blue Motor Position (mm): 0.000000	Red Motor Position (mm): 48.700000	
326.493990	2126.716614
326.888308	2126.716614
327.282561	2126.716614
327.676750	2095.370720
328.070874	2095.000195
328.464933	2095.060689
328.858929	2104.628799
329.252859	2109.919490
329.646726	2125.133692
330.040528	2137.839920
330.434265	2155.516726
330.827938	2170.229334
331.221547	2192.261697
331.615091	2208.423636
332.008571	2227.796790
332.401986	2248.692373
332.795338	2267.495877
333.188625	2286.521191
333.581847	2306.738739
333.975006	2325.275061
334.368100	2343.803822
334.761129	2358.987778
335.154095	2375.714326
335.546996	2398.626370
335.939833	2424.343817
336.332606	2436.203131
336.725315	2453.065791
337.117960	2458.548046
337.510540	2468.771506
337.903056	2477.790130
338.295508	2486.284474
338.687896	2496.157574
339.080220	2504.142762
339.472480	2512.932013
339.864676	2515.608866
340.256807	2518.933507
340.648875	2523.367202
341.040879	2525.275278
341.432818	2526.389373
341.824694	2528.577234
342.216506	2529.638397
342.608253	2529.204858
342.999937	2528.471370
343.391557	2530.848274
343.783113	2528.357944
344.174605	2523.273940
344.566033	2525.282840
344.957397	2523.228570
345.348697	2523.052130
345.739934	2519.941738
346.131106	2518.265554
346.522215	2518.794875
346.913260	2515.112312
347.304241	2511.883453
347.695159	2511.918741
348.086012	2512.874040
348.476802	2511.288597
348.867528	2506.360869
349.258191	2503.971362
349.648789	2502.335508
350.039324	2501.138234
350.429796	2500.606392
350.820203	2500.682009
351.210548	2500.218223
351.600828	2497.715290
351.991045	2498.330311
352.381198	2497.064982
352.771288	2495.154384
353.161314	2497.377533
353.551276	2496.003819
353.941175	2496.112203
354.331010	2497.178408
354.720782	2497.057420
355.110490	2496.931391
355.500135	2495.920640
355.889717	2499.328460
356.279235	2496.439878
356.668689	2500.245950
357.058080	2497.881648
357.447408	2498.695795
357.836672	2493.929384
358.225873	2496.974241
358.615010	2495.073726
359.004084	2500.233347
359.393095	2500.291320
359.782043	2502.038080
360.170927	2505.869357
360.559748	2503.066475
360.948505	2505.365241
361.337199	2504.520848
361.725830	2504.848523
362.114398	2504.851044
362.502903	2504.102432
362.891344	2508.042094
363.279722	2506.144100
363.668037	2510.366066
364.056289	2510.350943
364.444478	2508.727691
364.832603	2509.690551
365.220665	2509.274656
365.608665	2512.233813
365.996601	2509.196518
366.384474	2512.984945
366.772284	2511.749863
367.160031	2517.726151
367.547715	2518.799916
367.935336	2521.822088
368.322893	2524.572038
368.710388	2526.540608
369.097820	2533.041176
369.485189	2537.086702
369.872495	2543.294883
370.259738	2546.889226
370.646918	2558.430947
371.034035	2563.779612
371.421090	2572.342011
371.808081	2585.257447
372.195010	2592.451174
372.581875	2608.025819
372.968678	2619.249948
373.355418	2631.608337
373.742096	2647.369504
374.128710	2663.077739
374.515262	2677.518125
374.901751	2691.376257
375.288177	2705.299923
375.674540	2726.482852
376.060841	2744.724267
376.447079	2762.985847
376.833254	2787.606842
377.219367	2799.128399
377.605417	2836.972341
377.991404	2844.831500
378.377329	2868.136754
378.763191	2884.709548
379.148991	2923.975095
379.534727	2947.141718
379.920402	2976.297231
380.306013	2988.998418
380.691563	3036.924667
381.077049	3061.792679
381.462474	3076.485122
381.847835	3116.292594
382.233134	3138.846716
382.618371	3137.997282
383.003545	3207.519834
383.388657	3214.872357
383.773706	3248.113726
384.158693	3262.085283
384.543618	3290.197278
384.928480	3323.501661
385.313280	3369.895400
385.698017	3369.154350
386.082692	3422.467073
386.467305	3426.147115
386.851856	3458.508802
387.236344	3480.949498
387.620770	3510.747759
388.005133	3539.343704
388.389435	3569.540215
388.773674	3579.030187
389.157851	3621.842187
389.541965	3638.339362
389.926018	3601.417952
390.310008	3669.103004
390.693936	3689.938093
391.077802	3733.165987
391.461606	3723.116447
391.845348	3783.164151
392.229027	3782.738173
392.612645	3799.517654
392.996200	3877.080847
393.379694	3914.019902
393.763125	3978.730673
394.146494	3944.962504
394.529801	4004.427955
394.913047	4057.229000
395.296230	4023.667518
395.679351	4077.567535
396.062410	4100.025876
396.445408	4081.252619
396.828343	4112.359059
397.211217	4139.175477
397.594028	4062.166810
397.976778	4126.393631
398.359466	4151.364987
398.742092	4179.671065
399.124656	4101.475207
399.507158	4183.595604
399.889598	4213.141806
400.271977	4267.578706
400.654294	4242.652721
401.036549	4251.041201
401.418742	4219.012230
401.800874	4320.384793
402.182944	4341.814738
402.564952	4407.760592
402.946898	4393.047984
403.328783	4394.003283
403.710606	4303.514571
404.092367	4498.264427
404.474067	4459.371925
404.855705	4465.570023
405.237282	4397.557296
405.618797	4503.101414
406.000250	4542.074574
406.381642	4619.521821
406.762972	4581.405657
407.144240	4593.292697
407.525447	4594.290846
407.906593	4653.652953
408.287677	4697.440415
408.668700	4624.031133
409.049661	4677.671530
409.430560	4715.278538
409.811399	4645.120800
410.192176	4804.388494
410.572891	4747.181480
410.953545	4849.889949
411.334138	4727.301690
411.714669	4795.505981
412.095139	4687.572357
412.475547	4830.935210
412.855894	4813.167663
413.236180	4822.481195
413.616405	4773.161067
413.996568	4865.567937
414.376670	4805.807579
414.756711	4760.858131
415.136691	4789.323006
415.516609	4869.275706
415.896466	4905.027569
416.276262	4939.420841
416.655997	4916.544085
417.035670	5103.500316
417.415283	5193.621024
417.794834	5139.252179
418.174324	5089.077575
418.553753	4998.946786
418.933121	5186.553326
419.312428	5251.735445
419.691674	5196.489440
420.070859	5321.895704
420.449983	5225.904573
420.829045	5347.320763
421.208047	5251.029684
421.586988	5323.108101
421.965867	5334.566644
422.344686	5466.564216
422.723444	5322.639274
423.102141	5140.401563
423.480777	5442.573365
423.859352	5210.561821
424.237866	5463.786541
424.616319	5461.069359
424.994712	5570.628755
425.373044	5446.475218
425.751314	5587.211631
426.129524	5391.685438
426.507673	5584.701136
426.885762	5665.495709
427.263789	5595.458958
427.641756	5481.075178
428.019662	5601.029433
428.397508	5606.647799
428.775292	5561.068207
429.153016	5651.899717
429.530679	5581.880611
429.908282	5663.837169
430.285824	5539.280340
430.663305	5811.245549
431.040726	5544.639087
431.418086	5544.543305
431.795385	5653.855685
432.172624	5666.521584
432.549802	5657.918855
432.926920	5673.097769
433.303977	5678.469118
433.680974	5718.044697
434.057910	5736.558334
434.434786	5743.585703
434.811601	5710.772832
435.188355	5943.575837
435.565050	5814.497093
435.941683	5799.252644
436.318257	6020.771026
436.694770	5992.815308
437.071222	6034.578747
437.447614	5963.780782
437.823946	5876.402462
438.200218	6033.222676
438.576429	5895.362242
438.952580	5996.989383
439.328670	6036.297780
439.704700	5950.280572
440.080670	5937.234066
440.456580	6203.666608
440.832429	6086.865594
441.208218	5933.992604
441.583947	6088.599751
441.959616	6093.938333
442.335224	6021.479308
442.710773	6160.915103
443.086261	6186.299833
443.461689	5978.795859
443.837057	6128.150124
444.212365	6282.379184
444.587612	6171.476320
444.962800	6330.733932
445.337927	6309.271220
445.712995	5920.109266
446.088002	6497.197873
446.462949	6328.624209
446.837837	6260.487974
447.212664	6430.533655
447.587431	6575.998670
447.962139	7118.452029
448.336786	8044.297742
448.711374	7785.605891
449.085901	6860.980138
449.460369	6780.997191
449.834776	6714.038065
450.209124	7102.859740
450.583412	7256.975375
450.957640	7402.188332
451.331808	7170.872467
451.705917	6719.298509
452.079965	6643.149359
452.453954	6849.319949
452.827883	6734.545479
453.201752	6820.484549
453.575562	6622.052131
453.949311	6827.078378
454.323001	6717.166101
454.696632	6784.939373
455.070202	6929.418842
455.443713	7084.509940
455.817164	7186.880652
456.190556	7266.954339
456.563888	7339.441090
456.937160	7381.708645
457.310373	7041.347581
457.683526	7066.903711
458.056619	6958.748275
458.429653	6948.368540
458.802628	6875.360029
459.175542	6992.788667
459.548398	7344.363777
459.921194	7505.403437
460.293930	7506.693972
460.666607	8039.473357
461.039224	8349.695883
461.411782	8474.363618
461.784280	8488.378025
462.156719	8379.589925
462.529099	8261.800845
462.901419	7847.506219
463.273680	7743.852534
463.645882	7755.129595
464.018024	7623.666385
464.390106	7787.024976
464.762130	8171.029829
465.134094	8642.944843
465.505999	9659.168362
465.877845	10882.956349
466.249631	11533.728981
466.621358	11156.169243
466.993026	10529.190857
467.364634	10271.091342
467.736184	9905.259849
468.107674	9572.909178
468.479105	9605.792625
468.850477	9370.602633
469.221790	9143.075196
469.593043	8818.545876
469.964238	8673.043052
470.335373	8690.208181
470.706449	8745.456707
471.077467	8726.388542
471.448425	10031.555876
471.819324	11105.288878
472.190164	11139.218364
472.560945	9887.663701
472.931667	9098.985264
473.302330	8962.886713
473.672934	8608.924617
474.043479	8964.943504
474.413965	8902.954956
474.784393	8792.694839
475.154761	8943.049773
475.525070	9030.526395
475.895321	8855.000980
476.265513	9032.502527
476.635645	9201.575266
477.005719	9202.119710
477.375734	9318.426691
477.745691	9553.954440
478.115588	9686.960243
478.485427	9935.831926
478.855207	10462.962699
479.224928	11283.609613
479.594591	11904.243707
479.964194	11723.790564
480.333739	11668.892398
480.703226	11579.648852
481.072653	11668.380721
481.442022	11913.703432
481.811333	12099.474992
482.180584	11902.736402
482.549777	11613.177566
482.918912	11438.645258
483.287988	11461.980759
483.657005	11475.138171
484.025964	11149.961062
484.394864	11283.097936
484.763706	11257.932496
485.132489	11008.639876
485.501213	10977.601492
485.869879	11053.155785
486.238487	10891.289376
486.607036	11002.161993
486.975527	10781.145206
487.343959	10970.493465
487.712333	11017.711432
488.080648	10952.496546
488.448905	10993.231589
488.817104	10935.281005
489.185244	11194.620644
489.553326	11354.147958
489.921350	11887.633105
490.289315	12943.633848
490.657222	13295.521510
491.025070	13203.341491
491.392861	13073.433477
491.760593	12698.129656
492.128267	12347.653517
492.495883	12022.877180
492.863440	11683.274810
493.230939	11347.881804
493.598380	11286.258739
493.965763	11152.549695
494.333088	11051.814838
494.700354	10969.041613
495.067563	11032.585357
495.434713	10860.528256
495.801805	10983.829838
496.168839	10912.910885
496.535815	10848.182470
496.902733	10855.184633
497.269593	10781.230906
497.636395	10884.899714
498.003139	10873.690708
498.369825	10735.535367
498.736453	10898.243648
499.103023	10820.995527
499.469535	10849.354538
499.835989	10838.914308
500.202385	10801.239245
500.568723	10649.805504
500.935003	10874.580472
501.301226	10681.635350
501.667390	10940.196130
502.033497	11039.307736
502.399546	10897.129553
502.765537	10800.563731
503.131470	10873.955369
503.497345	11052.215610
503.863163	10659.648357
504.228923	10972.915739
504.594625	11043.756554
504.960269	10784.293407
505.325856	11008.871769
505.691385	10799.495006
506.056856	10954.386978
506.422270	10978.324898
506.787625	10866.408762
507.152924	10984.104580
507.518164	10969.631428
507.883347	10885.847451
508.248472	10805.914915
508.613540	11041.135154
508.978550	10925.259192
509.343503	10896.945551
509.708398	11013.635660
510.073236	11127.356529
510.438016	11131.331478
510.802738	11082.611247
511.167403	11136.677622
511.532010	11030.135356
511.896561	11259.033988
512.261053	11341.988695
512.625488	11202.421830
512.989866	11192.694924
513.354186	11177.873931
513.718449	11079.147974
514.082655	11272.927408
514.446803	11168.084011
514.810894	11286.843513
515.174927	11152.524489
515.538904	11179.986175
515.902822	11328.289359
516.266684	11214.192924
516.630488	11162.122846
516.994235	11215.065044
517.357925	11279.049889
517.721558	11365.780420
518.085133	11381.581917
518.448651	11389.793957
518.812112	11279.059971
519.175516	11294.422888
519.538863	11405.963458
519.902152	11326.678711
520.265385	11486.480767
520.628560	11396.844010
520.991678	11370.854342
521.354739	11438.625093
521.717743	11372.361647
522.080690	11355.791374
522.443580	11491.542085
522.806413	11440.691967
523.169189	11472.168931
523.531908	11525.156499
523.894569	11346.500528
524.257174	11353.369100
524.619722	11468.017541
524.982213	11418.127762
525.344647	11479.218985
525.707025	11425.145048
526.069345	11516.669717
526.431608	11435.665936
526.793815	11550.642053
527.155964	11324.667290
527.518057	11384.253729
527.880093	11333.073414
528.242072	11402.878272
528.603995	11315.439458
528.965860	11235.234700
529.327669	11281.058789
529.689421	11234.627241
530.051117	11203.903929
530.412755	11311.356123
530.774337	11195.477641
531.135862	11178.534322
531.497331	11205.406193
531.858743	11054.053111
532.220098	11221.195087
532.581396	11095.849317
532.942638	11067.260934
533.303824	11036.807323
533.664953	11045.311750
534.026025	10962.515839
534.387040	11067.180275
534.747999	11072.171018
535.108902	11129.168823
535.469748	10882.361493
535.830537	10977.130144
536.191270	10964.149173
536.551947	10988.573563
536.912567	10981.609209
537.273131	10908.860318
537.633638	10882.295958
537.994089	10883.931812
538.354483	10824.274798
538.714821	10967.897271
539.075103	10981.657100
539.435328	10943.054465
539.795497	10774.216140
540.155609	10929.400499
540.515665	11019.274190
540.875665	10760.806671
541.235609	10818.782461
541.595496	10825.071300
541.955328	10970.473300
542.315102	10857.929541
542.674821	10810.991357
543.034483	10804.959617
543.394090	10812.493621
543.753640	10738.418907
544.113134	10961.794954
544.472571	10817.171812
544.831953	10958.079624
545.191278	10763.415468
545.550548	10797.108020
545.909761	10931.298494
546.268918	10907.242108
546.628019	10991.547844
546.987064	10853.848727
547.346053	10777.618919
547.704986	10871.747343
548.063863	10866.862465
548.422684	10853.642039
548.781449	10772.713876
549.140158	10876.082736
549.498811	10751.805691
549.857408	10603.487383
550.215949	10830.457773
550.574434	10677.970431
550.932864	10784.522779
551.291237	10849.596513
551.649555	10787.423963
552.007817	10805.657817
552.366022	10764.582495
552.724173	10757.487071
553.082267	10744.135575
553.440305	10881.789322
553.798288	10681.048055
554.156215	10831.289563
554.514086	10815.561163
554.871902	10657.934365
555.229661	10699.702845
555.587365	10676.163177
555.945014	10568.277444
556.302606	10700.159069
556.660143	10590.687893
557.017625	10740.274051
557.375050	10641.926181
557.732421	10783.300299
558.089735	10697.840139
558.446994	10696.468945
558.804197	10725.168234
559.161345	10736.067208
559.518437	10575.191386
559.875474	10666.151446
560.232455	10698.019100
560.589381	10648.976234
560.946251	10638.417538
561.303065	10747.911399
561.659825	10680.269197
562.016528	10617.549681
562.373177	10492.791206
562.729770	10606.154153
563.086307	10524.928562
563.442789	10611.331418
563.799216	10492.455969
564.155587	10543.807683
564.511904	10494.863120
564.868164	10483.389454
565.224370	10505.071457
565.580520	10424.269322
565.936615	10435.886661
566.292654	10299.836001
566.648638	10433.809706
567.004567	10388.608200
567.360441	10367.992401
567.716260	10284.110122
568.072023	10376.320387
568.427732	10327.824488
568.783385	10232.924766
569.138982	10310.682044
569.494525	10327.370784
569.850013	10201.583913
570.205445	10280.856057
570.560823	10172.509058
570.916145	10098.666237
571.271412	10165.816926
571.626625	10113.260377
571.981782	10088.820863
572.336884	10066.778418
572.691931	10068.426875
573.046923	10011.741621
573.401860	9969.927770
573.756743	9910.686651
574.111570	9950.547054
574.466342	9936.005846
574.821059	9961.952665
575.175722	9850.928813
575.530330	9862.561276
575.884882	9855.044915
576.239380	9788.015213
576.593823	9758.688301
576.948211	9783.213514
577.302544	9657.161983
577.656823	9673.616309
578.011047	9674.284262
578.365216	9645.045569
578.719330	9570.350793
579.073389	9582.159696
579.427394	9522.981591
579.781344	9503.033745
580.135239	9453.206980
580.489080	9466.765164
580.842866	9356.810037
581.196597	9367.537612
581.550273	9403.801152
581.903895	9374.101194
582.257463	9441.481257
582.610975	9319.276126
582.964434	9344.323098
583.317837	9264.783773
583.671186	9252.422864
584.024481	9243.409281
584.377721	9165.321808
584.730906	9140.988158
585.084037	9175.313375
585.437113	9109.322150
585.790135	9129.554821
586.143103	9032.610912
586.496016	8997.630346
586.848874	9061.784069
587.201679	9048.636740
587.554428	8935.866129
587.907124	8982.579981
588.259765	8950.656874
588.612352	8954.026885
588.964884	8834.521292
589.317362	8846.993107
589.669786	8849.206173
590.022155	8892.040858
590.374470	8913.007017
590.726731	8846.690638
591.078937	8702.735448
591.431090	8818.351791
591.783188	8685.676184
592.135232	8673.653032
592.487222	8673.038011
592.839157	8733.108400
593.191038	8659.736927
593.542866	8602.764327
593.894639	8508.653546
594.246358	8562.490548
594.598022	8573.412208
594.949633	8468.654511
595.301190	8446.629710
595.652692	8475.901169
596.004141	8590.216895
596.355535	8360.494034
596.706876	8342.681117
597.058162	8274.295345
597.409395	8355.047068
597.760573	8413.055625
598.111698	8327.018252
598.462768	8310.785737
598.813785	8279.223073
599.164748	8240.438956
599.515657	8235.516269
599.866511	8137.359962
600.217312	8277.672918
600.568060	8127.953169
600.918753	8236.663131
601.269392	8205.849078
601.619978	8116.043443
601.970510	8181.301180
602.320988	8174.641816
602.671412	8232.801608
603.021783	8167.692585
603.372100	8140.167885
603.722363	8141.942371
604.072572	8120.247766
604.422728	8131.187069
604.772830	8059.612767
605.122878	8064.149806
605.472872	8065.720125
605.822813	8092.077798
606.172701	8039.475878
606.522534	8111.992876
606.872314	8115.478834
607.222041	8083.338958
607.571714	8132.349055
607.921333	8093.325483
608.270899	8099.561391
608.620411	8190.944907
608.969870	8095.233560
609.319276	8092.718024
609.668627	8105.056248
610.017926	8142.126373
610.367171	8185.291253
610.716362	8158.111872
611.065500	8152.677508
611.414585	8182.017024
611.763616	8166.268459
612.112594	8146.713823
612.461518	8160.541708
612.810389	8228.740958
613.159207	8166.318871
613.507971	8116.227445
613.856682	8230.245743
614.205340	8181.772528
614.553945	8265.480887
614.902496	8164.738469
615.250994	8218.114206
615.599439	8200.719704
615.947830	8218.139412
616.296169	8185.656737
616.644454	8196.621246
616.992686	8196.711987
617.340864	8261.037110
617.688990	8161.683530
618.037063	8249.598732
618.385082	8199.731638
618.733048	8285.065770
619.080961	8218.822488
619.428821	8240.416270
619.776628	8245.376766
620.124382	8193.019342
620.472083	8180.746653
620.819731	8214.025830
621.167326	8105.719160
621.514868	8109.938606
621.862357	7995.322932
622.209793	8015.389245
622.557176	7947.195036
622.904506	7919.693022
623.251783	7851.362702
623.599007	7806.009961
623.946179	7815.867938
624.293297	7770.863037
624.640363	7684.475304
624.987376	7669.656832
625.334336	7621.788556
625.681243	7565.027684
626.028097	7559.421921
626.374899	7528.554936
626.721647	7521.366250
627.068343	7454.507948
627.414987	7425.997702
627.761577	7377.297635
628.108115	7421.014521
628.454600	7312.486041
628.801032	7360.576128
629.147412	7323.334604
629.493739	7308.163251
629.840014	7246.474652
630.186236	7301.914741
630.532405	7187.417534
630.878521	7242.043477
631.224585	7196.476488
631.570597	7120.183666
631.916556	7151.796741
632.262462	7146.478324
632.608316	7111.654033
632.954117	7081.825526
633.299866	7072.741367
633.645562	7062.107053
633.991206	6983.109651
634.336797	6925.557318
634.682336	6886.813531
635.027823	6848.609146
635.373257	6845.420616
635.718639	6774.504185
636.063968	6788.614374
636.409245	6683.995308
636.754470	6673.673546
637.099642	6639.907898
637.444762	6581.785914
637.789829	6590.628098
638.134845	6534.696496
638.479808	6516.891141
638.824719	6524.783067
639.169577	6447.897909
639.514383	6472.922197
639.859137	6399.316310
640.203839	6404.841414
640.548489	6394.244909
640.893086	6370.344798
641.237632	6341.078380
641.582125	6361.890783
641.926566	6331.167471
642.270955	6345.242373
642.615292	6342.726837
642.959576	6358.545978
643.303809	6350.349062
643.647990	6353.991295
643.992118	6345.953176
644.336195	6288.166429
644.680219	6312.757177
645.024192	6304.966074
645.368112	6402.852679
645.711981	6422.926554
646.055797	6496.277863
646.399562	6455.865453
646.743274	6582.481593
647.086935	6638.977805
647.430544	6633.712319
647.774101	6650.743858
648.117606	6660.458161
648.461059	6650.905175
648.804460	6613.648527
649.147810	6520.223343
649.491108	6488.436348
649.834354	6466.035981
650.177548	6378.317383
650.520690	6296.970804
650.863781	6277.617815
651.206820	6290.324043
651.549807	6214.734462
651.892742	6159.407798
652.235626	6162.228324
652.578458	6149.393546
652.921238	6055.988527
653.263967	6096.852120
653.606644	6036.454056
653.949269	6038.581423
654.291843	5981.860880
654.634365	6026.865781
654.976836	5984.474718
655.319255	5980.502289
655.661622	5958.240554
656.003938	5954.855419
656.346203	5915.670530
656.688416	5944.760508
657.030577	5897.713940
657.372687	5869.488520
657.714746	5858.861768
658.056753	5900.320217
658.398708	5839.712945
658.740612	5829.726419
659.082465	5880.384974
659.424266	5873.216453
659.766016	5871.643613
660.107715	5844.565055
660.449362	5864.883426
660.790958	5855.136355
661.132503	5837.446946
661.473996	5884.493514
661.815438	5863.272777
662.156829	5863.305545
662.498168	5853.429924
662.839456	5833.298076
663.180693	5864.132294
663.521879	5875.366505
663.863013	5858.266911
664.204097	5875.822730
664.545129	5919.242188
664.886110	5917.593730
665.227040	5949.834430
665.567918	5913.338997
665.908746	5937.801196
666.249522	5944.052226
666.590248	5929.856337
666.930922	5957.645698
667.271545	5971.241690
667.612118	5973.260672
667.952639	5948.299398
668.293109	5969.222708
668.633528	5927.025729
668.973896	5933.977480
669.314213	5920.764616
669.654480	5902.538324
669.994695	5897.061111
670.334859	5885.481580
670.674973	5878.948245
671.015035	5878.759202
671.355047	5878.151743
671.695008	5865.876533
672.034918	5837.819991
672.374777	5854.022260
672.714585	5831.251368
673.054342	5842.046999
673.394049	5831.105174
673.733705	5868.543303
674.073310	5852.595613
674.412864	5810.799407
674.752368	5797.500843
675.091820	5808.427544
675.431223	5740.750053
675.770574	5745.249283
676.109875	5690.991344
676.449125	5695.818249
676.788324	5665.856151
677.127473	5607.615701
677.466571	5597.379638
677.805619	5590.256488
678.144616	5577.741823
678.483562	5555.308689
678.822458	5522.266446
679.161303	5516.877452
679.500098	5508.725907
679.838842	5491.265870
680.177535	5497.108567
680.516179	5510.104662
680.854771	5522.694944
681.193314	5605.896667
681.531805	5711.957503
681.870247	5861.515935
682.208638	5964.685669
682.546978	5974.687318
682.885268	5955.803156
683.223508	5866.678077
683.561697	5818.517413
683.899836	5785.656652
684.237925	5741.047482
684.575963	5710.548501
684.913951	5665.798178
685.251889	5728.401747
685.589776	5696.564340
685.927614	5665.120143
686.265401	5740.366926
686.603137	5722.518721
686.940824	5798.191481
687.278460	5820.271735
687.616046	5834.810423
687.953582	5898.777624
688.291068	5878.885231
688.628504	5944.639521
688.965889	5909.018728
689.303224	5853.072002
689.640510	5802.756246
689.977745	5724.940995
690.314930	5631.309124
690.652065	5570.396862
690.989150	5478.902440
691.326185	5408.716976
691.663170	5349.732955
692.000105	5270.448208
692.336990	5196.799471
692.673825	5171.812992
693.010610	5101.592240
693.347345	5032.677146
693.684030	5017.094939
694.020665	4974.552642
694.357251	4883.068303
694.693786	4899.837701
695.030272	4861.653481
695.366707	4826.597297
695.703093	4791.994817
696.039429	4812.892921
696.375716	4799.271723
696.711952	4773.491262
697.048139	4755.985855
697.384276	4735.881734
697.720363	4748.870267
698.056400	4758.982821
698.392388	4711.346438
698.728326	4686.826266
699.064214	4664.788862
699.400053	4662.051515
699.735842	4627.539776
700.071581	4604.481538
700.407270	4572.818051
700.742910	4559.348088
701.078501	4508.061909
701.414042	4502.161239
701.749533	4474.465139
702.084974	4409.688833
702.420366	4464.050116
702.755709	4404.062905
703.091002	4349.999051
703.426246	4400.072832
703.761440	4355.332592
704.096584	4319.918486
704.431679	4340.088143
704.766725	4324.742870
705.101721	4311.759378
705.436668	4336.574458
705.771565	4290.082417
706.106413	4318.239782
706.441212	4348.731201
706.775961	4357.782592
707.110661	4336.670240
707.445311	4363.637893
707.779913	4386.423908
708.114465	4402.308584
708.448967	4423.599897
708.783421	4484.368486
709.117825	4525.549672
709.452180	4532.577040
709.786485	4574.821910
710.120742	4660.186288
710.454949	4645.824041
710.789107	4714.734093
711.123216	4789.300321
711.457275	4778.887817
711.791286	4852.297100
712.125247	4865.706569
712.459159	4768.555972
712.793023	4843.525492
713.126837	4808.139112
713.460602	4801.459584
713.794318	4719.762644
714.127985	4726.623655
714.461602	4638.310201
714.795171	4609.878093
715.128691	4546.306623
715.462162	4489.820494
715.795584	4439.242598
716.128957	4421.752314
716.462281	4367.907750
716.795556	4344.610058
717.128782	4303.355775
717.461960	4239.426383
717.795088	4244.951487
718.128167	4206.147205
718.461198	4146.969100
718.794180	4141.844768
719.127113	4122.932879
719.459997	4101.777677
719.792833	4055.575502
720.125619	4049.664749
720.458357	4010.457175
720.791046	4016.972866
721.123686	3990.292559
721.456278	3949.023153
721.788821	3964.396152
722.121315	3937.678037
722.453761	3912.676434
722.786158	3924.737395
723.118506	3947.780509
723.450805	3900.907861
723.783056	3926.345523
724.115259	3941.567287
724.447412	3943.694654
724.779518	3934.512192
725.111574	3939.636525
725.443582	3968.981082
725.775542	3958.129998
726.107453	4007.147657
726.439315	4005.831916
726.771129	4020.443701
727.102895	4059.479875
727.434612	4105.061988
727.766281	4115.235037
728.097901	4118.524390
728.429473	4121.468424
728.760996	4132.478304
729.092471	4123.595791
729.423897	4108.505097
729.755276	4116.581025
730.086606	4114.428452
730.417887	4152.211900
730.749120	4218.283783
731.080305	4282.137558
731.411442	4310.446158
731.742530	4277.371148
732.073570	4282.918937
732.404562	4336.723172
732.735506	4328.072552
733.066401	4295.985608
733.397249	4230.889188
733.728048	4148.925068
734.058798	4068.100248
734.389501	3996.001666
734.720156	3932.100000
735.050762	3886.989235
735.381320	3883.868761
735.711831	3832.101152
736.042293	3801.516471
736.372707	3822.076817
736.703073	3798.612767
737.033391	3782.753297
737.363661	3804.475629
737.693883	3829.270544
738.024056	3836.618026
738.354182	3830.838343
738.684260	3897.202612
739.014290	3918.060387
739.344272	3912.157195
739.674207	3958.543372
740.004093	3959.516315
740.333931	3954.427270
740.663722	3955.228814
740.993464	3952.768731
741.323159	3927.956172
741.652806	3897.679002
741.982405	3875.528172
742.311956	3840.368644
742.641460	3834.223478
742.970915	3808.901762
743.300323	3763.428033
743.629683	3729.755646
743.958996	3718.803740
744.288260	3695.715255
744.617477	3665.354906
744.946647	3646.354797
745.275768	3619.941672
745.604842	3621.784213
745.933869	3571.690268
746.262847	3566.165163
746.591778	3604.803087
746.920662	3574.823345
747.249498	3542.073489
747.578286	3583.347936
747.907027	3605.581945
748.235720	3604.729990
748.564365	3627.629431
748.892963	3627.790748
749.221514	3611.326340
749.550017	3588.769697
749.878473	3588.250458
750.206881	3556.712999
750.535242	3553.002710
750.863555	3553.101013
751.191821	3548.924417
751.520039	3529.548742
751.848210	3509.802542
752.176334	3542.053324
752.504411	3548.432904
752.832440	3509.449662
753.160421	3491.125067
753.488356	3499.566479
753.816243	3515.123480
754.144082	3468.452478
754.471875	3453.583595
754.799620	3473.138230
755.127318	3465.458033
755.454969	3465.752940
755.782572	3473.813745
756.110129	3447.662759
756.437638	3436.239505
756.765100	3453.530663
757.092515	3459.479224
757.419882	3468.220585
757.747203	3442.024229
758.074477	3441.356276
758.401703	3458.997794
758.728882	3482.174499
759.056014	3485.105930
759.383099	3493.247393
759.710138	3485.504181
760.037129	3501.328363
760.364073	3534.516799
760.690970	3521.843338
761.017820	3495.755367
761.344623	3515.118439
761.671379	3562.540573
761.998088	3612.352214
762.324751	3738.071030
762.651366	3985.077486
762.977935	4456.017037
763.304456	4904.795676
763.630931	5005.470039
763.957359	4645.506448
764.283740	4302.191268
764.610074	4104.028552
764.936362	3910.279366
765.262602	3750.931013
765.588796	3634.775267
765.914943	3549.806619
766.241044	3460.205150
766.567097	3430.076694
766.893104	3380.862430
767.219064	3348.006710
767.544978	3324.335972
767.870845	3268.495111
768.196665	3248.794281
768.522438	3256.827360
768.848165	3250.394848
769.173846	3216.891339
769.499479	3199.895089
769.825066	3181.827594
770.150607	3164.879234
770.476101	3178.734846
770.801548	3175.319464
771.126949	3131.693319
771.452303	3113.310751
771.777611	3120.456587
772.102872	3125.550673
772.428087	3101.045624
772.753256	3090.123964
773.078378	3084.676997
773.403453	3049.124260
773.728482	3036.304606
774.053465	3057.333779
774.378401	3047.793395
774.703291	3016.387007
775.028135	3017.821215
775.352932	3011.078672
775.677683	2998.500993
776.002388	2994.200889
776.327046	2995.309943
776.651658	2986.195536
776.976224	2972.453351
777.300743	2974.530306
777.625216	2963.948924
777.949643	2959.807617
778.274024	2964.460602
778.598359	2950.758745
778.922647	2958.617904
779.246889	2958.983388
779.571086	2942.400512
779.895236	2935.393308
780.219339	2946.151131
780.543397	2957.682770
780.867409	2961.960189
781.191374	2952.709672
781.515294	2949.443004
781.839167	2950.718416
782.162995	2941.412446
782.486776	2952.346709
782.810511	2948.732202
783.134201	2935.965479
783.457844	2940.429421
783.781441	2933.926333
784.104993	2915.667273
784.428498	2911.362128
784.751958	2927.307298
785.075372	2923.246648
785.398739	2905.340470
785.722061	2921.593150
786.045337	2933.129830
786.368568	2919.405289
786.691752	2911.009247
787.014891	2961.521609
787.337983	2987.642348
787.661030	3018.458921
787.984031	3084.944178
788.306987	3131.272382
788.629897	3121.852986
788.952760	3105.300358
789.275579	3090.176896
789.598351	3032.128010
789.921078	2986.308962
790.243759	2977.640698
790.566395	2960.215950
790.888984	2933.744851
791.211529	2918.079466
791.534027	2909.174267
791.856480	2900.866446
792.178888	2888.220711
792.501249	2876.464741
792.823566	2878.476161
793.145836	2872.285624
793.468062	2866.873945
793.790241	2864.784387
794.112375	2870.846375
794.434464	2884.759959
794.756507	2886.985629
795.078505	2893.420662
795.400457	2905.169071
795.722364	2945.783127
796.044226	2967.334059
796.366042	2970.762044
796.687812	2962.159315
797.009538	2979.710092
797.331218	2966.545119
797.652852	2952.392079
797.974442	2935.640325
798.295986	2931.582196
798.617484	2925.139602
798.938938	2911.856161
799.260346	2897.186403
799.581709	2890.569889
799.903026	2883.461862
800.224299	2876.275697
800.545526	2866.352186
800.866708	2854.407172
801.187845	2844.392920
801.508936	2844.828980
801.829983	2852.214270
802.150984	2837.277331
802.471940	2824.626556
802.792851	2824.969354
803.113717	2821.080104
803.434538	2833.146106
803.755314	2823.628407
804.076045	2819.391317
804.396731	2816.500216
804.717372	2819.676142
805.037967	2811.733805
805.358518	2820.810402
805.679024	2831.016218
805.999485	2827.074036
806.319901	2832.715087
806.640272	2822.937769
806.960598	2827.096721
807.280879	2838.623319
807.601115	2844.390399
807.921306	2829.511434
808.241453	2826.824499
808.561554	2832.450426
808.881611	2836.223730
809.201623	2829.561845
809.521590	2829.259376
809.841513	2825.649910
810.161390	2828.687205
810.481223	2822.355516
810.801011	2813.785554
811.120755	2809.777837
811.440453	2813.417550
811.760107	2813.518373
812.079716	2813.503250
812.399281	2799.604788
812.718801	2795.266876
813.038276	2790.818057
813.357707	2794.979530
813.677093	2804.431693
813.996434	2798.588996
814.315731	2792.320321
814.634983	2788.274795
814.954191	2789.865279
815.273354	2803.262146
815.592473	2811.665749
815.911547	2812.709268
816.230577	2821.387614
816.549562	2830.053358
816.868502	2831.805159
817.187399	2839.739935
817.506250	2855.150742
817.825058	2850.114629
818.143821	2862.372195
818.462539	2880.631254
818.781213	2905.973135
819.099843	2938.695264
819.418429	2998.286744
819.736970	3059.861917
820.055466	3133.671972
820.373919	3239.442941
820.692327	3381.908469
821.010691	3549.000034
821.329011	3992.913959
821.647286	4888.366555
821.965517	6277.948010
822.283704	7043.931172
822.601847	7035.489760
822.919945	6388.515637
823.237999	5884.657352
823.556010	5298.603053
823.873976	4737.247887
824.191897	4325.519208
824.509775	4027.123229
824.827609	3751.954367
825.145398	3630.651603
825.463144	3614.504787
825.780845	3704.771688
826.098502	3811.192966
826.416116	4090.941717
826.733685	4414.404833
827.051210	4480.955625
827.368692	4366.745764
827.686129	4095.531687
828.003522	3769.122017
828.320872	3509.142151
828.638177	3313.762152
828.955439	3177.439269
829.272656	3086.723706
829.589830	3018.920187
829.906960	2975.077272
830.224046	2924.373346
830.541088	2888.981926
830.858086	2874.201262
831.175041	2857.648634
831.491952	2862.110055
831.808819	2871.007692
832.125642	2895.971485
832.442421	2940.752055
832.759157	3024.099972
833.075849	3200.182435
833.392497	3482.033346
833.709101	3689.363401
834.025662	3641.104435
834.342179	3480.405054
834.658653	3304.672951
834.975083	3151.353819
835.291469	3056.902760
835.607811	2970.391519
835.924110	2907.724936
836.240366	2860.713655
836.556578	2811.900163
836.872746	2792.345527
837.188871	2770.522372
837.504952	2751.771800
837.820990	2743.660584
838.136984	2729.694067
838.452935	2723.107799
838.768842	2720.577140
839.084706	2738.889132
839.400526	2812.268167
839.716303	2948.396965
840.032037	3033.345448
840.347727	3020.122502
840.663373	2960.173100
840.978977	2885.196019
841.294537	2810.534010
841.610054	2760.621546
841.925527	2736.718915
842.240957	2716.380380
842.556344	2694.801721
842.871687	2679.327899
843.186987	2670.664676
843.502244	2664.796773
843.817458	2660.133706
844.132629	2649.479227
844.447756	2639.777526
844.762840	2632.684623
845.077881	2636.639408
845.392879	2634.345683
845.707833	2626.678088
846.022745	2622.468725
846.337613	2624.835546
846.652438	2624.943931
846.967221	2624.432254
847.281960	2621.936883
847.596656	2618.743312
847.911309	2618.561830
848.225919	2617.782972
848.540485	2612.257867
848.855009	2614.261726
849.169490	2610.122939
849.483928	2613.911366
849.798323	2613.029164
850.112675	2612.822477
850.426984	2611.111005
850.741251	2613.331633
851.055474	2611.108484
851.369654	2613.944133
851.683792	2613.293825
851.997887	2613.399689
852.311938	2609.681838
852.625947	2611.562188
852.939914	2614.186109
853.253837	2612.046139
853.567718	2610.057404
853.881555	2608.925665
854.195350	2613.969339
854.509103	2614.140738
854.822812	2612.141921
855.136479	2611.176540
855.450103	2613.140069
855.763685	2615.506891
856.077224	2612.010851
856.390720	2609.049173
856.704173	2610.206118
857.017584	2616.472272
857.330953	2617.919083
857.644278	2619.494444
857.957561	2613.883640
858.270802	2614.049998
858.584000	2615.378342
858.897155	2618.614762
859.210268	2619.330606
859.523339	2615.085955
859.836367	2609.462548
860.149352	2609.371807
860.462295	2613.104781
860.775195	2610.589246
861.088054	2608.744183
861.400869	2605.732094
861.713642	2606.019440
862.026373	2605.711929
862.339062	2609.097064
862.651708	2613.624020
862.964312	2614.566716
863.276873	2611.441201
863.589392	2613.679473
863.901869	2624.142388
864.214303	2625.148098
864.526696	2626.741102
864.839045	2630.174128
865.151353	2631.162194
865.463619	2629.962400
865.775842	2630.516927
866.088023	2631.535240
866.400162	2630.882410
866.712258	2632.649335
867.024313	2632.261166
867.336325	2626.042903
867.648296	2626.020217
867.960224	2636.147896
868.272110	2631.656227
868.583954	2626.685650
868.895755	2628.082049
869.207515	2631.293264
869.519233	2638.809625
869.830909	2637.141003
870.142542	2629.969962
870.454134	2632.394757
870.765684	2641.017650
871.077191	2639.417084
871.388657	2643.984369
871.700081	2641.980511
872.011463	2643.142497
872.322803	2644.090233
872.634101	2649.070893
872.945357	2653.875113
873.256571	2658.696977
873.567744	2658.064312
873.878874	2654.903508
874.189963	2655.947027
874.501010	2661.588078
874.812015	2667.869356
875.122979	2666.268790
875.433900	2658.109682
875.744780	2657.610608
876.055618	2661.109169
876.366415	2667.975220
876.677169	2664.854746
876.987882	2658.888541
877.298554	2659.170845
877.609183	2672.855057
877.919771	2674.624502
878.230317	2685.936852
878.540822	2693.790969
878.851285	2707.775130
879.161707	2731.201372
879.472087	2773.665531
879.782425	2820.586071
880.092722	2935.960438
880.402977	3128.035962
880.713191	3389.041702
881.023363	3690.913556
881.333494	3886.906056
881.643583	4059.752098
881.953631	4061.045154
882.263637	3881.012947
882.573602	3660.311232
882.883526	3526.108154
883.193408	3410.794281
883.503248	3306.331491
883.813048	3190.503419
884.122806	3073.669638
884.432522	2986.682008
884.742197	2919.153231
885.051831	2879.025647
885.361424	2843.553568
885.670975	2809.419915
885.980485	2775.402209
886.289954	2758.658016
886.599382	2743.199318
886.908768	2734.158009
887.218113	2714.290821
887.527417	2698.227185
887.836680	2692.772656
888.145901	2685.352078
888.455082	2677.165244
888.764221	2666.054541
889.073319	2658.618839
889.382376	2656.279743
889.691392	2659.390135
890.000366	2657.025834
890.309300	2654.258241
890.618193	2658.225629
890.927044	2661.071360
891.235855	2662.540857
891.544625	2659.748057
891.853353	2659.364930
892.162041	2667.385405
892.470687	2688.006245
892.779293	2696.026721
893.087858	2710.681355
893.396381	2732.421331
893.704864	2772.077568
894.013306	2847.294104
894.321707	2941.835903
894.630068	2997.417145
894.938387	3014.516739
895.246665	3010.355266
895.554903	2962.358440
895.863100	2917.300607
896.171256	2859.256762
896.479371	2796.791825
896.787446	2756.815475
897.095480	2738.521127
897.403473	2731.534088
897.711425	2717.174361
898.019336	2695.147040
898.327207	2683.537262
898.635038	2684.104392
898.942827	2680.235307
899.250576	2671.410767
899.558284	2659.720331
899.865952	2654.689259
900.173579	2652.541728
900.481165	2650.028713
900.788711	2641.914976
901.096216	2635.263173
901.403681	2630.045579
901.711105	2632.598923
902.018489	2629.390229
902.325832	2631.797380
902.633135	2634.827113
902.940397	2651.399907
903.247619	2686.657737
903.554800	2757.627100
903.861941	2888.308932
904.169041	3018.940351
904.476101	3081.649784
904.783121	3079.101481
905.090100	3018.839528
905.397039	2941.069648
905.703938	2865.573328
906.010796	2803.695685
906.317614	2750.292222
906.624391	2712.319730
906.931129	2685.447860
907.237826	2659.891730
907.544483	2642.371200
907.851099	2629.125568
908.157675	2618.491254
908.464211	2610.622013
908.770707	2600.378388
909.077163	2593.983685
909.383578	2588.698035
909.689954	2589.403797
909.996289	2592.138622
910.302584	2587.944382
910.608839	2586.515215
910.915054	2586.742067
911.221229	2586.195102
911.527363	2591.470670
911.833458	2590.477562
912.139513	2590.112079
912.445527	2590.785073
912.751502	2596.327821
913.057436	2600.302771
913.363331	2608.169492
913.669186	2617.203239
913.975000	2633.592031
914.280775	2653.055926
914.586510	2671.204079
914.892205	2707.303782
915.197859	2774.948505
915.503475	2860.438913
915.809050	2930.994902
916.114585	2947.492078
916.420081	2960.795683
916.725536	2971.770275
917.030952	2945.619289
917.336328	2896.510889
917.641665	2844.478619
917.946961	2796.635549
918.252218	2760.117430
918.557435	2733.308574
918.862612	2708.874102
919.167750	2690.423478
919.472848	2674.319513
919.777906	2656.463746
920.082925	2645.539565
920.387904	2634.325518
920.692843	2629.337297
920.997743	2625.352265
921.302603	2616.913373
921.607423	2610.627054
921.912204	2605.976590
922.216946	2603.090529
922.521647	2602.712443
922.826310	2596.194231
923.130932	2590.691811
923.435516	2585.927921
923.740059	2583.760225
924.044564	2583.934145
924.349028	2580.216294
924.653454	2571.832855
924.957840	2572.001733
925.262186	2566.942936
925.566493	2570.605334
925.870761	2565.055023
926.174989	2564.482853
926.479178	2560.298695
926.783328	2561.367419
927.087438	2560.197872
927.391509	2563.265414
927.695541	2559.184600
927.999533	2553.026830
928.303486	2553.639331
928.607400	2554.551779
928.911275	2555.355843
929.215110	2552.885678
929.518906	2551.663198
929.822663	2554.481203
930.126381	2553.115051
930.430060	2556.512788
930.733699	2553.745195
931.037299	2558.118396
931.340861	2556.525391
931.644383	2556.263251
931.947866	2553.329300
932.251309	2555.933056
932.554714	2553.520863
932.858080	2555.093703
933.161407	2555.998591
933.464694	2554.395504
933.767943	2553.052036
934.071153	2552.474824
934.374323	2551.857283
934.677455	2551.648075
934.980548	2550.468445
935.283602	2549.442570
935.586617	2551.131357
935.889593	2550.468445
936.192530	2548.883002
936.495428	2550.448280
936.798287	2552.106820
937.101108	2555.008004
937.403890	2556.691749
937.706632	2561.579148
938.009336	2560.374312
938.312002	2567.164746
938.614628	2571.916034
938.917216	2574.126580
939.219765	2574.265212
939.522275	2577.733525
939.824747	2575.112125
940.127179	2568.969479
940.429573	2569.455951
940.731929	2566.476629
941.034246	2565.233984
941.336524	2567.129458
941.638763	2564.641649
941.940964	2564.646690
942.243126	2562.179045
942.545250	2565.518810
942.847335	2560.296174
943.149381	2559.129147
943.451389	2558.587223
943.753359	2557.160577
944.055290	2557.515978
944.357182	2555.718807
944.659036	2553.911553
944.960851	2554.239228
945.262628	2555.963302
945.564367	2556.646379
945.866067	2554.536656
946.167729	2555.693601
946.469352	2554.481203
946.770937	2556.139743
947.072484	2554.534135
947.373992	2554.352654
947.675462	2554.549259
947.976893	2553.528425
948.278286	2552.053888
948.579641	2553.624207
948.880958	2551.625390
949.182236	2549.981973
949.483476	2553.641851
949.784678	2551.786707
950.085841	2551.156562
950.386967	2552.643703
950.688054	2549.593805
950.989103	2554.650082
951.290114	2552.968857
951.591087	2556.207798
951.892021	2557.475649
952.192917	2558.534291
952.493776	2557.296688
952.794596	2559.895402
953.095378	2560.712069
953.396122	2561.702656
953.696828	2558.098231
953.997496	2558.630073
954.298126	2554.607232
954.598718	2551.567416
954.899272	2553.072201
955.199788	2552.232849
955.500266	2549.440049
955.800706	2546.649771
956.101108	2541.696837
956.401472	2544.890408
956.701798	2541.275901
957.002087	2542.631971
957.302337	2545.303783
957.602550	2541.966539
957.902724	2541.565767
958.202861	2542.400078
958.502960	2541.706919
958.803022	2541.906045
959.103045	2540.837320
959.403031	2538.941847
959.702979	2539.824048
960.002889	2537.686599
960.302762	2538.989738
960.602596	2539.950077
960.902393	2540.723894
961.202153	2536.393543
961.501875	2537.784902
961.801559	2535.211393
962.101205	2539.193904
962.400814	2536.789274
962.700385	2536.880015
962.999918	2536.045704
963.299414	2533.517565
963.598873	2536.297761
963.898293	2534.833306
964.197677	2536.854809
964.497022	2533.172246
964.796331	2534.540919
965.095601	2536.559901
965.394835	2538.208359
965.694030	2536.431352
965.993189	2536.383461
966.292309	2533.149561
966.591393	2533.164684
966.890439	2532.642925
967.189447	2536.728780
967.488419	2533.469674
967.787353	2535.448327
968.086249	2535.798687
968.385108	2534.316588
968.683930	2533.867925
968.982714	2538.404964
969.281462	2534.319108
969.580172	2536.025539
969.878844	2533.986392
970.177480	2533.434386
970.476078	2537.679037
970.774639	2535.776002
971.073162	2539.234233
971.371649	2534.626619
971.670098	2532.017822
971.968510	2535.347504
972.266885	2533.830117
972.565223	2537.026208
972.863524	2536.212062
973.161788	2538.155427
973.460014	2535.105528
973.758204	2537.318595
974.056356	2539.781199
974.354471	2536.736342
974.652550	2534.266176
974.950591	2535.186187
975.248595	2537.003523
975.546563	2537.484953
975.844493	2535.712988
976.142386	2535.614685
976.440243	2535.113090
976.738062	2534.936650
977.035845	2534.656866
977.333590	2533.194931
977.631299	2535.128214
977.928971	2535.229037
978.226606	2533.802390
978.524204	2535.045035
978.821765	2533.895652
979.119290	2535.874304
979.416777	2536.156609
979.714228	2533.850281
980.011642	2533.008408
980.309020	2538.818338
980.606360	2536.554860
980.903664	2534.538399
981.200931	2533.751979
981.498162	2539.448482
981.795356	2539.249357
982.092513	2540.376055
982.389633	2542.573998
982.686717	2547.322765
982.983764	2549.394679
983.280775	2553.455328
983.577749	2551.761501
983.874686	2550.019782
984.171587	2547.037940
984.468451	2542.589121
984.765279	2542.503422
985.062070	2538.601569
985.358824	2538.631816
985.655543	2536.693492
985.952224	2534.795497
986.248869	2536.537216
986.545478	2530.238294
986.842050	2530.487832
987.138586	2530.021525
987.435086	2530.530681
987.731549	2526.868283
988.027975	2530.613860
988.324366	2530.616381
988.620719	2532.589993
988.917037	2531.364992
989.213318	2532.773995
989.509563	2535.271887
989.805772	2534.624098
990.101944	2530.308871
990.398080	2531.803573
990.694180	2530.936494
990.990244	2532.602596
991.286271	2529.822399
991.582262	2530.495393
991.878217	2531.022194
992.174136	2532.385826
992.470019	2533.058820
992.765865	2532.703419
993.061676	2532.552184
993.357450	2531.291896
993.653188	2531.130579
993.948890	2533.835158
994.244556	2532.625281
994.540186	2532.859694
994.835780	2533.013450
995.131337	2532.171577
995.426859	2533.421783
995.722345	2534.359438
996.017795	2535.266845
996.313208	2537.205169
996.608586	2534.374561
996.903928	2536.567463
997.199234	2536.927906
997.494504	2533.361289
997.789738	2532.383305
998.084936	2532.844571
998.380099	2533.510003
998.675225	2532.461443
998.970316	2532.839530
999.265371	2535.329860
999.560390	2530.528161
999.855373	2531.816176
1000.150320	2530.145033
1000.445232	2530.903727
1000.740108	2535.309695
1001.034948	2532.640404
1001.329752	2529.383819
1001.624521	2531.072605
1001.919254	2527.899199
1002.213951	2526.802748
1002.508613	2527.780732
1002.803239	2528.494055
1003.097829	2524.428365
1003.392384	2529.872811
1003.686903	2530.518078
1003.981386	2531.581762
1004.275834	2530.371885
1004.570246	2527.614374
1004.864623	2528.645290
1005.158964	2531.669982
1005.453270	2531.163346
1005.747540	2531.213758
1006.041775	2530.444982
1006.335974	2528.884745
1006.630138	2532.108562
1006.924266	2530.061854
1007.218359	2528.955321
1007.512416	2528.637728
1007.806438	2529.779549
1008.100425	2527.994981
1008.394376	2531.483459
1008.688292	2528.587317
1008.982172	2531.536392
1009.276017	2528.476411
1009.569827	2530.387008
1009.863602	2532.615198
1010.157341	2530.475229
1010.451045	2532.085877
1010.744714	2531.349869
1011.038347	2531.606968
1011.331945	2530.792821
1011.625508	2527.243849
1011.919036	2527.725279
1012.212528	2527.621936
1012.505986	2529.812317
1012.799408	2529.172090
1013.092795	2528.604961
1013.386147	2530.205527
1013.679464	2529.469518
1013.972745	2528.040351
1014.265992	2528.703263
1014.559204	2528.725948
1014.852380	2530.011443
1015.145521	2527.944569
1015.438628	2531.362472
1015.731699	2527.939528
1016.024736	2527.931967
1016.317737	2531.143182
1016.610703	2527.712676
1016.903635	2526.807789
1017.196531	2524.433406
1017.489393	2528.882224
1017.782219	2522.318642
1018.075011	2527.682429
1018.367768	2529.066226
1018.660490	2528.390712
1018.953177	2528.390712
1019.245829	2528.390712
