Dividing Wavelength (nm)	Counts (n)	Blue Motor Position (mm): 0.000000	Red Motor Position (mm): 33.100000	
326.493990	2128.123096
326.888308	2128.123096
327.282561	2128.123096
327.676750	2094.977510
328.070874	2092.961048
328.464933	2096.215113
328.858929	2103.181988
329.252859	2113.039964
329.646726	2125.451285
330.040528	2137.003089
330.434265	2152.791983
330.827938	2170.728408
331.221547	2188.311953
331.615091	2209.136959
332.008571	2228.895762
332.401986	2247.835377
332.795338	2267.354724
333.188625	2284.996242
333.581847	2304.747483
333.975006	2323.286326
334.368100	2342.329285
334.761129	2360.275793
335.154095	2371.880529
335.546996	2394.331307
335.939833	2413.475089
336.332606	2429.896648
336.725315	2441.705551
337.117960	2453.685853
337.510540	2456.113168
337.903056	2468.703450
338.295508	2478.505974
338.687896	2486.488641
339.080220	2493.836123
339.472480	2501.382730
339.864676	2503.941115
340.256807	2508.896570
340.648875	2512.180881
341.040879	2515.392096
341.432818	2516.118023
341.824694	2516.470903
342.216506	2518.487365
342.608253	2521.227232
342.999937	2517.148938
343.391557	2519.987108
343.783113	2516.511233
344.174605	2516.395286
344.566033	2513.100892
344.957397	2515.281191
345.348697	2509.030160
345.739934	2510.945799
346.131106	2506.721312
346.522215	2508.546209
346.913260	2503.676455
347.304241	2503.782319
347.695159	2499.875425
348.086012	2499.726711
348.476802	2496.565907
348.867528	2497.763181
349.258191	2493.778149
349.648789	2494.224291
350.039324	2491.365957
350.429796	2494.171359
350.820203	2492.270844
351.210548	2492.570793
351.600828	2487.675833
351.991045	2487.786738
352.381198	2488.190030
352.771288	2486.723054
353.161314	2487.421254
353.551276	2489.165493
353.941175	2487.436378
354.331010	2486.365133
354.720782	2485.132570
355.110490	2487.622900
355.500135	2483.605101
355.889717	2488.641213
356.279235	2488.429485
356.668689	2489.455360
357.058080	2489.470483
357.447408	2486.745740
357.836672	2483.781541
358.225873	2488.477376
358.615010	2488.696666
359.004084	2492.724548
359.393095	2493.241266
359.782043	2495.643376
360.170927	2493.059785
360.559748	2491.925525
360.948505	2494.141112
361.337199	2494.993067
361.725830	2490.745895
362.114398	2496.704539
362.502903	2497.153202
362.891344	2497.178407
363.279722	2496.132368
363.668037	2496.555825
364.056289	2497.375013
364.444478	2501.929695
364.832603	2498.950373
365.220665	2502.698471
365.608665	2501.775940
365.996601	2503.613440
366.384474	2502.658142
366.772284	2507.454800
367.160031	2506.053359
367.547715	2508.921775
367.935336	2510.907990
368.322893	2513.090810
368.710388	2517.206912
369.097820	2525.078673
369.485189	2526.187727
369.872495	2531.150743
370.259738	2539.561908
370.646918	2545.886036
371.034035	2555.131512
371.421090	2562.322718
371.808081	2575.205387
372.195010	2583.377097
372.581875	2594.273551
372.968678	2609.215531
373.355418	2622.448560
373.742096	2636.034470
374.128710	2652.632469
374.515262	2668.489418
374.901751	2681.268743
375.288177	2695.331042
375.674540	2718.769887
376.060841	2738.044738
376.447079	2756.059302
376.833254	2778.235337
377.219367	2790.326545
377.605417	2826.368274
377.991404	2835.190293
378.377329	2858.525795
378.763191	2874.536499
379.148991	2910.260636
379.534727	2936.850202
379.920402	2963.507823
380.306013	2974.769761
380.691563	3028.004346
381.077049	3049.822460
381.462474	3067.201838
381.847835	3106.704319
382.233134	3127.657875
382.618371	3127.075622
383.003545	3195.758822
383.388657	3204.293496
383.773706	3236.617374
384.158693	3252.255033
384.543618	3276.555916
384.928480	3314.530928
385.313280	3359.122454
385.698017	3357.962988
386.082692	3414.237389
386.467305	3415.805188
386.851856	3450.047225
387.236344	3472.745020
387.620770	3507.844054
388.005133	3527.996067
388.389435	3556.947413
388.773674	3568.388312
389.157851	3611.109570
389.541965	3627.589102
389.926018	3590.982763
390.310008	3663.212416
390.693936	3681.514325
391.077802	3723.693659
391.461606	3709.696895
391.845348	3772.769292
392.229027	3769.318622
392.612645	3787.544913
392.996200	3864.606512
393.379694	3902.626894
393.763125	3967.937563
394.146494	3935.530505
394.529801	3996.654496
394.913047	4046.917320
395.296230	4010.537833
395.679351	4066.305598
396.062410	4088.559771
396.445408	4068.385074
396.828343	4102.062502
397.211217	4124.848517
397.594028	4048.142320
397.976778	4117.901807
398.359466	4144.221672
398.742092	4171.219571
399.124656	4092.711162
399.507158	4172.237884
399.889598	4197.209240
400.271977	4259.200308
400.654294	4230.145618
401.036549	4238.715580
401.418742	4211.160633
401.800874	4311.981189
402.182944	4332.755784
402.564952	4394.358684
402.946898	4384.432652
403.328783	4379.300758
403.710606	4292.325730
404.092367	4487.965349
404.474067	4448.165440
404.855705	4459.883602
405.237282	4389.539341
405.618797	4499.781814
406.000250	4533.239952
406.381642	4611.435810
406.762972	4573.143205
407.144240	4582.703754
407.525447	4584.027057
407.906593	4641.806241
408.287677	4681.938867
408.668700	4614.752889
409.049661	4666.001259
409.430560	4705.970047
409.811399	4632.545642
410.192176	4793.736536
410.572891	4731.997525
410.953545	4838.265048
411.334138	4720.526379
411.714669	4786.126914
412.095139	4680.484494
412.475547	4823.701154
412.855894	4803.849091
413.236180	4816.893076
413.616405	4759.950723
413.996568	4852.483622
414.376670	4794.694355
414.756711	4749.608796
415.136691	4782.222541
415.516609	4857.660887
415.896466	4897.284357
416.276262	4929.252834
416.655997	4911.938991
417.035670	5095.583184
417.415283	5182.142316
417.794834	5130.810767
418.174324	5083.693623
418.553753	4994.016537
418.933121	5179.039486
419.312428	5239.099793
419.691674	5180.423283
420.070859	5308.529084
420.449983	5220.117328
420.829045	5333.240821
421.208047	5238.270523
421.586988	5314.369261
421.965867	5324.018030
422.344686	5457.883349
422.723444	5312.400691
423.102141	5130.556189
423.480777	5423.784985
423.859352	5193.520201
424.237866	5454.931754
424.616319	5450.631650
424.994712	5556.626950
425.373044	5435.397283
425.751314	5578.878603
426.129524	5381.845105
426.507673	5571.873920
426.885762	5655.378113
427.263789	5586.757927
427.641756	5469.679649
428.019662	5594.198670
428.397508	5600.638744
428.775292	5542.388211
429.153016	5643.586854
429.530679	5568.564403
429.908282	5656.202342
430.285824	5526.246437
430.663305	5802.166431
431.040726	5538.330082
431.418086	5536.268251
431.795385	5639.332120
432.172624	5654.853833
432.549802	5645.585672
432.926920	5659.922713
433.303977	5668.134753
433.680974	5704.166400
434.057910	5729.488116
434.434786	5733.455504
434.811601	5702.616245
435.188355	5935.933448
435.565050	5808.049457
435.941683	5792.063958
436.318257	6004.972050
436.694770	5983.332897
437.071222	6021.365882
437.447614	5955.765347
437.823946	5865.238827
438.200218	6021.471747
438.576429	5884.864039
438.952580	5986.269369
439.328670	6025.050966
439.704700	5941.377894
440.080670	5924.787457
440.456580	6194.128745
440.832429	6080.392753
441.208218	5921.886273
441.583947	6078.630869
441.959616	6082.391570
442.335224	6012.153174
442.710773	6150.164842
443.086261	6173.021434
443.461689	5967.491071
443.837057	6116.028669
444.212365	6272.135560
444.587612	6165.190002
444.962800	6318.070554
445.337927	6298.276463
445.712995	5908.398666
446.088002	6484.632797
446.462949	6316.676675
446.837837	6252.631336
447.212664	6420.678199
447.587431	6562.558953
447.962139	7101.037363
448.336786	8030.905917
448.711374	7768.027387
449.085901	6843.865420
449.460369	6765.321723
449.834776	6694.914448
450.209124	7090.007319
450.583412	7243.281081
450.957640	7392.116107
451.331808	7154.087946
451.705917	6703.471806
452.079965	6630.037318
452.453954	6841.843918
452.827883	6717.902109
453.201752	6814.941800
453.575562	6611.858918
453.949311	6815.982798
454.323001	6706.304935
454.696632	6776.934021
455.070202	6913.869403
455.443713	7075.347643
455.817164	7174.902870
456.190556	7249.254848
456.563888	7327.828792
456.937160	7374.847634
457.310373	7028.162443
457.683526	7049.118520
458.056619	6942.457787
458.429653	6932.834224
458.802628	6867.546241
459.175542	6975.232848
459.548398	7332.980852
459.921194	7495.805080
460.293930	7492.608988
460.666607	8027.724948
461.039224	8335.656269
461.411782	8460.427348
461.784280	8478.658681
462.156719	8368.799335
462.529099	8244.681087
462.901419	7831.979465
463.273680	7729.296203
463.645882	7740.313644
464.018024	7600.270390
464.390106	7771.147862
464.762130	8160.735793
465.134094	8626.646793
465.505999	9654.865737
465.877845	10881.113807
466.249631	11533.741584
466.621358	11137.859773
466.993026	10510.704946
467.364634	10254.289176
467.736184	9884.815449
468.107674	9551.675838
468.479105	9579.964273
468.850477	9356.983956
469.221790	9122.320765
469.593043	8798.953431
469.964238	8656.419847
470.335373	8672.173453
470.706449	8721.291936
471.077467	8709.334319
471.448425	10019.502477
471.819324	11096.129101
472.190164	11118.010229
472.560945	9873.170384
472.931667	9073.391326
473.302330	8941.507180
473.672934	8588.003828
474.043479	8943.727808
474.413965	8888.312924
474.784393	8766.039738
475.154761	8923.689222
475.525070	9018.052060
475.895321	8839.386006
476.265513	9010.361780
476.635645	9182.839817
477.005719	9181.072893
477.375734	9292.963823
477.745691	9534.404845
478.115588	9664.764043
478.485427	9905.975693
478.855207	10441.139544
479.224928	11257.151117
479.594591	11888.361552
479.964194	11696.722088
480.333739	11636.654219
480.703226	11551.095756
481.072653	11642.791824
481.442022	11881.117413
481.811333	12068.320662
482.180584	11871.438398
482.549777	11587.147568
482.918912	11400.829043
483.287988	11426.843917
483.657005	11430.433218
484.025964	11118.746238
484.394864	11245.306926
484.763706	11210.878366
485.132489	10963.786210
485.501213	10934.091293
485.869879	11005.040492
486.238487	10848.696668
486.607036	10950.583428
486.975527	10726.181506
487.343959	10911.338045
487.712333	10954.162647
488.080648	10885.018181
488.448905	10933.239338
488.817104	10857.680004
489.185244	11115.073757
489.553326	11263.628999
489.921350	11792.062910
490.289315	12829.918020
490.657222	13171.194053
491.025070	13070.358373
491.392861	12931.759410
491.760593	12554.292933
492.128267	12202.218749
492.495883	11874.589119
492.863440	11531.132787
493.230939	11195.444873
493.598380	11114.589807
493.965763	10973.470266
494.333088	10865.939934
494.700354	10779.400967
495.067563	10827.498616
495.434713	10650.541513
495.801805	10765.111816
496.168839	10682.230206
496.535815	10598.983112
496.902733	10584.003323
497.269593	10505.424337
497.636395	10593.876423
498.003139	10558.056504
498.369825	10421.884857
498.736453	10554.358818
499.103023	10469.866559
499.469535	10478.728907
499.835989	10446.379823
500.202385	10395.436443
500.568723	10229.635413
500.935003	10424.483571
501.301226	10208.265962
501.667390	10440.950500
502.033497	10504.832002
502.399546	10351.495225
502.765537	10246.364483
503.131470	10282.305389
503.497345	10428.211505
503.863163	10034.207523
504.228923	10304.655344
504.594625	10334.085601
504.960269	10070.118182
505.325856	10248.577549
505.691385	10026.144197
506.056856	10135.839705
506.422270	10123.909814
506.787625	9991.380400
507.152924	10056.088651
507.518164	10010.622485
507.883347	9906.505014
508.248472	9796.749012
508.613540	9965.060536
508.978550	9823.769597
509.343503	9765.231718
509.708398	9829.892078
510.073236	9885.700172
510.438016	9843.457823
510.802738	9754.978011
511.167403	9759.507488
511.532010	9622.050346
511.896561	9776.899469
512.261053	9786.369276
512.625488	9637.151122
512.989866	9561.745543
513.354186	9508.941977
513.718449	9373.534064
514.082655	9484.305858
514.446803	9348.971042
514.810894	9393.731447
515.174927	9228.673988
515.538904	9202.855719
515.902822	9254.915714
516.266684	9119.913614
516.630488	9009.106532
516.994235	9012.821863
517.357925	8982.085948
517.721558	8996.654882
518.085133	8945.562788
518.448651	8905.417559
518.812112	8758.926670
519.175516	8698.458029
519.538863	8724.125064
519.902152	8619.180844
520.265385	8644.013568
520.628560	8540.538844
520.991678	8448.094165
521.354739	8440.986138
521.717743	8334.484201
522.080690	8258.148529
522.443580	8265.496011
522.806413	8181.139863
523.169189	8141.831466
523.531908	8107.014737
523.894569	7927.413549
524.257174	7863.738734
524.619722	7863.753858
524.982213	7783.377701
525.344647	7726.972231
525.707025	7637.000237
526.069345	7629.367930
526.431608	7502.958477
526.793815	7500.085019
527.155964	7317.454098
527.518057	7291.320756
527.880093	7192.930036
528.242072	7165.107908
528.603995	7042.701131
528.965860	6941.391583
529.327669	6899.902887
529.689421	6818.122768
530.051117	6739.750470
530.412755	6714.401028
530.774337	6612.458815
531.135862	6528.473192
531.497331	6487.090360
531.858743	6350.401994
532.220098	6361.747111
532.581396	6247.375933
532.942638	6181.140212
533.303824	6110.312001
533.664953	6047.007711
534.026025	5957.073527
534.387040	5935.419250
534.747999	5879.333893
535.108902	5839.029868
535.469748	5696.186253
535.830537	5677.279406
536.191270	5606.345330
536.551947	5555.018822
536.912567	5496.889277
537.273131	5427.321354
537.633638	5363.323906
537.994089	5304.206295
538.354483	5231.349019
538.714821	5228.972115
539.075103	5173.375750
539.435328	5110.570535
539.795497	5025.871588
540.155609	5007.771325
540.515665	4985.330629
540.875665	4862.797823
541.235609	4825.783151
541.595496	4782.207417
541.955328	4765.677474
542.315102	4695.466803
542.674821	4636.974295
543.034483	4590.454528
543.394090	4544.625398
543.753640	4482.508300
544.113134	4483.360255
544.472571	4413.207558
544.831953	4398.202564
545.191278	4315.341118
545.550548	4278.432310
545.909761	4264.140639
546.268918	4217.194894
546.628019	4192.531049
546.987064	4126.892705
547.346053	4083.513576
547.704986	4051.623237
548.063863	4019.213659
548.422684	3981.954491
548.781449	3927.237807
549.140158	3908.283069
549.498811	3855.660984
549.857408	3805.115855
550.215949	3795.633445
550.574434	3746.401536
550.932864	3723.030747
551.291237	3706.543653
551.649555	3663.315759
552.007817	3642.939415
552.366022	3607.338787
552.724173	3579.372986
553.082267	3553.239644
553.440305	3535.119217
553.798288	3492.458453
554.156215	3480.906648
554.514086	3451.073100
554.871902	3411.053900
555.229661	3396.573186
555.587365	3366.006149
555.945014	3335.615553
556.302606	3322.624500
556.660143	3295.130047
557.017625	3280.571195
557.375050	3253.432143
557.732421	3242.117273
558.089735	3216.538458
558.446994	3197.520706
558.804197	3179.591842
559.161345	3159.333965
559.518437	3133.830768
559.875474	3116.332923
560.232455	3105.239864
560.589381	3086.423757
560.946251	3067.166549
561.303065	3058.926783
561.659825	3035.051879
562.016528	3017.042357
562.373177	3000.343535
562.729770	2990.538490
563.086307	2974.084164
563.442789	2967.366827
563.799216	2945.473096
564.155587	2935.847012
564.511904	2923.050043
564.868164	2910.540420
565.224370	2902.255284
565.580520	2884.099568
565.936615	2878.952550
566.292654	2857.189889
566.648638	2854.729806
567.004567	2845.693537
567.360441	2838.341015
567.716260	2822.776452
568.072023	2819.933241
568.427732	2804.746765
568.783385	2799.367854
569.138982	2788.761267
569.494525	2784.443518
569.850013	2774.837600
570.205445	2773.708381
570.560823	2763.510127
570.916145	2759.555342
571.271412	2748.353898
571.626625	2742.622106
571.981782	2740.522465
572.336884	2732.859912
572.691931	2729.227760
573.046923	2721.020762
573.401860	2717.436501
573.756743	2711.177909
574.111570	2707.500387
574.466342	2703.495190
574.821059	2700.578883
575.175722	2693.362471
575.530330	2692.613860
575.884882	2689.894157
576.239380	2686.072963
576.593823	2681.382169
576.948211	2679.138856
577.302544	2675.262208
577.656823	2674.059893
578.011047	2671.559481
578.365216	2667.735766
578.719330	2665.053872
579.073389	2662.185455
579.427394	2659.584220
579.781344	2658.712100
580.135239	2655.768066
580.489080	2653.698673
580.842866	2649.658188
581.196597	2649.264978
581.550273	2647.339257
581.903895	2646.338588
582.257463	2644.465799
582.610975	2643.371869
582.964434	2640.372383
583.317837	2642.378762
583.671186	2641.320119
584.024481	2640.455562
584.377721	2638.050931
584.730906	2634.534726
585.084037	2635.835344
585.437113	2633.818883
585.790135	2634.328039
586.143103	2629.027266
586.496016	2629.256638
586.848874	2625.642131
587.201679	2626.864611
587.554428	2621.636934
587.907124	2623.371091
588.259765	2623.550052
588.612352	2624.676750
588.964884	2621.152983
589.317362	2622.592233
589.669786	2618.675256
590.022155	2619.302880
590.374470	2621.894033
590.726731	2621.846142
591.078937	2617.467900
591.431090	2618.118209
591.783188	2615.161572
592.135232	2616.593260
592.487222	2616.913373
592.839157	2618.367746
593.191038	2613.492950
593.542866	2612.441870
593.894639	2611.814246
594.246358	2612.209977
594.598022	2610.959770
594.949633	2612.063783
595.301190	2609.041611
595.652692	2610.387599
596.004141	2610.639657
596.355535	2609.139914
596.706876	2609.588577
597.058162	2603.992896
597.409395	2606.858792
597.760573	2607.617485
598.111698	2604.171857
598.462768	2605.701847
598.813785	2608.091354
599.164748	2604.996085
599.515657	2605.419542
599.866511	2602.851074
600.217312	2603.927361
600.568060	2603.655138
600.918753	2606.437855
601.269392	2602.047010
601.619978	2601.865529
601.970510	2603.778647
602.320988	2602.107504
602.671412	2602.936774
603.021783	2602.316712
603.372100	2603.057762
603.722363	2600.073399
604.072572	2604.368462
604.422728	2604.000457
604.772830	2594.996957
605.122878	2596.897472
605.472872	2595.705239
605.822813	2594.860846
606.172701	2598.561052
606.522534	2601.961311
606.872314	2601.535333
607.222041	2599.360075
607.571714	2601.469798
607.921333	2604.426435
608.270899	2600.257401
608.620411	2600.809407
608.969870	2598.069540
609.319276	2601.376537
609.668627	2603.304778
610.017926	2608.872733
610.367171	2607.231837
610.716362	2607.546909
611.065500	2606.621857
611.414585	2605.192690
611.763616	2602.944336
612.112594	2604.028184
612.461518	2604.139089
612.810389	2601.351331
613.159207	2601.424428
613.507971	2600.373347
613.856682	2598.679520
614.205340	2600.701022
614.553945	2603.120776
614.902496	2599.382761
615.250994	2601.127000
615.599439	2599.811259
615.947830	2599.556680
616.296169	2596.975610
616.644454	2600.464088
616.992686	2600.751434
617.340864	2597.565425
617.688990	2598.422421
618.037063	2601.389140
618.385082	2600.668255
618.733048	2600.486773
619.080961	2597.220106
619.428821	2600.685899
619.776628	2600.698502
620.124382	2600.746393
620.472083	2600.403594
620.819731	2600.345621
621.167326	2596.148860
621.514868	2598.024170
621.862357	2597.441916
622.209793	2597.656165
622.557176	2597.502410
622.904506	2595.858994
623.251783	2590.797676
623.599007	2594.008891
623.946179	2591.422779
624.293297	2592.617532
624.640363	2593.542584
624.987376	2593.719024
625.334336	2592.851946
625.681243	2593.388829
626.028097	2593.051071
626.374899	2591.105186
626.721647	2590.583427
627.068343	2591.735330
627.414987	2591.067377
627.761577	2592.335227
628.108115	2589.791965
628.454600	2592.413365
628.801032	2592.398242
629.147412	2589.308015
629.493739	2587.896492
629.840014	2590.185175
630.186236	2588.907243
630.532405	2588.314907
630.878521	2591.614342
631.224585	2588.501430
631.570597	2587.034454
631.916556	2587.326841
632.262462	2590.903540
632.608316	2585.111254
632.954117	2586.507654
633.299866	2585.872468
633.645562	2586.744588
633.991206	2587.097469
634.336797	2585.569999
634.682336	2588.703076
635.027823	2583.099834
635.373257	2583.291397
635.718639	2583.593867
636.063968	2582.764597
636.409245	2580.145717
636.754470	2583.162848
637.099642	2582.820050
637.444762	2582.678897
637.789829	2581.864751
638.134845	2579.896180
638.479808	2581.597570
638.824719	2583.795513
639.169577	2581.453897
639.514383	2580.639751
639.859137	2579.097157
640.203839	2579.661767
640.548489	2580.175964
640.893086	2574.844944
641.237632	2576.619430
641.582125	2579.140007
641.926566	2573.312433
642.270955	2578.078844
642.615292	2579.518094
642.959576	2579.679411
643.303809	2578.653536
643.647990	2581.032961
643.992118	2578.212435
644.336195	2579.641602
644.680219	2574.623133
645.024192	2577.645305
645.368112	2579.999524
645.711981	2579.281160
646.055797	2581.189236
646.399562	2579.402147
646.743274	2581.307703
647.086935	2583.954309
647.430544	2583.732498
647.774101	2580.397775
648.117606	2581.161510
648.461059	2582.903229
648.804460	2582.681418
649.147810	2579.132446
649.491108	2580.485995
649.834354	2583.064546
650.177548	2577.395768
650.520690	2578.736715
650.863781	2578.635892
651.206820	2580.518763
651.549807	2575.212948
651.892742	2579.039184
652.235626	2575.412074
652.578458	2574.711354
652.921238	2578.469534
653.263967	2576.553895
653.606644	2575.051632
653.949269	2576.939544
654.291843	2573.509038
654.634365	2577.332754
654.976836	2575.182702
655.319255	2577.060531
655.661622	2575.369224
656.003938	2576.874009
656.346203	2576.135480
656.688416	2574.993658
657.030577	2573.511559
657.372687	2575.046590
657.714746	2572.594069
658.056753	2574.809656
658.398708	2568.828327
658.740612	2570.285221
659.082465	2571.200190
659.424266	2575.147413
659.766016	2568.977041
660.107715	2576.274111
660.449362	2575.520459
660.790958	2572.543657
661.132503	2572.246229
661.473996	2574.116497
661.815438	2572.818400
662.156829	2576.495922
662.498168	2575.684296
662.839456	2572.417629
663.180693	2575.477609
663.521879	2574.691189
663.863013	2573.849316
664.204097	2573.183884
664.545129	2574.451734
664.886110	2574.507187
665.227040	2576.478278
665.567918	2575.734708
665.908746	2574.615572
666.249522	2573.897207
666.590248	2573.715726
666.930922	2573.365366
667.271545	2571.419480
667.612118	2576.758062
667.952639	2577.869637
668.293109	2575.084399
668.633528	2573.982907
668.973896	2575.936354
669.314213	2574.121539
669.654480	2574.159347
669.994695	2574.905438
670.334859	2577.292424
670.674973	2573.624985
671.015035	2575.490212
671.355047	2575.167578
671.695008	2575.233113
672.034918	2572.457958
672.374777	2575.427197
672.714585	2575.654049
673.054342	2575.376786
673.394049	2576.500963
673.733705	2575.696899
674.073310	2574.192115
674.412864	2574.406364
674.752368	2571.303534
675.091820	2573.914851
675.431223	2573.839234
675.770574	2573.665314
676.109875	2570.759089
676.449125	2571.787484
676.788324	2571.265725
677.127473	2571.437124
677.466571	2569.261866
677.805619	2572.752865
678.144616	2573.342680
678.483562	2571.356466
678.822458	2572.372258
679.161303	2571.190108
679.500098	2572.160530
679.838842	2573.042732
680.177535	2568.384706
680.516179	2571.961404
680.854771	2572.309244
681.193314	2573.698082
681.531805	2574.386199
681.870247	2575.482650
682.208638	2574.701271
682.546978	2575.641447
682.885268	2575.775037
683.223508	2574.802094
683.561697	2573.877043
683.899836	2573.972825
684.237925	2574.759245
684.575963	2573.259501
684.913951	2572.939388
685.251889	2572.158009
685.589776	2574.250088
685.927614	2572.614234
686.265401	2572.573904
686.603137	2571.270766
686.940824	2574.575242
687.278460	2576.216138
687.616046	2576.163206
687.953582	2575.870819
688.291068	2573.884604
688.628504	2577.935172
688.965889	2576.069945
689.303224	2575.931313
689.640510	2573.730849
689.977745	2573.745973
690.314930	2574.260170
690.652065	2572.571384
690.989150	2571.578277
691.326185	2570.965776
691.663170	2571.590879
692.000105	2569.715570
692.336990	2567.988975
692.673825	2569.007288
693.010610	2568.243553
693.347345	2563.283058
693.684030	2563.267934
694.020665	2561.627039
694.357251	2560.286092
694.693786	2563.514951
695.030272	2563.787173
695.366707	2561.974878
695.703093	2563.338511
696.039429	2563.570404
696.375716	2563.837585
696.711952	2564.676937
697.048139	2563.250290
697.384276	2564.641649
697.720363	2560.979251
698.056400	2560.407080
698.392388	2564.132492
698.728326	2563.787173
699.064214	2563.409087
699.400053	2561.206103
699.735842	2560.424724
700.071581	2562.910012
700.407270	2562.514282
700.742910	2561.437996
701.078501	2560.903633
701.414042	2559.295505
701.749533	2560.878427
702.084974	2561.354817
702.420366	2561.685012
702.755709	2562.983109
703.091002	2559.091338
703.426246	2559.081256
703.761440	2561.599313
704.096584	2560.656617
704.431679	2559.144271
704.766725	2559.527398
705.101721	2556.875751
705.436668	2561.223747
705.771565	2561.324570
706.106413	2561.501010
706.441212	2557.878941
706.775961	2559.421534
707.110661	2558.572100
707.445311	2560.765002
707.779913	2560.807851
708.114465	2560.674261
708.448967	2562.806669
708.783421	2561.437996
709.117825	2560.628890
709.452180	2563.343552
709.786485	2564.777760
710.120742	2563.635939
710.454949	2564.712225
710.789107	2561.508572
711.123216	2561.679971
711.457275	2562.133675
711.791286	2563.237687
712.125247	2563.572924
712.459159	2564.283727
712.793023	2565.813717
713.126837	2564.084601
713.460602	2564.815569
713.794318	2564.830692
714.127985	2563.797256
714.461602	2563.456978
714.795171	2562.904971
715.128691	2561.833726
715.462162	2562.473953
715.795584	2562.035372
716.128957	2561.450598
716.462281	2560.336503
716.795556	2562.552091
717.128782	2561.241391
717.461960	2560.505382
717.795088	2557.803324
718.128167	2558.796431
718.461198	2557.488252
718.794180	2557.697459
719.127113	2557.820968
719.459997	2555.534804
719.792833	2558.972871
720.125619	2556.545556
720.458357	2556.084290
720.791046	2557.878941
721.123686	2555.744012
721.456278	2555.486913
721.788821	2556.492624
722.121315	2557.286605
722.453761	2554.783673
722.786158	2555.013045
723.118506	2556.467418
723.450805	2554.226625
723.783056	2556.490103
724.115259	2555.141594
724.447412	2554.839125
724.779518	2556.931204
725.111574	2556.495144
725.443582	2555.991029
725.775542	2554.082952
726.107453	2557.478169
726.439315	2558.539332
726.771129	2562.219374
727.102895	2553.853580
727.434612	2557.488252
727.766281	2558.294836
728.097901	2558.683005
728.429473	2554.302242
728.760996	2556.734599
729.092471	2551.837118
729.423897	2557.160577
729.755276	2558.584703
730.086606	2561.034703
730.417887	2559.799621
730.749120	2561.357337
731.080305	2561.616957
731.411442	2560.079405
731.742530	2560.127296
732.073570	2561.069991
732.404562	2560.898592
732.735506	2560.918757
733.066401	2560.684343
733.397249	2557.972202
733.728048	2557.863817
734.058798	2555.885165
734.389501	2556.853066
734.720156	2556.311142
735.050762	2556.139743
735.381320	2555.628066
735.711831	2555.668395
736.042293	2555.171841
736.372707	2556.182593
736.703073	2553.334341
737.033391	2552.704197
737.363661	2556.129661
737.693883	2555.771739
738.024056	2556.686708
738.354182	2554.566903
738.684260	2556.059084
739.014290	2556.636297
739.344272	2557.964641
739.674207	2557.072356
740.004093	2559.227450
740.333931	2556.563200
740.663722	2557.475649
740.993464	2557.745350
741.323159	2557.337017
741.652806	2558.274672
741.982405	2556.616132
742.311956	2554.587068
742.641460	2557.573951
742.970915	2555.106306
743.300323	2554.181255
743.629683	2554.715617
743.958996	2556.283416
744.288260	2552.701676
744.617477	2551.421223
744.946647	2549.666901
745.275768	2550.914587
745.604842	2550.077755
745.933869	2550.707900
746.262847	2547.758825
746.591778	2552.895760
746.920662	2552.215205
747.249498	2552.124464
747.578286	2551.811912
747.907027	2552.931048
748.235720	2553.581357
748.564365	2554.224104
748.892963	2551.300235
749.221514	2551.307797
749.550017	2552.071532
749.878473	2552.527756
750.206881	2554.163611
750.535242	2552.570606
750.863555	2553.102448
751.191821	2550.297046
751.520039	2551.935421
751.848210	2554.178734
752.176334	2554.314845
752.504411	2553.538507
752.832440	2550.044988
753.160421	2551.955585
753.488356	2547.073228
753.816243	2552.724361
754.144082	2548.822508
754.471875	2549.719833
754.799620	2553.062118
755.127318	2551.549772
755.454969	2551.494320
755.782572	2550.231511
756.110129	2548.981304
756.437638	2553.183106
756.765100	2548.822508
757.092515	2550.372663
757.419882	2552.268137
757.747203	2551.953065
758.074477	2551.358208
758.401703	2550.163455
758.728882	2551.146480
759.056014	2549.999617
759.383099	2552.295863
759.710138	2550.566747
760.037129	2553.178065
760.364073	2553.621687
760.690970	2550.881819
761.017820	2551.627910
761.344623	2553.074721
761.671379	2550.889381
761.998088	2548.020965
762.324751	2553.248641
762.651366	2556.036399
762.977935	2566.499314
763.304456	2571.646332
763.630931	2577.415933
763.957359	2570.799418
764.283740	2569.713050
764.610074	2561.584189
764.936362	2560.003787
765.262602	2558.594785
765.588796	2555.479352
765.914943	2552.316028
766.241044	2552.943651
766.567097	2552.633620
766.893104	2548.691438
767.219064	2549.868548
767.544978	2548.560368
767.870845	2547.973074
768.196665	2546.990049
768.522438	2548.270502
768.848165	2547.105995
769.173846	2548.295708
769.499479	2550.665050
769.825066	2546.523742
770.150607	2543.879657
770.476101	2546.435522
770.801548	2545.570964
771.126949	2546.241437
771.452303	2546.511139
771.777611	2546.289328
772.102872	2545.412167
772.428087	2544.666077
772.753256	2547.587425
773.078378	2543.499050
773.403453	2546.433001
773.728482	2544.126673
774.053465	2544.456869
774.378401	2544.592980
774.703291	2544.976108
775.028135	2543.889739
775.352932	2543.962836
775.677683	2543.577187
776.002388	2545.152548
776.327046	2543.005017
776.651658	2542.944523
776.976224	2545.588608
777.300743	2543.927548
777.625216	2545.500388
777.949643	2543.907383
778.274024	2543.481406
778.598359	2541.129707
778.922647	2538.717515
779.246889	2539.766075
779.571086	2537.726928
779.895236	2540.527289
780.219339	2545.936447
780.543397	2541.197763
780.867409	2541.086857
781.191374	2543.166333
781.515294	2544.945861
781.839167	2541.938812
782.162995	2544.968546
782.486776	2542.989893
782.810511	2544.524924
783.134201	2542.468134
783.457844	2540.292876
783.781441	2544.635830
784.104993	2542.135417
784.428498	2540.171888
784.751958	2541.144831
785.075372	2542.649615
785.398739	2539.317413
785.722061	2545.989380
786.045337	2541.676673
786.368568	2542.077444
786.691752	2545.918803
787.014891	2546.301931
787.337983	2546.075079
787.661030	2542.397557
787.984031	2545.933927
788.306987	2547.509287
788.629897	2547.569781
788.952760	2546.881664
789.275579	2547.519370
789.598351	2549.009031
789.921078	2546.291849
790.243759	2543.972918
790.566395	2542.127856
790.888984	2540.786909
791.211529	2541.830428
791.534027	2542.384955
791.856480	2543.330171
792.178888	2543.095757
792.501249	2541.671631
792.823566	2541.674152
793.145836	2543.252033
793.468062	2541.454862
793.790241	2542.606765
794.112375	2540.335726
794.434464	2541.285983
794.756507	2542.649615
795.078505	2542.606765
795.400457	2542.402599
795.722364	2539.713143
796.044226	2541.825387
796.366042	2540.867567
796.687812	2541.646426
797.009538	2545.122301
797.331218	2544.348484
797.652852	2543.725902
797.974442	2544.240099
798.295986	2546.468289
798.617484	2541.769934
798.938938	2542.826056
799.260346	2542.137938
799.581709	2543.577187
799.903026	2543.551982
800.224299	2541.185160
800.545526	2543.549461
800.866708	2543.504091
801.187845	2544.257743
801.508936	2540.512166
801.829983	2540.764224
802.150984	2543.310006
802.471940	2540.134079
802.792851	2543.345294
803.113717	2541.240613
803.434538	2539.272042
803.755314	2539.045190
804.076045	2543.670449
804.396731	2541.086857
804.717372	2541.878319
805.037967	2540.877650
805.358518	2541.248174
805.679024	2540.857485
805.999485	2543.930068
806.319901	2539.551826
806.640272	2542.387475
806.960598	2540.116435
807.280879	2538.004192
807.601115	2543.219266
807.921306	2541.711961
808.241453	2539.927392
808.561554	2543.062990
808.881611	2540.577701
809.201623	2542.737835
809.521590	2541.815304
809.841513	2540.842362
810.161390	2541.510314
810.481223	2541.689275
810.801011	2539.950077
811.120755	2541.704399
811.440453	2544.466951
811.760107	2538.941847
812.079716	2539.148534
812.399281	2537.636188
812.718801	2538.752803
813.038276	2535.581918
813.357707	2542.654656
813.677093	2538.551157
813.996434	2541.661549
814.315731	2540.096271
814.634983	2540.998637
814.954191	2539.539223
815.273354	2541.021323
815.592473	2540.852444
815.911547	2539.733308
816.230577	2542.639533
816.549562	2542.337064
816.868502	2544.313196
817.187399	2544.348484
817.506250	2540.665921
817.825058	2544.018288
818.143821	2543.642723
818.462539	2542.858823
818.781213	2545.560882
819.099843	2544.900490
819.418429	2546.110367
819.736970	2549.379556
820.055466	2549.843342
820.373919	2554.909701
820.692327	2560.870866
821.010691	2563.951011
821.329011	2583.563620
821.647286	2615.988321
821.965517	2651.132725
822.283704	2673.124759
822.601847	2678.536438
822.919945	2663.571772
823.237999	2642.240130
823.556010	2620.540483
823.873976	2606.440376
824.191897	2590.512850
824.509775	2581.486664
824.827609	2576.470716
825.145398	2570.806980
825.463144	2569.728173
825.780845	2569.229099
826.098502	2574.151786
826.416116	2584.690318
826.733685	2594.069384
827.051210	2597.421752
827.368692	2592.355392
827.686129	2586.472366
828.003522	2572.619275
828.320872	2563.799776
828.638177	2559.098900
828.955439	2550.067673
829.272656	2549.936603
829.589830	2546.788402
829.906960	2547.912580
830.224046	2542.952084
830.541088	2546.294369
830.858086	2544.456869
831.175041	2545.752445
831.491952	2544.431663
831.808819	2545.712116
832.125642	2542.415202
832.442421	2547.267312
832.759157	2549.515667
833.075849	2559.744168
833.392497	2566.481670
833.709101	2569.614747
834.025662	2571.931157
834.342179	2566.015363
834.658653	2560.543191
834.975083	2556.515309
835.291469	2558.372974
835.607811	2548.424257
835.924110	2544.711447
836.240366	2545.419729
836.556578	2546.584236
836.872746	2542.821014
837.188871	2543.798998
837.504952	2541.850592
837.820990	2540.103832
838.136984	2540.698689
838.452935	2538.712474
838.768842	2539.637526
839.084706	2538.402443
839.400526	2544.555171
839.716303	2546.284287
840.032037	2550.261757
840.347727	2550.881819
840.663373	2552.502550
840.978977	2544.000644
841.294537	2540.885211
841.610054	2543.138607
841.925527	2541.911086
842.240957	2537.686599
842.556344	2540.151723
842.871687	2542.573998
843.186987	2537.230375
843.502244	2537.394212
843.817458	2538.261291
844.132629	2537.058976
844.447756	2533.290713
844.762840	2532.388347
845.077881	2533.003367
845.392879	2532.325332
845.707833	2533.777184
846.022745	2530.833151
846.337613	2536.587628
846.652438	2536.247350
846.967221	2536.368338
847.281960	2535.791125
847.596656	2534.064530
847.911309	2536.038142
848.225919	2533.608306
848.540485	2534.936650
848.855009	2535.168543
849.169490	2535.687782
849.483928	2534.740045
849.798323	2536.232226
850.112675	2535.828934
850.426984	2534.777853
850.741251	2536.383461
851.055474	2535.397915
851.369654	2535.276928
851.683792	2534.087215
851.997887	2539.151054
852.311938	2537.290869
852.625947	2533.918337
852.939914	2536.615354
853.253837	2534.755168
853.567718	2536.401105
853.881555	2534.329191
854.195350	2535.166022
854.509103	2536.522093
854.822812	2536.842206
855.136479	2536.607792
855.450103	2534.288862
855.763685	2537.089222
856.077224	2536.464119
856.390720	2534.223327
856.704173	2533.144520
857.017584	2535.407998
857.330953	2534.674510
857.644278	2532.947915
857.957561	2536.872453
858.270802	2538.412525
858.584000	2534.714839
858.897155	2538.082330
859.210268	2533.595703
859.523339	2533.878008
859.836367	2532.358100
860.149352	2534.001516
860.462295	2535.304654
860.775195	2531.720394
861.088054	2531.231402
861.400869	2531.682585
861.713642	2530.873480
862.026373	2531.244005
862.339062	2532.443799
862.651708	2535.765920
862.964312	2536.917823
863.276873	2534.873635
863.589392	2534.286341
863.901869	2534.099818
864.214303	2534.049407
864.526696	2537.046373
864.839045	2537.099305
865.151353	2538.430169
865.463619	2535.138296
865.775842	2538.185673
866.088023	2537.895807
866.400162	2533.825075
866.712258	2534.573687
867.024313	2534.225847
867.336325	2536.522093
867.648296	2536.887576
867.960224	2534.684592
868.272110	2537.507638
868.583954	2537.847916
868.895755	2535.849099
869.207515	2536.552340
869.519233	2537.971424
869.830909	2536.015457
870.142542	2538.735159
870.454134	2535.617206
870.765684	2536.885056
871.077191	2536.559901
871.388657	2538.016795
871.700081	2537.535365
872.011463	2540.363452
872.322803	2536.993441
872.634101	2538.278935
872.945357	2535.039993
873.256571	2538.556198
873.567744	2535.889428
873.878874	2536.995961
874.189963	2537.812628
874.501010	2538.427649
874.812015	2536.839685
875.122979	2536.015457
875.433900	2538.319264
875.744780	2538.770447
876.055618	2538.410005
876.366415	2537.391692
876.677169	2537.444624
876.987882	2535.851619
877.298554	2531.652338
877.609183	2538.455375
877.919771	2536.035621
878.230317	2536.154088
878.540822	2542.702547
878.851285	2539.514017
879.161707	2545.107178
879.472087	2545.432332
879.782425	2552.038764
880.092722	2556.827860
880.402977	2564.107287
880.713191	2583.485482
881.023363	2602.886362
881.333494	2615.973198
881.643583	2619.348250
881.953631	2616.870523
882.263637	2615.620317
882.573602	2606.009357
882.883526	2598.417380
883.193408	2587.427664
883.503248	2580.027250
883.813048	2571.429562
884.122806	2566.227092
884.432522	2563.983778
884.742197	2557.344579
885.051831	2553.167983
885.361424	2550.796120
885.670975	2548.383928
885.980485	2546.196067
886.289954	2544.761859
886.599382	2540.592824
886.908768	2544.542568
887.218113	2542.458051
887.527417	2544.804708
887.836680	2541.762372
888.145901	2542.246323
888.455082	2540.842362
888.764221	2542.294214
889.073319	2537.671476
889.382376	2536.663245
889.691392	2537.689120
890.000366	2540.008051
890.309300	2538.185673
890.618193	2539.831610
890.927044	2540.653318
891.235855	2539.619882
891.544625	2536.431352
891.853353	2536.736342
892.162041	2538.876312
892.470687	2541.711961
892.779293	2542.011909
893.087858	2542.581560
893.396381	2541.313709
893.704864	2547.789072
894.013306	2548.822508
894.321707	2559.446740
894.630068	2562.783984
894.938387	2566.451423
895.246665	2563.830023
895.554903	2563.948490
895.863100	2556.467418
896.171256	2552.628579
896.479371	2551.209494
896.787446	2549.954247
897.095480	2547.083310
897.403473	2544.930737
897.711425	2542.752959
898.019336	2541.051569
898.327207	2540.406302
898.635038	2541.946374
898.942827	2541.434697
899.250576	2540.648277
899.558284	2536.968235
899.865952	2541.124666
900.173579	2539.173740
900.481165	2541.361600
900.788711	2537.207690
901.096216	2540.791950
901.403681	2537.779861
901.711105	2541.129707
902.018489	2537.391692
902.325832	2541.311189
902.633135	2537.467309
902.940397	2539.808925
903.247619	2540.353370
903.554800	2549.361912
903.861941	2558.753581
904.169041	2569.922257
904.476101	2576.626992
904.783121	2573.264542
905.090100	2571.358986
905.397039	2562.983109
905.703938	2559.696277
906.010796	2551.761501
906.317614	2548.043650
906.624391	2546.894267
906.931129	2542.659698
907.237826	2540.113915
907.544483	2540.328164
907.851099	2538.558719
908.157675	2538.042001
908.464211	2535.841537
908.770707	2530.873480
909.077163	2532.930271
909.383578	2532.819365
909.689954	2531.927081
909.996289	2529.847605
910.302584	2534.861032
910.608839	2533.063861
910.915054	2532.824406
911.221229	2534.966897
911.527363	2535.879346
911.833458	2534.919006
912.139513	2534.069571
912.445527	2534.145189
912.751502	2535.037473
913.057436	2537.305992
913.363331	2537.653832
913.669186	2537.815149
913.975000	2536.275076
914.280775	2541.732125
914.586510	2543.763710
914.892205	2546.372507
915.197859	2552.633620
915.503475	2558.378015
915.809050	2567.031156
916.114585	2568.793039
916.420081	2574.522310
916.725536	2571.923596
917.030952	2568.296485
917.336328	2561.095197
917.641665	2561.695094
917.946961	2553.722510
918.252218	2552.706717
918.557435	2548.567930
918.862612	2545.792775
919.167750	2543.882177
919.472848	2542.256405
919.777906	2541.023843
920.082925	2538.694830
920.387904	2541.049049
920.692843	2539.226672
920.997743	2535.488656
921.302603	2536.229706
921.607423	2536.789274
921.912204	2536.086033
922.216946	2536.396064
922.521647	2540.892773
922.826310	2536.625436
923.130932	2534.467822
923.435516	2536.176774
923.740059	2534.825744
924.044564	2534.432534
924.349028	2536.290200
924.653454	2528.768798
924.957840	2528.819210
925.262186	2529.681247
925.566493	2530.896165
925.870761	2528.115969
926.174989	2534.314067
926.479178	2532.675692
926.783328	2531.586803
927.087438	2532.214427
927.391509	2530.818027
927.695541	2533.351207
927.999533	2530.276103
928.303486	2531.695188
928.607400	2531.680064
928.911275	2532.171577
929.215110	2531.072605
929.518906	2529.751823
929.822663	2531.377595
930.126381	2531.422966
930.430060	2530.644107
930.733699	2529.973634
931.037299	2531.337266
931.340861	2532.658048
931.644383	2533.172246
931.947866	2530.245856
932.251309	2530.255938
932.554714	2530.414735
932.858080	2529.832482
933.161407	2531.410363
933.464694	2531.186031
933.767943	2533.313398
934.071153	2531.075126
934.374323	2529.237625
934.677455	2532.234591
934.980548	2530.180321
935.283602	2531.750641
935.586617	2528.773839
935.889593	2531.881711
936.192530	2529.537574
936.495428	2532.446320
936.798287	2530.616381
937.101108	2531.460774
937.403890	2530.238294
937.706632	2536.169212
938.009336	2533.187369
938.312002	2533.772143
938.614628	2532.773995
938.917216	2535.440765
939.219765	2533.951104
939.522275	2531.203675
939.824747	2534.399767
940.127179	2531.082688
940.429573	2528.872142
940.731929	2528.967924
941.034246	2525.534898
941.336524	2531.934643
941.638763	2534.165353
941.940964	2533.711649
942.243126	2533.419262
942.545250	2532.027904
942.847335	2530.674354
943.149381	2533.091588
943.451389	2532.181659
943.753359	2531.226361
944.055290	2532.428676
944.357182	2533.691485
944.659036	2534.382123
944.960851	2533.467153
945.262628	2534.437576
945.564367	2532.000178
945.866067	2529.628315
946.167729	2531.811134
946.469352	2529.456916
946.770937	2533.320960
947.072484	2529.673685
947.373992	2531.942204
947.675462	2530.565969
947.976893	2531.957328
948.278286	2533.366330
948.579641	2530.049251
948.880958	2530.228212
949.182236	2531.077647
949.483476	2532.461443
949.784678	2531.067564
950.085841	2530.243336
950.386967	2533.126876
950.688054	2532.501773
950.989103	2532.577390
951.290114	2530.457585
951.591087	2529.645959
951.892021	2530.502955
952.192917	2531.387678
952.493776	2530.757533
952.794596	2530.785260
953.095378	2533.943542
953.396122	2530.767616
953.696828	2531.314581
953.997496	2530.079498
954.298126	2531.806093
954.598718	2533.003367
954.899272	2528.821730
955.199788	2531.932122
955.500266	2529.968593
955.800706	2527.266534
956.101108	2525.580268
956.401472	2527.248890
956.701798	2528.746113
957.002087	2526.999353
957.302337	2526.769981
957.602550	2528.133613
957.902724	2528.771319
958.202861	2527.808458
958.502960	2529.406504
958.803022	2528.010104
959.103045	2529.996319
959.403031	2527.316946
959.702979	2527.432892
960.002889	2529.227543
960.302762	2528.541946
960.602596	2530.127389
960.902393	2526.112110
961.202153	2526.979188
961.501875	2529.043541
961.801559	2529.766947
962.101205	2526.157480
962.400814	2529.300640
962.700385	2530.513037
962.999918	2527.858870
963.299414	2528.015146
963.598873	2526.467511
963.898293	2528.057995
964.197677	2528.373067
964.497022	2528.902389
964.796331	2525.330731
965.095601	2527.435413
965.394835	2525.522295
965.694030	2527.241328
965.993189	2528.892306
966.292309	2526.679240
966.591393	2529.154446
966.890439	2527.584127
967.189447	2528.927594
967.488419	2528.839374
967.787353	2527.538757
968.086249	2529.444313
968.385108	2532.373223
968.683930	2527.584127
968.982714	2528.965403
969.281462	2526.192768
969.580172	2529.461957
969.878844	2523.440298
970.177480	2526.280989
970.476078	2526.311236
970.774639	2529.257790
971.073162	2527.805938
971.371649	2525.078673
971.670098	2523.243693
971.968510	2525.388704
972.266885	2524.020031
972.565223	2525.638242
972.863524	2530.807945
973.161788	2528.075639
973.460014	2525.711338
973.758204	2527.800897
974.056356	2527.294261
974.354471	2526.525485
974.652550	2527.198479
974.950591	2527.866432
975.248595	2528.511699
975.546563	2529.585465
975.844493	2526.243180
976.142386	2528.428520
976.440243	2525.970958
976.738062	2529.401463
977.035845	2527.327028
977.333590	2528.713345
977.631299	2526.059178
977.928971	2526.608664
978.226606	2527.569003
978.524204	2528.912471
978.821765	2524.897192
979.119290	2526.938859
979.416777	2525.078673
979.714228	2532.365661
980.011642	2526.407017
980.309020	2528.252080
980.606360	2525.819723
980.903664	2526.941380
981.200931	2527.279137
981.498162	2526.926256
981.795356	2525.703777
982.092513	2525.912984
982.389633	2527.236287
982.686717	2530.197965
982.983764	2531.117976
983.280775	2530.939015
983.577749	2526.795186
983.874686	2529.393901
984.171587	2528.476411
984.468451	2529.769467
984.765279	2528.284847
985.062070	2527.876514
985.358824	2528.105886
985.655543	2525.350896
985.952224	2526.265865
986.248869	2526.795186
986.545478	2521.133971
986.842050	2526.205371
987.138586	2523.856194
987.435086	2527.090094
987.731549	2522.835360
988.027975	2526.124713
988.324366	2525.902902
988.620719	2527.483304
988.917037	2528.483973
989.213318	2529.567821
989.509563	2528.105886
989.805772	2525.413910
990.101944	2527.498427
990.398080	2526.737213
990.694180	2526.628828
990.990244	2527.669827
991.286271	2526.142357
991.582262	2526.928777
991.878217	2523.868797
992.174136	2527.054806
992.470019	2525.111441
992.765865	2528.173942
993.061676	2527.747964
993.357450	2525.008097
993.653188	2526.011287
993.948890	2524.355268
994.244556	2527.894158
994.540186	2527.790814
994.835780	2528.156298
995.131337	2526.555732
995.426859	2526.354085
995.722345	2527.049765
996.017795	2525.474404
996.313208	2527.261493
996.608586	2527.934487
996.903928	2525.423992
997.199234	2527.629497
997.494504	2527.513551
997.789738	2527.750485
998.084936	2529.416586
998.380099	2526.737213
998.675225	2525.975999
998.970316	2525.524816
999.265371	2525.734023
999.560390	2525.267717
999.855373	2528.473891
1000.150320	2525.340813
1000.445232	2528.133613
1000.740108	2525.524816
1001.034948	2526.359127
1001.329752	2524.337624
1001.624521	2526.341482
1001.919254	2519.845956
1002.213951	2524.783766
1002.508613	2523.100021
1002.803239	2523.969620
1003.097829	2519.747653
1003.392384	2527.760567
1003.686903	2526.480114
1003.981386	2528.781401
1004.275834	2522.258148
1004.570246	2526.785104
1004.864623	2524.912315
1005.158964	2526.228057
1005.453270	2525.199661
1005.747540	2525.340813
1006.041775	2526.074301
1006.335974	2524.750998
1006.630138	2525.809641
1006.924266	2525.605474
1007.218359	2526.112110
1007.512416	2522.941224
1007.806438	2524.443488
1008.100425	2525.960875
1008.394376	2527.246370
1008.688292	2525.252593
1008.982172	2526.449867
1009.276017	2524.655217
1009.569827	2525.885258
1009.863602	2526.396935
1010.157341	2526.414579
1010.451045	2526.253262
1010.744714	2525.434075
1011.038347	2525.928108
1011.331945	2524.894671
1011.625508	2525.555063
1011.919036	2526.331400
1012.212528	2526.091945
1012.505986	2526.013808
1012.799408	2524.156142
1013.092795	2524.786287
1013.386147	2526.333921
1013.679464	2523.213447
1013.972745	2525.275278
1014.265992	2527.783252
1014.559204	2527.327028
1014.852380	2525.728982
1015.145521	2526.669158
1015.438628	2527.700073
1015.731699	2527.216123
1016.024736	2525.832326
1016.317737	2526.875845
1016.610703	2526.530526
1016.903635	2522.008611
1017.196531	2520.955010
1017.489393	2524.476256
1017.782219	2524.168745
1018.075011	2522.916018
1018.367768	2526.948942
1018.660490	2524.158663
1018.953177	2524.158663
1019.245829	2524.158663
