Dividing Wavelength (nm)	Counts (n)	Blue Motor Position (mm): 0.000000	Red Motor Position (mm): 37.600000	
326.493990	2126.643518
326.888308	2126.643518
327.282561	2126.643518
327.676750	2095.461460
328.070874	2093.404670
328.464933	2096.383992
328.858929	2103.197111
329.252859	2113.344954
329.646726	2124.327107
330.040528	2139.800929
330.434265	2153.434730
330.827938	2171.910558
331.221547	2189.799093
331.615091	2209.794830
332.008571	2227.103631
332.401986	2248.745305
332.795338	2271.049890
333.188625	2284.630758
333.581847	2306.597586
333.975006	2324.176090
334.368100	2342.273832
334.761129	2360.560618
335.154095	2377.357742
335.546996	2397.572769
335.939833	2415.413413
336.332606	2430.650300
336.725315	2444.417691
337.117960	2451.661829
337.510540	2458.663992
337.903056	2476.116467
338.295508	2481.941520
338.687896	2490.884527
339.080220	2498.277379
339.472480	2504.485560
339.864676	2507.948833
340.256807	2511.326406
340.648875	2514.202384
341.040879	2517.426202
341.432818	2519.553569
341.824694	2523.190761
342.216506	2520.687828
342.608253	2522.656399
342.999937	2521.597757
343.391557	2523.447860
343.783113	2520.493744
344.174605	2518.381501
344.566033	2518.419309
344.957397	2516.445698
345.348697	2514.646006
345.739934	2513.274812
346.131106	2512.611900
346.522215	2509.597290
346.913260	2508.964625
347.304241	2505.763493
347.695159	2502.832062
348.086012	2503.250477
348.476802	2500.094715
348.867528	2500.127483
349.258191	2498.695795
349.648789	2498.869715
350.039324	2493.999960
350.429796	2499.842657
350.820203	2494.816627
351.210548	2495.116576
351.600828	2491.434013
351.991045	2489.914105
352.381198	2491.544918
352.771288	2490.471152
353.161314	2491.471821
353.551276	2491.928046
353.941175	2489.483086
354.331010	2490.942500
354.720782	2487.610297
355.110490	2490.266986
355.500135	2488.464773
355.889717	2491.174393
356.279235	2491.227325
356.668689	2491.481904
357.058080	2494.118427
357.447408	2489.530977
357.836672	2490.902171
358.225873	2492.719507
358.615010	2489.485607
359.004084	2492.969044
359.393095	2493.929384
359.782043	2494.950217
360.170927	2494.448623
360.559748	2496.810403
360.948505	2497.768222
361.337199	2494.665392
361.725830	2495.955928
362.114398	2498.597492
362.502903	2500.140085
362.891344	2501.904489
363.279722	2501.135713
363.668037	2502.209479
364.056289	2499.658655
364.444478	2502.423728
364.832603	2502.779129
365.220665	2501.695281
365.608665	2506.804491
365.996601	2502.481701
366.384474	2506.411281
366.772284	2506.907834
367.160031	2508.846158
367.547715	2511.971673
367.935336	2511.517970
368.322893	2518.449556
368.710388	2519.298991
369.097820	2528.589837
369.485189	2527.463139
369.872495	2540.318082
370.259738	2544.136756
370.646918	2550.130687
371.034035	2554.266954
371.421090	2564.127451
371.808081	2574.897876
372.195010	2587.601584
372.581875	2597.532657
372.968678	2614.773403
373.355418	2625.866462
373.742096	2642.124183
374.128710	2656.032727
374.515262	2670.470592
374.901751	2687.174455
375.288177	2700.049562
375.674540	2721.101420
376.060841	2738.889132
376.447079	2761.339910
376.833254	2783.946965
377.219367	2790.250927
377.605417	2830.232319
377.991404	2839.601303
378.377329	2859.728110
378.763191	2877.152858
379.148991	2914.752304
379.534727	2941.941767
379.920402	2971.344297
380.306013	2982.432315
380.691563	3029.746064
381.077049	3052.123746
381.462474	3067.905078
381.847835	3106.215327
382.233134	3129.621404
382.618371	3130.564100
383.003545	3198.365099
383.388657	3208.102087
383.773706	3238.807756
384.158693	3258.513626
384.543618	3284.425157
384.928480	3319.342709
385.313280	3362.658823
385.698017	3359.387114
386.082692	3412.528438
386.467305	3419.137390
386.851856	3453.200467
387.236344	3475.358859
387.620770	3503.443127
388.005133	3533.432951
388.389435	3558.336251
388.773674	3572.728745
389.157851	3615.145014
389.541965	3631.223774
389.926018	3594.216663
390.310008	3664.530677
390.693936	3680.632123
391.077802	3725.793299
391.461606	3712.156978
391.845348	3776.640898
392.229027	3777.699540
392.612645	3788.107002
392.996200	3865.929815
393.379694	3906.473294
393.763125	3973.911330
394.146494	3938.880352
394.529801	4001.723376
394.913047	4052.268505
395.296230	4016.602341
395.679351	4069.635280
396.062410	4094.402469
396.445408	4073.617791
396.828343	4107.602730
397.211217	4132.344713
397.594028	4050.592321
397.976778	4119.174699
398.359466	4146.759893
398.742092	4172.767205
399.124656	4097.918673
399.507158	4178.478833
399.889598	4201.189231
400.271977	4264.332203
400.654294	4231.894899
401.036549	4243.073657
401.418742	4210.054100
401.800874	4315.179801
402.182944	4337.068491
402.564952	4401.885127
402.946898	4387.580853
403.328783	4380.543402
403.710606	4295.998211
404.092367	4488.650946
404.474067	4453.456131
404.855705	4460.806133
405.237282	4387.762334
405.618797	4499.504551
406.000250	4533.285322
406.381642	4617.593579
406.762972	4578.953135
407.144240	4583.742231
407.525447	4585.773816
407.906593	4646.280265
408.287677	4686.604455
408.668700	4617.258343
409.049661	4669.141898
409.430560	4712.135379
409.811399	4635.714007
410.192176	4799.828770
410.572891	4737.235284
410.953545	4836.805634
411.334138	4716.649732
411.714669	4788.047594
412.095139	4683.012633
412.475547	4826.990507
412.855894	4807.579544
413.236180	4816.552798
413.616405	4766.436167
413.996568	4852.808777
414.376670	4794.326351
414.756711	4750.269187
415.136691	4784.765803
415.516609	4862.671794
415.896466	4901.024893
416.276262	4934.581333
416.655997	4915.455196
417.035670	5100.652064
417.415283	5187.624571
417.794834	5133.631293
418.174324	5083.222275
418.553753	4992.829345
418.933121	5177.900185
419.312428	5242.220267
419.691674	5181.791956
420.070859	5308.892048
420.449983	5219.512390
420.829045	5335.884906
421.208047	5243.709928
421.586988	5314.601154
421.965867	5327.234286
422.344686	5462.070028
422.723444	5313.144261
423.102141	5134.334534
423.480777	5431.281181
423.859352	5201.601170
424.237866	5459.020130
424.616319	5446.223161
424.994712	5560.264143
425.373044	5439.634372
425.751314	5581.361372
426.129524	5383.377616
426.507673	5578.215692
426.885762	5655.141179
427.263789	5586.311785
427.641756	5472.636286
428.019662	5591.078196
428.397508	5600.144711
428.775292	5555.328853
429.153016	5649.479963
429.530679	5574.291153
429.908282	5656.605634
430.285824	5528.819946
430.663305	5807.250434
431.040726	5538.514085
431.418086	5542.153798
431.795385	5644.063243
432.172624	5657.936499
432.549802	5650.064737
432.926920	5663.575029
433.303977	5671.172048
433.680974	5714.503286
434.057910	5726.337395
434.434786	5735.373663
434.811601	5705.270413
435.188355	5936.757677
435.565050	5815.512886
435.941683	5794.854237
436.318257	6011.923801
436.694770	5989.510831
437.071222	6024.912334
437.447614	5959.163085
437.823946	5873.667636
438.200218	6022.923599
438.576429	5892.342591
438.952580	5985.959338
439.328670	6032.806781
439.704700	5938.207008
440.080670	5927.988590
440.456580	6198.630496
440.832429	6080.856539
441.208218	5927.350884
441.583947	6080.753195
441.959616	6080.097845
442.335224	6014.625860
442.710773	6151.979658
443.086261	6175.547052
443.461689	5970.477955
443.837057	6124.074351
444.212365	6281.270131
444.587612	6167.647564
444.962800	6321.811090
445.337927	6305.379449
445.712995	5912.250107
446.088002	6491.224106
446.462949	6320.762530
446.837837	6252.890955
447.212664	6425.283293
447.587431	6566.483492
447.962139	7110.219825
448.336786	8039.473357
448.711374	7771.926720
449.085901	6849.451019
449.460369	6767.015551
449.834776	6706.357867
450.209124	7096.076868
450.583412	7246.328458
450.957640	7395.826396
451.331808	7159.078688
451.705917	6714.446398
452.079965	6628.882894
452.453954	6847.096800
452.827883	6721.793880
453.201752	6815.057747
453.575562	6616.169104
453.949311	6817.911040
454.323001	6707.260233
454.696632	6779.285719
455.070202	6919.512975
455.443713	7075.599701
455.817164	7178.109044
456.190556	7257.940756
456.563888	7334.009247
456.937160	7376.531380
457.310373	7033.150665
457.683526	7055.069602
458.056619	6941.845287
458.429653	6932.768689
458.802628	6867.705037
459.175542	6982.492110
459.548398	7335.143507
459.921194	7494.063361
460.293930	7497.277097
460.666607	8026.136985
461.039224	8336.049479
461.411782	8466.890107
461.784280	8477.211869
462.156719	8378.092703
462.529099	8250.435564
462.901419	7838.585897
463.273680	7732.532623
463.645882	7749.002073
464.018024	7613.853779
464.390106	7777.794623
464.762130	8168.196700
465.134094	8632.413873
465.505999	9656.652826
465.877845	10878.893179
466.249631	11532.927438
466.621358	11139.772891
466.993026	10513.487663
467.364634	10260.673798
467.736184	9899.873376
468.107674	9570.186955
468.479105	9595.072611
468.850477	9359.171817
469.221790	9131.362075
469.593043	8800.848905
469.964238	8663.255652
470.335373	8677.524638
470.706449	8729.289726
471.077467	8716.878406
471.448425	10029.657882
471.819324	11101.886099
472.190164	11124.649429
472.560945	9874.423111
472.931667	9087.075538
473.302330	8948.945402
473.672934	8596.321732
474.043479	8955.703069
474.413965	8892.373574
474.784393	8777.689844
475.154761	8934.353782
475.525070	9017.290846
475.895321	8846.592335
476.265513	9025.661682
476.635645	9194.890696
477.005719	9191.366929
477.375734	9309.682810
477.745691	9544.209890
478.115588	9670.410135
478.485427	9921.250389
478.855207	10455.837028
479.224928	11272.851790
479.594591	11902.491906
479.964194	11713.481404
480.333739	11660.597180
480.703226	11569.117881
481.072653	11655.200624
481.442022	11899.283211
481.811333	12084.127199
482.180584	11893.241388
482.549777	11603.102820
482.918912	11430.143352
483.287988	11442.274889
483.657005	11462.492436
484.025964	11139.815740
484.394864	11273.252562
484.763706	11242.887172
485.132489	10994.509522
485.501213	10968.716458
485.869879	11039.655575
486.238487	10883.687316
486.607036	10992.170427
486.975527	10770.677250
487.343959	10956.534510
487.712333	11007.004022
488.080648	10933.070459
488.448905	10983.182049
488.817104	10918.315002
489.185244	11180.785198
489.553326	11339.074908
489.921350	11876.610622
490.289315	12939.636213
490.657222	13283.634469
491.025070	13196.939226
491.392861	13074.817274
491.760593	12685.506606
492.128267	12335.131291
492.495883	12008.691373
492.863440	11671.105465
493.230939	11339.793272
493.598380	11270.099320
493.965763	11137.206943
494.333088	11039.872345
494.700354	10957.877977
495.067563	11018.447441
495.434713	10850.687923
495.801805	10982.539302
496.168839	10902.435368
496.535815	10834.659575
496.902733	10839.730975
497.269593	10764.670715
497.636395	10865.413134
498.003139	10857.548934
498.369825	10722.642616
498.736453	10880.881914
499.103023	10803.711931
499.469535	10831.566827
499.835989	10829.023565
500.202385	10788.938830
500.568723	10636.413679
500.935003	10860.112360
501.301226	10660.439818
501.667390	10918.425908
502.033497	11021.731753
502.399546	10878.933508
502.765537	10784.356421
503.131470	10860.954233
503.497345	11039.547190
503.863163	10648.323405
504.228923	10957.376383
504.594625	11018.518017
504.960269	10770.165573
505.325856	10989.009623
505.691385	10784.452203
506.056856	10937.345358
506.422270	10963.919800
506.787625	10846.176091
507.152924	10971.776439
507.518164	10950.414549
507.883347	10875.694567
508.248472	10791.172061
508.613540	11023.874243
508.978550	10901.701880
509.343503	10878.724300
509.708398	10997.796354
510.073236	11102.768301
510.438016	11113.203489
510.802738	11065.231869
511.167403	11114.544436
511.532010	11007.195586
511.896561	11241.508416
512.261053	11312.974334
512.625488	11178.287306
512.989866	11161.470017
513.354186	11156.552371
513.718449	11054.499253
514.082655	11250.574932
514.446803	11140.829012
514.810894	11265.264854
515.174927	11128.619338
515.538904	11160.812146
515.902822	11313.218830
516.266684	11190.312978
516.630488	11139.311625
516.994235	11197.572240
517.357925	11251.555436
517.721558	11344.466422
518.085133	11353.459840
518.448651	11366.486182
518.812112	11248.311453
519.175516	11256.165571
519.538863	11381.864222
519.902152	11305.364712
520.265385	11458.109153
520.628560	11374.042872
520.991678	11341.083808
521.354739	11406.064281
521.717743	11337.688591
522.080690	11318.567494
522.443580	11452.508431
522.806413	11409.094014
523.169189	11438.710793
523.531908	11493.840852
523.894569	11312.623974
524.257174	11318.983389
524.619722	11433.664598
524.982213	11377.997657
525.344647	11435.295411
525.707025	11383.222813
526.069345	11475.995167
526.431608	11392.324616
526.793815	11496.694145
527.155964	11282.424942
527.518057	11344.841988
527.880093	11287.216558
528.242072	11355.163750
528.603995	11256.561302
528.965860	11179.981134
529.327669	11233.470297
529.689421	11177.379898
530.051117	11145.338324
530.412755	11253.786147
530.774337	11137.489248
531.135862	11122.189346
531.497331	11141.181893
531.858743	10987.898049
532.220098	11155.710498
532.581396	11018.717143
532.942638	11004.188537
533.303824	10965.474996
533.664953	10979.612912
534.026025	10890.845755
534.387040	10985.410239
534.747999	10981.538633
535.108902	11032.010665
535.469748	10793.881681
535.830537	10892.963039
536.191270	10875.069464
536.551947	10889.850127
536.912567	10878.774712
537.273131	10803.590943
537.633638	10779.297623
537.994089	10764.920252
538.354483	10713.122397
538.714821	10851.683551
539.075103	10849.525937
539.435328	10810.577983
539.795497	10635.050047
540.155609	10783.711153
540.515665	10863.298370
540.875665	10605.324883
541.235609	10666.746302
541.595496	10654.957563
541.955328	10802.267641
542.315102	10684.723056
542.674821	10627.901691
543.034483	10614.882911
543.394090	10615.021543
543.753640	10534.809223
544.113134	10746.399053
544.472571	10597.437998
544.831953	10726.312576
545.191278	10536.939111
545.550548	10553.705988
545.909761	10676.669813
546.268918	10643.226798
546.628019	10712.194824
546.987064	10575.357744
547.346053	10487.651750
547.704986	10574.213402
548.063863	10546.524865
548.422684	10525.783037
548.781449	10438.724831
549.140158	10526.514005
549.498811	10399.512216
549.857408	10247.183670
550.215949	10443.919740
550.574434	10299.853645
550.932864	10377.850378
551.291237	10415.540564
551.649555	10362.190033
552.007817	10357.491678
552.366022	10310.833278
552.724173	10285.763620
553.082267	10265.362071
553.440305	10363.825888
553.798288	10164.677626
554.156215	10292.428026
554.514086	10252.492005
554.871902	10099.603891
555.229661	10115.720460
555.587365	10078.864584
555.945014	9967.412234
556.302606	10059.400689
556.660143	9945.548750
557.017625	10058.153004
557.375050	9951.061252
557.732421	10052.673269
558.089735	9955.048805
558.446994	9939.053223
558.804197	9942.642525
559.161345	9923.019834
559.518437	9779.145303
559.875474	9823.996449
560.232455	9834.829888
560.589381	9771.578531
560.946251	9729.016069
561.303065	9814.002361
561.659825	9723.506088
562.016528	9636.765474
562.373177	9511.502883
562.729770	9581.461496
563.086307	9484.270570
563.442789	9547.174088
563.799216	9401.653621
564.155587	9427.038351
564.511904	9358.360191
564.868164	9324.481117
565.224370	9316.253954
565.580520	9208.151451
565.936615	9197.093680
566.292654	9049.279487
566.648638	9138.036563
567.004567	9069.194566
567.360441	9031.290130
567.716260	8916.583715
568.072023	8975.476995
568.427732	8894.818533
568.783385	8802.323443
569.138982	8822.016710
569.494525	8808.972725
569.850013	8684.221811
570.205445	8709.848517
570.560823	8603.460006
570.916145	8504.739090
571.271412	8524.389508
571.626625	8450.813867
571.981782	8400.588852
572.336884	8345.990635
572.691931	8326.456164
573.046923	8241.243020
573.401860	8176.698606
573.756743	8093.348169
574.111570	8096.007377
574.466342	8057.934063
574.821059	8037.474540
575.175722	7927.136285
575.530330	7895.994557
575.884882	7864.615895
576.239380	7767.608972
576.593823	7724.744041
576.948211	7700.057510
577.302544	7594.543640
577.656823	7558.753968
578.011047	7530.276490
578.365216	7475.557285
578.719330	7393.207517
579.073389	7356.812907
579.427394	7304.435318
579.781344	7254.124603
580.135239	7180.097779
580.489080	7158.501476
580.842866	7052.639766
581.196597	7024.595827
581.550273	7016.146853
581.903895	6954.478418
582.257463	6971.643547
582.610975	6849.922367
582.964434	6845.123188
583.317837	6756.071206
583.671186	6722.890331
584.024481	6681.792324
584.377721	6598.625889
584.730906	6550.888682
585.084037	6533.292535
585.437113	6474.646272
585.790135	6442.236693
586.143103	6355.296954
586.496016	6312.643752
586.848874	6309.692156
587.201679	6277.380880
587.554428	6169.437174
587.907124	6168.983470
588.259765	6119.963290
588.612352	6085.771664
588.964884	6001.324775
589.317362	5973.588347
589.669786	5936.588798
590.022155	5944.604233
590.374470	5911.088121
590.726731	5860.656418
591.078937	5744.059571
591.431090	5764.191419
591.783188	5679.300909
592.135232	5635.440350
592.487222	5617.637515
592.839157	5606.063026
593.191038	5544.535743
593.542866	5491.772506
593.894639	5410.612450
594.246358	5408.790073
594.598022	5385.094129
594.949633	5307.699815
595.301190	5265.402013
595.652692	5251.465743
596.004141	5265.185244
596.355535	5146.471112
596.706876	5104.783290
597.058162	5046.754568
597.409395	5054.704468
597.760573	5055.407709
598.111698	4995.652392
598.462768	4954.045228
598.813785	4919.130197
599.164748	4873.699318
599.515657	4850.804918
599.866511	4781.516779
600.217312	4816.124300
600.568060	4734.318976
600.918753	4746.455554
601.269392	4708.233526
601.619978	4646.497035
601.970510	4648.359741
602.320988	4628.507677
602.671412	4616.504690
603.021783	4573.226384
603.372100	4536.491496
603.722363	4503.839943
604.072572	4485.573322
604.422728	4456.879074
604.772830	4410.785284
605.122878	4391.754928
605.472872	4363.816854
605.822813	4347.254143
606.172701	4311.625788
606.522534	4308.467505
606.872314	4293.875885
607.222041	4250.950460
607.571714	4246.985593
607.921333	4216.370665
608.270899	4193.453580
608.620411	4197.073128
608.969870	4149.091426
609.319276	4128.447901
609.668627	4108.994088
610.017926	4101.608798
610.367171	4095.440946
610.716362	4072.536464
611.065500	4048.243143
611.414585	4027.397972
611.763616	4011.510776
612.112594	3981.026919
612.461518	3966.218529
612.810389	3964.043271
613.159207	3927.489865
613.507971	3900.691091
613.856682	3903.667892
614.205340	3878.958677
614.553945	3881.786764
614.902496	3836.066019
615.250994	3832.885051
615.599439	3811.230775
615.947830	3793.818629
616.296169	3776.061165
616.644454	3753.270108
616.992686	3739.981627
617.340864	3732.006522
617.688990	3694.349102
618.037063	3704.474260
618.385082	3675.545598
618.733048	3677.476360
619.080961	3651.461486
619.428821	3639.292141
619.776628	3621.149028
620.124382	3601.828806
620.472083	3577.021288
620.819731	3566.187848
621.167326	3528.290974
621.514868	3517.719674
621.862357	3476.914055
622.209793	3463.812096
622.557176	3438.666820
622.904506	3415.273346
623.251783	3388.855179
623.599007	3362.719317
623.946179	3352.367308
624.293297	3331.328052
624.640363	3309.267963
624.987376	3288.047226
625.334336	3271.950822
625.681243	3249.343767
626.028097	3240.317581
626.374899	3225.955334
626.721647	3209.586707
627.068343	3193.936445
627.414987	3177.411543
627.761577	3160.906805
628.108115	3158.451763
628.454600	3136.361427
628.801032	3127.352885
629.147412	3116.196812
629.493739	3108.138527
629.840014	3093.148656
630.186236	3090.844849
630.532405	3066.974986
630.878521	3065.142526
631.224585	3051.700289
631.570597	3040.156047
631.916556	3033.123638
632.262462	3028.120292
632.608316	3013.863909
632.954117	3004.041221
633.299866	2996.406393
633.645562	2987.115547
633.991206	2970.630974
634.336797	2956.266206
634.682336	2944.288424
635.027823	2934.170829
635.373257	2924.910229
635.718639	2909.522107
636.063968	2904.813669
636.409245	2886.695762
636.754470	2876.658825
637.099642	2871.731097
637.444762	2859.231556
637.789829	2850.802747
638.134845	2844.922241
638.479808	2838.867815
638.824719	2829.806341
639.169577	2820.762511
639.514383	2818.471307
639.859137	2805.576035
640.203839	2804.043524
640.548489	2799.811476
640.893086	2790.969292
641.237632	2782.525359
641.582125	2780.037550
641.926566	2773.791560
642.270955	2779.286418
642.615292	2769.042793
642.959576	2767.482556
643.303809	2765.907196
643.647990	2761.329828
643.992118	2756.646596
644.336195	2749.616707
644.680219	2747.159144
645.024192	2745.150245
645.368112	2745.024216
645.711981	2743.002713
646.055797	2745.989597
646.399562	2741.056828
646.743274	2747.033116
647.086935	2748.109402
647.430544	2743.494226
647.774101	2740.333422
648.117606	2739.330232
648.461059	2735.816548
648.804460	2731.854201
649.147810	2722.795248
649.491108	2717.018086
649.834354	2711.447611
650.177548	2702.381095
650.520690	2696.611495
650.863781	2696.150229
651.206820	2693.327183
651.549807	2689.689991
651.892742	2683.025585
652.235626	2682.579443
652.578458	2677.959226
652.921238	2674.513597
653.263967	2675.352949
653.606644	2669.827844
653.949269	2671.009995
654.291843	2663.647390
654.634365	2662.785352
654.976836	2661.051196
655.319255	2660.368119
655.661622	2658.404590
656.003938	2652.811430
656.346203	2653.774290
656.688416	2647.750111
657.030577	2646.026037
657.372687	2644.463279
657.714746	2642.903042
658.056753	2639.845582
658.398708	2635.663945
658.740612	2634.280148
659.082465	2633.060189
659.424266	2634.766619
659.766016	2631.794859
660.107715	2635.192597
660.449362	2632.679582
660.790958	2632.049437
661.132503	2629.838892
661.473996	2631.215127
661.815438	2627.908130
662.156829	2629.354941
662.498168	2627.305712
662.839456	2623.812192
663.180693	2623.769342
663.521879	2624.452419
663.863013	2622.463683
664.204097	2619.945627
664.545129	2620.633745
664.886110	2619.474279
665.227040	2621.135339
665.567918	2621.354630
665.908746	2617.989659
666.249522	2619.421347
666.590248	2614.786006
666.930922	2614.428084
667.271545	2615.184257
667.612118	2615.527056
667.952639	2615.643002
668.293109	2614.581839
668.633528	2614.917076
668.973896	2612.751901
669.314213	2611.113526
669.654480	2610.944647
669.994695	2609.202928
670.334859	2608.648401
670.674973	2604.290324
671.015035	2607.884667
671.355047	2607.504059
671.695008	2605.386775
672.034918	2604.454161
672.374777	2605.217896
672.714585	2605.343925
673.054342	2604.497011
673.394049	2605.084306
673.733705	2605.233020
674.073310	2601.608430
674.412864	2603.723194
674.752368	2599.070209
675.091820	2600.489294
675.431223	2601.648759
675.770574	2599.171032
676.109875	2595.029724
676.449125	2593.010742
676.788324	2593.930753
677.127473	2593.905547
677.466571	2592.030238
677.805619	2594.329004
678.144616	2591.697522
678.483562	2593.882862
678.822458	2591.238777
679.161303	2591.750454
679.500098	2591.639548
679.838842	2591.332038
680.177535	2591.684919
680.516179	2591.085021
680.854771	2591.074939
681.193314	2590.301122
681.531805	2592.680547
681.870247	2595.896803
682.208638	2594.734817
682.546978	2596.279930
682.885268	2598.288830
683.223508	2596.476535
683.561697	2594.555856
683.899836	2595.370002
684.237925	2591.417738
684.575963	2593.381267
684.913951	2590.933787
685.251889	2591.914291
685.589776	2590.890937
685.927614	2592.471339
686.265401	2591.546287
686.603137	2594.855804
686.940824	2591.652151
687.278460	2592.491503
687.616046	2592.630135
687.953582	2591.969744
688.291068	2592.741040
688.628504	2596.015270
688.965889	2593.706421
689.303224	2593.852615
689.640510	2591.130392
689.977745	2591.294229
690.314930	2590.343972
690.652065	2586.391707
690.989150	2586.202664
691.326185	2585.673343
691.663170	2583.114957
692.000105	2581.776531
692.336990	2579.825604
692.673825	2581.244689
693.010610	2579.613876
693.347345	2575.056673
693.684030	2569.692885
694.020665	2573.768658
694.357251	2571.631209
694.693786	2576.027095
695.030272	2575.623802
695.366707	2575.475088
695.703093	2576.102712
696.039429	2574.580284
696.375716	2576.596745
696.711952	2575.729667
697.048139	2573.483833
697.384276	2575.346539
697.720363	2574.865109
698.056400	2574.043401
698.392388	2573.483833
698.728326	2572.014336
699.064214	2568.977041
699.400053	2573.559450
699.735842	2570.328070
700.071581	2572.531055
700.407270	2568.770354
700.742910	2571.482495
701.078501	2569.987792
701.414042	2570.517114
701.749533	2567.023594
702.084974	2570.895200
702.420366	2569.924778
702.755709	2566.857236
703.091002	2567.338666
703.426246	2567.721794
703.761440	2567.326063
704.096584	2567.696588
704.431679	2565.884293
704.766725	2566.375806
705.101721	2564.871021
705.436668	2563.910682
705.771565	2565.309602
706.106413	2570.018039
706.441212	2562.645352
706.775961	2565.357493
707.110661	2567.315981
707.445311	2566.159036
707.779913	2567.192473
708.114465	2567.908317
708.448967	2571.122052
708.783421	2565.919581
709.117825	2566.998388
709.452180	2569.103070
709.786485	2569.478636
710.120742	2571.553071
710.454949	2572.064748
710.789107	2569.229099
711.123216	2569.702967
711.457275	2575.752352
711.791286	2571.520303
712.125247	2571.142217
712.459159	2575.094481
712.793023	2576.289235
713.126837	2572.352094
713.460602	2575.046590
713.794318	2574.381158
714.127985	2572.523493
714.461602	2569.889490
714.795171	2570.438976
715.128691	2571.472412
715.462162	2570.411249
715.795584	2566.826989
716.128957	2565.450754
716.462281	2565.849005
716.795556	2567.200034
717.128782	2567.646177
717.461960	2567.068964
717.795088	2564.256001
718.128167	2565.672565
718.461198	2563.663665
718.794180	2564.679457
719.127113	2564.220712
719.459997	2564.805486
719.792833	2561.528736
720.125619	2560.845660
720.458357	2562.766340
720.791046	2564.664334
721.123686	2561.579148
721.456278	2562.781463
721.788821	2560.729713
722.121315	2560.835578
722.453761	2560.560835
722.786158	2559.144271
723.118506	2559.300546
723.450805	2561.669889
723.783056	2560.044117
724.115259	2561.430434
724.447412	2560.006308
724.779518	2563.154508
725.111574	2562.660475
725.443582	2561.543860
725.775542	2563.046124
726.107453	2562.645352
726.439315	2562.423541
726.771129	2565.939746
727.102895	2564.102245
727.434612	2564.261042
727.766281	2564.497976
728.097901	2561.042265
728.429473	2558.156204
728.760996	2561.284240
729.092471	2560.994374
729.423897	2566.035528
729.755276	2563.262893
730.086606	2563.731721
730.417887	2564.019066
730.749120	2564.974365
731.080305	2565.410425
731.411442	2567.038718
731.742530	2567.237843
732.073570	2567.293296
732.404562	2568.714901
732.735506	2567.973852
733.066401	2565.047462
733.397249	2562.952862
733.728048	2564.417317
734.058798	2564.465208
734.389501	2558.930022
734.720156	2561.422872
735.050762	2561.112841
735.381320	2560.583520
735.711831	2559.338355
736.042293	2557.954558
736.372707	2559.482028
736.703073	2559.056050
737.033391	2559.270299
737.363661	2559.071174
737.693883	2558.123437
738.024056	2563.066288
738.354182	2560.623849
738.684260	2561.944632
739.014290	2560.901113
739.344272	2560.379353
739.674207	2562.990671
740.004093	2561.621998
740.333931	2562.405897
740.663722	2562.499158
740.993464	2561.286761
741.323159	2561.760629
741.652806	2561.813562
741.982405	2561.072512
742.311956	2562.695763
742.641460	2563.330949
742.970915	2560.066802
743.300323	2559.633263
743.629683	2557.510937
743.958996	2558.874569
744.288260	2557.498334
744.617477	2559.184600
744.946647	2552.951213
745.275768	2551.892571
745.604842	2553.888868
745.933869	2553.742674
746.262847	2551.890050
746.591778	2557.309291
746.920662	2553.931718
747.249498	2557.115206
747.578286	2557.281564
747.907027	2559.320711
748.235720	2556.921122
748.564365	2557.533622
748.892963	2557.074877
749.221514	2555.282747
749.550017	2557.279044
749.878473	2556.565720
750.206881	2557.364743
750.535242	2559.295505
750.863555	2557.122768
751.191821	2557.319373
751.520039	2556.003632
751.848210	2553.294012
752.176334	2554.645041
752.504411	2559.056050
752.832440	2555.988508
753.160421	2556.399362
753.488356	2557.082439
753.816243	2554.738302
754.144082	2555.000442
754.471875	2555.862479
754.799620	2552.444577
755.127318	2552.149670
755.454969	2557.011863
755.782572	2554.433312
756.110129	2555.444064
756.437638	2553.949362
756.765100	2554.677808
757.092515	2554.851728
757.419882	2555.305432
757.747203	2552.079093
758.074477	2557.052192
758.401703	2556.792572
758.728882	2556.646379
759.056014	2556.341389
759.383099	2559.083777
759.710138	2555.897768
760.037129	2560.051678
760.364073	2560.548232
760.690970	2556.648899
761.017820	2557.745350
761.344623	2557.833571
761.671379	2556.006152
761.998088	2553.762839
762.324751	2557.657130
762.651366	2564.999571
762.977935	2576.208576
763.304456	2579.137487
763.630931	2582.993969
763.957359	2579.747466
764.283740	2573.919892
764.610074	2568.634243
764.936362	2565.223902
765.262602	2563.988819
765.588796	2559.141750
765.914943	2558.995557
766.241044	2555.123950
766.567097	2554.345092
766.893104	2553.604043
767.219064	2551.630431
767.544978	2552.797458
767.870845	2549.492982
768.196665	2551.784186
768.522438	2552.953734
768.848165	2553.296532
769.173846	2552.079093
769.499479	2550.476007
769.825066	2554.211502
770.150607	2551.002807
770.476101	2549.881150
770.801548	2555.207129
771.126949	2549.629093
771.452303	2551.786707
771.777611	2550.846531
772.102872	2549.160265
772.428087	2551.232180
772.753256	2549.014072
773.078378	2549.334185
773.403453	2549.722354
773.728482	2549.319062
774.053465	2550.317210
774.378401	2548.404092
774.703291	2546.896787
775.028135	2546.768238
775.352932	2546.677497
775.677683	2548.308310
776.002388	2548.099103
776.327046	2546.551468
776.651658	2547.947868
776.976224	2546.218752
777.300743	2546.198587
777.625216	2543.534338
777.949643	2544.812270
778.274024	2547.428629
778.598359	2542.677342
778.922647	2542.077444
779.246889	2544.003165
779.571086	2542.571477
779.895236	2545.588608
780.219339	2546.586756
780.543397	2547.700851
780.867409	2547.605069
781.191374	2546.362425
781.515294	2544.787064
781.839167	2546.647250
782.162995	2548.535162
782.486776	2547.993238
782.810511	2546.488454
783.134201	2546.609442
783.457844	2544.829914
783.781441	2544.570295
784.104993	2544.386293
784.428498	2547.935265
784.751958	2544.272867
785.075372	2545.570964
785.398739	2544.426622
785.722061	2544.340922
786.045337	2544.988711
786.368568	2546.506098
786.691752	2546.392672
787.014891	2545.815460
787.337983	2545.245809
787.661030	2548.709082
787.984031	2549.472817
788.306987	2550.589432
788.629897	2550.476007
788.952760	2550.793599
789.275579	2547.799154
789.598351	2549.921480
789.921078	2550.201264
790.243759	2548.162117
790.566395	2547.504246
790.888984	2547.589946
791.211529	2549.124977
791.534027	2546.609442
791.856480	2547.229503
792.178888	2544.638350
792.501249	2546.241437
792.823566	2546.233876
793.145836	2545.462579
793.468062	2545.134904
793.790241	2546.372507
794.112375	2546.115408
794.434464	2546.695141
794.756507	2547.504246
795.078505	2547.605069
795.400457	2544.441745
795.722364	2543.793957
796.044226	2544.592980
796.366042	2544.625748
796.687812	2545.364277
797.009538	2546.768238
797.331218	2547.042981
797.652852	2547.796633
797.974442	2546.473330
798.295986	2546.861499
798.617484	2547.620193
798.938938	2546.112888
799.260346	2545.530635
799.581709	2546.493495
799.903026	2549.147663
800.224299	2547.781510
800.545526	2544.545089
800.866708	2547.710934
801.187845	2546.465769
801.508936	2545.094575
801.829983	2543.834286
802.150984	2544.172044
802.471940	2544.870243
802.792851	2544.502239
803.113717	2545.457538
803.434538	2541.767413
803.755314	2543.819163
804.076045	2544.439225
804.396731	2543.597352
804.717372	2544.610624
805.037967	2541.439738
805.358518	2546.629606
805.679024	2545.707075
805.999485	2543.456200
806.319901	2545.122301
806.640272	2545.714637
806.960598	2543.362938
807.280879	2546.102806
807.601115	2544.998793
807.921306	2545.565923
808.241453	2546.019627
808.561554	2545.097095
808.881611	2547.410985
809.201623	2545.762528
809.521590	2544.792106
809.841513	2541.233051
810.161390	2541.679193
810.481223	2542.831097
810.801011	2543.209183
811.120755	2545.868392
811.440453	2546.649771
811.760107	2542.899152
812.079716	2541.875798
812.399281	2540.648277
812.718801	2541.046528
813.038276	2542.778165
813.357707	2543.186498
813.677093	2542.800850
813.996434	2542.750438
814.315731	2544.635830
814.634983	2545.490305
814.954191	2543.584749
815.273354	2544.318237
815.592473	2543.204142
815.911547	2546.019627
816.230577	2543.670449
816.549562	2547.307641
816.868502	2544.842517
817.187399	2545.858310
817.506250	2544.880326
817.825058	2543.589790
818.143821	2546.362425
818.462539	2544.857641
818.781213	2551.098589
819.099843	2547.320244
819.418429	2552.363919
819.736970	2556.265772
820.055466	2556.439692
820.373919	2557.521019
820.692327	2564.117369
821.010691	2571.575756
821.329011	2593.419076
821.647286	2628.192955
821.965517	2668.350786
822.283704	2692.192923
822.601847	2698.340611
822.919945	2680.321006
823.237999	2656.846873
823.556010	2636.336939
823.873976	2618.539145
824.191897	2599.561722
824.509775	2589.875144
824.827609	2583.926583
825.145398	2577.385686
825.463144	2575.538103
825.780845	2577.201684
826.098502	2580.944740
826.416116	2593.623242
826.733685	2603.796291
827.051210	2610.143103
827.368692	2606.251333
827.686129	2592.854466
828.003522	2582.278126
828.320872	2567.721794
828.638177	2562.733572
828.955439	2554.186296
829.272656	2553.518343
829.589830	2551.751418
829.906960	2549.530790
830.224046	2549.465255
830.541088	2549.586243
830.858086	2547.756304
831.175041	2545.886036
831.491952	2545.986859
831.808819	2550.612118
832.125642	2548.131870
832.442421	2551.806871
832.759157	2554.927345
833.075849	2561.863973
833.392497	2571.243040
833.709101	2577.211766
834.025662	2578.731674
834.342179	2571.013667
834.658653	2564.896227
834.975083	2560.787687
835.291469	2562.418500
835.607811	2552.013558
835.924110	2549.248486
836.240366	2547.090872
836.556578	2549.435008
836.872746	2544.570295
837.188871	2544.280428
837.504952	2543.400747
837.820990	2541.366642
838.136984	2545.051725
838.452935	2540.711292
838.768842	2542.352187
839.084706	2545.896118
839.400526	2545.659184
839.716303	2551.701007
840.032037	2556.152346
840.347727	2558.650237
840.663373	2556.411965
840.978977	2549.981973
841.294537	2547.181613
841.610054	2541.618699
841.925527	2544.872764
842.240957	2540.434028
842.556344	2541.308668
842.871687	2540.353370
843.186987	2545.523073
843.502244	2538.858667
843.817458	2539.708102
844.132629	2538.218441
844.447756	2540.348328
844.762840	2534.286341
845.077881	2536.920344
845.392879	2536.035621
845.707833	2535.254243
846.022745	2534.941691
846.337613	2539.680376
846.652438	2537.467309
846.967221	2539.826569
847.281960	2536.093595
847.596656	2538.697351
847.911309	2535.811290
848.225919	2539.198945
848.540485	2539.871939
848.855009	2538.193235
849.169490	2536.827082
849.483928	2539.529141
849.798323	2539.478729
850.112675	2535.677699
850.426984	2537.308513
850.741251	2538.775488
851.055474	2538.982176
851.369654	2540.169367
851.683792	2537.900848
851.997887	2536.060827
852.311938	2538.999820
852.625947	2535.972607
852.939914	2537.643749
853.253837	2539.481250
853.567718	2537.731970
853.881555	2535.307175
854.195350	2535.929757
854.509103	2538.316743
854.822812	2536.217103
855.136479	2537.489994
855.450103	2539.914789
855.763685	2539.508976
856.077224	2538.525951
856.390720	2536.229706
856.704173	2536.224665
857.017584	2536.073430
857.330953	2537.673996
857.644278	2538.082330
857.957561	2540.492001
858.270802	2536.438914
858.584000	2539.786240
858.897155	2535.254243
859.210268	2540.272711
859.523339	2535.743234
859.836367	2537.232895
860.149352	2538.410005
860.462295	2540.802032
860.775195	2531.720394
861.088054	2535.229037
861.400869	2534.873635
861.713642	2532.602596
862.026373	2539.690458
862.339062	2535.125693
862.651708	2537.822710
862.964312	2538.062165
863.276873	2539.496373
863.589392	2539.161137
863.901869	2538.354552
864.214303	2540.123997
864.526696	2540.300437
864.839045	2539.725746
865.151353	2541.023843
865.463619	2539.088040
865.775842	2539.491332
866.088023	2541.938812
866.400162	2539.203987
866.712258	2537.583256
867.024313	2537.124511
867.336325	2538.944367
867.648296	2540.784388
867.960224	2540.050900
868.272110	2539.330015
868.583954	2536.295241
868.895755	2540.247505
869.207515	2536.023018
869.519233	2537.739531
869.830909	2539.324974
870.142542	2540.973432
870.454134	2535.965045
870.765684	2541.633823
871.077191	2539.735828
871.388657	2541.583411
871.700081	2539.198945
872.011463	2540.844882
872.322803	2541.021323
872.634101	2541.510314
872.945357	2538.707433
873.256571	2541.729605
873.567744	2539.574511
873.878874	2543.821683
874.189963	2542.412681
874.501010	2543.252033
874.812015	2542.044677
875.122979	2543.975439
875.433900	2541.797660
875.744780	2542.011909
876.055618	2540.665921
876.366415	2542.498381
876.677169	2542.228679
876.987882	2538.044521
877.298554	2535.952442
877.609183	2538.936805
877.919771	2537.411856
878.230317	2543.430994
878.540822	2546.468289
878.851285	2546.664894
879.161707	2547.504246
879.472087	2551.038095
879.782425	2554.297201
880.092722	2562.995712
880.402977	2575.833010
880.713191	2592.849425
881.023363	2613.059411
881.333494	2628.011473
881.643583	2631.389046
881.953631	2629.788480
882.263637	2626.751185
882.573602	2617.752725
882.883526	2607.509101
883.193408	2596.814293
883.503248	2589.484455
883.813048	2579.805440
884.122806	2576.264029
884.432522	2567.525189
884.742197	2564.256001
885.051831	2559.875238
885.361424	2552.326110
885.670975	2554.894578
885.980485	2550.435677
886.289954	2550.559186
886.599382	2549.079607
886.908768	2548.348640
887.218113	2547.211859
887.527417	2547.196736
887.836680	2544.270346
888.145901	2542.301776
888.455082	2541.830428
888.764221	2543.955274
889.073319	2542.763041
889.382376	2541.850592
889.691392	2543.037784
890.000366	2545.523073
890.309300	2541.837989
890.618193	2542.352187
890.927044	2540.618030
891.235855	2543.015099
891.544625	2540.557536
891.853353	2544.083823
892.162041	2543.085675
892.470687	2542.934440
892.779293	2543.471323
893.087858	2545.417209
893.396381	2543.491488
893.704864	2549.392158
894.013306	2553.919115
894.321707	2563.404046
894.630068	2568.276321
894.938387	2573.166240
895.246665	2572.861250
895.554903	2564.402194
895.863100	2562.516802
896.171256	2559.005639
896.479371	2554.972716
896.787446	2554.476162
897.095480	2550.760832
897.403473	2548.504915
897.711425	2546.095244
898.019336	2547.847045
898.327207	2545.480223
898.635038	2544.716488
898.942827	2544.547610
899.250576	2544.197249
899.558284	2542.205994
899.865952	2544.076262
900.173579	2543.849410
900.481165	2541.308668
900.788711	2541.394368
901.096216	2541.704399
901.403681	2540.494522
901.711105	2542.037115
902.018489	2541.840510
902.325832	2543.965356
902.633135	2542.039636
902.940397	2543.627599
903.247619	2546.380069
903.554800	2551.317879
903.861941	2562.042934
904.169041	2578.499781
904.476101	2583.518249
904.783121	2584.619742
905.090100	2574.577763
905.397039	2569.191290
905.703938	2564.054354
906.010796	2557.021945
906.317614	2551.574978
906.624391	2550.453321
906.931129	2548.968702
907.237826	2544.325799
907.544483	2542.455531
907.851099	2544.701365
908.157675	2539.947557
908.464211	2539.453524
908.770707	2535.413039
909.077163	2536.075951
909.383578	2532.763913
909.689954	2536.388502
909.996289	2534.465302
910.302584	2539.403112
910.608839	2536.940508
910.915054	2540.134079
911.221229	2538.888914
911.527363	2541.026364
911.833458	2537.192566
912.139513	2539.274563
912.445527	2540.265149
912.751502	2535.566794
913.057436	2541.328833
913.363331	2540.363452
913.669186	2541.565767
913.975000	2542.536189
914.280775	2544.151879
914.586510	2547.665563
914.892205	2551.073383
915.197859	2559.129147
915.503475	2566.020404
915.809050	2574.270253
916.114585	2577.244533
916.420081	2580.231417
916.725536	2579.258474
917.030952	2574.865109
917.336328	2568.409911
917.641665	2565.370096
917.946961	2560.361709
918.252218	2559.129147
918.557435	2554.662685
918.862612	2551.224618
919.167750	2547.557178
919.472848	2546.198587
919.777906	2544.257743
920.082925	2546.889226
920.387904	2544.668597
920.692843	2542.795809
920.997743	2542.039636
921.302603	2539.284645
921.607423	2539.549306
921.912204	2542.223638
922.216946	2538.815818
922.521647	2540.749100
922.826310	2538.606610
923.130932	2536.547298
923.435516	2542.281611
923.740059	2539.919830
924.044564	2535.866743
924.349028	2535.881866
924.653454	2531.506145
924.957840	2535.710467
925.262186	2533.603265
925.566493	2535.002185
925.870761	2532.542102
926.174989	2535.135775
926.479178	2536.431352
926.783328	2536.953111
927.087438	2534.901362
927.391509	2534.283820
927.695541	2535.231557
927.999533	2532.695857
928.303486	2535.256763
928.607400	2533.691485
928.911275	2534.349355
929.215110	2534.606454
929.518906	2533.893131
929.822663	2531.148223
930.126381	2534.974458
930.430060	2534.810621
930.733699	2536.401105
931.037299	2534.271218
931.340861	2533.814993
931.644383	2532.237112
931.947866	2531.677544
932.251309	2534.462781
932.554714	2531.624612
932.858080	2534.581248
933.161407	2533.878007
933.464694	2535.110570
933.767943	2532.496731
934.071153	2533.688964
934.374323	2531.962369
934.677455	2533.373892
934.980548	2533.225178
935.283602	2535.314736
935.586617	2530.205527
935.889593	2534.631660
936.192530	2534.072092
936.495428	2534.369520
936.798287	2532.126207
937.101108	2537.011085
937.403890	2535.246681
937.706632	2534.225847
938.009336	2534.004036
938.312002	2535.120652
938.614628	2536.040662
938.917216	2537.336239
939.219765	2534.588810
939.522275	2534.092257
939.824747	2537.671476
940.127179	2532.693336
940.429573	2531.397760
940.731929	2533.015970
941.034246	2534.135106
941.336524	2534.687113
941.638763	2534.903882
941.940964	2537.696682
942.243126	2535.531506
942.545250	2534.989582
942.847335	2536.998482
943.149381	2534.016639
943.451389	2532.453882
943.753359	2536.179294
944.055290	2534.873635
944.357182	2534.866074
944.659036	2533.484797
944.960851	2533.608306
945.262628	2532.529499
945.564367	2534.974458
945.866067	2534.296423
946.167729	2533.177287
946.469352	2534.997144
946.770937	2532.801721
947.072484	2532.874818
947.373992	2533.721732
947.675462	2532.499252
947.976893	2533.046217
948.278286	2532.637884
948.579641	2537.094264
948.880958	2534.094777
949.182236	2533.109232
949.483476	2535.445806
949.784678	2532.249715
950.085841	2533.774664
950.386967	2534.185518
950.688054	2533.356248
950.989103	2533.227699
951.290114	2531.377595
951.591087	2532.595034
951.892021	2537.714326
952.192917	2532.542102
952.493776	2534.175436
952.794596	2533.121834
953.095378	2536.000333
953.396122	2535.738193
953.696828	2534.626619
953.997496	2531.717873
954.298126	2534.374561
954.598718	2533.593182
954.899272	2533.270548
955.199788	2534.266176
955.500266	2533.678882
955.800706	2530.092101
956.101108	2527.896678
956.401472	2530.044210
956.701798	2527.679909
957.002087	2528.612522
957.302337	2532.199303
957.602550	2532.199303
957.902724	2529.550177
958.202861	2530.820548
958.502960	2531.828778
958.803022	2530.109745
959.103045	2534.059489
959.403031	2531.496062
959.702979	2532.897503
960.002889	2529.484642
960.302762	2532.078316
960.602596	2530.999509
960.902393	2531.332225
961.202153	2529.812317
961.501875	2533.830117
961.801559	2531.730476
962.101205	2529.136802
962.400814	2531.589324
962.700385	2528.252080
962.999918	2529.545136
963.299414	2529.840043
963.598873	2532.489170
963.898293	2528.998171
964.197677	2529.759385
964.497022	2529.323325
964.796331	2531.281813
965.095601	2529.068747
965.394835	2529.530012
965.694030	2530.898686
965.993189	2531.652338
966.292309	2528.405835
966.591393	2529.784591
966.890439	2528.136133
967.189447	2531.407842
967.488419	2528.327697
967.787353	2529.446833
968.086249	2529.860208
968.385108	2530.124868
968.683930	2531.990095
968.982714	2528.902389
969.281462	2530.301309
969.580172	2530.911288
969.878844	2527.931967
970.177480	2530.576052
970.476078	2529.048582
970.774639	2530.785260
971.073162	2528.370547
971.371649	2525.734023
971.670098	2526.127233
971.968510	2527.165711
972.266885	2525.053468
972.565223	2526.946421
972.863524	2529.020856
973.161788	2531.092770
973.460014	2530.253418
973.758204	2532.375744
974.056356	2531.420445
974.354471	2532.065713
974.652550	2529.736700
974.950591	2532.234591
975.248595	2530.087060
975.546563	2528.204189
975.844493	2532.433717
976.142386	2528.325177
976.440243	2530.888603
976.738062	2528.433561
977.035845	2528.221833
977.333590	2528.627646
977.631299	2530.182842
977.928971	2530.686957
978.226606	2529.272913
978.524204	2526.454908
978.821765	2527.195958
979.119290	2530.717204
979.416777	2527.508510
979.714228	2526.984230
980.011642	2529.146885
980.309020	2530.792821
980.606360	2527.468180
980.903664	2530.697039
981.200931	2527.924405
981.498162	2531.231402
981.795356	2528.680578
982.092513	2529.978675
982.389633	2528.967924
982.686717	2530.283665
982.983764	2530.712163
983.280775	2531.831299
983.577749	2530.863397
983.874686	2530.626463
984.171587	2529.595547
984.468451	2530.311391
984.765279	2533.482277
985.062070	2529.900537
985.358824	2527.939528
985.655543	2529.850126
985.952224	2531.183511
986.248869	2528.592358
986.545478	2524.627490
986.842050	2529.835002
987.138586	2525.824764
987.435086	2523.765453
987.731549	2526.102028
988.027975	2526.195289
988.324366	2529.635877
988.620719	2528.277286
988.917037	2526.853160
989.213318	2527.967255
989.509563	2527.319466
989.805772	2530.432379
990.101944	2528.698222
990.398080	2529.575383
990.694180	2528.937677
990.990244	2528.862059
991.286271	2526.452388
991.582262	2528.670496
991.878217	2528.816689
992.174136	2528.262162
992.470019	2528.005063
992.765865	2526.946421
993.061676	2527.281658
993.357450	2528.050434
993.653188	2526.661596
993.948890	2529.207378
994.244556	2526.734692
994.540186	2528.766277
994.835780	2527.944569
995.131337	2528.297450
995.426859	2528.483973
995.722345	2526.570855
996.017795	2526.207892
996.313208	2529.625794
996.608586	2530.593696
996.903928	2530.581093
997.199234	2527.445495
997.494504	2528.383150
997.789738	2524.803931
998.084936	2529.973634
998.380099	2529.247708
998.675225	2528.355423
998.970316	2529.847605
999.265371	2528.541946
999.560390	2528.393232
999.855373	2527.498427
1000.150320	2531.095291
1000.445232	2527.745444
1000.740108	2526.238139
1001.034948	2530.308871
1001.329752	2528.806607
1001.624521	2525.466842
1001.919254	2522.280833
1002.213951	2523.800741
1002.508613	2526.981709
1002.803239	2525.282840
1003.097829	2523.596574
1003.392384	2529.739220
1003.686903	2528.993129
1003.981386	2529.451874
1004.275834	2529.167049
1004.570246	2527.511030
1004.864623	2526.280989
1005.158964	2526.588499
1005.453270	2526.888448
1005.747540	2528.471370
1006.041775	2526.800228
1006.335974	2527.200999
1006.630138	2526.830474
1006.924266	2529.174611
1007.218359	2528.022707
1007.512416	2526.701925
1007.806438	2527.868952
1008.100425	2526.233098
1008.394376	2525.933149
1008.688292	2524.897192
1008.982172	2526.280989
1009.276017	2526.512882
1009.569827	2524.652696
1009.863602	2529.000691
1010.157341	2528.224353
1010.451045	2525.061029
1010.744714	2527.793335
1011.038347	2525.663447
1011.331945	2526.424662
1011.625508	2527.879034
1011.919036	2528.141174
1012.212528	2526.885927
1012.505986	2525.708818
1012.799408	2528.022707
1013.092795	2527.909281
1013.386147	2529.313243
1013.679464	2527.034641
1013.972745	2524.743437
1014.265992	2525.895340
1014.559204	2527.644621
1014.852380	2525.182017
1015.145521	2529.492204
1015.438628	2527.122861
1015.731699	2525.532377
1016.024736	2522.999198
1016.317737	2526.437264
1016.610703	2528.252080
1016.903635	2526.434744
1017.196531	2522.787469
1017.489393	2523.263858
1017.782219	2523.775535
1018.075011	2525.794517
1018.367768	2526.033972
1018.660490	2525.640762
1018.953177	2525.640762
1019.245829	2525.640762
