Dividing Wavelength (nm)	Counts (n)	Blue Motor Position (mm): 0.000000	Red Motor Position (mm): 33.000000	
326.493990	2127.689557
326.888308	2127.689557
327.282561	2127.689557
327.676750	2095.650504
328.070874	2094.077664
328.464933	2096.368868
328.858929	2103.534868
329.252859	2111.643564
329.646726	2124.737961
330.040528	2135.210958
330.434265	2153.901036
330.827938	2169.629436
331.221547	2187.548218
331.615091	2210.767772
332.008571	2228.568087
332.401986	2246.481827
332.795338	2265.328180
333.188625	2284.766870
333.581847	2303.136834
333.975006	2323.661892
334.368100	2339.523883
334.761129	2359.486852
335.154095	2376.036960
335.546996	2394.800135
335.939833	2413.364184
336.332606	2428.759867
336.725315	2441.844182
337.117960	2452.569237
337.510540	2458.137192
337.903056	2472.023050
338.295508	2477.533031
338.687896	2487.307828
339.080220	2493.417707
339.472480	2502.872391
339.864676	2505.024963
340.256807	2508.798267
340.648875	2512.311951
341.040879	2514.696417
341.432818	2517.658095
341.824694	2518.515091
342.216506	2517.998373
342.608253	2520.831501
342.999937	2519.609022
343.391557	2518.096675
343.783113	2518.386542
344.174605	2517.537107
344.566033	2514.393948
344.957397	2517.201871
345.348697	2512.490912
345.739934	2510.721467
346.131106	2509.065448
346.522215	2506.791888
346.913260	2506.078565
347.304241	2502.416166
347.695159	2501.380209
348.086012	2501.070178
348.476802	2499.744355
348.867528	2496.207985
349.258191	2497.364930
349.648789	2492.822851
350.039324	2492.127171
350.429796	2492.585916
350.820203	2492.013745
351.210548	2488.038796
351.600828	2488.913436
351.991045	2489.541059
352.381198	2485.435040
352.771288	2486.554176
353.161314	2486.627272
353.551276	2489.412510
353.941175	2487.728765
354.331010	2488.734475
354.720782	2487.280102
355.110490	2486.818836
355.500135	2489.442757
355.889717	2485.838332
356.279235	2486.728096
356.668689	2491.456698
357.058080	2486.649958
357.447408	2488.706748
357.836672	2484.693990
358.225873	2489.437716
358.615010	2484.847745
359.004084	2491.802017
359.393095	2492.979126
359.782043	2493.435351
360.170927	2493.422748
360.559748	2494.622542
360.948505	2494.531802
361.337199	2495.577841
361.725830	2496.722183
362.114398	2496.943994
362.502903	2495.512306
362.891344	2497.216216
363.279722	2496.535660
363.668037	2497.027173
364.056289	2497.410301
364.444478	2499.514982
364.832603	2497.856443
365.220665	2500.893738
365.608665	2501.864160
365.996601	2500.692092
366.384474	2502.416166
366.772284	2504.541013
367.160031	2505.708040
367.547715	2509.088133
367.935336	2508.420181
368.322893	2514.157014
368.710388	2517.479134
369.097820	2521.665812
369.485189	2528.741072
369.872495	2532.915147
370.259738	2541.182639
370.646918	2544.282949
371.034035	2552.174875
371.421090	2561.072512
371.808081	2573.342680
372.195010	2584.652509
372.581875	2595.455702
372.968678	2608.776951
373.355418	2620.026286
373.742096	2638.055972
374.128710	2651.989722
374.515262	2667.922288
374.901751	2683.779238
375.288177	2697.057637
375.674540	2718.437170
376.060841	2733.492576
376.447079	2754.846904
376.833254	2774.172167
377.219367	2790.553397
377.605417	2827.000939
377.991404	2835.049141
378.377329	2856.640403
378.763191	2873.742517
379.148991	2913.020668
379.534727	2938.707867
379.920402	2968.566621
380.306013	2977.343270
380.691563	3028.223636
381.077049	3048.393293
381.462474	3067.753844
381.847835	3105.360852
382.233134	3127.428502
382.618371	3127.587299
383.003545	3194.135571
383.388657	3204.248125
383.773706	3234.973958
384.158693	3251.793768
384.543618	3278.421142
384.928480	3314.077224
385.313280	3358.572968
385.698017	3357.957947
386.082692	3412.921648
386.467305	3417.897267
386.851856	3448.192081
387.236344	3471.217551
387.620770	3504.040503
388.005133	3530.962786
388.389435	3556.544121
388.773674	3567.077612
389.157851	3608.271400
389.541965	3625.602887
389.926018	3587.978236
390.310008	3661.448012
390.693936	3679.306299
391.077802	3719.494378
391.461606	3710.148078
391.845348	3773.159981
392.229027	3774.327008
392.612645	3783.585087
392.996200	3862.413610
393.379694	3904.078746
393.763125	3969.326401
394.146494	3930.690997
394.529801	3995.631141
394.913047	4045.142834
395.296230	4010.915920
395.679351	4065.695618
396.062410	4088.673197
396.445408	4068.004467
396.828343	4103.322790
397.211217	4129.221718
397.594028	4046.526631
397.976778	4113.853761
398.359466	4141.237308
398.742092	4169.515661
399.124656	4092.070935
399.507158	4170.014735
399.889598	4195.160011
400.271977	4258.169393
400.654294	4227.798961
401.036549	4236.497472
401.418742	4208.667782
401.800874	4313.173422
402.182944	4329.751257
402.564952	4394.635948
402.946898	4382.204462
403.328783	4380.034246
403.710606	4290.268940
404.092367	4480.575018
404.474067	4448.677117
404.855705	4457.068118
405.237282	4385.768558
405.618797	4489.754959
406.000250	4524.029764
406.381642	4604.206795
406.762972	4572.550870
407.144240	4579.742076
407.525447	4582.963373
407.906593	4643.646262
408.287677	4684.683775
408.668700	4614.271459
409.049661	4664.133512
409.430560	4701.072567
409.811399	4631.718893
410.192176	4795.717709
410.572891	4734.134974
410.953545	4839.623639
411.334138	4717.937747
411.714669	4784.390237
412.095139	4676.628012
412.475547	4820.575639
412.855894	4804.459070
413.236180	4807.599709
413.616405	4761.427781
413.996568	4849.189228
414.376670	4790.260660
414.756711	4743.831633
415.136691	4778.081233
415.516609	4857.376062
415.896466	4891.290425
416.276262	4925.207308
416.655997	4907.780039
417.035670	5091.063790
417.415283	5180.945042
417.794834	5123.748111
418.174324	5082.516513
418.553753	4987.067307
418.933121	5170.744268
419.312428	5239.737499
419.691674	5178.313560
420.070859	5305.401048
420.449983	5217.342173
420.829045	5328.933155
421.208047	5235.202981
421.586988	5310.585875
421.965867	5319.591897
422.344686	5453.217762
422.723444	5304.985153
423.102141	5126.896311
423.480777	5423.331281
423.859352	5190.878636
424.237866	5448.080826
424.616319	5445.726607
424.994712	5553.312392
425.373044	5426.663484
425.751314	5575.551442
426.129524	5378.396956
426.507673	5568.577006
426.885762	5652.555067
427.263789	5582.505714
427.641756	5467.895081
428.019662	5585.230457
428.397508	5595.900059
428.775292	5539.272778
429.153016	5640.027800
429.530679	5566.931069
429.908282	5652.935674
430.285824	5523.093195
430.663305	5794.594618
431.040726	5531.789185
431.418086	5536.091810
431.795385	5639.606863
432.172624	5650.629346
432.549802	5640.075691
432.926920	5657.513042
433.303977	5666.403117
433.680974	5706.134971
434.057910	5718.916816
434.434786	5725.987034
434.811601	5690.116704
435.188355	5934.844559
435.565050	5806.942924
435.941683	5786.251508
436.318257	6001.937275
436.694770	5980.769470
437.071222	6018.915882
437.447614	5953.406087
437.823946	5863.963415
438.200218	6013.289954
438.576429	5879.406990
438.952580	5980.502289
439.328670	6028.189084
439.704700	5933.097799
440.080670	5916.154481
440.456580	6190.012643
440.832429	6072.160548
441.208218	5915.829327
441.583947	6075.210447
441.959616	6080.977527
442.335224	6004.707389
442.710773	6139.462473
443.086261	6165.520197
443.461689	5963.342202
443.837057	6115.393484
444.212365	6269.425940
444.587612	6158.162633
444.962800	6316.906047
445.337927	6294.530886
445.712995	5905.999077
446.088002	6481.908054
446.462949	6310.581920
446.837837	6242.899388
447.212664	6412.793834
447.587431	6557.127110
447.962139	7100.024091
448.336786	8021.017693
448.711374	7765.179136
449.085901	6840.041705
449.460369	6764.031188
449.834776	6695.282452
450.209124	7084.782163
450.583412	7239.558189
450.957640	7387.702577
451.331808	7148.308263
451.705917	6704.732095
452.079965	6624.512214
452.453954	6835.746642
452.827883	6716.808179
453.201752	6806.855789
453.575562	6606.931190
453.949311	6810.286295
454.323001	6695.932761
454.696632	6770.551920
455.070202	6911.880668
455.443713	7067.243988
455.817164	7162.085736
456.190556	7250.825167
456.563888	7322.538102
456.937160	7364.475460
457.310373	7018.112903
457.683526	7043.792541
458.056619	6938.540810
458.429653	6926.386588
458.802628	6860.496187
459.175542	6968.858309
459.548398	7326.220664
459.921194	7484.354099
460.293930	7486.915005
460.666607	8018.499637
461.039224	8327.187131
461.411782	8446.977549
461.784280	8472.942012
462.156719	8358.313735
462.529099	8240.166733
462.901419	7824.758012
463.273680	7719.281950
463.645882	7738.150989
464.018024	7599.259639
464.390106	7758.494566
464.762130	8152.407807
465.134094	8619.387531
465.505999	9643.381989
465.877845	10861.080262
466.249631	11512.354489
466.621358	11133.864658
466.993026	10497.426547
467.364634	10241.835006
467.736184	9878.393019
468.107674	9544.935816
468.479105	9575.805321
468.850477	9342.087347
469.221790	9117.846741
469.593043	8793.214078
469.964238	8651.943303
470.335373	8662.575096
470.706449	8721.556596
471.077467	8701.512969
471.448425	10007.370940
471.819324	11085.061248
472.190164	11102.060019
472.560945	9862.036996
472.931667	9067.795645
473.302330	8929.854553
473.672934	8585.130370
474.043479	8935.581303
474.413965	8875.899083
474.784393	8759.796269
475.154761	8913.027181
475.525070	9002.837858
475.895321	8830.632042
476.265513	9008.647787
476.635645	9172.578549
477.005719	9176.147686
477.375734	9289.402248
477.745691	9523.604173
478.115588	9651.762907
478.485427	9899.303725
478.855207	10432.453636
479.224928	11247.807338
479.594591	11881.760161
479.964194	11680.580313
480.333739	11627.648198
480.703226	11542.077132
481.072653	11625.508228
481.442022	11864.196781
481.811333	12048.687888
482.180584	11857.938188
482.549777	11561.392313
482.918912	11398.910883
483.287988	11406.129816
483.657005	11428.242837
484.025964	11106.420617
484.394864	11229.094575
484.763706	11201.096007
485.132489	10956.993255
485.501213	10916.974055
485.869879	10991.041208
486.238487	10826.187916
486.607036	10931.916035
486.975527	10705.399349
487.343959	10900.053422
487.712333	10935.666654
488.080648	10861.324758
488.448905	10907.257231
488.817104	10840.668630
489.185244	11098.158166
489.553326	11238.569424
489.921350	11766.526945
490.289315	12794.783698
490.657222	13136.493271
491.025070	13025.426569
491.392861	12899.617013
491.760593	12511.632169
492.128267	12167.896053
492.495883	11837.874396
492.863440	11500.114567
493.230939	11156.322999
493.598380	11081.638304
493.965763	10942.278127
494.333088	10831.440798
494.700354	10739.951417
495.067563	10789.737853
495.434713	10613.002561
495.801805	10719.519621
496.168839	10639.645059
496.535815	10556.332430
496.902733	10539.240397
497.269593	10456.517583
497.636395	10552.362521
498.003139	10514.495894
498.369825	10369.381239
498.736453	10501.751857
499.103023	10411.699205
499.469535	10418.610627
499.835989	10389.591225
500.202385	10326.899436
500.568723	10169.585189
500.935003	10356.748108
501.301226	10144.288679
501.667390	10369.237566
502.033497	10432.262072
502.399546	10280.803125
502.765537	10170.238018
503.131470	10213.039935
503.497345	10348.278969
503.863163	9967.944076
504.228923	10212.583711
504.594625	10241.847609
504.960269	9985.207508
505.325856	10154.464248
505.691385	9930.657182
506.056856	10044.037773
506.422270	10023.966419
506.787625	9897.924970
507.152924	9959.084248
507.518164	9913.900386
507.883347	9797.593405
508.248472	9691.540131
508.613540	9851.188432
508.978550	9713.970745
509.343503	9643.888625
509.708398	9702.262666
510.073236	9760.190564
510.438016	9723.906860
510.802738	9630.766501
511.167403	9623.897929
511.532010	9491.565120
511.896561	9634.171801
512.261053	9641.007605
512.625488	9485.729984
512.989866	9416.620806
513.354186	9359.134008
513.718449	9220.598060
514.082655	9326.467332
514.446803	9185.614973
514.810894	9229.213392
515.174927	9061.453874
515.538904	9031.602681
515.902822	9089.918749
516.266684	8954.142832
516.630488	8841.457920
516.994235	8840.399278
517.357925	8812.226789
517.721558	8818.651740
518.085133	8764.028317
518.448651	8717.531235
518.812112	8576.104184
519.175516	8517.765432
519.538863	8537.718318
519.902152	8427.304446
520.265385	8454.095658
520.628560	8350.981377
520.991678	8253.780369
521.354739	8245.485151
521.717743	8137.664952
522.080690	8060.711739
522.443580	8062.027480
522.806413	7970.376782
523.169189	7933.304137
523.531908	7894.305771
523.894569	7718.845891
524.257174	7648.337792
524.619722	7646.984243
524.982213	7561.677837
525.344647	7508.896956
525.707025	7425.992661
526.069345	7409.354333
526.431608	7289.858822
526.793815	7281.591329
527.155964	7103.951150
527.518057	7077.487613
527.880093	6974.925338
528.242072	6950.183355
528.603995	6833.775551
528.965860	6730.774696
529.327669	6689.961514
529.689421	6608.146108
530.051117	6529.733480
530.412755	6493.868191
530.774337	6399.984262
531.135862	6317.415204
531.497331	6273.632782
531.858743	6142.885416
532.220098	6155.490822
532.581396	6042.379932
532.942638	5976.605477
533.303824	5905.074025
533.664953	5844.393656
534.026025	5755.697075
534.387040	5729.513322
534.747999	5675.560372
535.108902	5641.010825
535.469748	5494.587991
535.830537	5477.579137
536.191270	5412.155043
536.551947	5361.541858
536.912567	5306.598322
537.273131	5234.252724
537.633638	5170.623280
537.994089	5114.336277
538.354483	5047.024270
538.714821	5041.811717
539.075103	4991.417822
539.435328	4927.241413
539.795497	4837.617260
540.155609	4822.138397
540.515665	4802.177948
540.875665	4685.467675
541.235609	4651.868384
541.595496	4611.773567
541.955328	4591.432512
542.315102	4525.824415
542.674821	4470.505313
543.034483	4427.000155
543.394090	4383.149679
543.753640	4326.111543
544.113134	4323.714475
544.472571	4256.583950
544.831953	4237.891351
545.191278	4160.897808
545.550548	4126.078559
545.909761	4113.231178
546.268918	4070.141916
546.628019	4047.008061
546.987064	3982.128411
547.346053	3943.699695
547.704986	3913.167947
548.063863	3878.373903
548.422684	3846.533975
548.781449	3798.365750
549.140158	3781.409829
549.498811	3727.701376
549.857408	3682.237730
550.215949	3670.075947
550.574434	3626.338896
550.932864	3604.117490
551.291237	3588.187443
551.649555	3549.632699
552.007817	3531.391284
552.366022	3499.027076
552.724173	3473.234012
553.082267	3449.951443
553.440305	3427.354471
553.798288	3392.522619
554.156215	3377.547871
554.514086	3352.906711
554.871902	3315.150989
555.229661	3299.445275
555.587365	3274.882253
555.945014	3247.448293
556.302606	3235.727611
556.660143	3206.249463
557.017625	3197.440047
557.375050	3171.563804
557.732421	3161.398318
558.089735	3136.661376
558.446994	3119.042543
558.804197	3101.799276
559.161345	3085.806216
559.518437	3064.088925
559.875474	3049.436811
560.232455	3037.388454
560.589381	3020.704755
560.946251	3003.892507
561.303065	2997.422186
561.659825	2977.484423
562.016528	2959.028758
562.373177	2946.836728
562.729770	2932.267793
563.086307	2924.423758
563.442789	2916.758683
563.799216	2895.396794
564.155587	2883.567726
564.511904	2874.896942
564.868164	2862.417565
565.224370	2854.956658
565.580520	2840.891838
565.936615	2834.265242
566.292654	2820.265957
566.648638	2818.027685
567.004567	2808.084009
567.360441	2801.505303
567.716260	2789.129271
568.072023	2786.742284
568.427732	2771.752413
568.783385	2766.270159
569.138982	2759.583068
569.494525	2752.583426
569.850013	2744.401633
570.205445	2744.815008
570.560823	2737.580952
570.916145	2730.669530
571.271412	2725.698952
571.626625	2721.759291
571.981782	2718.308621
572.336884	2712.034905
572.691931	2709.247147
573.046923	2704.001826
573.401860	2698.597709
573.756743	2693.228881
574.111570	2692.956658
574.466342	2686.382994
574.821059	2687.955834
575.175722	2681.170441
575.530330	2677.409740
575.884882	2675.055521
576.239380	2670.299192
576.593823	2671.269614
576.948211	2668.718791
577.302544	2665.910868
577.656823	2662.011535
578.011047	2659.463232
578.365216	2657.353509
578.719330	2655.684887
579.073389	2652.922335
579.427394	2652.476193
579.781344	2648.733136
580.135239	2650.031233
580.489080	2647.901346
580.842866	2642.789616
581.196597	2646.305821
581.550273	2643.432363
581.903895	2641.806591
582.257463	2641.115953
582.610975	2636.382309
582.964434	2637.118318
583.317837	2634.627988
583.671186	2637.440952
584.024481	2633.355096
584.377721	2633.463481
584.730906	2629.581793
585.084037	2631.641104
585.437113	2627.976185
585.790135	2627.696401
586.143103	2627.285547
586.496016	2624.520474
586.848874	2625.188427
587.201679	2623.141719
587.554428	2618.400513
587.907124	2621.689866
588.259765	2616.931017
588.612352	2620.900926
588.964884	2619.539814
589.317362	2620.545524
589.669786	2616.565533
590.022155	2619.290277
590.374470	2618.342540
590.726731	2616.913373
591.078937	2613.308948
591.431090	2617.477982
591.783188	2615.474124
592.135232	2615.506891
592.487222	2616.212653
592.839157	2615.537138
593.191038	2611.894904
593.542866	2610.944647
593.894639	2608.978597
594.246358	2610.503546
594.598022	2610.362394
594.949633	2607.768720
595.301190	2607.723350
595.652692	2607.914913
596.004141	2609.850717
596.355535	2606.135386
596.706876	2605.296034
597.058162	2602.495673
597.409395	2605.565736
597.760573	2605.714450
598.111698	2605.777464
598.462768	2606.180757
598.813785	2602.825869
599.164748	2605.018771
599.515657	2602.568770
599.866511	2601.316043
600.217312	2602.228492
600.568060	2601.787391
600.918753	2606.616816
601.269392	2601.270673
601.619978	2600.161619
601.970510	2603.952567
602.320988	2602.851074
602.671412	2603.332505
603.021783	2604.237392
603.372100	2596.877307
603.722363	2599.622215
604.072572	2601.578183
604.422728	2602.856116
604.772830	2594.923860
605.122878	2595.362440
605.472872	2596.506782
605.822813	2595.417893
606.172701	2594.162646
606.522534	2598.326639
606.872314	2601.913420
607.222041	2598.878645
607.571714	2601.454675
607.921333	2597.673809
608.270899	2599.385281
608.620411	2599.165991
608.969870	2600.625405
609.319276	2599.735641
609.668627	2604.817124
610.017926	2604.529779
610.367171	2605.419542
610.716362	2608.275356
611.065500	2602.793101
611.414585	2603.161105
611.763616	2604.827207
612.112594	2600.201948
612.461518	2599.617174
612.810389	2601.638677
613.159207	2597.875456
613.507971	2602.248657
613.856682	2597.484766
614.205340	2600.448965
614.553945	2601.091712
614.902496	2599.196238
615.250994	2599.760847
615.599439	2599.949890
615.947830	2603.002309
616.296169	2600.388471
616.644454	2596.267327
616.992686	2599.942329
617.340864	2599.208841
617.688990	2598.646752
618.037063	2600.159098
618.385082	2596.965527
618.733048	2601.061465
619.080961	2597.192379
619.428821	2600.091043
619.776628	2598.780343
620.124382	2596.995774
620.472083	2600.360744
620.819731	2598.712287
621.167326	2599.803697
621.514868	2597.842688
621.862357	2597.840167
622.209793	2597.129365
622.557176	2594.583582
622.904506	2597.063830
623.251783	2593.696339
623.599007	2590.376739
623.946179	2591.195927
624.293297	2590.525453
624.640363	2592.710793
624.987376	2592.287337
625.334336	2593.749271
625.681243	2591.022007
626.028097	2593.799683
626.374899	2589.237438
626.721647	2591.800865
627.068343	2591.405135
627.414987	2589.547469
627.761577	2587.125195
628.108115	2588.609815
628.454600	2590.298601
628.801032	2588.894640
629.147412	2587.389856
629.493739	2591.798345
629.840014	2587.798189
630.186236	2589.602922
630.532405	2591.127871
630.878521	2591.213571
631.224585	2589.562593
631.570597	2586.132088
631.916556	2587.417582
632.262462	2588.486307
632.608316	2588.130905
632.954117	2586.437077
633.299866	2586.858014
633.645562	2587.573858
633.991206	2588.108220
634.336797	2584.612180
634.682336	2586.268199
635.027823	2587.364650
635.373257	2584.828949
635.718639	2584.339957
636.063968	2582.008424
636.409245	2582.003383
636.754470	2583.051943
637.099642	2579.762590
637.444762	2583.750142
637.789829	2582.310893
638.134845	2580.974987
638.479808	2580.680080
638.824719	2582.265523
639.169577	2581.287539
639.514383	2579.891139
639.859137	2579.097157
640.203839	2582.015986
640.548489	2579.883578
640.893086	2575.843093
641.237632	2575.654049
641.582125	2577.327713
641.926566	2575.477609
642.270955	2579.346695
642.615292	2582.394072
642.959576	2580.496078
643.303809	2579.344174
643.647990	2581.400965
643.992118	2579.833166
644.336195	2578.930799
644.680219	2577.030284
645.024192	2579.389544
645.368112	2578.827456
645.711981	2579.203022
646.055797	2579.049267
646.399562	2579.502970
646.743274	2582.900708
647.086935	2582.434401
647.430544	2583.619072
647.774101	2580.664956
648.117606	2584.264340
648.461059	2582.661253
648.804460	2582.043712
649.147810	2581.952971
649.491108	2580.337281
649.834354	2579.414750
650.177548	2579.008937
650.520690	2580.609504
650.863781	2577.176478
651.206820	2581.388362
651.549807	2577.161354
651.892742	2575.253278
652.235626	2576.054821
652.578458	2578.766962
652.921238	2575.951478
653.263967	2578.116653
653.606644	2574.721436
653.949269	2577.632702
654.291843	2577.478947
654.634365	2574.897876
654.976836	2574.610531
655.319255	2573.536765
655.661622	2573.292269
656.003938	2575.122208
656.346203	2573.929975
656.688416	2574.615572
657.030577	2573.423339
657.372687	2571.822772
657.714746	2574.633216
658.056753	2574.164388
658.398708	2569.990313
658.740612	2570.116342
659.082465	2569.274469
659.424266	2571.721949
659.766016	2567.721794
660.107715	2573.521641
660.449362	2576.117836
660.790958	2575.500294
661.132503	2573.950139
661.473996	2576.984914
661.815438	2572.871332
662.156829	2574.587845
662.498168	2575.502815
662.839456	2571.704305
663.180693	2574.913000
663.521879	2574.217321
663.863013	2576.735377
664.204097	2574.560119
664.545129	2574.013154
664.886110	2574.663463
665.227040	2573.677917
665.567918	2575.253278
665.908746	2573.219172
666.249522	2576.453072
666.590248	2575.691858
666.930922	2575.472568
667.271545	2572.798236
667.612118	2575.568350
667.952639	2576.483319
668.293109	2577.783937
668.633528	2575.727146
668.973896	2572.722618
669.314213	2574.837382
669.654480	2573.330077
669.994695	2574.305541
670.334859	2572.407546
670.674973	2573.627506
671.015035	2577.209245
671.355047	2570.620457
671.695008	2570.973338
672.034918	2573.375448
672.374777	2574.557598
672.714585	2573.796384
673.054342	2574.088771
673.394049	2572.679769
673.733705	2572.861250
674.073310	2573.650191
674.412864	2578.005748
674.752368	2573.483833
675.091820	2576.072465
675.431223	2577.998186
675.770574	2576.296797
676.109875	2568.848492
676.449125	2571.154820
676.788324	2568.324212
677.127473	2569.629871
677.466571	2570.660787
677.805619	2570.842268
678.144616	2569.597103
678.483562	2570.731363
678.822458	2570.012998
679.161303	2573.425859
679.500098	2572.674727
679.838842	2571.548030
680.177535	2568.750189
680.516179	2571.495097
680.854771	2571.263204
681.193314	2574.686148
681.531805	2571.532906
681.870247	2574.303020
682.208638	2574.993658
682.546978	2575.573391
682.885268	2578.320820
683.223508	2575.197825
683.561697	2573.604820
683.899836	2575.724626
684.237925	2573.178843
684.575963	2573.070458
684.913951	2572.405026
685.251889	2574.232444
685.589776	2573.113308
685.927614	2572.384861
686.265401	2571.318657
686.603137	2573.309913
686.940824	2572.402505
687.278460	2573.884604
687.616046	2574.111456
687.953582	2575.560788
688.291068	2573.178843
688.628504	2575.326374
688.965889	2577.161354
689.303224	2574.234965
689.640510	2575.696899
689.977745	2572.347052
690.314930	2574.703792
690.652065	2573.168761
690.989150	2572.583987
691.326185	2569.007288
691.663170	2568.702298
692.000105	2568.760272
692.336990	2568.520817
692.673825	2567.807493
693.010610	2569.065261
693.347345	2565.029818
693.684030	2560.432285
694.020665	2560.185269
694.357251	2560.848181
694.693786	2562.231977
695.030272	2565.181052
695.366707	2564.256001
695.703093	2563.109138
696.039429	2562.257183
696.375716	2564.271124
696.711952	2562.027811
697.048139	2562.269786
697.384276	2564.288768
697.720363	2564.016546
698.056400	2565.042421
698.392388	2562.811710
698.728326	2562.327759
699.064214	2562.524364
699.400053	2562.017728
699.735842	2558.897254
700.071581	2561.352296
700.407270	2562.027811
700.742910	2562.506720
701.078501	2562.065619
701.414042	2558.967830
701.749533	2560.253324
702.084974	2561.884138
702.420366	2558.607388
702.755709	2561.153170
703.091002	2560.462532
703.426246	2556.888354
703.761440	2559.469425
704.096584	2558.882131
704.431679	2558.937583
704.766725	2560.923798
705.101721	2559.965979
705.436668	2559.424055
705.771565	2559.328273
706.106413	2561.062430
706.441212	2559.991184
706.775961	2558.372974
707.110661	2558.418344
707.445311	2560.152501
707.779913	2556.671585
708.114465	2560.901113
708.448967	2562.103428
708.783421	2561.939590
709.117825	2559.681153
709.452180	2565.060065
709.786485	2560.616287
710.120742	2562.673078
710.454949	2566.143913
710.789107	2559.711400
711.123216	2559.565207
711.457275	2564.412276
711.791286	2562.017728
712.125247	2564.997050
712.459159	2567.202555
712.793023	2566.877401
713.126837	2563.691391
713.460602	2567.487380
713.794318	2565.632236
714.127985	2564.437482
714.461602	2560.898592
714.795171	2562.453788
715.128691	2560.828016
715.462162	2564.538305
715.795584	2559.166956
716.128957	2559.333314
716.462281	2559.020762
716.795556	2558.337686
717.128782	2560.263407
717.461960	2560.460012
717.795088	2557.735268
718.128167	2558.070505
718.461198	2557.339538
718.794180	2559.713921
719.127113	2555.711245
719.459997	2557.677295
719.792833	2555.353323
720.125619	2557.059753
720.458357	2558.803993
720.791046	2556.694270
721.123686	2556.187634
721.456278	2554.634958
721.788821	2558.158725
722.121315	2556.573282
722.453761	2555.401214
722.786158	2555.376008
723.118506	2552.971378
723.450805	2556.900957
723.783056	2555.464228
724.115259	2557.173179
724.447412	2555.736451
724.779518	2558.851884
725.111574	2555.655792
725.443582	2557.059753
725.775542	2555.713765
726.107453	2556.331307
726.439315	2556.495144
726.771129	2560.810372
727.102895	2557.604198
727.434612	2555.882644
727.766281	2556.013714
728.097901	2558.073025
728.429473	2553.208312
728.760996	2558.098231
729.092471	2556.154866
729.423897	2559.895403
729.755276	2558.320042
730.086606	2559.807182
730.417887	2559.048489
730.749120	2557.223591
731.080305	2561.533778
731.411442	2562.027811
731.742530	2561.460681
732.073570	2559.408931
732.404562	2562.005125
732.735506	2560.384394
733.066401	2560.833057
733.397249	2560.704508
733.728048	2559.933211
734.058798	2556.056564
734.389501	2557.712583
734.720156	2557.868859
735.050762	2554.430792
735.381320	2554.559341
735.711831	2554.813919
736.042293	2555.116389
736.372707	2555.171841
736.703073	2554.914743
737.033391	2555.275185
737.363661	2557.440361
737.693883	2555.295350
738.024056	2557.621842
738.354182	2553.760318
738.684260	2557.866338
739.014290	2558.206616
739.344272	2556.154866
739.674207	2559.098900
740.004093	2560.142419
740.333931	2558.262069
740.663722	2557.316852
740.993464	2558.120916
741.323159	2558.191493
741.652806	2557.410114
741.982405	2556.043961
742.311956	2553.326779
742.641460	2553.588919
742.970915	2555.461708
743.300323	2555.265103
743.629683	2553.967006
743.958996	2554.438353
744.288260	2554.430792
744.617477	2554.024979
744.946647	2547.292518
745.275768	2550.952396
745.604842	2547.194215
745.933869	2548.207487
746.262847	2548.656150
746.591778	2551.388455
746.920662	2552.691594
747.249498	2551.615307
747.578286	2552.694114
747.907027	2553.382232
748.235720	2555.078580
748.564365	2553.737633
748.892963	2550.609597
749.221514	2554.645041
749.550017	2552.744526
749.878473	2551.075904
750.206881	2552.374001
750.535242	2550.206305
750.863555	2551.459032
751.191821	2550.687735
751.520039	2551.738816
751.848210	2549.319062
752.176334	2551.012889
752.504411	2552.396686
752.832440	2549.896274
753.160421	2553.316697
753.488356	2551.501881
753.816243	2551.237221
754.144082	2550.619679
754.471875	2552.568085
754.799620	2550.430636
755.127318	2551.111192
755.454969	2549.760163
755.782572	2552.225287
756.110129	2553.878785
756.437638	2550.808723
756.765100	2549.185471
757.092515	2548.658671
757.419882	2548.840152
757.747203	2549.500543
758.074477	2552.628579
758.401703	2550.014741
758.728882	2552.079093
759.056014	2551.829556
759.383099	2550.493651
759.710138	2551.779145
760.037129	2551.345606
760.364073	2552.300904
760.690970	2553.377191
761.017820	2551.136398
761.344623	2552.043805
761.671379	2554.551779
761.998088	2549.528270
762.324751	2552.091696
762.651366	2554.917263
762.977935	2566.370765
763.304456	2572.147927
763.630931	2575.449883
763.957359	2571.971487
764.283740	2565.349931
764.610074	2561.528736
764.936362	2560.394477
765.262602	2556.195196
765.588796	2553.924156
765.914943	2552.918446
766.241044	2551.834597
766.567097	2550.244113
766.893104	2551.471634
767.219064	2551.333003
767.544978	2548.860317
767.870845	2548.459545
768.196665	2549.732436
768.522438	2548.661191
768.848165	2546.049873
769.173846	2550.627241
769.499479	2546.959802
769.825066	2547.715975
770.150607	2547.693290
770.476101	2548.779658
770.801548	2548.822508
771.126949	2545.011396
771.452303	2545.694472
771.777611	2546.259081
772.102872	2548.346119
772.428087	2543.998124
772.753256	2544.287990
773.078378	2547.002652
773.403453	2544.925696
773.728482	2543.640202
774.053465	2542.475695
774.378401	2543.088196
774.703291	2543.814122
775.028135	2544.807229
775.352932	2545.190357
775.677683	2544.197249
776.002388	2542.989893
776.327046	2540.436549
776.651658	2543.904862
776.976224	2543.879657
777.300743	2542.626930
777.625216	2543.176416
777.949643	2544.071221
778.274024	2546.377548
778.598359	2538.619213
778.922647	2537.931095
779.246889	2539.655170
779.571086	2540.870088
779.895236	2539.637526
780.219339	2544.509801
780.543397	2542.400078
780.867409	2541.006199
781.191374	2543.947712
781.515294	2541.338915
781.839167	2543.299924
782.162995	2542.205994
782.486776	2543.045346
782.810511	2544.900490
783.134201	2543.027702
783.457844	2541.351518
783.781441	2543.126004
784.104993	2546.012065
784.428498	2546.490974
784.751958	2544.177085
785.075372	2541.195242
785.398739	2543.246992
785.722061	2543.983000
786.045337	2544.471992
786.368568	2540.880170
786.691752	2541.298586
787.014891	2544.822352
787.337983	2543.569626
787.661030	2547.766386
787.984031	2547.065666
788.306987	2548.008362
788.629897	2546.425439
788.952760	2547.325285
789.275579	2545.371838
789.598351	2545.185316
789.921078	2544.051056
790.243759	2544.673638
790.566395	2543.161292
790.888984	2543.851930
791.211529	2542.294214
791.534027	2542.417722
791.856480	2542.579039
792.178888	2543.113401
792.501249	2540.003009
792.823566	2543.602393
793.145836	2541.265818
793.468062	2546.299411
793.790241	2539.730787
794.112375	2541.429656
794.434464	2540.683565
794.756507	2540.877650
795.078505	2544.335881
795.400457	2540.502084
795.722364	2538.498225
796.044226	2541.812784
796.366042	2541.719522
796.687812	2542.062321
797.009538	2541.893442
797.331218	2543.693134
797.652852	2544.751776
797.974442	2544.318237
798.295986	2542.924358
798.617484	2543.032743
798.938938	2540.819676
799.260346	2543.138607
799.581709	2542.253885
799.903026	2541.548123
800.224299	2542.079965
800.545526	2542.460572
800.866708	2544.522404
801.187845	2540.587783
801.508936	2544.098947
801.829983	2540.723894
802.150984	2541.449821
802.471940	2541.780016
802.792851	2540.585263
803.113717	2544.217414
803.434538	2539.549306
803.755314	2542.954605
804.076045	2543.675490
804.396731	2543.204142
804.717372	2538.979655
805.037967	2539.037628
805.358518	2539.554347
805.679024	2544.552651
805.999485	2540.035777
806.319901	2544.620706
806.640272	2537.694161
806.960598	2543.294883
807.280879	2539.002340
807.601115	2542.117773
807.921306	2543.292362
808.241453	2543.680531
808.561554	2539.551826
808.881611	2542.437887
809.201623	2542.253885
809.521590	2540.917979
809.841513	2543.960315
810.161390	2542.959646
810.481223	2540.668442
810.801011	2543.115922
811.120755	2540.199614
811.440453	2539.466127
811.760107	2542.190870
812.079716	2540.444110
812.399281	2538.452855
812.718801	2539.075437
813.038276	2535.685261
813.357707	2539.410674
813.677093	2537.815149
813.996434	2537.598379
814.315731	2538.258770
814.634983	2542.332023
814.954191	2541.424615
815.273354	2541.538041
815.592473	2541.583411
815.911547	2541.464944
816.230577	2541.800181
816.549562	2542.329502
816.868502	2541.588452
817.187399	2541.427135
817.506250	2541.651467
817.825058	2543.683052
818.143821	2544.852599
818.462539	2544.807229
818.781213	2542.942002
819.099843	2544.953422
819.418429	2547.854607
819.736970	2551.383414
820.055466	2554.599670
820.373919	2554.367777
820.692327	2557.861297
821.010691	2569.534089
821.329011	2583.225862
821.647286	2617.820781
821.965517	2652.882006
822.283704	2673.240706
822.601847	2680.318486
822.919945	2661.376350
823.237999	2642.366159
823.556010	2622.509054
823.873976	2607.272166
824.191897	2592.625094
824.509775	2581.743763
824.827609	2577.710840
825.145398	2570.683472
825.463144	2568.074675
825.780845	2568.341856
826.098502	2574.663463
826.416116	2581.774010
826.733685	2591.831112
827.051210	2599.130703
827.368692	2593.819847
827.686129	2582.633527
828.003522	2573.854357
828.320872	2562.289951
828.638177	2556.626214
828.955439	2553.714948
829.272656	2550.415513
829.589830	2545.911242
829.906960	2548.363763
830.224046	2544.862682
830.541088	2544.681200
830.858086	2545.669266
831.175041	2544.471992
831.491952	2543.607434
831.808819	2542.752959
832.125642	2547.690769
832.442421	2546.425439
832.759157	2554.108158
833.075849	2555.696121
833.392497	2564.689540
833.709101	2568.404870
834.025662	2571.031311
834.342179	2567.129458
834.658653	2559.497151
834.975083	2555.617983
835.291469	2559.129147
835.607811	2548.172199
835.924110	2548.026006
836.240366	2544.671118
836.556578	2541.469985
836.872746	2541.802701
837.188871	2543.788916
837.504952	2542.768082
837.820990	2541.475026
838.136984	2538.863709
838.452935	2539.950077
838.768842	2542.619368
839.084706	2538.717515
839.400526	2542.551313
839.716303	2547.564740
840.032037	2552.714279
840.347727	2550.082797
840.663373	2550.037426
840.978977	2545.354194
841.294537	2544.285470
841.610054	2542.334543
841.925527	2537.986548
842.240957	2537.116949
842.556344	2538.803215
842.871687	2535.644932
843.186987	2538.861188
843.502244	2538.021836
843.817458	2534.246012
844.132629	2537.394212
844.447756	2534.397246
844.762840	2532.312729
845.077881	2532.398429
845.392879	2531.218799
845.707833	2534.999664
846.022745	2530.457585
846.337613	2536.824562
846.652438	2537.338760
846.967221	2533.293234
847.281960	2535.448327
847.596656	2536.706095
847.911309	2535.549150
848.225919	2537.711805
848.540485	2536.602751
848.855009	2534.422452
849.169490	2535.135775
849.483928	2535.687782
849.798323	2533.938501
850.112675	2534.974458
850.426984	2535.191228
850.741251	2535.652494
851.055474	2534.556043
851.369654	2535.957483
851.683792	2535.294572
851.997887	2536.849768
852.311938	2535.304654
852.625947	2533.210055
852.939914	2536.118800
853.253837	2536.869932
853.567718	2534.278779
853.881555	2534.608975
854.195350	2536.038142
854.509103	2534.876156
854.822812	2534.825744
855.136479	2535.302133
855.450103	2536.746424
855.763685	2537.472350
856.077224	2532.297606
856.390720	2537.573173
856.704173	2534.682072
857.017584	2534.082174
857.330953	2535.934798
857.644278	2534.435055
857.957561	2538.145344
858.270802	2534.964376
858.584000	2538.709953
858.897155	2536.229706
859.210268	2533.762061
859.523339	2533.021011
859.836367	2536.315405
860.149352	2533.958666
860.462295	2536.864891
860.775195	2531.569159
861.088054	2530.926412
861.400869	2532.683254
861.713642	2528.461288
862.026373	2533.023532
862.339062	2533.729293
862.651708	2534.218285
862.964312	2535.755837
863.276873	2534.974458
863.589392	2535.183666
863.901869	2534.732483
864.214303	2535.770961
864.526696	2535.513862
864.839045	2534.535878
865.151353	2538.374717
865.463619	2536.310364
865.775842	2536.350693
866.088023	2535.687782
866.400162	2535.586959
866.712258	2536.093595
867.024313	2535.705426
867.336325	2535.718029
867.648296	2533.741896
867.960224	2536.272556
868.272110	2539.317412
868.583954	2536.534696
868.895755	2534.515713
869.207515	2534.427493
869.519233	2539.209028
869.830909	2536.023018
870.142542	2538.563760
870.454134	2536.635519
870.765684	2536.456558
871.077191	2535.347504
871.388657	2540.421425
871.700081	2534.838347
872.011463	2535.723070
872.322803	2537.994110
872.634101	2536.456558
872.945357	2535.352545
873.256571	2537.421939
873.567744	2537.948739
873.878874	2538.031918
874.189963	2539.017464
874.501010	2541.006199
874.812015	2540.088709
875.122979	2539.844213
875.433900	2538.770447
875.744780	2540.204656
876.055618	2539.370345
876.366415	2537.729449
876.677169	2539.672814
876.987882	2538.304141
877.298554	2534.523275
877.609183	2536.048224
877.919771	2536.078471
878.230317	2536.249870
878.540822	2542.027033
878.851285	2541.182639
879.161707	2545.593649
879.472087	2547.915100
879.782425	2550.569268
880.092722	2555.050854
880.402977	2565.498645
880.713191	2584.687797
881.023363	2602.709922
881.333494	2617.757766
881.643583	2621.364712
881.953631	2617.301542
882.263637	2613.704679
882.573602	2606.634460
882.883526	2595.357399
883.193408	2589.325659
883.503248	2576.243864
883.813048	2576.334605
884.122806	2564.908830
884.432522	2561.374981
884.742197	2558.630073
885.051831	2554.566903
885.361424	2551.821995
885.670975	2548.386448
885.980485	2545.225645
886.289954	2545.666746
886.599382	2546.831252
886.908768	2543.665408
887.218113	2540.625592
887.527417	2543.196580
887.836680	2540.035777
888.145901	2540.880170
888.455082	2539.115766
888.764221	2541.228010
889.073319	2537.056455
889.382376	2538.044521
889.691392	2539.602238
890.000366	2538.341949
890.309300	2539.629964
890.618193	2540.683565
890.927044	2537.452186
891.235855	2538.596527
891.544625	2542.163144
891.853353	2540.471837
892.162041	2541.119625
892.470687	2538.765406
892.779293	2539.279604
893.087858	2540.096271
893.396381	2541.419574
893.704864	2547.121119
894.013306	2549.714792
894.321707	2557.180741
894.630068	2567.278172
894.938387	2566.353121
895.246665	2564.039231
895.554903	2561.019580
895.863100	2555.943138
896.171256	2555.640669
896.479371	2552.878116
896.787446	2550.949875
897.095480	2545.528114
897.403473	2545.150028
897.711425	2545.664225
898.019336	2542.813453
898.327207	2543.829245
898.635038	2541.628782
898.942827	2539.539223
899.250576	2540.771785
899.558284	2538.979655
899.865952	2541.079296
900.173579	2537.784902
900.481165	2538.596528
900.788711	2538.432690
901.096216	2537.452186
901.403681	2537.784902
901.711105	2537.623585
902.018489	2538.667104
902.325832	2538.309182
902.633135	2539.914789
902.940397	2541.366642
903.247619	2541.699358
903.554800	2547.867209
903.861941	2558.889692
904.169041	2568.442679
904.476101	2576.601786
904.783121	2576.697568
905.090100	2570.202042
905.397039	2564.079560
905.703938	2558.972871
906.010796	2553.230997
906.317614	2549.031716
906.624391	2546.974925
906.931129	2542.584080
907.237826	2541.129707
907.544483	2538.644418
907.851099	2536.668286
908.157675	2533.774664
908.464211	2536.075951
908.770707	2530.563449
909.077163	2531.909437
909.383578	2534.790456
909.689954	2532.486649
909.996289	2529.235105
910.302584	2533.489839
910.608839	2536.829603
910.915054	2536.496887
911.221229	2533.507483
911.527363	2535.889428
911.833458	2533.774664
912.139513	2534.530837
912.445527	2534.293903
912.751502	2533.298275
913.057436	2533.688964
913.363331	2535.705426
913.669186	2540.696168
913.975000	2538.707433
914.280775	2543.814122
914.586510	2545.608772
914.892205	2545.288659
915.197859	2552.011038
915.503475	2560.321380
915.809050	2563.835064
916.114585	2571.951322
916.420081	2572.720098
916.725536	2572.115159
917.030952	2569.007288
917.336328	2561.498489
917.641665	2558.241904
917.946961	2555.670916
918.252218	2555.035730
918.557435	2549.417364
918.862612	2547.315203
919.167750	2544.862682
919.472848	2544.363607
919.777906	2542.475695
920.082925	2538.014274
920.387904	2541.994265
920.692843	2538.525951
920.997743	2537.764737
921.302603	2537.270704
921.607423	2537.265663
921.912204	2536.068389
922.216946	2534.679551
922.521647	2537.333718
922.826310	2534.422452
923.130932	2536.403626
923.435516	2535.052596
923.740059	2535.776002
924.044564	2533.094108
924.349028	2535.831455
924.653454	2530.374406
924.957840	2530.422297
925.262186	2530.349200
925.566493	2529.643438
925.870761	2527.140505
926.174989	2533.535209
926.479178	2531.859025
926.783328	2531.352389
927.087438	2531.934643
927.391509	2534.508152
927.695541	2528.846936
927.999533	2530.175280
928.303486	2531.627132
928.607400	2530.404652
928.911275	2530.407173
929.215110	2529.764426
929.518906	2529.719056
929.822663	2530.422297
930.126381	2532.511855
930.430060	2531.478418
930.733699	2530.505476
931.037299	2534.104859
931.340861	2531.095291
931.644383	2533.189890
931.947866	2530.944056
932.251309	2532.922709
932.554714	2529.686288
932.858080	2531.092770
933.161407	2531.528830
933.464694	2530.465146
933.767943	2528.589837
934.071153	2532.693336
934.374323	2530.220650
934.677455	2533.225178
934.980548	2532.380785
935.283602	2532.221988
935.586617	2530.704601
935.889593	2530.928932
936.192530	2529.146885
936.495428	2531.672503
936.798287	2532.287523
937.101108	2533.930940
937.403890	2530.339117
937.706632	2530.235774
938.009336	2533.245343
938.312002	2531.170908
938.614628	2533.260466
938.917216	2535.042514
939.219765	2531.491021
939.522275	2533.434386
939.824747	2535.193749
940.127179	2531.846423
940.429573	2531.675023
940.731929	2528.683098
941.034246	2528.433561
941.336524	2532.668131
941.638763	2533.265507
941.940964	2531.400280
942.243126	2532.292565
942.545250	2534.273738
942.847335	2532.060672
943.149381	2531.874149
943.451389	2530.495393
943.753359	2532.761392
944.055290	2532.138809
944.357182	2532.589993
944.659036	2533.799870
944.960851	2532.116124
945.262628	2532.373223
945.564367	2531.972451
945.866067	2530.812986
946.167729	2533.691485
946.469352	2531.349869
946.770937	2531.574200
947.072484	2531.128058
947.373992	2531.715353
947.675462	2528.945238
947.976893	2530.331556
948.278286	2529.484642
948.579641	2529.421628
948.880958	2529.537574
949.182236	2533.598223
949.483476	2529.146885
949.784678	2528.849457
950.085841	2530.213089
950.386967	2532.983203
950.688054	2528.136133
950.989103	2531.135620
951.290114	2531.813655
951.591087	2528.640249
951.892021	2530.296268
952.192917	2534.170394
952.493776	2532.607637
952.794596	2531.977492
953.095378	2530.656710
953.396122	2530.986906
953.696828	2532.582431
953.997496	2532.027904
954.298126	2531.866587
954.598718	2534.344314
954.899272	2529.492204
955.199788	2529.124199
955.500266	2528.685619
955.800706	2529.852646
956.101108	2524.476256
956.401472	2525.933149
956.701798	2525.333252
957.002087	2524.352747
957.302337	2529.466998
957.602550	2527.306863
957.902724	2529.645959
958.202861	2529.656041
958.502960	2528.357944
958.803022	2528.862059
959.103045	2527.821061
959.403031	2531.523789
959.702979	2527.992460
960.002889	2529.895496
960.302762	2529.887934
960.602596	2529.459436
960.902393	2527.687471
961.202153	2531.140661
961.501875	2528.441123
961.801559	2529.096473
962.101205	2526.628828
962.400814	2530.036648
962.700385	2527.634538
962.999918	2530.865918
963.299414	2527.662265
963.598873	2529.225022
963.898293	2528.839374
964.197677	2527.203520
964.497022	2529.020856
964.796331	2526.462470
965.095601	2526.109589
965.394835	2524.516585
965.694030	2525.673530
965.993189	2527.795855
966.292309	2526.306194
966.591393	2527.314425
966.890439	2526.457429
967.189447	2526.354085
967.488419	2527.160670
967.787353	2526.654034
968.086249	2527.952131
968.385108	2526.775022
968.683930	2526.767460
968.982714	2525.681091
969.281462	2531.158305
969.580172	2527.521113
969.878844	2526.817872
970.177480	2523.760412
970.476078	2528.557070
970.774639	2528.622605
971.073162	2525.655886
971.371649	2525.015659
971.670098	2527.085053
971.968510	2524.420803
972.266885	2522.721934
972.565223	2528.862059
972.863524	2527.483304
973.161788	2527.188396
973.460014	2525.499610
973.758204	2526.376771
974.056356	2528.362985
974.354471	2526.313756
974.652550	2527.659744
974.950591	2527.692512
975.248595	2526.749816
975.546563	2528.620084
975.844493	2526.926256
976.142386	2529.714014
976.440243	2526.482635
976.738062	2528.352903
977.035845	2528.176463
977.333590	2527.256452
977.631299	2528.662934
977.928971	2529.512368
978.226606	2526.883407
978.524204	2526.943900
978.821765	2527.216123
979.119290	2528.342821
979.416777	2530.601257
979.714228	2527.684950
980.011642	2529.484642
980.309020	2529.930784
980.606360	2526.313756
980.903664	2526.442306
981.200931	2529.053623
981.498162	2527.332069
981.795356	2529.870290
982.092513	2529.466998
982.389633	2526.066740
982.686717	2527.906761
982.983764	2529.681247
983.280775	2530.129910
983.577749	2529.847605
983.874686	2527.873993
984.171587	2528.428520
984.468451	2533.336083
984.765279	2524.957686
985.062070	2530.694519
985.358824	2524.400638
985.655543	2528.428520
985.952224	2528.680578
986.248869	2528.582275
986.545478	2523.110103
986.842050	2522.613549
987.138586	2522.679084
987.435086	2524.582120
987.731549	2522.709331
988.027975	2529.993798
988.324366	2525.638242
988.620719	2527.866432
988.917037	2525.875176
989.213318	2526.346524
989.509563	2526.044054
989.805772	2526.414579
990.101944	2526.510361
990.398080	2524.874507
990.694180	2528.292409
990.990244	2528.693181
991.286271	2525.212264
991.582262	2524.768643
991.878217	2527.768129
992.174136	2524.415762
992.470019	2527.455577
992.765865	2527.203520
993.061676	2525.728982
993.357450	2527.929446
993.653188	2526.706966
993.948890	2524.821575
994.244556	2527.679909
994.540186	2527.654703
994.835780	2528.176462
995.131337	2528.914992
995.426859	2525.975999
995.722345	2525.645803
996.017795	2527.737882
996.313208	2527.780732
996.608586	2528.438602
996.903928	2525.935670
997.199234	2528.836854
997.494504	2528.834333
997.789738	2528.103366
998.084936	2527.316946
998.380099	2525.822244
998.675225	2527.634538
998.970316	2524.161183
999.265371	2526.212933
999.560390	2528.151257
999.855373	2523.425175
1000.150320	2528.902389
1000.445232	2524.675381
1000.740108	2524.819054
1001.034948	2525.754188
1001.329752	2525.691174
1001.624521	2528.693181
1001.919254	2525.139167
1002.213951	2521.060874
1002.508613	2525.565145
1002.803239	2525.008097
1003.097829	2521.706142
1003.392384	2528.751154
1003.686903	2526.538088
1003.981386	2525.116482
1004.275834	2527.407687
1004.570246	2527.531195
1004.864623	2524.637573
1005.158964	2526.525485
1005.453270	2526.515402
1005.747540	2526.885927
1006.041775	2526.568334
1006.335974	2525.723941
1006.630138	2527.193438
1006.924266	2526.528005
1007.218359	2524.274609
1007.512416	2524.945083
1007.806438	2525.918026
1008.100425	2527.470701
1008.394376	2524.917357
1008.688292	2526.477594
1008.982172	2525.907943
1009.276017	2526.495238
1009.569827	2523.299146
1009.863602	2527.755526
1010.157341	2523.815864
1010.451045	2526.986750
1010.744714	2524.299815
1011.038347	2526.182686
1011.331945	2525.023221
1011.625508	2524.317459
1011.919036	2526.119672
1012.212528	2527.281658
1012.505986	2527.838705
1012.799408	2522.573220
1013.092795	2525.512213
1013.386147	2525.345855
1013.679464	2527.077491
1013.972745	2528.259642
1014.265992	2525.512213
1014.559204	2524.992974
1014.852380	2527.153108
1015.145521	2523.853673
1015.438628	2525.139167
1015.731699	2524.730834
1016.024736	2524.703107
1016.317737	2525.429034
1016.610703	2528.867101
1016.903635	2523.473066
1017.196531	2521.723786
1017.489393	2522.858045
1017.782219	2519.793024
1018.075011	2523.493231
1018.367768	2524.793848
1018.660490	2528.284847
1018.953177	2528.284847
1019.245829	2528.284847
