Dividing Wavelength (nm)	Counts (n)	Blue Motor Position (mm): 0.000000	Red Motor Position (mm): 24.400000	
326.493990	2127.389608
326.888308	2127.389608
327.282561	2127.389608
327.676750	2094.798549
328.070874	2093.707139
328.464933	2093.845771
328.858929	2103.993613
329.252859	2112.049377
329.646726	2123.023969
330.040528	2137.557616
330.434265	2154.548825
330.827938	2170.932575
331.221547	2191.182890
331.615091	2207.226362
332.008571	2225.626573
332.401986	2246.154152
332.795338	2264.239291
333.188625	2284.713938
333.581847	2302.761268
333.975006	2321.100986
334.368100	2340.106136
334.761129	2358.781090
335.154095	2374.592669
335.546996	2392.569424
335.939833	2405.167267
336.332606	2427.159301
336.725315	2433.798501
337.117960	2444.886519
337.510540	2452.551593
337.903056	2467.259159
338.295508	2472.862402
338.687896	2480.484627
339.080220	2489.838488
339.472480	2496.356699
339.864676	2499.472132
340.256807	2503.016064
340.648875	2508.158041
341.040879	2511.999400
341.432818	2512.085099
341.824694	2512.642147
342.216506	2513.988135
342.608253	2513.486540
342.999937	2515.581140
343.391557	2515.180368
343.783113	2514.124246
344.174605	2513.428567
344.566033	2508.032012
344.957397	2509.362876
345.348697	2507.235509
345.739934	2505.171157
346.131106	2501.365086
346.522215	2497.929539
346.913260	2503.530261
347.304241	2496.959117
347.695159	2495.058602
348.086012	2497.027173
348.476802	2491.991060
348.867528	2492.538025
349.258191	2491.817140
349.648789	2492.230515
350.039324	2485.954278
350.429796	2487.484269
350.820203	2487.469145
351.210548	2484.169710
351.600828	2482.758187
351.991045	2483.345481
352.381198	2484.988898
352.771288	2483.806747
353.161314	2482.183495
353.551276	2482.412868
353.941175	2480.013279
354.331010	2483.269864
354.720782	2480.708958
355.110490	2483.993270
355.500135	2484.449494
355.889717	2484.532673
356.279235	2481.576036
356.668689	2483.993270
357.058080	2484.817498
357.447408	2481.749956
357.836672	2479.781386
358.225873	2482.559061
358.615010	2482.334730
359.004084	2484.651140
359.393095	2485.412354
359.782043	2489.820843
360.170927	2486.597026
360.559748	2485.782879
360.948505	2489.092397
361.337199	2488.535349
361.725830	2490.977788
362.114398	2492.164980
362.502903	2489.283961
362.891344	2492.555669
363.279722	2491.313025
363.668037	2491.335710
364.056289	2493.354692
364.444478	2493.891575
364.832603	2495.988695
365.220665	2495.736638
365.608665	2496.971720
365.996601	2498.468943
366.384474	2500.193018
366.772284	2497.231340
367.160031	2497.564056
367.547715	2502.847185
367.935336	2504.334325
368.322893	2507.172495
368.710388	2508.286590
369.097820	2520.650020
369.485189	2520.796213
369.872495	2527.702594
370.259738	2533.167205
370.646918	2541.278421
371.034035	2549.147663
371.421090	2557.276523
371.808081	2566.612740
372.195010	2580.506160
372.581875	2591.639548
372.968678	2606.566405
373.355418	2614.977570
373.742096	2632.054479
374.128710	2647.992087
374.515262	2661.048675
374.901751	2677.316478
375.288177	2687.048426
375.674540	2715.052036
376.060841	2730.104921
376.447079	2752.182654
376.833254	2772.498504
377.219367	2784.723302
377.605417	2821.042295
377.991404	2830.494459
378.377329	2852.741071
378.763191	2870.478370
379.148991	2910.424473
379.534727	2928.426434
379.920402	2960.944397
380.306013	2972.982672
380.691563	3024.402441
381.077049	3045.741646
381.462474	3061.011301
381.847835	3103.641818
382.233134	3122.591515
382.618371	3121.898357
383.003545	3191.594829
383.388657	3199.567414
383.773706	3230.535222
384.158693	3246.067017
384.543618	3273.289248
384.928480	3310.558498
385.313280	3355.404603
385.698017	3352.027030
386.082692	3411.190011
386.467305	3412.762851
386.851856	3446.039508
387.236344	3467.025831
387.620770	3502.702077
388.005133	3525.876261
388.389435	3553.058163
388.773674	3563.417734
389.157851	3610.421452
389.541965	3621.988380
389.926018	3586.397834
390.310008	3658.438443
390.693936	3676.193387
391.077802	3720.401785
391.461606	3706.916699
391.845348	3766.924074
392.229027	3771.256945
392.612645	3782.985190
392.996200	3864.583827
393.379694	3899.841657
393.763125	3965.911019
394.146494	3932.115123
394.529801	3993.254237
394.913047	4042.672668
395.296230	4007.833254
395.679351	4062.055905
396.062410	4087.836366
396.445408	4067.107141
396.828343	4102.279272
397.211217	4121.707878
397.594028	4045.420097
397.976778	4110.720684
398.359466	4138.628511
398.742092	4166.513654
399.124656	4089.769648
399.507158	4169.997091
399.889598	4192.634393
400.271977	4258.993621
400.654294	4225.530442
401.036549	4235.191813
401.418742	4203.583779
401.800874	4309.511024
402.182944	4326.829908
402.564952	4394.656112
402.946898	4379.920820
403.328783	4377.763206
403.710606	4288.413795
404.092367	4482.311695
404.474067	4447.850368
404.855705	4456.132983
405.237282	4383.847878
405.618797	4489.974249
406.000250	4529.607801
406.381642	4608.297692
406.762972	4568.205395
407.144240	4580.468002
407.525447	4577.831478
407.906593	4639.215088
408.287677	4684.575391
408.668700	4613.490080
409.049661	4661.963295
409.430560	4701.813616
409.811399	4624.535248
410.192176	4790.608500
410.572891	4729.217328
410.953545	4833.370087
411.334138	4712.394998
411.714669	4783.175319
412.095139	4674.354451
412.475547	4820.532789
412.855894	4796.683090
413.236180	4810.546263
413.616405	4762.594808
413.996568	4854.207697
414.376670	4788.022388
414.756711	4747.393209
415.136691	4774.716262
415.516609	4855.815825
415.896466	4887.391092
416.276262	4927.969860
416.655997	4907.822889
417.035670	5086.345270
417.415283	5177.454043
417.794834	5121.250219
418.174324	5077.939146
418.553753	4982.570597
418.933121	5166.401313
419.312428	5230.988577
419.691674	5175.167880
420.070859	5294.978463
420.449983	5211.955700
420.829045	5328.943237
421.208047	5233.647785
421.586988	5304.654958
421.965867	5308.798786
422.344686	5449.325991
422.723444	5303.934073
423.102141	5123.639726
423.480777	5418.673255
423.859352	5188.542061
424.237866	5447.611998
424.616319	5439.145381
424.994712	5548.271238
425.373044	5426.469399
425.751314	5569.832253
426.129524	5371.813209
426.507673	5564.866716
426.885762	5641.809847
427.263789	5574.792748
427.641756	5457.578360
428.019662	5577.008335
428.397508	5585.898410
428.775292	5530.299524
429.153016	5627.782837
429.530679	5550.648142
429.908282	5631.651922
430.285824	5502.570658
430.663305	5767.032109
431.040726	5503.790617
431.418086	5502.421944
431.795385	5599.272591
432.172624	5604.679229
432.549802	5595.819401
432.926920	5600.520277
433.303977	5605.916832
433.680974	5635.848683
434.057910	5642.865969
434.434786	5643.176000
434.811601	5601.778045
435.188355	5818.792156
435.565050	5692.992682
435.941683	5661.122508
436.318257	5850.140571
436.694770	5824.357590
437.071222	5843.894582
437.447614	5760.425677
437.823946	5665.105019
438.200218	5794.614782
438.576429	5652.045910
438.952580	5727.333022
439.328670	5746.938070
439.704700	5636.057891
440.080670	5609.745588
440.456580	5830.845555
440.832429	5701.146749
441.208218	5540.643972
441.583947	5659.413557
441.959616	5636.103261
442.335224	5547.936001
442.710773	5636.539321
443.086261	5625.511797
443.461689	5427.250778
443.837057	5518.843502
444.212365	5614.423779
444.587612	5492.102702
444.962800	5589.860757
445.337927	5534.304721
445.712995	5187.218758
446.088002	5603.013127
446.462949	5431.775214
446.837837	5331.458773
447.212664	5428.324544
447.587431	5483.794880
447.962139	5817.912475
448.336786	6420.607623
448.711374	6193.730494
449.085901	5503.475545
449.460369	5391.229213
449.834776	5291.726919
450.209124	5492.390047
450.583412	5520.696126
450.957640	5569.000462
451.331808	5365.012693
451.705917	5027.920817
452.079965	4933.308442
452.453954	4995.554089
452.827883	4873.679154
453.201752	4870.977095
453.575562	4705.680181
453.949311	4747.773816
454.323001	4647.333867
454.696632	4628.810147
455.070202	4637.617043
455.443713	4658.557996
455.817164	4638.088390
456.190556	4613.948825
456.563888	4591.918983
456.937160	4552.061100
457.310373	4351.035008
457.683526	4299.085918
458.056619	4200.092780
458.429653	4141.156650
458.802628	4066.043458
459.175542	4054.060635
459.548398	4115.736632
459.921194	4117.984986
460.293930	4070.704004
460.666607	4173.311650
461.039224	4213.030901
461.411782	4189.816388
461.784280	4124.044453
462.156719	4028.343189
462.529099	3928.603960
462.901419	3770.205865
463.273680	3690.404399
463.645882	3646.576608
464.018024	3561.184503
464.390106	3545.433418
464.762130	3580.746700
465.134094	3630.371819
465.505999	3796.923980
465.877845	3969.109631
466.249631	4010.752082
466.621358	3854.607383
466.993026	3675.585928
467.364634	3576.633119
467.736184	3471.784681
468.107674	3380.630537
468.479105	3340.044207
468.850477	3275.686317
469.221790	3209.359855
469.593043	3134.443268
469.964238	3084.177923
470.335373	3055.715568
470.706449	3028.856301
471.077467	3001.291272
471.448425	3074.438414
471.819324	3120.529683
472.190164	3092.601691
472.560945	2981.093889
472.931667	2906.878022
473.302330	2873.288814
473.672934	2837.547033
474.043479	2835.152485
474.413965	2814.491316
474.784393	2788.809157
475.154761	2780.012344
475.525070	2764.316712
475.895321	2746.246696
476.265513	2737.182701
476.635645	2736.718915
477.005719	2721.862634
477.375734	2717.814588
477.745691	2710.686396
478.115588	2703.197762
478.485427	2699.094263
478.855207	2703.495190
479.224928	2713.063300
479.594591	2719.006821
479.964194	2704.034594
480.333739	2689.783252
480.703226	2684.532890
481.072653	2680.878054
481.442022	2677.243382
481.811333	2676.096519
482.180584	2665.489932
482.549777	2658.666730
482.918912	2650.558034
483.287988	2646.691469
483.657005	2644.362456
484.025964	2638.716363
484.394864	2634.885087
484.763706	2633.334932
485.132489	2628.588685
485.501213	2627.267903
485.869879	2623.275309
486.238487	2621.105092
486.607036	2621.558796
486.975527	2615.695934
487.343959	2617.644340
487.712333	2616.716768
488.080648	2614.473455
488.448905	2615.254833
488.817104	2608.340891
489.185244	2610.291817
489.553326	2612.207456
489.921350	2615.096037
490.289315	2623.736575
490.657222	2622.579630
491.025070	2620.749691
491.392861	2623.199692
491.760593	2616.457149
492.128267	2614.216356
492.495883	2609.452465
492.863440	2607.070520
493.230939	2605.222937
493.598380	2605.485077
493.965763	2595.485949
494.333088	2595.611977
494.700354	2595.848912
495.067563	2597.552822
495.434713	2593.267841
495.801805	2601.096753
496.168839	2596.111052
496.535815	2598.503079
496.902733	2595.632142
497.269593	2595.193562
497.636395	2595.364961
498.003139	2593.255238
498.369825	2593.824888
498.736453	2592.350351
499.103023	2593.978644
499.469535	2593.968561
499.835989	2591.821030
500.202385	2594.112234
500.568723	2592.277254
500.935003	2592.877152
501.301226	2589.459249
501.667390	2591.364805
502.033497	2596.214395
502.399546	2591.740371
502.765537	2590.278437
503.131470	2592.075608
503.497345	2590.830443
503.863163	2588.274578
504.228923	2592.423448
504.594625	2589.406317
504.960269	2587.936821
505.325856	2590.396904
505.691385	2588.771132
506.056856	2590.525453
506.422270	2588.609815
506.787625	2586.222828
507.152924	2587.183168
507.518164	2588.972778
507.883347	2588.390525
508.248472	2586.648806
508.613540	2589.154259
508.978550	2584.450863
509.343503	2586.560586
509.708398	2588.839187
510.073236	2588.324990
510.438016	2589.633169
510.802738	2589.461770
511.167403	2586.747108
511.532010	2589.723910
511.896561	2589.920515
512.261053	2591.470670
512.625488	2587.349526
512.989866	2585.144022
513.354186	2587.543611
513.718449	2583.072107
514.082655	2587.384814
514.446803	2587.001687
514.810894	2588.907243
515.174927	2588.657706
515.538904	2587.725092
515.902822	2593.537543
516.266684	2591.092583
516.630488	2589.222315
516.994235	2588.115782
517.357925	2589.683581
517.721558	2591.059816
518.085133	2589.986050
518.448651	2591.296750
518.812112	2589.169383
519.175516	2592.589806
519.538863	2591.390011
519.902152	2590.785073
520.265385	2590.880855
520.628560	2589.958323
520.991678	2591.644589
521.354739	2589.781883
521.717743	2587.495720
522.080690	2592.027717
522.443580	2592.804055
522.806413	2591.926894
523.169189	2592.738520
523.531908	2590.313725
523.894569	2590.933787
524.257174	2591.571493
524.619722	2590.331369
524.982213	2594.255907
525.344647	2590.248190
525.707025	2592.476380
526.069345	2592.801534
526.431608	2591.606781
526.793815	2592.821699
527.155964	2590.288519
527.518057	2592.804055
527.880093	2590.999322
528.242072	2592.347830
528.603995	2593.587954
528.965860	2592.773808
529.327669	2592.574682
529.689421	2593.066195
530.051117	2588.173755
530.412755	2592.098293
530.774337	2591.717686
531.135862	2591.011925
531.497331	2588.803899
531.858743	2586.258117
532.220098	2587.853642
532.581396	2584.586974
532.942638	2585.396079
533.303824	2586.966399
533.664953	2592.607450
534.026025	2592.335228
534.387040	2589.849939
534.747999	2590.585947
535.108902	2593.086359
535.469748	2589.320617
535.830537	2593.504775
536.191270	2591.765577
536.551947	2592.894796
536.912567	2591.258941
537.273131	2588.909763
537.633638	2589.613004
537.994089	2590.147367
538.354483	2588.352716
538.714821	2591.110227
539.075103	2588.390525
539.435328	2590.737182
539.795497	2589.262644
540.155609	2592.103334
540.515665	2590.732141
540.875665	2589.388673
541.235609	2588.466142
541.595496	2592.478900
541.955328	2593.792121
542.315102	2591.405135
542.674821	2590.674167
543.034483	2589.776842
543.394090	2591.223653
543.753640	2591.737851
544.113134	2588.148549
544.472571	2592.670464
544.831953	2593.625763
545.191278	2593.071236
545.550548	2590.139805
545.909761	2592.562079
546.268918	2589.391194
546.628019	2594.354210
546.987064	2592.133581
547.346053	2594.500403
547.704986	2589.819692
548.063863	2591.679877
548.422684	2590.487645
548.781449	2588.899681
549.140158	2591.659713
549.498811	2592.667944
549.857408	2590.031420
550.215949	2587.306677
550.574434	2587.412541
550.932864	2588.705597
551.291237	2587.588981
551.649555	2592.967892
552.007817	2589.388673
552.366022	2592.675505
552.724173	2591.508478
553.082267	2590.434712
553.440305	2593.673654
553.798288	2592.045361
554.156215	2591.359764
554.514086	2590.699373
554.871902	2592.126020
555.229661	2591.306832
555.587365	2589.895309
555.945014	2590.850608
556.302606	2592.398242
556.660143	2591.654672
557.017625	2589.948241
557.375050	2590.943869
557.732421	2593.943356
558.089735	2593.439240
558.446994	2590.041502
558.804197	2591.011925
559.161345	2590.966554
559.518437	2591.657192
559.875474	2588.897161
560.232455	2594.218098
560.589381	2592.204157
560.946251	2597.900661
561.303065	2592.907398
561.659825	2593.257759
562.016528	2589.300453
562.373177	2590.749785
562.729770	2590.371698
563.086307	2593.217429
563.442789	2592.370516
563.799216	2591.173242
564.155587	2592.466297
564.511904	2592.010073
564.868164	2593.280444
565.224370	2592.627614
565.580520	2590.563262
565.936615	2590.913622
566.292654	2589.812130
566.648638	2591.276585
567.004567	2589.658375
567.360441	2592.304981
567.716260	2591.599219
568.072023	2591.969744
568.427732	2588.372881
568.783385	2589.706266
569.138982	2586.560586
569.494525	2589.459249
569.850013	2585.885071
570.205445	2589.706266
570.560823	2589.744074
570.916145	2587.810792
571.271412	2590.424630
571.626625	2589.529825
571.981782	2587.130236
572.336884	2591.074939
572.691931	2589.565113
573.046923	2587.115113
573.401860	2587.402458
573.756743	2585.998497
574.111570	2586.487489
574.466342	2589.875144
574.821059	2588.748447
575.175722	2589.648293
575.530330	2589.494537
575.884882	2592.501586
576.239380	2587.750298
576.593823	2589.471852
576.948211	2586.953796
577.302544	2586.946234
577.656823	2586.565627
578.011047	2586.278281
578.365216	2586.855493
578.719330	2586.273240
579.073389	2586.159814
579.427394	2585.771645
579.781344	2584.317272
580.135239	2589.121492
580.489080	2585.461614
580.842866	2584.695359
581.196597	2587.006728
581.550273	2586.961358
581.903895	2585.181830
582.257463	2585.212077
582.610975	2582.257961
582.964434	2584.251737
583.317837	2584.889443
583.671186	2585.791810
584.024481	2586.311049
584.377721	2585.176789
584.730906	2584.828949
585.084037	2585.348188
585.437113	2582.565471
585.790135	2584.760894
586.143103	2582.799885
586.496016	2582.744432
586.848874	2577.363001
587.201679	2581.186716
587.554428	2579.250913
587.907124	2580.145718
588.259765	2578.199832
588.612352	2582.124370
588.964884	2582.666294
589.317362	2582.928434
589.669786	2582.958681
590.022155	2581.413568
590.374470	2582.240317
590.726731	2587.309197
591.078937	2581.862230
591.431090	2583.591346
591.783188	2579.807960
592.135232	2581.247210
592.487222	2583.964392
592.839157	2584.680235
593.191038	2581.484144
593.542866	2580.060018
593.894639	2578.789647
594.246358	2582.721747
594.598022	2580.826273
594.949633	2580.339802
595.301190	2582.124370
595.652692	2579.281160
596.004141	2578.996334
596.355535	2580.969946
596.706876	2578.766962
597.058162	2579.931468
597.409395	2579.631520
597.760573	2577.030284
598.111698	2581.456417
598.462768	2578.424163
598.813785	2579.669328
599.164748	2578.020871
599.515657	2578.761921
599.866511	2578.172106
600.217312	2578.484657
600.568060	2578.935841
600.918753	2578.177147
601.269392	2577.932651
601.619978	2577.408371
601.970510	2577.166396
602.320988	2577.340315
602.671412	2578.925758
603.021783	2578.346026
603.372100	2577.635223
603.722363	2576.672363
604.072572	2577.909966
604.422728	2579.719740
604.772830	2575.094481
605.122878	2572.382341
605.472872	2576.586663
605.822813	2572.402505
606.172701	2574.252609
606.522534	2575.638926
606.872314	2577.907445
607.222041	2576.488360
607.571714	2579.447518
607.921333	2577.315110
608.270899	2575.452403
608.620411	2578.666139
608.969870	2581.017837
609.319276	2580.561613
609.668627	2581.779051
610.017926	2582.585636
610.367171	2586.353898
610.716362	2586.374063
611.065500	2581.925245
611.414585	2582.547827
611.763616	2580.241499
612.112594	2580.604462
612.461518	2577.713361
612.810389	2579.858372
613.159207	2578.895511
613.507971	2578.746797
613.856682	2579.281160
614.205340	2578.651015
614.553945	2582.018506
614.902496	2578.013309
615.250994	2580.806109
615.599439	2580.130594
615.947830	2577.569688
616.296169	2577.920048
616.644454	2578.467013
616.992686	2579.076993
617.340864	2578.456931
617.688990	2576.674883
618.037063	2580.717888
618.385082	2575.064234
618.733048	2577.617579
619.080961	2576.931982
619.428821	2580.836356
619.776628	2576.387537
620.124382	2580.642271
620.472083	2576.372414
620.819731	2575.132290
621.167326	2575.863257
621.514868	2582.520101
621.862357	2576.324523
622.209793	2578.429205
622.557176	2577.796540
622.904506	2574.232444
623.251783	2572.896538
623.599007	2573.307392
623.946179	2569.841599
624.293297	2569.597103
624.640363	2573.710685
624.987376	2573.466189
625.334336	2574.519790
625.681243	2573.390571
626.028097	2574.557598
626.374899	2570.993503
626.721647	2575.177660
627.068343	2572.662125
627.414987	2572.838565
627.761577	2571.517783
628.108115	2573.718246
628.454600	2572.798236
628.801032	2568.901424
629.147412	2572.387382
629.493739	2570.743966
629.840014	2571.250602
630.186236	2573.660273
630.532405	2568.921588
630.878521	2569.639953
631.224585	2570.406208
631.570597	2568.997206
631.916556	2570.285221
632.262462	2568.109963
632.608316	2571.366548
632.954117	2570.411249
633.299866	2568.717422
633.645562	2572.508369
633.991206	2570.910324
634.336797	2566.887483
634.682336	2569.178687
635.027823	2565.382698
635.373257	2568.276321
635.718639	2567.840261
636.063968	2567.353790
636.409245	2567.051320
636.754470	2566.481670
637.099642	2566.171639
637.444762	2566.219530
637.789829	2565.294478
638.134845	2566.398491
638.479808	2565.662482
638.824719	2565.133161
639.169577	2562.640311
639.514383	2563.421690
639.859137	2566.363203
640.203839	2564.989488
640.548489	2565.801114
640.893086	2562.315156
641.237632	2560.480176
641.582125	2563.431772
641.926566	2559.277861
642.270955	2563.348593
642.615292	2564.079560
642.959576	2566.085939
643.303809	2562.668037
643.647990	2564.137533
643.992118	2563.335990
644.336195	2563.489745
644.680219	2562.799107
645.024192	2563.290620
645.368112	2564.760116
645.711981	2564.293809
646.055797	2566.181721
646.399562	2562.796587
646.743274	2564.941598
647.086935	2568.283882
647.430544	2565.750703
647.774101	2565.382698
648.117606	2564.480332
648.461059	2566.027966
648.804460	2567.275652
649.147810	2562.635270
649.491108	2564.613922
649.834354	2564.989488
650.177548	2563.393963
650.520690	2562.063099
650.863781	2566.214489
651.206820	2567.557956
651.549807	2562.940259
651.892742	2562.378171
652.235626	2561.725341
652.578458	2562.136195
652.921238	2559.766853
653.263967	2561.236349
653.606644	2563.036041
653.949269	2558.962789
654.291843	2562.037893
654.634365	2559.958417
654.976836	2560.830537
655.319255	2560.671740
655.661622	2563.772050
656.003938	2559.701318
656.346203	2561.049827
656.688416	2561.037224
657.030577	2561.080074
657.372687	2558.388097
657.714746	2560.747358
658.056753	2558.930022
658.398708	2556.096893
658.740612	2557.241235
659.082465	2555.789383
659.424266	2557.997408
659.766016	2557.634445
660.107715	2557.158056
660.449362	2561.460681
660.790958	2560.417162
661.132503	2560.757440
661.473996	2560.979251
661.815438	2557.881462
662.156829	2560.621329
662.498168	2559.976061
662.839456	2561.667368
663.180693	2559.053530
663.521879	2561.017059
663.863013	2560.129816
664.204097	2560.192831
664.545129	2558.478838
664.886110	2561.460681
665.227040	2560.202913
665.567918	2560.843139
665.908746	2557.279044
666.249522	2560.893551
666.590248	2558.022614
666.930922	2561.253993
667.271545	2560.386915
667.612118	2562.950342
667.952639	2559.736606
668.293109	2561.410269
668.633528	2561.611915
668.973896	2560.817934
669.314213	2558.249466
669.654480	2559.338355
669.994695	2558.572100
670.334859	2560.230639
670.674973	2561.158212
671.015035	2559.567728
671.355047	2558.188972
671.695008	2560.633932
672.034918	2559.048489
672.374777	2559.711400
672.714585	2561.395146
673.054342	2560.129816
673.394049	2560.152501
673.733705	2558.950186
674.073310	2558.423386
674.412864	2558.604867
674.752368	2561.105279
675.091820	2558.735937
675.431223	2560.588561
675.770574	2557.256358
676.109875	2553.089845
676.449125	2553.644372
676.788324	2556.157387
677.127473	2555.184444
677.466571	2556.583364
677.805619	2558.521688
678.144616	2556.545556
678.483562	2559.512275
678.822458	2556.984136
679.161303	2555.325597
679.500098	2557.392470
679.838842	2555.991029
680.177535	2557.180741
680.516179	2557.470608
680.854771	2558.277192
681.193314	2560.064281
681.531805	2557.541184
681.870247	2560.699467
682.208638	2560.384394
682.546978	2562.519323
682.885268	2559.487069
683.223508	2560.172666
683.561697	2556.112017
683.899836	2559.860114
684.237925	2558.365412
684.575963	2557.349620
684.913951	2555.834753
685.251889	2560.089487
685.589776	2558.718293
685.927614	2559.020762
686.265401	2558.027655
686.603137	2560.402038
686.940824	2556.502706
687.278460	2560.976730
687.616046	2555.985988
687.953582	2560.001267
688.291068	2558.141081
688.628504	2558.435988
688.965889	2556.696790
689.303224	2560.621329
689.640510	2558.307439
689.977745	2558.378015
690.314930	2557.021945
690.652065	2557.896585
690.989150	2557.946997
691.326185	2555.280226
691.663170	2553.225956
692.000105	2558.070505
692.336990	2554.067829
692.673825	2555.572613
693.010610	2555.635627
693.347345	2552.235369
693.684030	2549.225800
694.020665	2549.987015
694.357251	2548.290666
694.693786	2552.114382
695.030272	2555.360885
695.366707	2552.280740
695.703093	2551.406099
696.039429	2553.132695
696.375716	2551.511964
696.711952	2552.114382
697.048139	2551.426264
697.384276	2552.333672
697.720363	2552.618497
698.056400	2550.145811
698.392388	2547.887374
698.728326	2551.784186
699.064214	2551.688404
699.400053	2552.782334
699.735842	2549.908877
700.071581	2551.764021
700.407270	2552.063970
700.742910	2552.192519
701.078501	2551.262427
701.414042	2549.838301
701.749533	2549.661860
702.084974	2550.430636
702.420366	2549.533311
702.755709	2549.324103
703.091002	2548.628424
703.426246	2548.439380
703.761440	2549.324103
704.096584	2547.786551
704.431679	2548.462066
704.766725	2547.365615
705.101721	2547.940306
705.436668	2547.965512
705.771565	2547.632796
706.106413	2550.856614
706.441212	2545.949050
706.775961	2550.395348
707.110661	2547.920142
707.445311	2549.729916
707.779913	2548.174720
708.114465	2547.199257
708.448967	2550.453321
708.783421	2551.683363
709.117825	2550.506253
709.452180	2548.449463
709.786485	2550.569268
710.120742	2551.343085
710.454949	2553.775442
710.789107	2552.769732
711.123216	2550.385266
711.457275	2549.437529
711.791286	2549.228321
712.125247	2549.354350
712.459159	2554.072870
712.793023	2553.846018
713.126837	2552.931048
713.460602	2551.950544
713.794318	2550.728064
714.127985	2550.339895
714.461602	2553.967006
714.795171	2550.203784
715.128691	2551.290153
715.462162	2549.321582
715.795584	2546.677497
716.128957	2551.645554
716.462281	2549.568599
716.795556	2548.996428
717.128782	2546.730429
717.461960	2549.765204
717.795088	2546.823691
718.128167	2544.867723
718.461198	2546.811088
718.794180	2546.657333
719.127113	2548.492313
719.459997	2545.835624
719.792833	2546.183464
720.125619	2546.443083
720.458357	2544.565254
720.791046	2544.850079
721.123686	2546.954761
721.456278	2545.243289
721.788821	2544.678680
722.121315	2547.547096
722.453761	2545.054246
722.786158	2547.272353
723.118506	2545.810419
723.450805	2546.117929
723.783056	2544.769420
724.115259	2547.174051
724.447412	2545.702034
724.779518	2545.833104
725.111574	2543.962836
725.443582	2547.468958
725.775542	2543.791437
726.107453	2546.659853
726.439315	2545.056766
726.771129	2548.477189
727.102895	2544.663556
727.434612	2547.993238
727.766281	2546.740512
728.097901	2545.059287
728.429473	2544.046015
728.760996	2547.473999
729.092471	2544.300593
729.423897	2546.289328
729.755276	2546.173382
730.086606	2550.967519
730.417887	2547.252189
730.749120	2548.762014
731.080305	2548.930893
731.411442	2549.863506
731.742530	2550.211346
732.073570	2550.909546
732.404562	2551.816953
732.735506	2549.621531
733.066401	2546.175902
733.397249	2547.975594
733.728048	2548.285625
734.058798	2547.867209
734.389501	2546.427960
734.720156	2545.865871
735.050762	2545.185316
735.381320	2547.534493
735.711831	2546.095244
736.042293	2547.761345
736.372707	2545.003834
736.703073	2545.182795
737.033391	2542.964687
737.363661	2546.148176
737.693883	2545.570964
738.024056	2547.655481
738.354182	2546.886705
738.684260	2546.690100
739.014290	2544.615665
739.344272	2544.555171
739.674207	2546.672456
740.004093	2545.656663
740.333931	2547.925183
740.663722	2547.426108
740.993464	2546.740512
741.323159	2549.989535
741.652806	2547.239586
741.982405	2546.453166
742.311956	2545.530635
742.641460	2546.606921
742.970915	2545.644061
743.300323	2545.223124
743.629683	2543.126004
743.958996	2543.216745
744.288260	2543.672969
744.617477	2543.257074
744.946647	2539.350180
745.275768	2541.258257
745.604842	2541.333874
745.933869	2540.192053
746.262847	2537.469830
746.591778	2543.567105
746.920662	2541.061652
747.249498	2544.363608
747.578286	2545.830583
747.907027	2544.151879
748.235720	2544.729091
748.564365	2544.121632
748.892963	2543.811601
749.221514	2544.189688
749.550017	2543.602393
749.878473	2547.226983
750.206881	2541.853113
750.535242	2544.406457
750.863555	2543.436035
751.191821	2542.760521
751.520039	2544.620706
751.848210	2542.954605
752.176334	2542.732794
752.504411	2541.790098
752.832440	2545.306303
753.160421	2545.510470
753.488356	2544.000644
753.816243	2543.478885
754.144082	2543.461241
754.471875	2540.839841
754.799620	2542.969728
755.127318	2540.257588
755.454969	2540.214738
755.782572	2544.164482
756.110129	2542.730274
756.437638	2539.410674
756.765100	2540.585263
757.092515	2540.698689
757.419882	2543.652805
757.747203	2541.424615
758.074477	2545.555840
758.401703	2541.422094
758.728882	2543.602393
759.056014	2542.841179
759.383099	2542.649615
759.710138	2543.829245
760.037129	2544.963505
760.364073	2543.650284
760.690970	2542.105171
761.017820	2544.903011
761.344623	2543.204142
761.671379	2542.647095
761.998088	2537.701723
762.324751	2543.057949
762.651366	2544.411498
762.977935	2552.205122
763.304456	2551.416182
763.630931	2556.502706
763.957359	2554.907181
764.283740	2553.344423
764.610074	2552.389124
764.936362	2545.225645
765.262602	2546.037271
765.588796	2543.824204
765.914943	2540.519728
766.241044	2541.898483
766.567097	2544.378731
766.893104	2540.086188
767.219064	2541.200283
767.544978	2541.661549
767.870845	2545.238248
768.196665	2541.689275
768.522438	2539.433359
768.848165	2538.727598
769.173846	2539.297248
769.499479	2541.386806
769.825066	2539.370345
770.150607	2538.518390
770.476101	2538.583925
770.801548	2541.192722
771.126949	2538.533513
771.452303	2539.655170
771.777611	2538.306661
772.102872	2539.050231
772.428087	2538.848585
772.753256	2539.274563
773.078378	2538.657021
773.403453	2539.143493
773.728482	2538.775488
774.053465	2539.052752
774.378401	2536.796836
774.703291	2536.396064
775.028135	2539.234233
775.352932	2537.429500
775.677683	2538.200797
776.002388	2539.413194
776.327046	2536.645601
776.651658	2537.966383
776.976224	2537.220293
777.300743	2539.529141
777.625216	2535.740714
777.949643	2537.230375
778.274024	2537.363965
778.598359	2537.346321
778.922647	2533.671320
779.246889	2534.548481
779.571086	2533.719211
779.895236	2537.782381
780.219339	2536.728780
780.543397	2538.344470
780.867409	2536.204500
781.191374	2538.762886
781.515294	2537.709284
781.839167	2537.061496
782.162995	2536.315405
782.486776	2537.910931
782.810511	2537.525282
783.134201	2538.263811
783.457844	2536.454037
783.781441	2537.245498
784.104993	2535.831455
784.428498	2536.491846
784.751958	2538.455375
785.075372	2538.432690
785.398739	2537.900848
785.722061	2534.165353
786.045337	2539.400592
786.368568	2535.390354
786.691752	2536.338091
787.014891	2538.712474
787.337983	2536.126362
787.661030	2537.089223
787.984031	2541.573329
788.306987	2538.712474
788.629897	2541.462423
788.952760	2541.916127
789.275579	2539.438400
789.598351	2538.034439
789.921078	2538.120138
790.243759	2536.953111
790.566395	2537.484953
790.888984	2539.216589
791.211529	2539.735828
791.534027	2536.660724
791.856480	2536.239788
792.178888	2537.510159
792.501249	2536.590148
792.823566	2538.785571
793.145836	2535.367668
793.468062	2536.764068
793.790241	2538.019315
794.112375	2535.450848
794.434464	2535.221475
794.756507	2536.093595
795.078505	2538.969573
795.400457	2535.478574
795.722364	2533.706608
796.044226	2534.939170
796.366042	2533.174767
796.687812	2536.239788
797.009538	2539.203987
797.331218	2538.185673
797.652852	2538.382278
797.974442	2538.616692
798.295986	2535.155940
798.617484	2538.364634
798.938938	2537.169881
799.260346	2536.670807
799.581709	2533.905734
799.903026	2537.852957
800.224299	2536.033101
800.545526	2538.793133
800.866708	2536.078471
801.187845	2534.835827
801.508936	2536.622916
801.829983	2536.108718
802.150984	2535.297092
802.471940	2536.834644
802.792851	2536.292720
803.113717	2535.723070
803.434538	2533.391536
803.755314	2536.428831
804.076045	2538.251208
804.396731	2536.517052
804.717372	2534.717360
805.037967	2537.774819
805.358518	2533.744417
805.679024	2535.707946
805.999485	2535.861702
806.319901	2535.405477
806.640272	2539.251877
806.960598	2537.890766
807.280879	2536.917823
807.601115	2537.225334
807.921306	2534.853471
808.241453	2536.050745
808.561554	2538.919161
808.881611	2537.731970
809.201623	2536.156609
809.521590	2536.204500
809.841513	2535.203831
810.161390	2536.010416
810.481223	2534.671989
810.801011	2534.621578
811.120755	2533.338604
811.440453	2537.066537
811.760107	2533.580579
812.079716	2533.716691
812.399281	2533.104190
812.718801	2532.900024
813.038276	2531.322143
813.357707	2537.432021
813.677093	2538.599048
813.996434	2537.900848
814.315731	2536.355735
814.634983	2536.189377
814.954191	2535.929757
815.273354	2535.019829
815.592473	2535.675179
815.911547	2539.027546
816.230577	2536.270035
816.549562	2538.062165
816.868502	2535.617206
817.187399	2537.006043
817.506250	2537.888245
817.825058	2536.443955
818.143821	2536.597710
818.462539	2539.400592
818.781213	2535.410518
819.099843	2538.407484
819.418429	2537.374048
819.736970	2539.098122
820.055466	2540.953267
820.373919	2541.948895
820.692327	2546.243958
821.010691	2555.013045
821.329011	2562.441185
821.647286	2583.293918
821.965517	2601.673965
822.283704	2617.220883
822.601847	2621.001749
822.919945	2614.042436
823.237999	2597.267997
823.556010	2585.665781
823.873976	2574.096333
824.191897	2567.726835
824.509775	2561.185938
824.827609	2555.043292
825.145398	2554.755946
825.463144	2554.045143
825.780845	2552.961295
826.098502	2556.666543
826.416116	2560.099569
826.733685	2567.562998
827.051210	2569.340004
827.368692	2566.524520
827.686129	2561.342214
828.003522	2556.757284
828.320872	2548.857796
828.638177	2546.314534
828.955439	2540.907897
829.272656	2542.110212
829.589830	2537.308513
829.906960	2541.268339
830.224046	2537.081661
830.541088	2538.616692
830.858086	2536.385982
831.175041	2538.291538
831.491952	2536.461599
831.808819	2538.546116
832.125642	2537.994110
832.442421	2540.456713
832.759157	2541.144831
833.075849	2546.508618
833.392497	2550.299566
833.709101	2550.922149
834.025662	2551.963147
834.342179	2550.286963
834.658653	2546.664894
834.975083	2544.098947
835.291469	2543.486447
835.607811	2537.973945
835.924110	2539.360262
836.240366	2540.164326
836.556578	2537.890766
836.872746	2536.489325
837.188871	2534.518234
837.504952	2534.795498
837.820990	2534.729963
838.136984	2531.662420
838.452935	2532.864736
838.768842	2537.119469
839.084706	2531.400280
839.400526	2539.075437
839.716303	2538.102494
840.032037	2541.195242
840.347727	2540.930582
840.663373	2539.161137
840.978977	2537.797505
841.294537	2537.547968
841.610054	2536.121321
841.925527	2532.680733
842.240957	2536.012936
842.556344	2533.492359
842.871687	2534.505631
843.186987	2532.469005
843.502244	2532.158974
843.817458	2535.350024
844.132629	2529.716535
844.447756	2533.825075
844.762840	2529.585465
845.077881	2530.308871
845.392879	2528.647810
845.707833	2531.072605
846.022745	2527.236287
846.337613	2532.857174
846.652438	2532.937832
846.967221	2532.685775
847.281960	2532.721063
847.596656	2532.776515
847.911309	2531.480939
848.225919	2534.828265
848.540485	2534.011598
848.855009	2530.689478
849.169490	2531.649818
849.483928	2530.893644
849.798323	2531.586803
850.112675	2533.724252
850.426984	2531.357431
850.741251	2533.464633
851.055474	2533.643594
851.369654	2530.318953
851.683792	2530.933974
851.997887	2530.051772
852.311938	2532.015301
852.625947	2531.193593
852.939914	2532.537061
853.253837	2533.905734
853.567718	2528.854498
853.881555	2530.437420
854.195350	2534.223327
854.509103	2529.393901
854.822812	2531.163346
855.136479	2532.675692
855.450103	2531.354910
855.763685	2530.775177
856.077224	2531.710311
856.390720	2531.916999
856.704173	2533.199972
857.017584	2530.651669
857.330953	2530.351720
857.644278	2533.147040
857.957561	2534.641742
858.270802	2535.130734
858.584000	2531.581762
858.897155	2532.032945
859.210268	2532.310209
859.523339	2535.334901
859.836367	2532.968079
860.149352	2532.196783
860.462295	2531.687626
860.775195	2526.860721
861.088054	2526.948942
861.400869	2529.923222
861.713642	2526.323838
862.026373	2529.222502
862.339062	2531.138140
862.651708	2532.403470
862.964312	2532.184180
863.276873	2532.894982
863.589392	2530.205527
863.901869	2528.955321
864.214303	2533.832637
864.526696	2529.436751
864.839045	2533.444468
865.151353	2529.323325
865.463619	2528.806607
865.775842	2533.535209
866.088023	2533.051258
866.400162	2531.780887
866.712258	2533.545291
867.024313	2535.617206
867.336325	2531.644776
867.648296	2533.242822
867.960224	2532.705939
868.272110	2530.593696
868.583954	2534.462781
868.895755	2531.995137
869.207515	2533.063861
869.519233	2528.375588
869.830909	2530.318953
870.142542	2532.617719
870.454134	2531.203675
870.765684	2530.117307
871.077191	2531.425486
871.388657	2533.036135
871.700081	2532.678213
872.011463	2533.353728
872.322803	2532.126207
872.634101	2535.181146
872.945357	2530.485311
873.256571	2531.571680
873.567744	2531.541433
873.878874	2531.919519
874.189963	2533.174767
874.501010	2534.757689
874.812015	2535.471012
875.122979	2534.266176
875.433900	2534.641742
875.744780	2532.660569
876.055618	2533.517565
876.366415	2532.738707
876.677169	2535.375230
876.987882	2531.871628
877.298554	2530.634025
877.609183	2530.487832
877.919771	2532.027904
878.230317	2530.898686
878.540822	2536.990920
878.851285	2537.895807
879.161707	2536.590148
879.472087	2537.542926
879.782425	2542.057280
880.092722	2546.110367
880.402977	2551.448949
880.713191	2563.741803
881.023363	2575.833010
881.333494	2582.038671
881.643583	2584.844073
881.953631	2581.647981
882.263637	2579.508012
882.573602	2575.643967
882.883526	2567.920919
883.193408	2562.501679
883.503248	2558.957748
883.813048	2552.903322
884.122806	2552.071532
884.432522	2548.381407
884.742197	2544.497198
885.051831	2542.241282
885.361424	2541.074255
885.670975	2540.242464
885.980485	2537.535365
886.289954	2539.418236
886.599382	2538.379758
886.908768	2539.282124
887.218113	2535.521424
887.527417	2534.155271
887.836680	2533.502442
888.145901	2534.182997
888.455082	2534.591331
888.764221	2536.423790
889.073319	2533.396577
889.382376	2532.897503
889.691392	2532.267359
890.000366	2532.451361
890.309300	2535.201310
890.618193	2534.006557
890.927044	2531.980013
891.235855	2533.068902
891.544625	2535.082843
891.853353	2532.277441
892.162041	2533.948584
892.470687	2535.609644
892.779293	2530.288706
893.087858	2536.524613
893.396381	2530.565969
893.704864	2538.092412
894.013306	2537.021167
894.321707	2544.845038
894.630068	2550.624721
894.938387	2551.118754
895.246665	2548.890564
895.554903	2545.941489
895.863100	2545.379400
896.171256	2542.435366
896.479371	2540.849923
896.787446	2540.113915
897.095480	2536.572504
897.403473	2539.849254
897.711425	2536.645601
898.019336	2536.945550
898.327207	2535.712988
898.635038	2533.305837
898.942827	2534.130065
899.250576	2535.934798
899.558284	2535.092926
899.865952	2533.643594
900.173579	2531.922040
900.481165	2533.376413
900.788711	2531.468336
901.096216	2531.710311
901.403681	2534.737524
901.711105	2530.656710
902.018489	2535.052596
902.325832	2534.656866
902.633135	2533.671320
902.940397	2534.160312
903.247619	2536.214582
903.554800	2540.300437
903.861941	2542.737835
904.169041	2554.970195
904.476101	2557.518498
904.783121	2556.837943
905.090100	2553.256203
905.397039	2548.739329
905.703938	2541.984183
906.010796	2541.149872
906.317614	2539.387989
906.624391	2539.181301
906.931129	2535.407998
907.237826	2534.019160
907.544483	2530.969262
907.851099	2534.087215
908.157675	2533.608306
908.464211	2535.649973
908.770707	2527.064888
909.077163	2530.896165
909.383578	2527.432892
909.689954	2529.716535
909.996289	2525.698735
910.302584	2531.581762
910.608839	2531.216278
910.915054	2530.197965
911.221229	2528.806607
911.527363	2530.568490
911.833458	2531.097811
912.139513	2530.933974
912.445527	2530.470187
912.751502	2532.552184
913.057436	2531.652338
913.363331	2533.169725
913.669186	2534.823224
913.975000	2535.004705
914.280775	2534.001516
914.586510	2537.434542
914.892205	2537.830272
915.197859	2542.926879
915.503475	2545.389482
915.809050	2548.847714
916.114585	2553.329300
916.420081	2554.463559
916.725536	2554.493806
917.030952	2552.815102
917.336328	2546.596839
917.641665	2546.087682
917.946961	2543.345294
918.252218	2539.952598
918.557435	2538.420087
918.862612	2536.965714
919.167750	2535.435724
919.472848	2535.087884
919.777906	2532.169056
920.082925	2533.504962
920.387904	2534.084695
920.692843	2535.806249
920.997743	2531.294416
921.302603	2531.808614
921.607423	2532.184180
921.912204	2533.973789
922.216946	2531.627132
922.521647	2532.900024
922.826310	2534.029242
923.130932	2532.957997
923.435516	2529.741741
923.740059	2531.924560
924.044564	2531.836340
924.349028	2530.954138
924.653454	2524.834177
924.957840	2525.759229
925.262186	2523.954496
925.566493	2528.317615
925.870761	2524.246883
926.174989	2531.148223
926.479178	2529.104035
926.783328	2530.276103
927.087438	2527.846267
927.391509	2529.915661
927.695541	2527.984899
927.999533	2527.294261
928.303486	2530.011442
928.607400	2531.614529
928.911275	2528.390712
929.215110	2531.027235
929.518906	2529.414066
929.822663	2525.063550
930.126381	2528.478932
930.430060	2530.056813
930.733699	2529.759385
931.037299	2529.048582
931.340861	2527.909281
931.644383	2530.586134
931.947866	2529.083870
932.251309	2527.805938
932.554714	2529.605630
932.858080	2530.603778
933.161407	2528.375588
933.464694	2527.180835
933.767943	2528.647810
934.071153	2529.605630
934.374323	2529.371216
934.677455	2528.040351
934.980548	2526.737213
935.283602	2526.313756
935.586617	2527.818541
935.889593	2530.061854
936.192530	2527.899199
936.495428	2527.115300
936.798287	2530.278624
937.101108	2529.840043
937.403890	2530.591175
937.706632	2528.869621
938.009336	2531.198634
938.312002	2527.972296
938.614628	2529.237625
938.917216	2529.628315
939.219765	2530.878521
939.522275	2530.329035
939.824747	2530.744930
940.127179	2526.984230
940.429573	2525.456760
940.731929	2527.110258
941.034246	2526.598581
941.336524	2527.531195
941.638763	2528.945238
941.940964	2529.184693
942.243126	2529.903058
942.545250	2529.678726
942.847335	2529.260311
943.149381	2528.983047
943.451389	2527.952131
943.753359	2529.540095
944.055290	2528.554549
944.357182	2528.867101
944.659036	2527.163191
944.960851	2528.524302
945.262628	2530.069416
945.564367	2527.879034
945.866067	2527.415248
946.167729	2528.458767
946.469352	2527.102697
946.770937	2527.581606
947.072484	2531.372554
947.373992	2532.388347
947.675462	2529.159488
947.976893	2525.817202
948.278286	2527.024559
948.579641	2528.496576
948.880958	2527.233767
949.182236	2528.766277
949.483476	2528.819210
949.784678	2527.889117
950.085841	2526.568334
950.386967	2527.168232
950.688054	2527.664785
950.989103	2530.218130
951.290114	2526.109589
951.591087	2525.280320
951.892021	2527.354754
952.192917	2527.805938
952.493776	2526.686802
952.794596	2530.470187
953.095378	2529.378778
953.396122	2528.950280
953.696828	2531.087729
953.997496	2529.638397
954.298126	2527.382481
954.598718	2527.216123
954.899272	2529.267872
955.199788	2528.635208
955.500266	2532.060672
955.800706	2526.326359
956.101108	2522.880730
956.401472	2524.766122
956.701798	2523.097500
957.002087	2528.620084
957.302337	2529.895496
957.602550	2526.797707
957.902724	2527.503468
958.202861	2524.907274
958.502960	2527.579086
958.803022	2528.413397
959.103045	2526.737213
959.403031	2529.429189
959.702979	2523.127747
960.002889	2527.619415
960.302762	2525.464322
960.602596	2527.163191
960.902393	2525.078673
961.202153	2527.528674
961.501875	2526.618746
961.801559	2527.722759
962.101205	2525.124044
962.400814	2524.682943
962.700385	2528.136133
962.999918	2527.916843
963.299414	2527.299302
963.598873	2523.916688
963.898293	2528.065557
964.197677	2524.761081
964.497022	2525.131606
964.796331	2525.650844
965.095601	2527.826102
965.394835	2526.936339
965.694030	2528.975485
965.993189	2525.421472
966.292309	2525.272758
966.591393	2524.009949
966.890439	2528.418438
967.189447	2524.985412
967.488419	2525.290402
967.787353	2528.584796
968.086249	2524.408200
968.385108	2526.301153
968.683930	2525.295443
968.982714	2528.128572
969.281462	2529.242667
969.580172	2524.972809
969.878844	2526.822913
970.177480	2526.344003
970.476078	2525.358457
970.774639	2526.286030
971.073162	2525.527336
971.371649	2523.747809
971.670098	2525.108920
971.968510	2524.635052
972.266885	2520.806296
972.565223	2526.515402
972.863524	2527.977337
973.161788	2527.740403
973.460014	2525.933149
973.758204	2524.846780
974.056356	2528.153777
974.354471	2526.283509
974.652550	2526.154960
974.950591	2525.918026
975.248595	2527.677388
975.546563	2527.498427
975.844493	2527.379960
976.142386	2527.120341
976.440243	2525.774353
976.738062	2527.876514
977.035845	2525.106400
977.333590	2525.918026
977.631299	2526.046575
977.928971	2525.570186
978.226606	2526.689322
978.524204	2525.436595
978.821765	2524.078004
979.119290	2524.025072
979.416777	2525.436595
979.714228	2525.812161
980.011642	2521.759074
980.309020	2527.836185
980.606360	2525.129085
980.903664	2523.946934
981.200931	2524.420803
981.498162	2525.237470
981.795356	2526.190248
982.092513	2527.470701
982.389633	2525.915505
982.686717	2525.494569
982.983764	2525.582789
983.280775	2526.820392
983.577749	2528.993129
983.874686	2528.630166
984.171587	2525.350896
984.468451	2526.228057
984.765279	2526.233098
985.062070	2527.387522
985.358824	2527.296781
985.655543	2529.134282
985.952224	2525.401307
986.248869	2526.596061
986.545478	2520.362674
986.842050	2520.879392
987.138586	2521.103724
987.435086	2521.791841
987.731549	2521.194464
988.027975	2525.948272
988.324366	2526.747295
988.620719	2526.928777
988.917037	2526.195289
989.213318	2526.061698
989.509563	2524.274609
989.805772	2525.590351
990.101944	2523.909126
990.398080	2524.723272
990.694180	2526.633869
990.990244	2524.259486
991.286271	2526.230577
991.582262	2525.401307
991.878217	2523.657068
992.174136	2525.262676
992.470019	2525.260155
992.765865	2525.829805
993.061676	2527.437933
993.357450	2525.436595
993.653188	2523.639424
993.948890	2525.015659
994.244556	2523.992305
994.540186	2525.900382
994.835780	2526.081863
995.131337	2526.255783
995.426859	2526.848118
995.722345	2523.359640
996.017795	2525.348375
996.313208	2527.029600
996.608586	2523.465504
996.903928	2526.757378
997.199234	2525.552542
997.494504	2526.326359
997.789738	2524.176307
998.084936	2527.208561
998.380099	2525.202182
998.675225	2526.429703
998.970316	2524.695546
999.265371	2525.088756
999.560390	2524.985412
999.855373	2525.487007
1000.150320	2524.385515
1000.445232	2526.522964
1000.740108	2523.836029
1001.034948	2527.964734
1001.329752	2523.972140
1001.624521	2526.202851
1001.919254	2522.205216
1002.213951	2524.130937
1002.508613	2521.605318
1002.803239	2520.057684
1003.097829	2521.393590
1003.392384	2527.778211
1003.686903	2525.668488
1003.981386	2526.301153
1004.275834	2526.016328
1004.570246	2526.114631
1004.864623	2524.715710
1005.158964	2523.273940
1005.453270	2524.178827
1005.747540	2525.706297
1006.041775	2526.785104
1006.335974	2525.124044
1006.630138	2523.573889
1006.924266	2526.535567
1007.218359	2525.464322
1007.512416	2526.853160
1007.806438	2524.146060
1008.100425	2525.323169
1008.394376	2527.269055
1008.688292	2523.987264
1008.982172	2526.238139
1009.276017	2525.451719
1009.569827	2524.377953
1009.863602	2525.988602
1010.157341	2523.349558
1010.451045	2522.207736
1010.744714	2523.750329
1011.038347	2523.493231
1011.331945	2525.716379
1011.625508	2527.039682
1011.919036	2521.998528
1012.212528	2525.272758
1012.505986	2522.878210
1012.799408	2524.062881
1013.092795	2523.379805
1013.386147	2524.067922
1013.679464	2524.370391
1013.972745	2524.153622
1014.265992	2523.687315
1014.559204	2525.915505
1014.852380	2525.812161
1015.145521	2524.083046
1015.438628	2525.630680
1015.731699	2523.951976
1016.024736	2523.210926
1016.317737	2524.637572
1016.610703	2524.292253
1016.903635	2522.333765
1017.196531	2520.466018
1017.489393	2520.554238
1017.782219	2519.568692
1018.075011	2524.935001
1018.367768	2524.224198
1018.660490	2521.958199
1018.953177	2521.958199
1019.245829	2521.958199
