Dividing Wavelength (nm)	Counts (n)	Blue Motor Position (mm): 0.000000	Red Motor Position (mm): 30.200000	
326.493990	2126.409104
326.888308	2126.409104
327.282561	2126.409104
327.676750	2093.492890
328.070874	2093.974320
328.464933	2095.958014
328.858929	2102.012440
329.252859	2113.725561
329.646726	2124.367437
330.040528	2138.333953
330.434265	2155.713331
330.827938	2171.834941
331.221547	2191.223219
331.615091	2210.314068
332.008571	2229.341904
332.401986	2249.526684
332.795338	2268.473860
333.188625	2288.368774
333.581847	2305.876701
333.975006	2321.773980
334.368100	2340.844665
334.761129	2357.697242
335.154095	2375.784902
335.546996	2394.316184
335.939833	2411.186405
336.332606	2427.091246
336.725315	2442.204625
337.117960	2448.939606
337.510540	2456.846656
337.903056	2469.142030
338.295508	2471.957515
338.687896	2485.697180
339.080220	2493.939466
339.472480	2498.496669
339.864676	2502.658142
340.256807	2507.661487
340.648875	2510.144255
341.040879	2513.179030
341.432818	2516.639782
341.824694	2516.579288
342.216506	2514.855213
342.608253	2518.086593
342.999937	2516.067611
343.391557	2517.453928
343.783113	2517.395955
344.174605	2515.530728
344.566033	2512.160717
344.957397	2514.499812
345.348697	2510.376148
345.739934	2510.212311
346.131106	2507.154851
346.522215	2506.686024
346.913260	2505.730725
347.304241	2501.329798
347.695159	2497.332163
348.086012	2496.442399
348.476802	2493.851246
348.867528	2495.270331
349.258191	2495.388798
349.648789	2492.961482
350.039324	2487.491830
350.429796	2493.452995
350.820203	2487.373363
351.210548	2489.790597
351.600828	2486.143322
351.991045	2487.766573
352.381198	2486.604587
352.771288	2485.205667
353.161314	2486.831439
353.551276	2486.975112
353.941175	2485.770276
354.331010	2487.050729
354.720782	2483.831953
355.110490	2485.994608
355.500135	2484.789772
355.889717	2487.993425
356.279235	2484.535194
356.668689	2489.228508
357.058080	2488.164824
357.447408	2486.917139
357.836672	2485.253558
358.225873	2486.929742
358.615010	2485.324134
359.004084	2489.165493
359.393095	2489.455360
359.782043	2492.921153
360.170927	2490.491317
360.559748	2494.907368
360.948505	2492.427120
361.337199	2492.820330
361.725830	2492.348982
362.114398	2493.563900
362.502903	2496.918788
362.891344	2492.979126
363.279722	2497.551453
363.668037	2496.331494
364.056289	2498.423572
364.444478	2499.683861
364.832603	2497.803511
365.220665	2498.529437
365.608665	2502.055724
365.996601	2500.606392
366.384474	2499.472133
366.772284	2503.512617
367.160031	2507.525376
367.547715	2505.967659
367.935336	2508.447907
368.322893	2512.294307
368.710388	2512.516118
369.097820	2522.106913
369.485189	2525.310567
369.872495	2529.963552
370.259738	2535.218954
370.646918	2543.496529
371.034035	2554.781152
371.421090	2563.290620
371.808081	2572.253791
372.195010	2579.157651
372.581875	2594.092070
372.968678	2607.587238
373.355418	2619.398662
373.742096	2636.871301
374.128710	2650.066521
374.515262	2665.938594
374.901751	2679.539627
375.288177	2693.085208
375.674540	2719.105123
376.060841	2737.399471
376.447079	2753.684918
376.833254	2773.859616
377.219367	2787.475772
377.605417	2825.216371
377.991404	2831.963955
378.377329	2857.583099
378.763191	2873.054400
379.148991	2913.270205
379.534727	2935.574790
379.920402	2964.599233
380.306013	2974.298413
380.691563	3025.143491
381.077049	3048.874723
381.462474	3064.840057
381.847835	3103.704833
382.233134	3126.619397
382.618371	3127.423461
383.003545	3195.688246
383.388657	3200.754606
383.773706	3233.953124
384.158693	3248.990886
384.543618	3278.849641
384.928480	3312.209476
385.313280	3356.795961
385.698017	3358.167155
386.082692	3410.690937
386.467305	3415.906011
386.851856	3447.524128
387.236344	3466.743527
387.620770	3502.878518
388.005133	3525.662012
388.389435	3556.375242
388.773674	3567.327149
389.157851	3609.014971
389.541965	3622.293370
389.926018	3585.886157
390.310008	3662.902385
390.693936	3678.252698
391.077802	3717.631671
391.461606	3706.853684
391.845348	3770.268879
392.229027	3768.388529
392.612645	3782.990231
392.996200	3860.014021
393.379694	3902.253849
393.763125	3965.245587
394.146494	3932.079835
394.529801	3995.399248
394.913047	4046.526631
395.296230	4008.607071
395.679351	4063.936255
396.062410	4088.529524
396.445408	4070.071340
396.828343	4102.193572
397.211217	4125.012355
397.594028	4044.802556
397.976778	4110.652628
398.359466	4138.522647
398.742092	4166.601874
399.124656	4089.441973
399.507158	4167.572296
399.889598	4194.313097
400.271977	4260.117798
400.654294	4227.635124
401.036549	4237.508223
401.418742	4206.164849
401.800874	4308.036486
402.182944	4331.130012
402.564952	4394.688880
402.946898	4381.508783
403.328783	4376.313874
403.710606	4287.251809
404.092367	4484.300431
404.474067	4447.295841
404.855705	4457.612562
405.237282	4383.978948
405.618797	4491.547089
406.000250	4526.903222
406.381642	4605.653607
406.762972	4569.831167
407.144240	4579.273248
407.525447	4578.559925
407.906593	4635.414058
408.287677	4682.994989
408.668700	4608.690902
409.049661	4667.117875
409.430560	4702.501734
409.811399	4633.069922
410.192176	4792.100682
410.572891	4726.790013
410.953545	4833.473431
411.334138	4718.739290
411.714669	4785.829486
412.095139	4673.431920
412.475547	4817.697140
412.855894	4801.681394
413.236180	4807.592147
413.616405	4761.992390
413.996568	4851.409857
414.376670	4789.121360
414.756711	4746.241305
415.136691	4781.151295
415.516609	4855.495712
415.896466	4889.962081
416.276262	4926.616310
416.655997	4905.083022
417.035670	5092.618986
417.415283	5177.799362
417.794834	5126.271208
418.174324	5080.721863
418.553753	4988.471268
418.933121	5170.575389
419.312428	5235.089555
419.691674	5173.395914
420.070859	5299.807888
420.449983	5214.211617
420.829045	5328.434080
421.208047	5236.803548
421.586988	5306.217715
421.965867	5321.442000
422.344686	5450.734993
422.723444	5305.421213
423.102141	5128.156600
423.480777	5422.355818
423.859352	5194.719995
424.237866	5451.072751
424.616319	5444.171411
424.994712	5550.968255
425.373044	5432.526346
425.751314	5568.355195
426.129524	5377.275299
426.507673	5570.595988
426.885762	5651.342669
427.263789	5579.602009
427.641756	5465.787879
428.019662	5587.413277
428.397508	5596.605821
428.775292	5539.716400
429.153016	5637.292974
429.530679	5564.556685
429.908282	5649.490045
430.285824	5521.137227
430.663305	5794.236696
431.040726	5531.350605
431.418086	5531.257344
431.795385	5639.737933
432.172624	5649.477442
432.549802	5639.402697
432.926920	5653.878370
433.303977	5664.784906
433.680974	5701.166913
434.057910	5725.636674
434.434786	5729.175564
434.811601	5693.264905
435.188355	5932.833138
435.565050	5805.211288
435.941683	5783.073061
436.318257	5997.100288
436.694770	5981.515561
437.071222	6017.121231
437.447614	5945.151198
437.823946	5859.113825
438.200218	6015.495459
438.576429	5880.266507
438.952580	5981.213092
439.328670	6026.114649
439.704700	5931.988745
440.080670	5917.596251
440.456580	6184.364030
440.832429	6069.259364
441.208218	5914.553915
441.583947	6076.962248
441.959616	6078.749337
442.335224	6003.507595
442.710773	6139.026413
443.086261	6164.658160
443.461689	5959.279032
443.837057	6109.707062
444.212365	6267.202791
444.587612	6155.629453
444.962800	6316.122148
445.337927	6289.335977
445.712995	5899.531276
446.088002	6480.723382
446.462949	6312.918494
446.837837	6236.890333
447.212664	6411.563793
447.587431	6555.609723
447.962139	7100.535768
448.336786	8023.724793
448.711374	7760.924402
449.085901	6842.408527
449.460369	6762.528924
449.834776	6693.225661
450.209124	7083.035403
450.583412	7232.243474
450.957640	7380.947431
451.331808	7148.222563
451.705917	6699.640529
452.079965	6621.479960
452.453954	6830.871846
452.827883	6709.894236
453.201752	6799.226003
453.575562	6602.210149
453.949311	6807.385111
454.323001	6693.318923
454.696632	6768.061590
455.070202	6907.570482
455.443713	7059.163019
455.817164	7164.462640
456.190556	7244.667398
456.563888	7314.013510
456.937160	7357.745520
457.310373	7018.062492
457.683526	7038.418671
458.056619	6935.188443
458.429653	6918.834940
458.802628	6852.858839
459.175542	6959.995961
459.548398	7314.154663
459.921194	7474.695248
460.293930	7477.823284
460.666607	8001.717636
461.039224	8312.701375
461.411782	8434.399870
461.784280	8452.608518
462.156719	8346.431736
462.529099	8221.963127
462.901419	7810.448697
463.273680	7706.893315
463.645882	7711.052267
464.018024	7574.600835
464.390106	7738.942450
464.762130	8120.593085
465.134094	8581.959485
465.505999	9589.333258
465.877845	10791.804726
466.249631	11435.542428
466.621358	11046.456092
466.993026	10424.773438
467.364634	10163.152677
467.736184	9801.235639
468.107674	9468.204413
468.479105	9482.969953
468.850477	9250.623172
469.221790	9013.547789
469.593043	8689.983850
469.964238	8541.579842
470.335373	8543.797950
470.706449	8590.088345
471.077467	8560.285044
471.448425	9823.759514
471.819324	10846.632315
472.190164	10864.808195
472.560945	9644.612030
472.931667	8859.185138
473.302330	8719.658602
473.672934	8365.840178
474.043479	8690.843367
474.413965	8625.487327
474.784393	8491.372471
475.154761	8626.099828
475.525070	8686.253396
475.895321	8504.557608
476.265513	8651.275350
476.635645	8790.290208
477.005719	8764.577803
477.375734	8848.828087
477.745691	9049.125732
478.115588	9145.439497
478.485427	9339.821348
478.855207	9796.680957
479.224928	10491.757769
479.594591	11025.121929
479.964194	10828.345529
480.333739	10754.157389
480.703226	10624.161155
481.072653	10668.762763
481.442022	10810.635956
481.811333	10935.414596
482.180584	10723.539941
482.549777	10418.681203
482.918912	10218.527231
483.287988	10180.902579
483.657005	10141.263987
484.025964	9820.523094
484.394864	9879.517197
484.763706	9797.369074
485.132489	9542.357266
485.501213	9456.589595
485.869879	9472.275145
486.238487	9267.548846
486.607036	9317.519283
486.975527	9068.876973
487.343959	9166.629987
487.712333	9133.938104
488.080648	9023.572123
488.448905	8979.991348
488.817104	8874.762303
489.185244	9008.975462
489.553326	9041.553919
489.921350	9351.045477
490.289315	10000.595630
490.657222	10182.475419
491.025070	10024.011789
491.392861	9855.856541
491.760593	9521.537300
492.128267	9214.210918
492.495883	8910.773785
492.863440	8607.661807
493.230939	8298.450033
493.598380	8181.777569
493.965763	8003.325764
494.333088	7878.698358
494.700354	7734.707881
495.067563	7715.506126
495.434713	7517.237545
495.801805	7520.370623
496.168839	7399.824031
496.535815	7273.084382
496.902733	7214.848973
497.269593	7085.878614
497.636395	7074.972077
498.003139	6980.531101
498.369825	6839.822415
498.736453	6843.394073
499.103023	6735.836014
499.469535	6668.476116
499.835989	6593.675476
500.202385	6492.229816
500.568723	6347.415110
500.935003	6385.296861
501.301226	6191.550195
501.667390	6259.242809
502.033497	6216.360234
502.399546	6088.216623
502.765537	5970.601463
503.131470	5925.755358
503.497345	5917.407208
503.863163	5699.984763
504.228923	5737.816102
504.594625	5692.803639
504.960269	5531.953023
505.325856	5541.022059
505.691385	5395.985542
506.056856	5380.781422
506.422270	5311.251307
506.787625	5223.867947
507.152924	5177.549825
507.518164	5115.150423
507.883347	5016.981513
508.248472	4934.661992
508.613540	4936.171817
508.978550	4838.098690
509.343503	4770.499337
509.708398	4739.070264
510.073236	4705.223957
510.438016	4654.492305
510.802738	4576.651848
511.167403	4532.569479
511.532010	4447.184935
511.896561	4455.107109
512.261053	4412.758896
512.625488	4323.328827
512.989866	4263.278602
513.354186	4213.101477
513.718449	4132.037203
514.082655	4128.364722
514.446803	4056.949216
514.810894	4034.745454
515.174927	3959.934731
515.538904	3922.501643
515.902822	3892.594998
516.266684	3834.442768
516.630488	3777.137451
516.994235	3749.401023
517.357925	3709.550702
517.721558	3682.202442
518.085133	3642.631905
518.448651	3608.170577
518.812112	3557.433884
519.175516	3514.878984
519.538863	3496.267044
519.902152	3453.066876
520.265385	3429.378494
520.628560	3393.246024
520.991678	3354.134232
521.354739	3333.994823
521.717743	3299.283958
522.080690	3267.189452
522.443580	3247.135742
522.806413	3216.107440
523.169189	3195.209337
523.531908	3170.905934
523.894569	3133.737507
524.257174	3111.024588
524.619722	3094.958431
524.982213	3074.589648
525.344647	3052.330434
525.707025	3028.543749
526.069345	3013.165709
526.431608	2989.986484
526.793815	2976.771099
527.155964	2951.267902
527.518057	2937.681992
527.880093	2919.145670
528.242072	2906.227713
528.603995	2886.690721
528.965860	2867.448637
529.327669	2855.939683
529.689421	2846.195132
530.051117	2833.688030
530.412755	2824.074549
530.774337	2810.803712
531.135862	2794.495579
531.497331	2788.773869
531.858743	2771.023967
532.220098	2768.115221
532.581396	2758.370671
532.942638	2752.243148
533.303824	2742.155799
533.664953	2737.364182
534.026025	2727.659961
534.387040	2725.560321
534.747999	2717.413816
535.108902	2714.356356
535.469748	2704.929399
535.830537	2703.338915
536.191270	2697.614684
536.551947	2692.293747
536.912567	2690.504137
537.273131	2685.631862
537.633638	2678.153310
537.994089	2675.254647
538.354483	2673.076868
538.714821	2674.934533
539.075103	2669.268276
539.435328	2668.224757
539.795497	2664.033038
540.155609	2661.628408
540.515665	2664.275013
540.875665	2655.198416
541.235609	2654.482572
541.595496	2655.291677
541.955328	2651.200781
542.315102	2649.338075
542.674821	2648.609628
543.034483	2645.093423
543.394090	2645.821870
543.753640	2640.006899
544.113134	2641.665438
544.472571	2638.597896
544.831953	2640.384985
545.191278	2638.207207
545.550548	2636.301651
545.909761	2636.876342
546.268918	2634.514562
546.628019	2634.761578
546.987064	2632.417442
547.346053	2628.813017
547.704986	2631.187400
548.063863	2629.468367
548.422684	2630.668161
548.781449	2628.863428
549.140158	2630.653038
549.498811	2627.903088
549.857408	2623.139198
550.215949	2624.381842
550.574434	2619.587705
550.932864	2621.457973
551.291237	2619.471759
551.649555	2621.594084
552.007817	2622.277161
552.366022	2623.219857
552.724173	2620.159876
553.082267	2621.581482
553.440305	2620.762294
553.798288	2621.591564
554.156215	2621.962089
554.514086	2618.841614
554.871902	2616.764659
555.229661	2618.904629
555.587365	2617.513270
555.945014	2615.164093
556.302606	2616.449587
556.660143	2616.096706
557.017625	2616.878085
557.375050	2614.228959
557.732421	2618.589557
558.089735	2615.653085
558.446994	2616.915894
558.804197	2616.079062
559.161345	2618.163579
559.518437	2614.659977
559.875474	2616.144597
560.232455	2616.265585
560.589381	2614.722992
560.946251	2613.258537
561.303065	2615.353136
561.659825	2614.281891
562.016528	2614.082765
562.373177	2613.561006
562.729770	2614.037395
563.086307	2612.071345
563.442789	2615.237189
563.799216	2611.657970
564.155587	2614.191150
564.511904	2612.220059
564.868164	2613.026643
565.224370	2613.266098
565.580520	2609.525562
565.936615	2610.425408
566.292654	2610.571602
566.648638	2608.560181
567.004567	2609.301231
567.360441	2610.135542
567.716260	2610.430449
568.072023	2610.992538
568.427732	2607.045314
568.783385	2607.292331
569.138982	2606.755448
569.494525	2609.273504
569.850013	2606.999944
570.205445	2609.444904
570.560823	2605.971549
570.916145	2609.270984
571.271412	2608.597990
571.626625	2609.331478
571.981782	2608.159409
572.336884	2608.260232
572.691931	2606.964656
573.046923	2605.981631
573.401860	2605.346446
573.756743	2604.799480
574.111570	2604.207145
574.466342	2607.549430
574.821059	2604.340735
575.175722	2607.831734
575.530330	2602.863677
575.884882	2608.350973
576.239380	2605.797629
576.593823	2601.232864
576.948211	2604.670931
577.302544	2604.839810
577.656823	2601.996599
578.011047	2603.017432
578.365216	2604.663369
578.719330	2604.020622
579.073389	2601.497525
579.427394	2599.665065
579.781344	2597.104159
580.135239	2603.009871
580.489080	2600.779160
580.842866	2600.801845
581.196597	2602.818307
581.550273	2603.602206
581.903895	2600.942998
582.257463	2602.203286
582.610975	2600.343100
582.964434	2602.011722
583.317837	2600.441403
583.671186	2601.515169
584.024481	2601.333687
584.377721	2601.454675
584.730906	2600.287648
585.084037	2602.752772
585.437113	2598.051896
585.790135	2602.127669
586.143103	2596.542070
586.496016	2598.873604
586.848874	2595.914447
587.201679	2598.505600
587.554428	2593.582913
587.907124	2599.642380
588.259765	2592.070567
588.612352	2594.875969
588.964884	2596.789087
589.317362	2595.755650
589.669786	2594.132399
590.022155	2596.915116
590.374470	2596.468974
590.726731	2599.914602
591.078937	2597.361258
591.431090	2596.262286
591.783188	2594.296236
592.135232	2595.856473
592.487222	2595.985023
592.839157	2597.230188
593.191038	2594.631473
593.542866	2594.782708
593.894639	2594.732296
594.246358	2591.853797
594.598022	2593.832450
594.949633	2593.182141
595.301190	2593.025866
595.652692	2594.124837
596.004141	2594.422265
596.355535	2595.102821
596.706876	2593.829930
597.058162	2594.908737
597.409395	2592.194075
597.760573	2595.251535
598.111698	2591.458067
598.462768	2595.191041
598.813785	2595.410331
599.164748	2591.495875
599.515657	2593.056112
599.866511	2590.812799
600.217312	2590.785073
600.568060	2593.356061
600.918753	2594.102152
601.269392	2591.533684
601.619978	2588.942531
601.970510	2591.778180
602.320988	2589.860021
602.671412	2592.597367
603.021783	2589.179465
603.372100	2590.069229
603.722363	2589.388673
604.072572	2590.850608
604.422728	2593.101483
604.772830	2587.334403
605.122878	2587.362129
605.472872	2588.516553
605.822813	2585.151583
606.172701	2587.379773
606.522534	2592.642738
606.872314	2590.051585
607.222041	2589.834815
607.571714	2589.499578
607.921333	2592.166349
608.270899	2590.545618
608.620411	2593.167018
608.969870	2594.437389
609.319276	2595.012080
609.668627	2596.249683
610.017926	2596.375712
610.367171	2598.845878
610.716362	2597.467122
611.065500	2597.603233
611.414585	2595.496031
611.763616	2595.808582
612.112594	2596.191710
612.461518	2593.822368
612.810389	2594.787749
613.159207	2591.972264
613.507971	2592.312542
613.856682	2593.746751
614.205340	2593.993767
614.553945	2593.940835
614.902496	2593.613160
615.250994	2591.337079
615.599439	2593.126689
615.947830	2589.222315
616.296169	2593.540063
616.644454	2591.846236
616.992686	2589.670978
617.340864	2593.136771
617.688990	2591.034610
618.037063	2593.630804
618.385082	2589.275247
618.733048	2591.770618
619.080961	2592.234404
619.428821	2591.964703
619.776628	2592.393201
620.124382	2592.095773
620.472083	2592.476380
620.819731	2591.127871
621.167326	2590.948910
621.514868	2592.380598
621.862357	2588.395566
622.209793	2591.591657
622.557176	2588.937490
622.904506	2586.046388
623.251783	2584.491192
623.599007	2584.831470
623.946179	2584.675194
624.293297	2586.066553
624.640363	2584.539083
624.987376	2586.474886
625.334336	2583.702252
625.681243	2586.623600
626.028097	2588.440936
626.374899	2587.251224
626.721647	2585.365832
627.068343	2583.800554
627.414987	2588.166193
627.761577	2583.724937
628.108115	2585.569999
628.454600	2582.915832
628.801032	2579.762590
629.147412	2583.878692
629.493739	2586.933631
629.840014	2581.990780
630.186236	2583.969433
630.532405	2583.364494
630.878521	2583.936665
631.224585	2585.070925
631.570597	2579.225707
631.916556	2581.481623
632.262462	2583.137642
632.608316	2580.990111
632.954117	2583.188054
633.299866	2581.526994
633.645562	2582.416757
633.991206	2580.153279
634.336797	2581.481623
634.682336	2579.737384
635.027823	2580.559092
635.373257	2579.964236
635.718639	2578.151941
636.063968	2579.792837
636.409245	2576.493402
636.754470	2577.468865
637.099642	2576.044739
637.444762	2576.962229
637.789829	2577.773855
638.134845	2579.926427
638.479808	2577.899883
638.824719	2575.815366
639.169577	2571.795046
639.514383	2578.620768
639.859137	2575.054152
640.203839	2577.239492
640.548489	2579.324009
640.893086	2573.062896
641.237632	2571.260684
641.582125	2574.471899
641.926566	2569.410580
642.270955	2578.673701
642.615292	2574.837383
642.959576	2575.132290
643.303809	2575.381827
643.647990	2575.066755
643.992118	2574.665983
644.336195	2574.383679
644.680219	2572.115159
645.024192	2572.848647
645.368112	2573.924934
645.711981	2572.888977
646.055797	2575.480130
646.399562	2575.059193
646.743274	2575.656570
647.086935	2576.513566
647.430544	2577.284863
647.774101	2578.681262
648.117606	2578.129256
648.461059	2579.356777
648.804460	2580.808629
649.147810	2575.911148
649.491108	2575.487691
649.834354	2575.734708
650.177548	2574.408884
650.520690	2573.478792
650.863781	2575.238154
651.206820	2579.092116
651.549807	2573.264542
651.892742	2574.275294
652.235626	2575.154975
652.578458	2574.635736
652.921238	2573.256981
653.263967	2573.924934
653.606644	2569.834037
653.949269	2568.745148
654.291843	2571.154820
654.634365	2571.220355
654.976836	2571.232957
655.319255	2571.784964
655.661622	2572.205900
656.003938	2572.163050
656.346203	2571.311095
656.688416	2572.142886
657.030577	2570.244891
657.372687	2570.794377
657.714746	2571.416960
658.056753	2570.754048
658.398708	2565.027297
658.740612	2569.818914
659.082465	2566.590055
659.424266	2568.896383
659.766016	2567.041238
660.107715	2569.395457
660.449362	2572.727660
660.790958	2568.790518
661.132503	2571.227916
661.473996	2573.090623
661.815438	2571.742114
662.156829	2572.092474
662.498168	2569.372772
662.839456	2568.775395
663.180693	2567.205076
663.521879	2569.493759
663.863013	2568.422514
664.204097	2569.992834
664.545129	2568.828327
664.886110	2571.893349
665.227040	2569.702967
665.567918	2570.943091
665.908746	2572.324367
666.249522	2571.401836
666.590248	2571.311095
666.930922	2569.660117
667.271545	2570.060889
667.612118	2574.272773
667.952639	2573.040211
668.293109	2573.372927
668.633528	2569.498801
668.973896	2570.993503
669.314213	2572.881415
669.654480	2571.243040
669.994695	2570.315467
670.334859	2572.105077
670.674973	2571.963925
671.015035	2571.290931
671.355047	2569.652556
671.695008	2570.801939
672.034918	2570.171795
672.374777	2573.793864
672.714585	2570.965776
673.054342	2569.080385
673.394049	2568.687175
673.733705	2575.333936
674.073310	2570.605334
674.412864	2573.713205
674.752368	2569.319840
675.091820	2568.828327
675.431223	2570.265056
675.770574	2568.069633
676.109875	2564.626525
676.449125	2567.288255
676.788324	2566.448902
677.127473	2565.770867
677.466571	2562.294992
677.805619	2566.980744
678.144616	2568.689695
678.483562	2570.118862
678.822458	2566.469067
679.161303	2569.856722
679.500098	2566.900086
679.838842	2567.321022
680.177535	2567.996537
680.516179	2570.249932
680.854771	2568.362020
681.193314	2569.675241
681.531805	2570.310426
681.870247	2570.166753
682.208638	2569.924778
682.546978	2572.725139
682.885268	2572.268915
683.223508	2571.442165
683.561697	2570.476784
683.899836	2571.394274
684.237925	2567.351269
684.575963	2569.415622
684.913951	2567.618450
685.251889	2570.396126
685.589776	2566.022925
685.927614	2569.415622
686.265401	2569.922257
686.603137	2570.607854
686.940824	2570.789336
687.278460	2571.326219
687.616046	2571.704305
687.953582	2571.454768
688.291068	2571.031311
688.628504	2573.191446
688.965889	2572.243709
689.303224	2572.873853
689.640510	2570.895200
689.977745	2571.331260
690.314930	2571.250602
690.652065	2570.252453
690.989150	2568.558625
691.326185	2568.394788
691.663170	2566.000240
692.000105	2564.094684
692.336990	2565.710373
692.673825	2568.488049
693.010610	2564.329097
693.347345	2562.602502
693.684030	2560.034034
694.020665	2561.296843
694.357251	2556.971533
694.693786	2561.866494
695.030272	2561.432954
695.366707	2560.790207
695.703093	2561.180897
696.039429	2561.334652
696.375716	2561.695094
696.711952	2559.139229
697.048139	2557.954558
697.384276	2561.657286
697.720363	2560.719631
698.056400	2561.347255
698.392388	2559.787018
698.728326	2559.108982
699.064214	2561.377502
699.400053	2560.626370
699.735842	2560.021431
700.071581	2559.834909
700.407270	2559.038406
700.742910	2562.415979
701.078501	2558.924980
701.414042	2557.354661
701.749533	2553.949362
702.084974	2557.279044
702.420366	2555.985988
702.755709	2557.339537
703.091002	2555.814588
703.426246	2557.899106
703.761440	2557.102603
704.096584	2556.686708
704.431679	2556.729558
704.766725	2554.960113
705.101721	2556.351471
705.436668	2555.123950
705.771565	2556.691749
706.106413	2558.841801
706.441212	2555.844835
706.775961	2558.408262
707.110661	2557.165618
707.445311	2561.460681
707.779913	2557.326935
708.114465	2558.562017
708.448967	2555.615463
708.783421	2560.765002
709.117825	2557.581513
709.452180	2558.640155
709.786485	2558.806513
710.120742	2562.133675
710.454949	2561.745506
710.789107	2563.958573
711.123216	2557.765515
711.457275	2560.407080
711.791286	2558.032696
712.125247	2560.941442
712.459159	2561.745506
712.793023	2563.726679
713.126837	2561.322049
713.460602	2561.440516
713.794318	2562.796587
714.127985	2563.252811
714.461602	2561.926988
714.795171	2559.928170
715.128691	2559.280382
715.462162	2558.834240
715.795584	2557.253838
716.128957	2560.286092
716.462281	2558.569579
716.795556	2558.103272
717.128782	2559.890361
717.461960	2558.158725
717.795088	2559.655948
718.128167	2557.997408
718.461198	2556.603529
718.794180	2556.230484
719.127113	2552.862993
719.459997	2556.611091
719.792833	2555.640669
720.125619	2556.417006
720.458357	2552.873075
720.791046	2555.433981
721.123686	2554.355174
721.456278	2553.535987
721.788821	2552.061449
722.121315	2556.197716
722.453761	2552.527756
722.786158	2551.814433
723.118506	2553.664536
723.450805	2552.454659
723.783056	2551.839639
724.115259	2555.751574
724.447412	2552.958775
724.779518	2554.803837
725.111574	2554.030020
725.443582	2555.141594
725.775542	2552.298384
726.107453	2554.642520
726.439315	2552.580688
726.771129	2560.560835
727.102895	2555.592778
727.434612	2555.950700
727.766281	2556.981616
728.097901	2552.396686
728.429473	2552.754608
728.760996	2552.958775
729.092471	2551.605225
729.423897	2557.304249
729.755276	2555.128992
730.086606	2555.602860
730.417887	2558.559497
730.749120	2558.539332
731.080305	2557.090000
731.411442	2560.396997
731.742530	2557.770556
732.073570	2556.721996
732.404562	2557.445402
732.735506	2559.993705
733.066401	2556.908519
733.397249	2560.207954
733.728048	2558.027655
734.058798	2555.612942
734.389501	2554.980277
734.720156	2553.422561
735.050762	2553.772921
735.381320	2553.319217
735.711831	2553.036913
736.042293	2553.092365
736.372707	2551.922818
736.703073	2550.241593
737.033391	2555.035730
737.363661	2553.218394
737.693883	2551.927859
738.024056	2556.351471
738.354182	2552.467262
738.684260	2553.800647
739.014290	2554.642520
739.344272	2551.786707
739.674207	2554.501368
740.004093	2554.488765
740.333931	2553.672098
740.663722	2556.827860
740.993464	2554.433312
741.323159	2554.645041
741.652806	2553.460370
741.982405	2556.270813
742.311956	2553.848538
742.641460	2553.588919
742.970915	2554.103117
743.300323	2551.015410
743.629683	2553.299053
743.958996	2550.014741
744.288260	2551.501881
744.617477	2550.833928
744.946647	2548.971222
745.275768	2549.785368
745.604842	2545.298742
745.933869	2549.974412
746.262847	2547.370656
746.591778	2547.138763
746.920662	2549.871068
747.249498	2552.096738
747.578286	2549.881150
747.907027	2549.450132
748.235720	2550.964998
748.564365	2551.847200
748.892963	2550.168496
749.221514	2551.259906
749.550017	2551.897612
749.878473	2553.372149
750.206881	2551.781665
750.535242	2554.322407
750.863555	2547.957950
751.191821	2550.627241
751.520039	2551.890050
751.848210	2552.341233
752.176334	2549.674463
752.504411	2550.579350
752.832440	2549.598846
753.160421	2550.092879
753.488356	2551.085986
753.816243	2548.414175
754.144082	2548.991387
754.471875	2549.606408
754.799620	2547.642878
755.127318	2550.060111
755.454969	2549.757642
755.782572	2550.909546
756.110129	2549.475337
756.437638	2550.770914
756.765100	2550.072714
757.092515	2549.782848
757.419882	2548.693959
757.747203	2551.030533
758.074477	2548.575492
758.401703	2547.350491
758.728882	2548.018444
759.056014	2545.437373
759.383099	2550.042467
759.710138	2549.145142
760.037129	2549.523228
760.364073	2551.479196
760.690970	2551.189330
761.017820	2549.785368
761.344623	2549.213197
761.671379	2551.632951
761.998088	2546.861499
762.324751	2552.265616
762.651366	2554.629917
762.977935	2563.638459
763.304456	2568.392267
763.630931	2574.023236
763.957359	2569.032494
764.283740	2565.649880
764.610074	2561.838767
764.936362	2555.411296
765.262602	2555.943138
765.588796	2554.163611
765.914943	2548.245296
766.241044	2552.101779
766.567097	2549.195553
766.893104	2547.347971
767.219064	2551.396017
767.544978	2547.617672
767.870845	2547.247148
768.196665	2547.375697
768.522438	2544.106509
768.848165	2547.829401
769.173846	2543.872095
769.499479	2545.200439
769.825066	2546.304452
770.150607	2546.100285
770.476101	2544.562733
770.801548	2546.705223
771.126949	2546.105326
771.452303	2545.293700
771.777611	2543.302445
772.102872	2542.410160
772.428087	2544.817311
772.753256	2545.966694
773.078378	2543.642723
773.403453	2543.967877
773.728482	2542.775644
774.053465	2542.863864
774.378401	2543.559543
774.703291	2543.685572
775.028135	2542.647095
775.352932	2543.864533
775.677683	2545.190357
776.002388	2542.745397
776.327046	2541.689275
776.651658	2542.193391
776.976224	2542.533669
777.300743	2543.695655
777.625216	2540.436549
777.949643	2542.619368
778.274024	2540.993596
778.598359	2537.772299
778.922647	2537.363965
779.246889	2539.939995
779.571086	2537.190046
779.895236	2542.261446
780.219339	2540.804553
780.543397	2542.034594
780.867409	2542.203473
781.191374	2543.501570
781.515294	2542.556354
781.839167	2545.679349
782.162995	2538.704912
782.486776	2543.375541
782.810511	2543.617517
783.134201	2542.352187
783.457844	2540.870088
783.781441	2543.683052
784.104993	2542.989893
784.428498	2542.581560
784.751958	2539.050231
785.075372	2543.499050
785.398739	2541.094419
785.722061	2539.846734
786.045337	2541.308668
786.368568	2543.398227
786.691752	2541.626261
787.014891	2545.225645
787.337983	2542.332023
787.661030	2543.241951
787.984031	2543.793957
788.306987	2545.898639
788.629897	2547.105995
788.952760	2545.553320
789.275579	2546.173382
789.598351	2544.711447
789.921078	2541.028884
790.243759	2544.504760
790.566395	2543.393185
790.888984	2544.265305
791.211529	2544.237579
791.534027	2541.419574
791.856480	2540.302958
792.178888	2543.433515
792.501249	2541.643905
792.823566	2545.056766
793.145836	2541.086857
793.468062	2540.514687
793.790241	2541.467465
794.112375	2542.163144
794.434464	2540.386137
794.756507	2542.876467
795.078505	2542.137938
795.400457	2539.791281
795.722364	2537.981507
796.044226	2539.904707
796.366042	2539.645087
796.687812	2541.386806
797.009538	2543.562064
797.331218	2543.468803
797.652852	2543.269677
797.974442	2543.196580
798.295986	2541.356559
798.617484	2543.829245
798.938938	2541.018802
799.260346	2541.162475
799.581709	2540.497043
799.903026	2539.607279
800.224299	2542.916796
800.545526	2540.681045
800.866708	2539.642567
801.187845	2538.455375
801.508936	2541.495191
801.829983	2540.446631
802.150984	2541.497712
802.471940	2539.667773
802.792851	2543.347815
803.113717	2538.962011
803.434538	2539.970242
803.755314	2540.517207
804.076045	2539.206507
804.396731	2540.502084
804.717372	2538.692309
805.037967	2541.505273
805.358518	2538.089892
805.679024	2542.732794
805.999485	2541.376724
806.319901	2538.566281
806.640272	2540.328164
806.960598	2539.687937
807.280879	2542.193391
807.601115	2539.907227
807.921306	2541.739687
808.241453	2539.234233
808.561554	2538.803215
808.881611	2539.947557
809.201623	2542.957126
809.521590	2540.098791
809.841513	2542.447969
810.161390	2540.449152
810.481223	2539.939995
810.801011	2539.907227
811.120755	2537.961342
811.440453	2540.718853
811.760107	2541.336395
812.079716	2535.231557
812.399281	2534.341794
812.718801	2537.502597
813.038276	2535.975127
813.357707	2539.292207
813.677093	2537.797505
813.996434	2537.540406
814.315731	2539.846734
814.634983	2540.244985
814.954191	2540.212217
815.273354	2540.131559
815.592473	2540.670962
815.911547	2539.297248
816.230577	2540.759182
816.549562	2543.403268
816.868502	2537.248019
817.187399	2542.649615
817.506250	2540.461754
817.825058	2541.321271
818.143821	2541.747249
818.462539	2540.260108
818.781213	2543.471323
819.099843	2541.273380
819.418429	2545.631458
819.736970	2551.038095
820.055466	2552.736964
820.373919	2551.902653
820.692327	2556.845504
821.010691	2561.478325
821.329011	2577.103381
821.647286	2608.920624
821.965517	2639.986734
822.283704	2660.859632
822.601847	2664.796773
822.919945	2652.188847
823.237999	2631.016001
823.556010	2611.791561
823.873976	2597.870414
824.191897	2585.627972
824.509775	2577.700758
824.827609	2571.537947
825.145398	2568.795560
825.463144	2566.743810
825.780845	2568.490570
826.098502	2568.785477
826.416116	2579.056828
826.733685	2586.989084
827.051210	2593.093921
827.368692	2587.664598
827.686129	2579.326530
828.003522	2566.189283
828.320872	2559.202244
828.638177	2556.626214
828.955439	2546.475851
829.272656	2545.649102
829.589830	2542.984852
829.906960	2546.934596
830.224046	2543.977959
830.541088	2546.012065
830.858086	2543.211704
831.175041	2542.916796
831.491952	2538.919161
831.808819	2542.261446
832.125642	2543.478885
832.442421	2541.560726
832.759157	2550.251675
833.075849	2557.891544
833.392497	2563.837585
833.709101	2565.677606
834.025662	2566.506876
834.342179	2562.279868
834.658653	2554.831563
834.975083	2553.505740
835.291469	2554.952551
835.607811	2547.219421
835.924110	2544.802188
836.240366	2541.832948
836.556578	2543.972918
836.872746	2543.035263
837.188871	2540.860006
837.504952	2541.313709
837.820990	2539.584594
838.136984	2537.573173
838.452935	2537.132072
838.768842	2540.522248
839.084706	2539.261960
839.400526	2541.356559
839.716303	2543.277239
840.032037	2547.970553
840.347727	2548.661191
840.663373	2546.972405
840.978977	2544.179605
841.294537	2542.294214
841.610054	2540.129038
841.925527	2538.785571
842.240957	2537.825231
842.556344	2536.713657
842.871687	2535.990251
843.186987	2537.764737
843.502244	2535.468492
843.817458	2534.316588
844.132629	2535.150899
844.447756	2537.588297
844.762840	2532.264838
845.077881	2531.455733
845.392879	2530.434899
845.707833	2532.131248
846.022745	2529.267872
846.337613	2533.416742
846.652438	2536.564943
846.967221	2533.399098
847.281960	2535.357586
847.596656	2536.088553
847.911309	2535.120652
848.225919	2535.932278
848.540485	2532.804242
848.855009	2536.154088
849.169490	2533.424304
849.483928	2537.013605
849.798323	2534.175436
850.112675	2537.394212
850.426984	2532.337935
850.741251	2534.470343
851.055474	2534.412370
851.369654	2533.575538
851.683792	2534.026722
851.997887	2534.656866
852.311938	2533.376413
852.625947	2533.857843
852.939914	2533.875487
853.253837	2535.783564
853.567718	2531.150743
853.881555	2534.901362
854.195350	2533.411701
854.509103	2534.457740
854.822812	2532.647966
855.136479	2534.031763
855.450103	2532.653007
855.763685	2536.552340
856.077224	2533.273069
856.390720	2534.898841
856.704173	2534.845909
857.017584	2534.462781
857.330953	2532.148892
857.644278	2533.872966
857.957561	2536.943029
858.270802	2534.432534
858.584000	2533.567977
858.897155	2533.298275
859.210268	2535.864222
859.523339	2534.745086
859.836367	2533.295754
860.149352	2537.326157
860.462295	2535.453368
860.775195	2531.831299
861.088054	2530.117307
861.400869	2532.796680
861.713642	2527.311905
862.026373	2532.957997
862.339062	2531.642256
862.651708	2534.770292
862.964312	2535.647452
863.276873	2536.020498
863.589392	2535.975128
863.901869	2536.118800
864.214303	2532.824406
864.526696	2533.542771
864.839045	2534.510672
865.151353	2534.853471
865.463619	2534.543440
865.775842	2533.784746
866.088023	2534.883718
866.400162	2537.053934
866.712258	2534.014119
867.024313	2532.786598
867.336325	2535.339942
867.648296	2532.345497
867.960224	2536.380940
868.272110	2538.004192
868.583954	2534.795498
868.895755	2535.773481
869.207515	2535.166022
869.519233	2536.519572
869.830909	2537.411856
870.142542	2537.663914
870.454134	2536.522093
870.765684	2539.362783
871.077191	2536.990920
871.388657	2536.529654
871.700081	2534.309026
872.011463	2535.334901
872.322803	2535.178625
872.634101	2535.927237
872.945357	2536.527134
873.256571	2538.755324
873.567744	2538.893956
873.878874	2536.617875
874.189963	2537.837834
874.501010	2535.251722
874.812015	2532.584952
875.122979	2537.038811
875.433900	2539.778678
875.744780	2536.348173
876.055618	2535.226516
876.366415	2537.384130
876.677169	2538.977135
876.987882	2538.097453
877.298554	2533.590662
877.609183	2535.720549
877.919771	2535.697864
878.230317	2538.702392
878.540822	2541.182639
878.851285	2542.619368
879.161707	2542.309337
879.472087	2544.794626
879.782425	2546.344781
880.092722	2552.958775
880.402977	2564.331618
880.713191	2576.669842
881.023363	2594.283633
881.333494	2606.626899
881.643583	2607.667897
881.953631	2608.693772
882.263637	2602.591455
882.573602	2598.450147
882.883526	2591.120309
883.193408	2579.381983
883.503248	2574.040880
883.813048	2566.837071
884.122806	2562.360527
884.432522	2559.711400
884.742197	2553.571275
885.051831	2552.285781
885.361424	2550.165976
885.670975	2547.572302
885.980485	2545.507949
886.289954	2545.911242
886.599382	2543.050387
886.908768	2542.483257
887.218113	2541.646426
887.527417	2541.696837
887.836680	2539.362783
888.145901	2540.746580
888.455082	2539.945036
888.764221	2537.976466
889.073319	2537.774819
889.382376	2537.719367
889.691392	2537.716846
890.000366	2537.520241
890.309300	2538.624254
890.618193	2538.009233
890.927044	2537.926054
891.235855	2538.127700
891.544625	2538.878832
891.853353	2538.581404
892.162041	2542.916796
892.470687	2539.501415
892.779293	2537.996630
893.087858	2540.348328
893.396381	2540.096271
893.704864	2543.362938
894.013306	2544.461910
894.321707	2553.785524
894.630068	2559.817265
894.938387	2560.137378
895.246665	2562.476473
895.554903	2557.926832
895.863100	2552.973898
896.171256	2548.457024
896.479371	2551.017931
896.787446	2546.148176
897.095480	2544.121632
897.403473	2541.220448
897.711425	2540.683565
898.019336	2541.354039
898.327207	2539.917310
898.635038	2541.598535
898.942827	2539.330015
899.250576	2540.013092
899.558284	2537.555529
899.865952	2540.557536
900.173579	2536.481763
900.481165	2538.823379
900.788711	2538.452855
901.096216	2536.504449
901.403681	2537.605941
901.711105	2535.828934
902.018489	2540.287835
902.325832	2536.542257
902.633135	2540.549975
902.940397	2538.079809
903.247619	2539.811446
903.554800	2546.201108
903.861941	2554.035061
904.169041	2567.189952
904.476101	2570.842268
904.783121	2569.193811
905.090100	2566.272462
905.397039	2559.260217
905.703938	2552.278219
906.010796	2552.431974
906.317614	2547.471479
906.624391	2542.498381
906.931129	2539.398071
907.237826	2537.245498
907.544483	2538.389840
907.851099	2539.095602
908.157675	2535.062679
908.464211	2533.449509
908.770707	2532.380785
909.077163	2532.932791
909.383578	2527.959693
909.689954	2531.697708
909.996289	2528.610002
910.302584	2532.746268
910.608839	2531.964890
910.915054	2533.089067
911.221229	2534.611495
911.527363	2533.865405
911.833458	2533.673841
912.139513	2536.302802
912.445527	2535.944881
912.751502	2535.445806
913.057436	2536.338091
913.363331	2537.096784
913.669186	2537.185004
913.975000	2535.828934
914.280775	2539.677855
914.586510	2541.971580
914.892205	2544.945861
915.197859	2548.822508
915.503475	2553.561193
915.809050	2560.288612
916.114585	2566.486711
916.420081	2568.309088
916.725536	2569.266907
917.030952	2561.432954
917.336328	2557.972202
917.641665	2555.433981
917.946961	2554.670247
918.252218	2549.477858
918.557435	2548.000800
918.862612	2546.934596
919.167750	2542.437887
919.472848	2538.813297
919.777906	2540.287835
920.082925	2538.349511
920.387904	2536.401105
920.692843	2539.627443
920.997743	2536.401105
921.302603	2535.249201
921.607423	2537.134593
921.912204	2536.895138
922.216946	2534.903882
922.521647	2537.366486
922.826310	2536.249870
923.130932	2534.593851
923.435516	2533.593182
923.740059	2531.191073
924.044564	2533.550332
924.349028	2533.179808
924.653454	2526.044054
924.957840	2530.765095
925.262186	2527.042203
925.566493	2531.554036
925.870761	2526.170083
926.174989	2531.060003
926.479178	2528.640249
926.783328	2529.751823
927.087438	2531.755682
927.391509	2533.638553
927.695541	2531.569159
927.999533	2531.281813
928.303486	2531.256607
928.607400	2530.331556
928.911275	2532.305168
929.215110	2529.570342
929.518906	2530.583613
929.822663	2531.120496
930.126381	2529.865249
930.430060	2531.604447
930.733699	2529.782070
931.037299	2533.189890
931.340861	2531.864067
931.644383	2532.557225
931.947866	2531.120496
932.251309	2533.436907
932.554714	2529.643438
932.858080	2532.776515
933.161407	2530.013963
933.464694	2531.997657
933.767943	2530.200486
934.071153	2531.170908
934.374323	2529.809796
934.677455	2532.000178
934.980548	2529.764426
935.283602	2530.525640
935.586617	2529.877852
935.889593	2533.464633
936.192530	2530.170239
936.495428	2530.865918
936.798287	2532.022863
937.101108	2531.407842
937.403890	2532.340456
937.706632	2533.449509
938.009336	2532.128727
938.312002	2532.017822
938.614628	2533.106711
938.917216	2530.780218
939.219765	2531.576721
939.522275	2533.772143
939.824747	2532.237112
940.127179	2527.503468
940.429573	2528.143695
940.731929	2530.974303
941.034246	2526.974147
941.336524	2529.298119
941.638763	2531.390198
941.940964	2534.616537
942.243126	2532.877338
942.545250	2532.398429
942.847335	2530.424817
943.149381	2529.565300
943.451389	2530.876000
943.753359	2530.228212
944.055290	2531.024714
944.357182	2532.952956
944.659036	2530.916330
944.960851	2532.973120
945.262628	2529.585465
945.564367	2532.007739
945.866067	2532.123686
946.167729	2530.029087
946.469352	2532.398429
946.770937	2529.348531
947.072484	2528.826771
947.373992	2530.908768
947.675462	2531.576721
947.976893	2532.403470
948.278286	2530.838192
948.579641	2531.455733
948.880958	2530.628984
949.182236	2532.423635
949.483476	2530.964221
949.784678	2530.089580
950.085841	2530.387008
950.386967	2533.225178
950.688054	2531.538912
950.989103	2531.153264
951.290114	2529.708973
951.591087	2530.167718
951.892021	2532.998326
952.192917	2533.419262
952.493776	2532.461443
952.794596	2528.068078
953.095378	2531.841381
953.396122	2528.463808
953.696828	2532.083357
953.997496	2532.158974
954.298126	2530.825589
954.598718	2528.902389
954.899272	2531.768285
955.199788	2529.177132
955.500266	2532.227030
955.800706	2530.611340
956.101108	2526.941380
956.401472	2527.271575
956.701798	2525.592871
957.002087	2525.519774
957.302337	2528.342821
957.602550	2529.782070
957.902724	2528.413397
958.202861	2529.146885
958.502960	2529.182173
958.803022	2528.224353
959.103045	2530.941535
959.403031	2529.081350
959.702979	2527.765608
960.002889	2528.052954
960.302762	2526.825433
960.602596	2528.335259
960.902393	2527.475742
961.202153	2529.706453
961.501875	2525.066071
961.801559	2528.844415
962.101205	2529.174611
962.400814	2530.359282
962.700385	2528.126051
962.999918	2529.096473
963.299414	2527.591689
963.598873	2528.446164
963.898293	2525.902902
964.197677	2529.555218
964.497022	2529.293078
964.796331	2526.543129
965.095601	2527.805938
965.394835	2528.604961
965.694030	2529.262831
965.993189	2530.296268
966.292309	2528.481452
966.591393	2527.886596
966.890439	2526.230577
967.189447	2526.767460
967.488419	2528.579755
967.787353	2525.771832
968.086249	2527.954652
968.385108	2528.534384
968.683930	2527.011956
968.982714	2526.424662
969.281462	2527.969775
969.580172	2527.717718
969.878844	2527.407687
970.177480	2525.635721
970.476078	2527.979858
970.774639	2530.686957
971.073162	2529.187214
971.371649	2523.263858
971.670098	2523.702438
971.968510	2523.301667
972.266885	2523.221008
972.565223	2528.521782
972.863524	2524.849301
973.161788	2528.446164
973.460014	2526.855680
973.758204	2529.807276
974.056356	2528.584796
974.354471	2526.676719
974.652550	2528.136133
974.950591	2526.621267
975.248595	2527.851308
975.546563	2526.684281
975.844493	2527.407687
976.142386	2527.448016
976.440243	2530.296268
976.738062	2529.005732
977.035845	2527.523633
977.333590	2526.603623
977.631299	2527.460619
977.928971	2528.020187
978.226606	2528.821730
978.524204	2525.802079
978.821765	2528.836854
979.119290	2526.918695
979.416777	2526.419620
979.714228	2530.288706
980.011642	2530.732327
980.309020	2532.622760
980.606360	2526.205371
980.903664	2527.758047
981.200931	2527.763088
981.498162	2529.547656
981.795356	2527.019518
982.092513	2529.257790
982.389633	2527.185876
982.686717	2527.921884
982.983764	2527.879034
983.280775	2530.634025
983.577749	2528.562111
983.874686	2531.438089
984.171587	2527.717718
984.468451	2526.200330
984.765279	2528.799045
985.062070	2526.560773
985.358824	2527.337110
985.655543	2528.393232
985.952224	2526.785104
986.248869	2527.024559
986.545478	2521.633045
986.842050	2525.474404
987.138586	2522.542973
987.435086	2524.796369
987.731549	2523.873838
988.027975	2527.206040
988.324366	2525.474404
988.620719	2527.415248
988.917037	2525.706297
989.213318	2526.177645
989.509563	2527.379960
989.805772	2526.429703
990.101944	2526.117151
990.398080	2525.300484
990.694180	2528.816689
990.990244	2526.890968
991.286271	2526.966586
991.582262	2527.516071
991.878217	2528.090763
992.174136	2527.500948
992.470019	2527.395084
992.765865	2529.877852
993.061676	2525.416431
993.357450	2527.085053
993.653188	2526.747295
993.948890	2523.800741
994.244556	2527.329549
994.540186	2526.661596
994.835780	2527.334590
995.131337	2527.773170
995.426859	2528.665454
995.722345	2523.523478
996.017795	2525.527336
996.313208	2527.793335
996.608586	2524.267048
996.903928	2525.061029
997.199234	2526.180166
997.494504	2527.465660
997.789738	2524.965247
998.084936	2526.001205
998.380099	2524.312418
998.675225	2527.508510
998.970316	2527.579086
999.265371	2528.110928
999.560390	2525.912984
999.855373	2528.579755
1000.150320	2528.723428
1000.445232	2527.279137
1000.740108	2526.250742
1001.034948	2527.780732
1001.329752	2526.223015
1001.624521	2524.635052
1001.919254	2520.982736
1002.213951	2523.702438
1002.508613	2523.694877
1002.803239	2525.366019
1003.097829	2521.633045
1003.392384	2526.366688
1003.686903	2527.916843
1003.981386	2525.398787
1004.275834	2524.534229
1004.570246	2530.253418
1004.864623	2524.980371
1005.158964	2527.843746
1005.453270	2521.106244
1005.747540	2526.114631
1006.041775	2525.529857
1006.335974	2527.329549
1006.630138	2526.160001
1006.924266	2525.633200
1007.218359	2527.952131
1007.512416	2525.693694
1007.806438	2527.183355
1008.100425	2528.720907
1008.394376	2524.980371
1008.688292	2527.261493
1008.982172	2523.684794
1009.276017	2526.578417
1009.569827	2523.483148
1009.863602	2526.364168
1010.157341	2526.706966
1010.451045	2526.399456
1010.744714	2525.464322
1011.038347	2525.544980
1011.331945	2526.959024
1011.625508	2524.380474
1011.919036	2524.844260
1012.212528	2526.253262
1012.505986	2524.735875
1012.799408	2526.553211
1013.092795	2525.315608
1013.386147	2524.335103
1013.679464	2527.783253
1013.972745	2527.248890
1014.265992	2526.608664
1014.559204	2525.862573
1014.852380	2526.825433
1015.145521	2525.423993
1015.438628	2524.045237
1015.731699	2526.217974
1016.024736	2523.397449
1016.317737	2524.687984
1016.610703	2530.389529
1016.903635	2522.253107
1017.196531	2521.960720
1017.489393	2522.812675
1017.782219	2521.741430
1018.075011	2525.668488
1018.367768	2524.942562
1018.660490	2526.827954
1018.953177	2526.827954
1019.245829	2526.827954
