Dividing Wavelength (nm)	Counts (n)	Blue Motor Position (mm): 0.000000	Red Motor Position (mm): 42.100000	
326.493990	2126.152005
326.888308	2126.152005
327.282561	2126.152005
327.676750	2094.483477
328.070874	2092.091449
328.464933	2096.031111
328.858929	2104.268356
329.252859	2112.634151
329.646726	2126.928343
330.040528	2136.294807
330.434265	2153.122178
330.827938	2170.274704
331.221547	2187.238187
331.615091	2207.445652
332.008571	2227.310319
332.401986	2249.456108
332.795338	2267.412698
333.188625	2286.543876
333.581847	2304.611372
333.975006	2322.003353
334.368100	2337.421722
334.761129	2359.360823
335.154095	2374.615355
335.546996	2398.477656
335.939833	2416.106571
336.332606	2431.141813
336.725315	2444.107660
337.117960	2454.308435
337.510540	2466.883593
337.903056	2472.655715
338.295508	2482.722899
338.687896	2490.662716
339.080220	2500.329129
339.472480	2505.314830
339.864676	2512.316993
340.256807	2514.270440
340.648875	2520.077849
341.040879	2518.152128
341.432818	2521.406193
341.824694	2524.372912
342.216506	2522.714372
342.608253	2525.179497
342.999937	2523.251255
343.391557	2524.269568
343.783113	2523.583971
344.174605	2521.900226
344.566033	2520.831501
344.957397	2519.649351
345.348697	2518.648682
345.739934	2515.858403
346.131106	2511.901097
346.522215	2509.163751
346.913260	2509.786333
347.304241	2507.636281
347.695159	2506.469254
348.086012	2504.236023
348.476802	2504.956908
348.867528	2501.614623
349.258191	2501.992709
349.648789	2497.213696
350.039324	2500.092194
350.429796	2495.618170
350.820203	2492.094404
351.210548	2492.469970
351.600828	2493.911740
351.991045	2492.112048
352.381198	2496.175218
352.771288	2491.852428
353.161314	2493.142964
353.551276	2492.762357
353.941175	2488.540390
354.331010	2490.519043
354.720782	2492.628766
355.110490	2492.026348
355.500135	2490.690443
355.889717	2492.291009
356.279235	2492.686739
356.668689	2495.577841
357.058080	2493.906699
357.447408	2490.698004
357.836672	2488.605925
358.225873	2491.807058
358.615010	2489.558703
359.004084	2495.020794
359.393095	2494.521719
359.782043	2497.296875
360.170927	2498.771412
360.559748	2497.657317
360.948505	2499.056237
361.337199	2498.968017
361.725830	2502.370796
362.114398	2499.877945
362.502903	2499.691423
362.891344	2502.940446
363.279722	2502.733759
363.668037	2504.533451
364.056289	2503.951198
364.444478	2506.154182
364.832603	2503.467247
365.220665	2508.067300
365.608665	2505.990344
365.996601	2506.630571
366.384474	2511.084430
366.772284	2510.587877
367.160031	2511.860768
367.547715	2513.627693
367.935336	2516.223887
368.322893	2517.350585
368.710388	2523.742768
369.097820	2529.162008
369.485189	2530.291227
369.872495	2538.180632
370.259738	2546.538865
370.646918	2549.482899
371.034035	2555.237376
371.421090	2568.674572
371.808081	2578.708989
372.195010	2589.391194
372.581875	2602.558687
372.968678	2610.155706
373.355418	2623.015690
373.742096	2646.396561
374.128710	2657.270330
374.515262	2671.607372
374.901751	2688.016327
375.288177	2699.174922
375.674540	2720.975391
376.060841	2741.744945
376.447079	2760.182965
376.833254	2780.584515
377.219367	2793.396607
377.605417	2831.497648
377.991404	2842.252950
378.377329	2861.081660
378.763191	2879.169320
379.148991	2918.727254
379.534727	2940.189966
379.920402	2969.864718
380.306013	2981.895432
380.691563	3033.912578
381.077049	3055.627348
381.462474	3070.778536
381.847835	3111.163220
382.233134	3131.388329
382.618371	3132.739358
383.003545	3201.586396
383.388657	3209.990000
383.773706	3242.971749
384.158693	3258.117895
384.543618	3284.205867
384.928480	3317.835404
385.313280	3365.577651
385.698017	3362.429451
386.082692	3416.150507
386.467305	3420.377514
386.851856	3452.875312
387.236344	3475.197542
387.620770	3510.321781
388.005133	3529.883979
388.389435	3562.890933
388.773674	3573.555494
389.157851	3613.738532
389.541965	3630.646562
389.926018	3595.877724
390.310008	3667.872962
390.693936	3688.367773
391.077802	3725.337075
391.461606	3714.896845
391.845348	3776.716515
392.229027	3777.802884
392.612645	3791.350985
392.996200	3873.405846
393.379694	3907.254673
393.763125	3970.274137
394.146494	3942.877987
394.529801	3999.840505
394.913047	4048.084347
395.296230	4016.551930
395.679351	4072.188624
396.062410	4094.258796
396.445408	4073.806835
396.828343	4110.579531
397.211217	4132.024600
397.594028	4052.598700
397.976778	4119.073876
398.359466	4144.130931
398.742092	4177.863812
399.124656	4097.807768
399.507158	4176.956404
399.889598	4199.689487
400.271977	4264.349847
400.654294	4232.721648
401.036549	4241.450406
401.418742	4217.580542
401.800874	4314.617713
402.182944	4332.113037
402.564952	4400.206423
402.946898	4388.475658
403.328783	4382.970718
403.710606	4299.945434
404.092367	4489.563395
404.474067	4453.468734
404.855705	4462.704127
405.237282	4393.418509
405.618797	4502.756095
406.000250	4535.253893
406.381642	4616.073672
406.762972	4575.600768
407.144240	4588.364969
407.525447	4585.854475
407.906593	4649.725894
408.287677	4693.084858
408.668700	4619.171461
409.049661	4668.622659
409.430560	4711.835430
409.811399	4636.886075
410.192176	4800.748781
410.572891	4738.213267
410.953545	4842.759237
411.334138	4720.521338
411.714669	4787.203201
412.095139	4685.296276
412.475547	4824.830373
412.855894	4806.757836
413.236180	4816.570442
413.616405	4767.988843
413.996568	4854.127038
414.376670	4794.951454
414.756711	4751.461420
415.136691	4784.559115
415.516609	4863.606928
415.896466	4898.320314
416.276262	4935.208957
416.655997	4917.827058
417.035670	5101.153659
417.415283	5187.485939
417.794834	5129.220283
418.174324	5087.159416
418.553753	4991.823635
418.933121	5181.189538
419.312428	5244.793776
419.691674	5184.027708
420.070859	5310.185103
420.449983	5220.026588
420.829045	5335.307694
421.208047	5240.118106
421.586988	5313.998736
421.965867	5327.287218
422.344686	5465.253516
422.723444	5316.967976
423.102141	5136.782014
423.480777	5428.374955
423.859352	5199.365418
424.237866	5455.652639
424.616319	5452.774140
424.994712	5562.280604
425.373044	5436.276964
425.751314	5581.346248
426.129524	5383.198655
426.507673	5576.484055
426.885762	5659.779040
427.263789	5593.472744
427.641756	5474.408252
428.019662	5594.037353
428.397508	5601.662098
428.775292	5551.505138
429.153016	5650.180683
429.530679	5573.398869
429.908282	5660.136962
430.285824	5534.879413
430.663305	5801.700124
431.040726	5541.387542
431.418086	5539.512233
431.795385	5647.309746
432.172624	5660.230224
432.549802	5651.342669
432.926920	5665.969577
433.303977	5668.921173
433.680974	5710.934149
434.057910	5730.745884
434.434786	5736.288632
434.811601	5706.432399
435.188355	5939.207678
435.565050	5810.743954
435.941683	5790.453310
436.318257	6010.396332
436.694770	5991.136603
437.071222	6028.325195
437.447614	5958.396830
437.823946	5873.042533
438.200218	6024.506521
438.576429	5888.269338
438.952580	5985.268700
439.328670	6030.898704
439.704700	5940.662050
440.080670	5925.054638
440.456580	6198.922883
440.832429	6081.711014
441.208218	5929.321975
441.583947	6078.870324
441.959616	6085.817034
442.335224	6013.231981
442.710773	6151.263814
443.086261	6180.258010
443.461689	5975.254448
443.837057	6120.916068
444.212365	6279.251148
444.587612	6166.740156
444.962800	6319.862684
445.337927	6303.887267
445.712995	5911.927473
446.088002	6489.119424
446.462949	6319.008208
446.837837	6250.496407
447.212664	6423.034938
447.587431	6568.673873
447.962139	7104.432580
448.336786	8036.065537
448.711374	7780.226980
449.085901	6851.152408
449.460369	6771.844976
449.834776	6708.704524
450.209124	7094.105777
450.583412	7241.420895
450.957640	7391.574183
451.331808	7162.294944
451.705917	6708.129833
452.079965	6633.926568
452.453954	6845.776018
452.827883	6721.912347
453.201752	6814.306615
453.575562	6611.412775
453.949311	6819.504044
454.323001	6709.806016
454.696632	6780.687160
455.070202	6920.480877
455.443713	7076.650782
455.817164	7172.878847
456.190556	7254.704335
456.563888	7331.660069
456.937160	7373.456276
457.310373	7032.407095
457.683526	7053.637914
458.056619	6946.064732
458.429653	6932.151148
458.802628	6873.126798
459.175542	6979.583364
459.548398	7335.713157
459.921194	7491.449523
460.293930	7493.773495
460.666607	8023.828137
461.039224	8337.413112
461.411782	8460.066905
461.784280	8477.758835
462.156719	8373.255715
462.529099	8249.714679
462.901419	7840.670414
463.273680	7730.425421
463.645882	7742.118377
464.018024	7603.879857
464.390106	7777.103985
464.762130	8163.420207
465.134094	8628.766598
465.505999	9652.128391
465.877845	10876.649866
466.249631	11517.536795
466.621358	11138.900771
466.993026	10510.112611
467.364634	10254.770607
467.736184	9892.616635
468.107674	9562.756295
468.479105	9591.574051
468.850477	9359.761632
469.221790	9130.681519
469.593043	8806.467271
469.964238	8668.168257
470.335373	8678.452210
470.706449	8730.537412
471.077467	8713.611738
471.448425	10021.675214
471.819324	11094.342012
472.190164	11114.546957
472.560945	9873.616526
472.931667	9084.917924
473.302330	8948.471534
473.672934	8590.108510
474.043479	8951.556720
474.413965	8894.266527
474.784393	8771.335470
475.154761	8932.496117
475.525070	9021.011217
475.895321	8840.258125
476.265513	9020.960806
476.635645	9188.962299
477.005719	9183.767390
477.375734	9302.494124
477.745691	9541.071771
478.115588	9673.593624
478.485427	9918.134956
478.855207	10453.346698
479.224928	11266.855338
479.594591	11893.072510
479.964194	11712.659696
480.333739	11651.870942
480.703226	11563.817108
481.072653	11655.077116
481.442022	11891.247612
481.811333	12084.074267
482.180584	11887.602858
482.549777	11603.765732
482.918912	11424.809811
483.287988	11444.472832
483.657005	11457.095881
484.025964	11145.517285
484.394864	11275.939497
484.763706	11239.136553
485.132489	10996.394913
485.501213	10965.422064
485.869879	11037.601305
486.238487	10877.501821
486.607036	10990.194294
486.975527	10770.468042
487.343959	10957.406630
487.712333	11010.681543
488.080648	10936.690008
488.448905	10981.304219
488.817104	10919.403891
489.185244	11186.217041
489.553326	11337.305463
489.921350	11876.126671
490.289315	12937.907097
490.657222	13281.570117
491.025070	13193.221375
491.392861	13057.130386
491.760593	12685.688088
492.128267	12336.245386
492.495883	12005.550734
492.863440	11670.250989
493.230939	11338.638848
493.598380	11265.569844
493.965763	11135.681994
494.333088	11039.529546
494.700354	10960.169182
495.067563	11021.633450
495.434713	10851.428973
495.801805	10974.481018
496.168839	10904.489638
496.535815	10836.602939
496.902733	10832.786786
497.269593	10770.415110
497.636395	10863.313493
498.003139	10857.130518
498.369825	10722.912317
498.736453	10875.187931
499.103023	10804.989864
499.469535	10836.040851
499.835989	10824.574746
500.202385	10783.133941
500.568723	10630.583585
500.935003	10862.317865
501.301226	10670.466673
501.667390	10926.741291
502.033497	11026.213338
502.399546	10881.585155
502.765537	10791.298090
503.131470	10865.544204
503.497345	11038.992663
503.863163	10646.190997
504.228923	10965.167486
504.594625	11022.588749
504.960269	10773.316294
505.325856	10994.474234
505.691385	10785.016812
506.056856	10945.499424
506.422270	10964.076076
506.787625	10859.504901
507.152924	10974.002108
507.518164	10953.706423
507.883347	10875.145081
508.248472	10796.974429
508.613540	11024.297700
508.978550	10908.512478
509.343503	10886.217976
509.708398	11003.301294
510.073236	11114.461257
510.438016	11121.097936
510.802738	11068.808568
511.167403	11117.057451
511.532010	11014.399394
511.896561	11249.302040
512.261053	11322.310551
512.625488	11192.374810
512.989866	11171.426296
513.354186	11160.466827
513.718449	11068.339741
514.082655	11251.923440
514.446803	11145.250104
514.810894	11278.255907
515.174927	11138.837757
515.538904	11166.387662
515.902822	11316.137658
516.266684	11199.903774
516.630488	11144.020063
516.994235	11203.888806
517.357925	11271.052098
517.721558	11345.792245
518.085133	11373.183355
518.448651	11378.975641
518.812112	11257.826631
519.175516	11278.538212
519.538863	11395.435008
519.902152	11314.012812
520.265385	11469.827315
520.628560	11373.863911
520.991678	11362.957374
521.354739	11418.538616
521.717743	11353.336332
522.080690	11328.627117
522.443580	11466.273302
522.806413	11422.727815
523.169189	11451.603544
523.531908	11507.043633
523.894569	11324.843731
524.257174	11334.744557
524.619722	11449.443410
524.982213	11397.617827
525.344647	11449.571959
525.707025	11399.878785
526.069345	11497.548620
526.431608	11408.768860
526.793815	11523.424863
527.155964	11312.926443
527.518057	11361.596263
527.880093	11312.150105
528.242072	11378.224509
528.603995	11292.426591
528.965860	11209.852491
529.327669	11258.081210
529.689421	11212.988088
530.051117	11176.343941
530.412755	11280.761361
530.774337	11172.406800
531.135862	11152.063224
531.497331	11174.319918
531.858743	11025.074038
532.220098	11196.090141
532.581396	11062.560058
532.942638	11048.444827
533.303824	11005.131233
533.664953	11026.767865
534.026025	10936.974833
534.387040	11039.708507
534.747999	11034.503516
535.108902	11099.476427
535.469748	10856.717143
535.830537	10959.644902
536.191270	10932.750346
536.551947	10961.096754
536.912567	10955.291866
537.273131	10883.505835
537.633638	10861.070180
537.994089	10839.761222
538.354483	10789.571495
538.714821	10944.607140
539.075103	10950.013778
539.435328	10917.301730
539.795497	10745.279917
540.155609	10901.235573
540.515665	10989.344860
540.875665	10727.409027
541.235609	10791.230034
541.595496	10785.906576
541.955328	10943.760226
542.315102	10828.700931
542.674821	10776.129258
543.034483	10776.998857
543.394090	10782.773499
543.753640	10709.197858
544.113134	10934.071128
544.472571	10792.810436
544.831953	10927.736919
545.191278	10737.650131
545.550548	10763.831363
545.909761	10905.641541
546.268918	10874.971161
546.628019	10956.504263
546.987064	10822.291104
547.346053	10743.366799
547.704986	10848.326143
548.063863	10823.493419
548.422684	10822.888480
548.781449	10736.256252
549.140158	10836.749133
549.498811	10715.040556
549.857408	10569.031096
550.215949	10803.439709
550.574434	10647.484053
550.932864	10749.448951
551.291237	10808.236367
551.649555	10760.710889
552.007817	10771.020048
552.366022	10725.367359
552.724173	10721.662111
553.082267	10706.405059
553.440305	10843.383291
553.798288	10646.679989
554.156215	10806.741665
554.514086	10780.159660
554.871902	10625.613007
555.229661	10664.218163
555.587365	10644.925667
555.945014	10539.532784
556.302606	10660.379324
556.660143	10550.121728
557.017625	10712.923271
557.375050	10610.940729
557.732421	10749.872408
558.089735	10657.152986
558.446994	10660.331433
558.804197	10687.276401
559.161345	10690.051556
559.518437	10542.280213
559.875474	10631.924532
560.232455	10659.416464
560.589381	10614.381316
560.946251	10609.851839
561.303065	10714.264218
561.659825	10655.985959
562.016528	10579.373023
562.373177	10467.923194
562.729770	10577.853115
563.086307	10486.935906
563.442789	10582.042314
563.799216	10457.291401
564.155587	10507.466005
564.511904	10462.113264
564.868164	10455.695875
565.224370	10460.031268
565.580520	10389.964270
565.936615	10395.076000
566.292654	10268.041444
566.648638	10400.701928
567.004567	10353.204177
567.360441	10338.884779
567.716260	10253.449824
568.072023	10344.215799
568.427732	10287.827973
568.783385	10199.925373
569.138982	10273.649728
569.494525	10289.131111
569.850013	10170.850518
570.205445	10246.195604
570.560823	10144.283638
570.916145	10064.696421
571.271412	10134.773501
571.626625	10077.137989
571.981782	10052.199401
572.336884	10025.559423
572.691931	10035.699704
573.046923	9985.630964
573.401860	9939.350652
573.756743	9870.352379
574.111570	9916.652856
574.466342	9898.754240
574.821059	9927.191388
575.175722	9818.736005
575.530330	9832.513478
575.884882	9816.089399
576.239380	9746.057690
576.593823	9724.473989
576.948211	9742.417977
577.302544	9625.259041
577.656823	9640.004416
578.011047	9637.874528
578.365216	9611.721022
578.719330	9533.666316
579.073389	9546.914469
579.427394	9492.661571
579.781344	9471.425710
580.135239	9420.411754
580.489080	9431.081356
580.842866	9327.949431
581.196597	9334.034103
581.550273	9377.551864
581.903895	9345.119601
582.257463	9404.191842
582.610975	9282.458058
582.964434	9311.477461
583.317837	9232.570800
583.671186	9217.462462
584.024481	9213.888284
584.377721	9130.303432
584.730906	9109.168395
585.084037	9136.947673
585.437113	9078.321575
585.790135	9097.059543
586.143103	8995.956682
586.496016	8964.406621
586.848874	9018.490640
587.201679	9016.937965
587.554428	8899.927743
587.907124	8937.713712
588.259765	8910.136079
588.612352	8918.925331
588.964884	8794.018142
589.317362	8809.388620
589.669786	8805.580028
590.022155	8849.680042
590.374470	8874.686686
590.726731	8807.664545
591.078937	8659.376484
591.431090	8773.755224
591.783188	8645.520873
592.135232	8633.044017
592.487222	8634.382443
592.839157	8689.227677
593.191038	8614.648847
593.542866	8559.622132
593.894639	8457.831153
594.246358	8507.320161
594.598022	8528.157770
594.949633	8426.364271
595.301190	8401.418121
595.652692	8426.563397
596.004141	8529.108028
596.355535	8316.459556
596.706876	8299.496073
597.058162	8226.956390
597.409395	8302.881208
597.760573	8363.584262
598.111698	8273.632433
598.462768	8254.226511
598.813785	8218.104123
599.164748	8194.241822
599.515657	8178.213473
599.866511	8089.758867
600.217312	8210.189512
600.568060	8073.609531
600.918753	8173.000920
601.269392	8139.240313
601.619978	8046.268833
601.970510	8113.855583
602.320988	8107.786033
602.671412	8162.812748
603.021783	8101.953418
603.372100	8071.391423
603.722363	8076.034326
604.072572	8050.697487
604.422728	8053.933907
604.772830	7982.137794
605.122878	7991.118610
605.472872	7981.396745
605.822813	8012.117536
606.172701	7957.438661
606.522534	8028.281996
606.872314	8024.576748
607.222041	7989.833116
607.571714	8046.949389
607.921333	8004.649067
608.270899	8004.444900
608.620411	8089.884896
608.969870	8000.860640
609.319276	7990.180955
609.668627	8000.550609
610.017926	8033.076133
610.367171	8070.547030
610.716362	8050.198412
611.065500	8035.092595
611.414585	8062.024959
611.763616	8048.991056
612.112594	8024.634721
612.461518	8033.063530
612.810389	8092.223991
613.159207	8030.613530
613.507971	7976.068245
613.856682	8087.054288
614.205340	8041.298255
614.553945	8114.687373
614.902496	8010.469079
615.250994	8061.515803
615.599439	8037.524952
615.947830	8044.544758
616.296169	8009.793564
616.644454	8024.228908
616.992686	8013.077876
617.340864	8062.483704
617.688990	7963.256152
618.037063	8050.571458
618.385082	7990.644741
618.733048	8065.311792
619.080961	8000.318716
619.428821	8016.848659
619.776628	8006.055549
620.124382	7958.207437
620.472083	7934.120804
620.819731	7956.750543
621.167326	7853.250614
621.514868	7850.500664
621.862357	7743.219869
622.209793	7757.713187
622.557176	7683.293153
622.904506	7647.604304
623.251783	7584.912515
623.599007	7531.753548
623.946179	7535.799074
624.293297	7488.253431
624.640363	7398.735142
624.987376	7385.542442
625.334336	7327.871642
625.681243	7273.772500
626.028097	7256.708194
626.374899	7228.986889
626.721647	7214.372584
627.068343	7147.453787
627.414987	7107.202694
627.761577	7056.937349
628.108115	7086.050013
628.454600	6980.871379
628.801032	7018.516195
629.147412	6982.076215
629.493739	6952.651000
629.840014	6891.320322
630.186236	6940.310255
630.532405	6817.328787
630.878521	6855.540733
631.224585	6803.689945
631.570597	6731.127576
631.916556	6753.059116
632.262462	6735.997331
632.608316	6692.187183
632.954117	6663.198028
633.299866	6648.659341
633.645562	6626.448017
633.991206	6550.104783
634.336797	6490.137737
634.682336	6444.280881
635.027823	6408.677732
635.373257	6395.621144
635.718639	6326.937943
636.063968	6333.120918
636.409245	6233.681638
636.754470	6218.328804
637.099642	6180.252969
637.444762	6120.351459
637.789829	6118.297188
638.134845	6059.444238
638.479808	6036.970774
638.824719	6037.568151
639.169577	5965.658612
639.514383	5977.099510
639.859137	5903.458335
640.203839	5910.614253
640.548489	5885.433689
640.893086	5859.433938
641.237632	5823.482950
641.582125	5837.167162
641.926566	5797.606707
642.270955	5803.431760
642.615292	5790.851561
642.959576	5794.609741
643.303809	5774.107368
643.647990	5772.781545
643.992118	5765.055977
644.336195	5705.580444
644.680219	5718.760540
645.024192	5703.914342
645.368112	5772.342965
645.711981	5780.996105
646.055797	5835.468293
646.399562	5782.531137
646.743274	5876.442792
647.086935	5908.617956
647.430544	5894.263270
647.774101	5893.547427
648.117606	5898.727212
648.461059	5883.258432
648.804460	5840.151525
649.147810	5762.535400
649.491108	5723.269852
649.834354	5693.910172
650.177548	5622.749245
650.520690	5545.115476
650.863781	5519.382906
651.206820	5524.708885
651.549807	5453.311023
651.892742	5392.393720
652.235626	5392.184512
652.578458	5372.632397
652.921238	5290.043173
653.263967	5314.104601
653.606644	5263.645171
653.949269	5250.427266
654.291843	5200.603022
654.634365	5224.689655
654.976836	5174.507489
655.319255	5172.349875
655.661622	5142.339886
656.003938	5131.113237
656.346203	5098.466724
656.688416	5104.571562
657.030577	5067.264503
657.372687	5035.681674
657.714746	5014.934805
658.056753	5041.431110
658.398708	4977.542046
658.740612	4976.984999
659.082465	4991.821115
659.424266	4980.037418
659.766016	4972.752950
660.107715	4940.734062
660.449362	4941.439823
660.790958	4925.396351
661.132503	4910.308177
661.473996	4923.359725
661.815438	4907.517899
662.156829	4902.222167
662.498168	4885.180546
662.839456	4865.663719
663.180693	4872.418865
663.521879	4871.181262
663.863013	4855.634343
664.204097	4848.415411
664.545129	4875.801479
664.886110	4853.832131
665.227040	4870.626735
665.567918	4845.988096
665.908746	4844.947097
666.249522	4842.552549
666.590248	4830.594932
666.930922	4836.810675
667.271545	4829.044777
667.612118	4829.153162
667.952639	4798.586126
668.293109	4804.910253
668.633528	4766.862145
668.973896	4766.665540
669.314213	4746.082509
669.654480	4721.534610
669.994695	4714.363569
670.334859	4702.748750
670.674973	4679.430893
671.015035	4678.901572
671.355047	4666.129809
671.695008	4644.336901
672.034918	4623.481647
672.374777	4621.349239
672.714585	4607.050006
673.054342	4595.707410
673.394049	4579.306016
673.733705	4587.006378
674.073310	4564.071649
674.412864	4542.966858
674.752368	4515.227909
675.091820	4514.086088
675.431223	4471.904233
675.770574	4460.370073
676.109875	4420.393723
676.449125	4414.276283
676.788324	4384.228486
677.127473	4347.639791
677.466571	4331.823171
677.805619	4315.177281
678.144616	4298.768325
678.483562	4276.015077
678.822458	4254.133949
679.161303	4239.350765
679.500098	4224.428950
679.838842	4210.573338
680.177535	4204.844067
680.516179	4207.682237
680.854771	4200.284343
681.193314	4238.062750
681.531805	4295.473931
681.870247	4364.825084
682.208638	4411.531375
682.546978	4411.521292
682.885268	4388.851224
683.223508	4332.705373
683.561697	4294.556441
683.899836	4271.447792
684.237925	4235.663161
684.575963	4214.273545
684.913951	4188.861089
685.251889	4200.407852
685.589776	4191.016182
685.927614	4172.212678
686.265401	4192.959547
686.603137	4183.530069
686.940824	4207.019325
687.278460	4219.929720
687.616046	4216.184143
687.953582	4243.552567
688.291068	4232.643510
688.628504	4249.241509
688.965889	4228.787027
689.303224	4200.034806
689.640510	4159.534176
689.977745	4113.052217
690.314930	4057.044998
690.652065	4025.167262
690.989150	3977.162874
691.326185	3925.148249
691.663170	3882.298441
692.000105	3841.644056
692.336990	3801.995381
692.673825	3774.828603
693.010610	3743.134869
693.347345	3707.075495
693.684030	3679.460054
694.020665	3658.289729
694.357251	3613.763737
694.693786	3613.912452
695.030272	3596.018876
695.366707	3568.330338
695.703093	3551.815518
696.039429	3551.933986
696.375716	3534.998229
696.711952	3524.137063
697.048139	3518.680014
697.384276	3498.021366
697.720363	3500.524299
698.056400	3490.837722
698.392388	3471.429279
698.728326	3459.759008
699.064214	3447.062862
699.400053	3439.496090
699.735842	3413.508942
700.071581	3401.153074
700.407270	3384.953326
700.742910	3371.140565
701.078501	3347.164837
701.414042	3339.247705
701.749533	3319.398162
702.084974	3295.808082
702.420366	3305.330822
702.755709	3279.434414
703.091002	3256.378697
703.426246	3263.774070
703.761440	3249.724374
704.096584	3237.643249
704.431679	3230.721745
704.766725	3223.651527
705.101721	3214.451421
705.436668	3218.801937
705.771565	3199.907692
706.106413	3208.167622
706.441212	3206.962787
706.775961	3209.664845
707.110661	3200.989019
707.445311	3209.485884
707.779913	3210.617623
708.114465	3214.912686
708.448967	3224.385014
708.783421	3241.484608
709.117825	3251.302255
709.452180	3252.156731
709.786485	3266.970162
710.120742	3291.669295
710.454949	3294.482259
710.789107	3314.142759
711.123216	3332.921057
711.457275	3334.433403
711.791286	3356.468286
712.125247	3354.454345
712.459159	3331.559945
712.793023	3353.977956
713.126837	3318.909170
713.460602	3314.001606
713.794318	3288.221146
714.127985	3278.315278
714.461602	3240.080647
714.795171	3228.826271
715.128691	3195.501723
715.462162	3169.922909
715.795584	3146.105977
716.128957	3133.193062
716.462281	3115.082717
716.795556	3102.200048
717.128782	3085.652461
717.461960	3059.428378
717.795088	3054.621638
718.128167	3041.411294
718.461198	3019.474713
718.794180	3018.521935
719.127113	3002.985099
719.459997	2995.793893
719.792833	2977.900318
720.125619	2975.798157
720.458357	2959.253090
720.791046	2956.666978
721.123686	2949.322017
721.456278	2936.303237
721.788821	2936.943463
722.121315	2927.156063
722.453761	2921.557862
722.786158	2916.670463
723.118506	2918.964188
723.450805	2910.994124
723.783056	2913.945719
724.115259	2913.315575
724.447412	2907.437590
724.779518	2909.980852
725.111574	2908.070255
725.443582	2914.593508
725.775542	2910.699216
726.107453	2922.281267
726.439315	2916.804054
726.771129	2930.571445
727.102895	2935.549584
727.434612	2944.981583
727.766281	2945.256326
728.097901	2950.042902
728.429473	2943.096192
728.760996	2941.107456
729.092471	2936.888011
729.423897	2933.049172
729.755276	2928.189500
730.086606	2929.018769
730.417887	2937.162753
730.749120	2951.093982
731.080305	2955.061370
731.411442	2963.878348
731.742530	2954.920218
732.073570	2952.298818
732.404562	2958.418779
732.735506	2956.588840
733.066401	2947.318158
733.397249	2927.428285
733.728048	2896.866290
734.058798	2875.499360
734.389501	2852.728468
734.720156	2836.443020
735.050762	2823.857780
735.381320	2818.635144
735.711831	2808.431849
736.042293	2799.302319
736.372707	2802.742907
736.703073	2795.405507
737.033391	2798.881383
737.363661	2797.512710
737.693883	2797.800055
738.024056	2807.284986
738.354182	2807.776499
738.684260	2816.227993
739.014290	2822.254693
739.344272	2824.130002
739.674207	2827.260558
740.004093	2830.774243
740.333931	2830.542350
740.663722	2826.663182
740.993464	2824.931545
741.323159	2819.358550
741.652806	2807.947898
741.982405	2800.093780
742.311956	2790.097172
742.641460	2785.413940
742.970915	2775.218207
743.300323	2765.118255
743.629683	2758.007707
743.958996	2752.117119
744.288260	2745.177971
744.617477	2738.130438
744.946647	2729.532750
745.275768	2725.126782
745.604842	2721.240052
745.933869	2716.539176
746.262847	2709.582384
746.591778	2712.216387
746.920662	2709.516849
747.249498	2709.161447
747.578286	2711.656818
747.907027	2713.524566
748.235720	2722.026472
748.564365	2719.926831
748.892963	2715.959443
749.221514	2713.063300
749.550017	2708.831252
749.878473	2707.588607
750.206881	2699.948739
750.535242	2697.556711
750.863555	2696.682071
751.191821	2693.117975
751.520039	2693.480938
751.848210	2689.778211
752.176334	2687.998683
752.504411	2690.320135
752.832440	2684.648837
753.160421	2686.377952
753.488356	2679.895029
753.816243	2681.767817
754.144082	2678.178516
754.471875	2677.117353
754.799620	2677.351767
755.127318	2674.523679
755.454969	2673.091992
755.782572	2673.074347
756.110129	2669.936229
756.437638	2670.894048
756.765100	2667.506393
757.092515	2668.290292
757.419882	2669.545540
757.747203	2668.204593
758.074477	2665.900786
758.401703	2668.166784
758.728882	2671.466219
759.056014	2672.308092
759.383099	2673.316323
759.710138	2674.856395
760.037129	2673.321364
760.364073	2675.559636
760.690970	2674.453103
761.017820	2671.935047
761.344623	2672.650891
761.671379	2676.444359
761.998088	2674.730367
762.324751	2692.374405
762.651366	2729.343707
762.977935	2802.445479
763.304456	2854.276102
763.630931	2859.231556
763.957359	2809.311530
764.283740	2764.288985
764.610074	2731.531567
764.936362	2703.764892
765.262602	2687.222346
765.588796	2672.499656
765.914943	2662.162770
766.241044	2651.399907
766.567097	2646.129380
766.893104	2640.619399
767.219064	2636.780560
767.544978	2631.250415
767.870845	2625.528705
768.196665	2622.504013
768.522438	2622.251955
768.848165	2617.276336
769.173846	2618.040071
769.499479	2613.639144
769.825066	2609.903649
770.150607	2608.582866
770.476101	2605.147320
770.801548	2606.037084
771.126949	2601.063985
771.452303	2602.054572
771.777611	2599.881835
772.102872	2599.738162
772.428087	2593.373705
772.753256	2594.964189
773.078378	2593.288006
773.403453	2591.566452
773.728482	2591.117789
774.053465	2589.643251
774.378401	2590.190217
774.703291	2587.818354
775.028135	2586.285843
775.352932	2587.034454
775.677683	2583.535893
776.002388	2583.369535
776.327046	2583.881212
776.651658	2582.227714
776.976224	2580.100347
777.300743	2582.164700
777.625216	2580.997673
777.949643	2577.935172
778.274024	2578.840059
778.598359	2572.946950
778.922647	2573.589697
779.246889	2576.513566
779.571086	2572.793195
779.895236	2571.449727
780.219339	2575.321333
780.543397	2576.546334
780.867409	2577.904925
781.191374	2576.851323
781.515294	2576.730336
781.839167	2577.902404
782.162995	2574.406364
782.486776	2577.335274
782.810511	2575.543144
783.134201	2574.035839
783.457844	2573.415777
783.781441	2573.682958
784.104993	2573.209090
784.428498	2573.612382
784.751958	2571.976528
785.075372	2570.244891
785.398739	2570.421332
785.722061	2572.757907
786.045337	2570.968297
786.368568	2569.403019
786.691752	2572.170612
787.014891	2571.621126
787.337983	2575.467527
787.661030	2581.330389
787.984031	2589.250041
788.306987	2592.148705
788.629897	2587.404979
788.952760	2587.697366
789.275579	2586.459763
789.598351	2580.964905
789.921078	2574.784450
790.243759	2571.434604
790.566395	2571.691702
790.888984	2571.447207
791.211529	2568.684654
791.534027	2569.138358
791.856480	2567.502504
792.178888	2565.715415
792.501249	2563.769529
792.823566	2565.982596
793.145836	2565.879252
793.468062	2565.564180
793.790241	2563.761967
794.112375	2565.017215
794.434464	2565.891855
794.756507	2565.665003
795.078505	2565.110476
795.400457	2566.027966
795.722364	2569.163564
796.044226	2573.821590
796.366042	2570.683472
796.687812	2569.594583
797.009538	2571.449727
797.331218	2572.105077
797.652852	2568.374623
797.974442	2570.706157
798.295986	2564.079560
798.617484	2568.606516
798.938938	2564.911351
799.260346	2565.493604
799.581709	2564.808007
799.903026	2566.569890
800.224299	2564.926474
800.545526	2562.015208
800.866708	2562.279868
801.187845	2560.190310
801.508936	2561.385063
801.829983	2562.849519
802.150984	2558.972871
802.471940	2561.702656
802.792851	2559.771894
803.113717	2560.134857
803.434538	2558.922460
803.755314	2557.818447
804.076045	2559.567728
804.396731	2559.106462
804.717372	2558.188972
805.037967	2559.159394
805.358518	2559.328273
805.679024	2559.484548
805.999485	2559.179559
806.319901	2560.954045
806.640272	2558.529250
806.960598	2557.528581
807.280879	2559.976061
807.601115	2561.243911
807.921306	2560.089487
808.241453	2557.768036
808.561554	2561.984961
808.881611	2557.967161
809.201623	2558.705690
809.521590	2558.899775
809.841513	2557.929352
810.161390	2555.489434
810.481223	2555.766697
810.801011	2557.218550
811.120755	2557.137891
811.440453	2557.843653
811.760107	2558.196534
812.079716	2555.456667
812.399281	2550.667570
812.718801	2552.875596
813.038276	2552.316028
813.357707	2556.043961
813.677093	2555.766697
813.996434	2551.849721
814.315731	2553.788045
814.634983	2556.442212
814.954191	2555.804506
815.273354	2557.715103
815.592473	2552.356357
815.911547	2554.942469
816.230577	2556.671585
816.549562	2556.671585
816.868502	2557.097562
817.187399	2558.567058
817.506250	2557.606719
817.825058	2559.076215
818.143821	2561.808520
818.462539	2560.482697
818.781213	2561.652245
819.099843	2567.099211
819.418429	2571.721949
819.736970	2576.919379
820.055466	2581.000193
820.373919	2587.677201
820.692327	2593.459405
821.010691	2605.164964
821.329011	2645.468989
821.647286	2731.725652
821.965517	2859.062678
822.283704	2926.193203
822.601847	2925.973913
822.919945	2862.412524
823.237999	2800.043369
823.556010	2745.669483
823.873976	2703.709439
824.191897	2669.326250
824.509775	2646.063845
824.827609	2627.996350
825.145398	2619.418827
825.463144	2616.144597
825.780845	2618.889505
826.098502	2627.542646
826.416116	2652.324958
826.733685	2674.324554
827.051210	2680.474761
827.368692	2669.064110
827.686129	2644.049904
828.003522	2624.754888
828.320872	2602.460385
828.638177	2590.732141
828.955439	2579.734863
829.272656	2573.209090
829.589830	2566.937894
829.906960	2568.228430
830.224046	2564.319015
830.541088	2561.710218
830.858086	2561.095197
831.175041	2561.425393
831.491952	2557.899106
831.808819	2559.182079
832.125642	2562.499158
832.442421	2566.421176
832.759157	2572.528534
833.075849	2586.784917
833.392497	2602.631784
833.709101	2613.261057
834.025662	2612.063783
834.342179	2604.917947
834.658653	2587.969588
834.975083	2579.513053
835.291469	2581.922724
835.607811	2567.245405
835.924110	2565.324725
836.240366	2558.292316
836.556578	2556.595967
836.872746	2557.551266
837.188871	2554.839125
837.504952	2552.552962
837.820990	2549.382076
838.136984	2548.091541
838.452935	2550.773435
838.768842	2549.954247
839.084706	2550.521377
839.400526	2554.713096
839.716303	2565.239026
840.032037	2573.093143
840.347727	2572.727660
840.663373	2570.277659
840.978977	2560.243242
841.294537	2559.900444
841.610054	2551.857283
841.925527	2551.383414
842.240957	2549.767724
842.556344	2551.277550
842.871687	2547.252189
843.186987	2548.189843
843.502244	2546.405275
843.817458	2545.772610
844.132629	2544.668597
844.447756	2544.290511
844.762840	2539.337577
845.077881	2540.739018
845.392879	2539.077958
845.707833	2544.696324
846.022745	2537.288348
846.337613	2543.436035
846.652438	2540.035777
846.967221	2542.301776
847.281960	2541.359080
847.596656	2545.341591
847.911309	2543.791437
848.225919	2542.871426
848.540485	2544.139276
848.855009	2541.964018
849.169490	2542.163144
849.483928	2543.468803
849.798323	2540.063503
850.112675	2543.231868
850.426984	2540.098791
850.741251	2542.765562
851.055474	2541.908566
851.369654	2541.066693
851.683792	2540.975952
851.997887	2543.299924
852.311938	2542.858823
852.625947	2542.339584
852.939914	2543.340253
853.253837	2545.205480
853.567718	2539.569470
853.881555	2541.671631
854.195350	2541.618699
854.509103	2541.974101
854.822812	2542.120294
855.136479	2543.216745
855.450103	2539.640046
855.763685	2540.340767
856.077224	2539.761034
856.390720	2544.870243
856.704173	2541.815304
857.017584	2543.458720
857.330953	2539.766075
857.644278	2542.687424
857.957561	2543.849410
858.270802	2542.889070
858.584000	2541.553164
858.897155	2540.943185
859.210268	2541.732125
859.523339	2541.192722
859.836367	2543.705737
860.149352	2543.869574
860.462295	2542.871426
860.775195	2537.293389
861.088054	2536.832124
861.400869	2539.703061
861.713642	2537.439583
862.026373	2541.578370
862.339062	2540.116435
862.651708	2542.490819
862.964312	2543.516694
863.276873	2542.700027
863.589392	2541.560726
863.901869	2542.921838
864.214303	2542.861344
864.526696	2544.890408
864.839045	2545.008875
865.151353	2543.582229
865.463619	2543.166333
865.775842	2544.313196
866.088023	2543.793957
866.400162	2543.778834
866.712258	2545.439894
867.024313	2544.164482
867.336325	2543.408309
867.648296	2542.848741
867.960224	2543.892260
868.272110	2543.960315
868.583954	2542.833617
868.895755	2546.485933
869.207515	2543.095757
869.519233	2542.863864
869.830909	2546.112888
870.142542	2545.618855
870.454134	2545.770089
870.765684	2544.592980
871.077191	2544.648433
871.388657	2546.637168
871.700081	2546.458207
872.011463	2545.767569
872.322803	2543.988042
872.634101	2546.246478
872.945357	2546.599359
873.256571	2547.791592
873.567744	2546.001982
873.878874	2546.148176
874.189963	2547.710934
874.501010	2547.854607
874.812015	2547.103475
875.122979	2549.727395
875.433900	2546.569112
875.744780	2547.741181
876.055618	2547.065666
876.366415	2547.244627
876.677169	2549.492982
876.987882	2544.731612
877.298554	2545.054246
877.609183	2543.824204
877.919771	2545.785213
878.230317	2546.463248
878.540822	2551.171686
878.851285	2553.142777
879.161707	2556.588406
879.472087	2559.681153
879.782425	2564.697102
880.092722	2573.481312
880.402977	2589.582758
880.713191	2619.113837
881.023363	2648.375214
881.333494	2673.250788
881.643583	2678.498629
881.953631	2673.313802
882.263637	2663.014725
882.573602	2652.158600
882.883526	2636.024387
883.193408	2621.001749
883.503248	2608.749224
883.813048	2594.717173
884.122806	2588.821543
884.432522	2586.003538
884.742197	2573.463668
885.051831	2570.295303
885.361424	2564.387071
885.670975	2562.042934
885.980485	2560.676781
886.289954	2558.829198
886.599382	2554.680329
886.908768	2556.459856
887.218113	2553.029351
887.527417	2551.688404
887.836680	2549.177909
888.145901	2551.050698
888.455082	2548.313352
888.764221	2550.218908
889.073319	2548.608259
889.382376	2546.488454
889.691392	2546.982487
890.000366	2551.358208
890.309300	2548.474668
890.618193	2548.509957
890.927044	2548.300749
891.235855	2551.302756
891.544625	2548.474668
891.853353	2548.283105
892.162041	2548.741850
892.470687	2552.505071
892.779293	2551.635472
893.087858	2552.797458
893.396381	2554.642520
893.704864	2558.957748
894.013306	2563.716597
894.321707	2575.845613
894.630068	2584.531521
894.938387	2585.196954
895.246665	2586.573189
895.554903	2580.397775
895.863100	2573.093143
896.171256	2569.808832
896.479371	2566.093501
896.787446	2562.778942
897.095480	2560.901113
897.403473	2556.893395
897.711425	2554.405586
898.019336	2554.705535
898.327207	2550.032385
898.635038	2552.671429
898.942827	2548.943496
899.250576	2549.404761
899.558284	2547.844524
899.865952	2549.540872
900.173579	2548.101623
900.481165	2546.304452
900.788711	2546.306972
901.096216	2544.214893
901.403681	2546.619524
901.711105	2546.337219
902.018489	2547.501726
902.325832	2547.824360
902.633135	2546.861499
902.940397	2548.774617
903.247619	2552.247972
903.554800	2562.363047
903.861941	2575.081878
904.169041	2594.717173
904.476101	2601.734459
904.783121	2600.534664
905.090100	2592.993098
905.397039	2585.128898
905.703938	2576.080027
906.010796	2567.497463
906.317614	2559.693756
906.624391	2557.732748
906.931129	2552.439536
907.237826	2551.476676
907.544483	2545.840666
907.851099	2549.059442
908.157675	2543.768751
908.464211	2545.132383
908.770707	2540.323123
909.077163	2541.164995
909.383578	2539.420756
909.689954	2538.984696
909.996289	2539.710622
910.302584	2542.959646
910.608839	2540.406302
910.915054	2543.597352
911.221229	2542.929399
911.527363	2542.873947
911.833458	2542.556354
912.139513	2541.376724
912.445527	2541.114584
912.751502	2545.316386
913.057436	2544.076262
913.363331	2547.302600
913.669186	2544.451828
913.975000	2547.673125
914.280775	2549.830739
914.586510	2554.057746
914.892205	2558.995557
915.197859	2567.734397
915.503475	2574.970973
915.809050	2584.486151
916.114585	2592.609970
916.420081	2592.516709
916.725536	2594.124837
917.030952	2588.733323
917.336328	2581.731160
917.641665	2577.985583
917.946961	2569.914696
918.252218	2566.464026
918.557435	2558.922460
918.862612	2560.417162
919.167750	2556.928683
919.472848	2553.765359
919.777906	2549.671942
920.082925	2550.392828
920.387904	2548.431819
920.692843	2547.232024
920.997743	2546.203629
921.302603	2544.272867
921.607423	2543.241951
921.912204	2542.760521
922.216946	2544.716488
922.521647	2548.870399
922.826310	2543.078113
923.130932	2543.390665
923.435516	2542.652136
923.740059	2539.582073
924.044564	2541.323792
924.349028	2541.001158
924.653454	2539.960160
924.957840	2538.697351
925.262186	2535.617206
925.566493	2536.995961
925.870761	2536.161650
926.174989	2539.027546
926.479178	2536.252391
926.783328	2540.038298
927.087438	2538.195756
927.391509	2538.387320
927.695541	2538.256250
927.999533	2539.350180
928.303486	2537.300951
928.607400	2540.166847
928.911275	2534.566125
929.215110	2538.183153
929.518906	2535.619726
929.822663	2536.678368
930.126381	2535.153419
930.430060	2537.845396
930.733699	2537.535365
931.037299	2538.828421
931.340861	2539.269522
931.644383	2537.656352
931.947866	2537.061496
932.251309	2536.088553
932.554714	2537.061496
932.858080	2537.437062
933.161407	2537.517721
933.464694	2536.597710
933.767943	2536.799356
934.071153	2538.369676
934.374323	2536.544778
934.677455	2538.442772
934.980548	2535.350024
935.283602	2534.798018
935.586617	2537.293389
935.889593	2533.784746
936.192530	2538.205838
936.495428	2536.380940
936.798287	2537.026208
937.101108	2534.815662
937.403890	2539.773637
937.706632	2535.024870
938.009336	2539.745911
938.312002	2539.314892
938.614628	2541.096940
938.917216	2540.131559
939.219765	2540.948226
939.522275	2541.490150
939.824747	2539.801363
940.127179	2538.367155
940.429573	2535.042514
940.731929	2533.870446
941.034246	2536.065868
941.336524	2537.666435
941.638763	2540.212217
941.940964	2540.502084
942.243126	2538.478060
942.545250	2538.868750
942.847335	2537.691640
943.149381	2536.154088
943.451389	2536.708615
943.753359	2538.611651
944.055290	2536.396064
944.357182	2538.140303
944.659036	2537.212731
944.960851	2535.307175
945.262628	2537.290869
945.564367	2536.907741
945.866067	2535.720549
946.167729	2537.217772
946.469352	2537.623585
946.770937	2536.028060
947.072484	2537.772299
947.373992	2535.934798
947.675462	2535.808769
947.976893	2539.826569
948.278286	2537.086702
948.579641	2538.145344
948.880958	2535.700385
949.182236	2538.888914
949.483476	2536.837165
949.784678	2536.597710
950.085841	2536.620395
950.386967	2535.985210
950.688054	2537.217772
950.989103	2536.305323
951.290114	2538.026877
951.591087	2535.927237
951.892021	2535.213913
952.192917	2538.152906
952.493776	2537.142155
952.794596	2537.432021
953.095378	2538.150385
953.396122	2541.069213
953.696828	2535.513862
953.997496	2537.348842
954.298126	2535.052596
954.598718	2538.450334
954.899272	2537.673996
955.199788	2537.714326
955.500266	2535.319778
955.800706	2532.647966
956.101108	2529.754344
956.401472	2532.242153
956.701798	2532.358100
957.002087	2528.859539
957.302337	2534.944212
957.602550	2534.366999
957.902724	2533.371372
958.202861	2534.419932
958.502960	2531.942204
958.803022	2531.743079
959.103045	2533.053779
959.403031	2533.840199
959.702979	2532.894982
960.002889	2533.532688
960.302762	2533.842719
960.602596	2534.107380
960.902393	2533.162164
961.202153	2531.866587
961.501875	2531.871628
961.801559	2531.531350
962.101205	2532.716022
962.400814	2533.729293
962.700385	2530.266021
962.999918	2533.308357
963.299414	2533.283151
963.598873	2534.785415
963.898293	2532.045548
964.197677	2530.374406
964.497022	2531.475898
964.796331	2533.230219
965.095601	2532.141330
965.394835	2533.361289
965.694030	2530.991947
965.993189	2532.526978
966.292309	2532.300126
966.591393	2531.349869
966.890439	2534.215765
967.189447	2535.581917
967.488419	2529.582944
967.787353	2531.269210
968.086249	2529.240146
968.385108	2532.446320
968.683930	2529.582944
968.982714	2533.469674
969.281462	2531.541433
969.580172	2529.890455
969.878844	2532.748789
970.177480	2529.961031
970.476078	2531.755682
970.774639	2531.864067
971.073162	2533.015970
971.371649	2528.647810
971.670098	2528.146216
971.968510	2530.190403
972.266885	2526.933818
972.565223	2532.572349
972.863524	2529.593027
973.161788	2529.706453
973.460014	2533.326001
973.758204	2532.978162
974.056356	2532.814324
974.354471	2533.409180
974.652550	2530.150074
974.950591	2530.704601
975.248595	2533.187369
975.546563	2530.467667
975.844493	2528.867101
976.142386	2534.525796
976.440243	2529.792152
976.738062	2531.881711
977.035845	2531.405322
977.333590	2531.574200
977.631299	2531.561597
977.928971	2528.761236
978.226606	2531.004550
978.524204	2530.339118
978.821765	2529.141843
979.119290	2529.721576
979.416777	2532.421114
979.714228	2531.622091
980.011642	2529.381298
980.309020	2533.933460
980.606360	2527.682429
980.903664	2531.942204
981.200931	2530.790301
981.498162	2531.942204
981.795356	2531.430527
982.092513	2532.237112
982.389633	2529.784591
982.686717	2534.195600
982.983764	2534.969417
983.280775	2533.991433
983.577749	2532.630322
983.874686	2533.565456
984.171587	2533.540250
984.468451	2532.920188
984.765279	2533.220137
985.062070	2530.142513
985.358824	2529.955990
985.655543	2533.721732
985.952224	2528.153777
986.248869	2530.558408
986.545478	2527.253931
986.842050	2529.736700
987.138586	2526.699404
987.435086	2528.794004
987.731549	2525.832326
988.027975	2529.288037
988.324366	2528.766277
988.620719	2528.320135
988.917037	2530.749972
989.213318	2530.520599
989.509563	2527.548839
989.805772	2529.104035
990.101944	2531.044879
990.398080	2530.928933
990.694180	2528.035310
990.990244	2532.658048
991.286271	2530.384488
991.582262	2529.696370
991.878217	2528.168901
992.174136	2531.725435
992.470019	2529.794673
992.765865	2530.611340
993.061676	2528.345341
993.357450	2528.567152
993.653188	2530.651669
993.948890	2530.258459
994.244556	2529.280475
994.540186	2529.971113
994.835780	2526.568334
995.131337	2528.625125
995.426859	2529.903058
995.722345	2528.748633
996.017795	2528.763757
996.313208	2530.500434
996.608586	2531.697708
996.903928	2529.835002
997.199234	2529.827440
997.494504	2529.998840
997.789738	2533.220137
998.084936	2529.517409
998.380099	2529.890455
998.675225	2528.007584
998.970316	2529.507327
999.265371	2528.549508
999.560390	2529.421627
999.855373	2530.984385
1000.150320	2528.627646
1000.445232	2529.018335
1000.740108	2524.546832
1001.034948	2527.599250
1001.329752	2527.790814
1001.624521	2528.415917
1001.919254	2526.210413
1002.213951	2528.725948
1002.508613	2524.062881
1002.803239	2526.240659
1003.097829	2523.757891
1003.392384	2528.988088
1003.686903	2526.855680
1003.981386	2526.107069
1004.275834	2528.211751
1004.570246	2531.120496
1004.864623	2528.791483
1005.158964	2527.816020
1005.453270	2529.025897
1005.747540	2529.771988
1006.041775	2525.923067
1006.335974	2528.511699
1006.630138	2526.885927
1006.924266	2528.531864
1007.218359	2526.490197
1007.512416	2528.990609
1007.806438	2528.045392
1008.100425	2525.580268
1008.394376	2528.751154
1008.688292	2527.747964
1008.982172	2527.349713
1009.276017	2527.453057
1009.569827	2531.221319
1009.863602	2529.499765
1010.157341	2529.217461
1010.451045	2528.995650
1010.744714	2529.530012
1011.038347	2527.206040
1011.331945	2529.562780
1011.625508	2527.591689
1011.919036	2528.947759
1012.212528	2529.557739
1012.505986	2525.464322
1012.799408	2528.133613
1013.092795	2527.848788
1013.386147	2527.652183
1013.679464	2527.407687
1013.972745	2528.473891
1014.265992	2529.280475
1014.559204	2530.258459
1014.852380	2528.312574
1015.145521	2528.451205
1015.438628	2526.606143
1015.731699	2530.152595
1016.024736	2529.817358
1016.317737	2527.440454
1016.610703	2529.096473
1016.903635	2523.916687
1017.196531	2525.214785
1017.489393	2524.468694
1017.782219	2523.009280
1018.075011	2527.697553
1018.367768	2529.225022
1018.660490	2527.926925
1018.953177	2527.926925
1019.245829	2527.926925
