Dividing Wavelength (nm)	Counts (n)	Blue Motor Position (mm): 0.000000	Red Motor Position (mm): 44.700000	
326.493990	2127.044289
326.888308	2127.044289
327.282561	2127.044289
327.676750	2095.050606
328.070874	2091.173959
328.464933	2096.000864
328.858929	2104.704416
329.252859	2113.193719
329.646726	2126.507406
330.040528	2135.891514
330.434265	2156.325831
330.827938	2172.306289
331.221547	2189.839422
331.615091	2208.562268
332.008571	2229.198231
332.401986	2247.129615
332.795338	2264.438417
333.188625	2284.789555
333.581847	2305.574232
333.975006	2322.704073
334.368100	2340.842144
334.761129	2360.502644
335.154095	2373.544109
335.546996	2395.190824
335.939833	2420.782242
336.332606	2438.751434
336.725315	2447.346602
337.117960	2459.034517
337.510540	2463.485856
337.903056	2476.103864
338.295508	2482.811119
338.687896	2494.804024
339.080220	2500.230826
339.472480	2510.565192
339.864676	2510.315654
340.256807	2515.747498
340.648875	2522.747140
341.040879	2524.566996
341.432818	2523.646986
341.824694	2525.030783
342.216506	2525.282840
342.608253	2526.666637
342.999937	2525.295443
343.391557	2524.902233
343.783113	2525.910464
344.174605	2523.873838
344.566033	2522.989115
344.957397	2521.504495
345.348697	2519.160359
345.739934	2517.269926
346.131106	2516.884278
346.522215	2515.099709
346.913260	2513.234483
347.304241	2509.841786
347.695159	2508.205932
348.086012	2508.868843
348.476802	2503.250477
348.867528	2504.314161
349.258191	2503.525220
349.648789	2502.443893
350.039324	2500.407267
350.429796	2499.136896
350.820203	2497.962307
351.210548	2498.305105
351.600828	2496.719663
351.991045	2493.518530
352.381198	2493.989878
352.771288	2497.432986
353.161314	2492.636328
353.551276	2496.465084
353.941175	2493.606750
354.331010	2494.970382
354.720782	2494.209168
355.110490	2496.215547
355.500135	2493.866369
355.889717	2496.192862
356.279235	2493.251349
356.668689	2496.268479
357.058080	2498.176556
357.447408	2494.549446
357.836672	2493.415186
358.225873	2496.122286
358.615010	2494.352841
359.004084	2498.726042
359.393095	2498.758809
359.782043	2500.881135
360.170927	2499.300733
360.559748	2500.394664
360.948505	2501.808707
361.337199	2502.839623
361.725830	2501.143275
362.114398	2503.290807
362.502903	2504.379696
362.891344	2506.809532
363.279722	2505.103101
363.668037	2505.536641
364.056289	2507.928668
364.444478	2509.594769
364.832603	2506.794408
365.220665	2509.141066
365.608665	2509.231806
365.996601	2508.067300
366.384474	2512.102743
366.772284	2512.382528
367.160031	2511.971673
367.547715	2517.232118
367.935336	2517.945441
368.322893	2521.217150
368.710388	2525.522295
369.097820	2530.535722
369.485189	2533.300795
369.872495	2540.817156
370.259738	2547.836962
370.646918	2552.366439
371.034035	2557.652089
371.421090	2572.994841
371.808081	2579.485326
372.195010	2589.003025
372.581875	2602.571290
372.968678	2616.988990
373.355418	2624.875876
373.742096	2643.770120
374.128710	2659.914415
374.515262	2671.980417
374.901751	2689.992460
375.288177	2702.587783
375.674540	2727.332286
376.060841	2740.761920
376.447079	2763.356372
376.833254	2783.271450
377.219367	2796.522123
377.605417	2833.241887
377.991404	2842.994000
378.377329	2861.863038
378.763191	2880.303579
379.148991	2919.851431
379.534727	2944.232972
379.920402	2974.021150
380.306013	2983.826194
380.691563	3034.840150
381.077049	3053.961247
381.462474	3075.348342
381.847835	3112.841924
382.233134	3135.811941
382.618371	3134.443268
383.003545	3204.006150
383.388657	3210.599979
383.773706	3242.167685
384.158693	3256.726537
384.543618	3286.423974
384.928480	3324.134326
385.313280	3367.836088
385.698017	3365.005480
386.082692	3417.660332
386.467305	3421.572268
386.851856	3457.669450
387.236344	3478.222234
387.620770	3509.333715
388.005133	3535.817417
388.389435	3563.216088
388.773674	3573.106832
389.157851	3618.068883
389.541965	3631.468270
389.926018	3595.855038
390.310008	3665.796007
390.693936	3685.670756
391.077802	3728.722210
391.461606	3713.066907
391.845348	3779.320271
392.229027	3777.034108
392.612645	3793.105306
392.996200	3868.757902
393.379694	3908.565373
393.763125	3971.806648
394.146494	3941.501752
394.529801	4004.891741
394.913047	4052.732291
395.296230	4015.185777
395.679351	4073.980754
396.062410	4098.700052
396.445408	4076.861774
396.828343	4109.276393
397.211217	4135.024086
397.594028	4057.528949
397.976778	4122.297693
398.359466	4148.055469
398.742092	4177.934388
399.124656	4099.057974
399.507158	4176.603523
399.889598	4203.329200
400.271977	4268.314715
400.654294	4241.135334
401.036549	4242.977875
401.418742	4212.073082
401.800874	4318.905214
402.182944	4336.292154
402.564952	4401.703645
402.946898	4390.567737
403.328783	4386.741501
403.710606	4303.045744
404.092367	4490.553982
404.474067	4457.889826
404.855705	4467.447853
405.237282	4392.294332
405.618797	4500.139736
406.000250	4536.337741
406.381642	4610.830872
406.762972	4577.130758
407.144240	4586.464454
407.525447	4589.789095
407.906593	4649.264628
408.287677	4693.185681
408.668700	4618.483343
409.049661	4669.580478
409.430560	4710.862487
409.811399	4638.025376
410.192176	4800.035458
410.572891	4740.159153
410.953545	4842.711346
411.334138	4723.629209
411.714669	4789.915341
412.095139	4684.736707
412.475547	4825.513449
412.855894	4805.805058
413.236180	4820.774765
413.616405	4769.715438
413.996568	4856.198953
414.376670	4800.269871
414.756711	4754.909569
415.136691	4787.293941
415.516609	4864.010221
415.896466	4901.816354
416.276262	4934.674595
416.655997	4914.020987
417.035670	5096.505715
417.415283	5193.331157
417.794834	5133.303618
418.174324	5086.128500
418.553753	4993.071321
418.933121	5177.524619
419.312428	5245.436523
419.691674	5186.422256
420.070859	5313.290454
420.449983	5221.954829
420.829045	5336.003373
421.208047	5245.950721
421.586988	5314.654086
421.965867	5327.942568
422.344686	5463.252178
422.723444	5315.667358
423.102141	5133.275892
423.480777	5430.903094
423.859352	5202.460687
424.237866	5459.219255
424.616319	5448.718532
424.994712	5560.632147
425.373044	5440.599753
425.751314	5582.699798
426.129524	5384.433738
426.507673	5577.454477
426.885762	5660.157127
427.263789	5591.002578
427.641756	5473.465556
428.019662	5600.462304
428.397508	5602.554382
428.775292	5555.396909
429.153016	5649.777391
429.530679	5574.129837
429.908282	5659.453886
430.285824	5529.762642
430.663305	5804.578623
431.040726	5544.225712
431.418086	5541.410227
431.795385	5644.927801
432.172624	5656.242671
432.549802	5654.100181
432.926920	5665.243651
433.303977	5670.630124
433.680974	5713.348862
434.057910	5730.463579
434.434786	5738.441205
434.811601	5707.808634
435.188355	5938.716165
435.565050	5816.697557
435.941683	5796.580832
436.318257	6007.893399
436.694770	5995.744218
437.071222	6025.996182
437.447614	5960.047808
437.823946	5871.666298
438.200218	6020.632394
438.576429	5895.281583
438.952580	5987.290203
439.328670	6032.942892
439.704700	5941.178769
440.080670	5925.914155
440.456580	6200.031936
440.832429	6078.109110
441.208218	5931.451862
441.583947	6084.944915
441.959616	6086.472384
442.335224	6013.726014
442.710773	6154.535523
443.086261	6175.665519
443.461689	5970.281350
443.837057	6125.009485
444.212365	6275.089676
444.587612	6169.830384
444.962800	6324.808056
445.337927	6300.174457
445.712995	5915.662968
446.088002	6488.151523
446.462949	6322.353014
446.837837	6246.929791
447.212664	6426.236071
447.587431	6567.237144
447.962139	7108.780576
448.336786	8034.409518
448.711374	7776.272195
449.085901	6847.300967
449.460369	6771.744153
449.834776	6708.875923
450.209124	7095.968483
450.583412	7244.891729
450.957640	7396.358238
451.331808	7156.573235
451.705917	6713.909515
452.079965	6635.091075
452.453954	6841.780903
452.827883	6721.612398
453.201752	6820.517316
453.575562	6612.189113
453.949311	6817.205278
454.323001	6703.504574
454.696632	6779.588188
455.070202	6913.471152
455.443713	7072.940492
455.817164	7176.838673
456.190556	7257.547546
456.563888	7331.057652
456.937160	7372.314455
457.310373	7035.257867
457.683526	7056.307205
458.056619	6947.932480
458.429653	6933.509739
458.802628	6867.054728
459.175542	6981.524208
459.548398	7332.746438
459.921194	7497.277097
460.293930	7493.425655
460.666607	8028.448354
461.039224	8335.058893
461.411782	8457.803427
461.784280	8483.750246
462.156719	8374.337043
462.529099	8254.448322
462.901419	7842.424736
463.273680	7732.459527
463.645882	7747.411589
464.018024	7607.794313
464.390106	7775.851258
464.762130	8164.536823
465.134094	8628.625446
465.505999	9658.376901
465.877845	10875.545853
466.249631	11521.736076
466.621358	11140.221553
466.993026	10514.669814
467.364634	10259.093396
467.736184	9889.697807
468.107674	9560.636489
468.479105	9596.010266
468.850477	9357.210808
469.221790	9131.745203
469.593043	8799.449985
469.964238	8671.127414
470.335373	8678.474896
470.706449	8730.441630
471.077467	8717.879075
471.448425	10025.012458
471.819324	11108.245514
472.190164	11124.097423
472.560945	9881.838648
472.931667	9084.290301
473.302330	8958.989901
473.672934	8594.383408
474.043479	8952.643089
474.413965	8895.799038
474.784393	8777.079865
475.154761	8932.420500
475.525070	9018.422585
475.895321	8850.204322
476.265513	9020.035754
476.635645	9198.694246
477.005719	9195.185603
477.375734	9305.929671
477.745691	9542.337101
478.115588	9675.458851
478.485427	9918.818032
478.855207	10460.626124
479.224928	11272.609815
479.594591	11901.529045
479.964194	11716.702701
480.333739	11658.530307
480.703226	11569.685011
481.072653	11655.891263
481.442022	11896.097202
481.811333	12085.097622
482.180584	11885.551108
482.549777	11602.790268
482.918912	11424.434245
483.287988	11448.931732
483.657005	11466.051491
484.025964	11140.055195
484.394864	11273.048395
484.763706	11242.655279
485.132489	10998.814667
485.501213	10962.422578
485.869879	11034.296829
486.238487	10877.128775
486.607036	10990.587504
486.975527	10767.881930
487.343959	10959.788575
487.712333	11007.097283
488.080648	10935.233114
488.448905	10976.936060
488.817104	10914.259394
489.185244	11182.781495
489.553326	11342.386946
489.921350	11871.917308
490.289315	12927.862598
490.657222	13281.108851
491.025070	13188.202906
491.392861	13064.992065
491.760593	12686.388808
492.128267	12334.138183
492.495883	12013.021724
492.863440	11669.502378
493.230939	11335.248672
493.598380	11272.725762
493.965763	11133.683177
494.333088	11034.165759
494.700354	10959.730602
495.067563	11012.415700
495.434713	10849.112563
495.801805	10971.239556
496.168839	10897.129553
496.535815	10832.504481
496.902733	10837.119658
497.269593	10765.003431
497.636395	10864.031858
498.003139	10856.805363
498.369825	10717.850999
498.736453	10883.997347
499.103023	10800.919132
499.469535	10833.237969
499.835989	10822.671711
500.202385	10787.552513
500.568723	10640.290326
500.935003	10859.487257
501.301226	10664.828143
501.667390	10922.897411
502.033497	11021.439366
502.399546	10881.809487
502.765537	10784.001020
503.131470	10865.145952
503.497345	11037.104751
503.863163	10645.586058
504.228923	10959.438215
504.594625	11022.671928
504.960269	10776.393918
505.325856	10990.509366
505.691385	10787.993613
506.056856	10945.988416
506.422270	10966.205964
506.787625	10854.806546
507.152924	10975.635442
507.518164	10952.541916
507.883347	10872.906809
508.248472	10794.988214
508.613540	11027.511436
508.978550	10909.193034
509.343503	10886.096988
509.708398	11005.232056
510.073236	11115.315733
510.438016	11123.643719
510.802738	11068.788403
511.167403	11114.834303
511.532010	11020.519355
511.896561	11249.889335
512.261053	11324.228710
512.625488	11189.027484
512.989866	11170.521408
513.354186	11158.783082
513.718449	11063.298587
514.082655	11255.469892
514.446803	11149.101546
514.810894	11269.567479
515.174927	11147.004426
515.538904	11159.987917
515.902822	11321.708133
516.266684	11203.765297
516.630488	11146.926288
516.994235	11202.068949
517.357925	11268.118147
517.721558	11358.715243
518.085133	11369.057170
518.448651	11378.451361
518.812112	11259.782599
519.175516	11274.538056
519.538863	11394.578012
519.902152	11309.579117
520.265385	11474.835702
520.628560	11391.336550
520.991678	11364.081552
521.354739	11427.806777
521.717743	11360.761952
522.080690	11329.408495
522.443580	11466.923611
522.806413	11421.606158
523.169189	11456.556478
523.531908	11517.430931
523.894569	11329.186685
524.257174	11342.664209
524.619722	11455.684358
524.982213	11403.858776
525.344647	11452.258894
525.707025	11408.973027
526.069345	11502.340237
526.431608	11416.663307
526.793815	11531.019361
527.155964	11312.215640
527.518057	11368.285874
527.880093	11318.862402
528.242072	11388.594162
528.603995	11294.806015
528.965860	11217.704088
529.327669	11272.191399
529.689421	11217.348687
530.051117	11181.717811
530.412755	11294.601849
530.774337	11184.452637
531.135862	11165.293732
531.497331	11192.475633
531.858743	11040.268075
532.220098	11203.472911
532.581396	11069.705893
532.942638	11053.538913
533.303824	11022.205621
533.664953	11031.793896
534.026025	10947.276431
534.387040	11045.525999
534.747999	11051.398943
535.108902	11107.887593
535.469748	10865.035047
535.830537	10963.919800
536.191270	10941.158991
536.551947	10968.240069
536.912567	10967.496499
537.273131	10896.774152
537.633638	10869.130985
537.994089	10864.299039
538.354483	10806.774432
538.714821	10953.461927
539.075103	10959.972577
539.435328	10930.559965
539.795497	10753.882646
540.155609	10910.778477
540.515665	10994.880047
540.875665	10737.161139
541.235609	10803.648917
541.595496	10800.054574
541.955328	10956.821856
542.315102	10841.253404
542.674821	10791.643409
543.034483	10784.888263
543.394090	10794.831939
543.753640	10724.212935
544.113134	10938.015831
544.472571	10798.340582
544.831953	10939.134968
545.191278	10742.419062
545.550548	10770.964596
545.909761	10914.229147
546.268918	10891.589325
546.628019	10969.397014
546.987064	10836.250059
547.346053	10756.219221
547.704986	10852.263284
548.063863	10838.432878
548.422684	10827.158338
548.781449	10753.865002
549.140158	10855.177071
549.498811	10724.384334
549.857408	10583.642881
550.215949	10810.701491
550.574434	10664.240848
550.932864	10763.700293
551.291237	10825.441825
551.649555	10765.923442
552.007817	10777.858374
552.366022	10743.434855
552.724173	10733.687784
553.082267	10720.185053
553.440305	10857.992555
553.798288	10659.597946
554.156215	10813.070833
554.514086	10790.945209
554.871902	10636.191868
555.229661	10670.202013
555.587365	10656.759776
555.945014	10546.038393
556.302606	10679.538230
556.660143	10571.965048
557.017625	10722.592204
557.375050	10619.724939
557.732421	10755.636968
558.089735	10667.477269
558.446994	10666.408544
558.804197	10706.379853
559.161345	10709.155008
559.518437	10557.620444
559.875474	10646.445575
560.232455	10674.247539
560.589381	10620.493715
560.946251	10621.990938
561.303065	10727.668646
561.659825	10653.954374
562.016528	10596.220559
562.373177	10476.470470
562.729770	10590.219066
563.086307	10502.883596
563.442789	10598.047978
563.799216	10471.638524
564.155587	10518.216265
564.511904	10473.347476
564.868164	10463.517226
565.224370	10481.683023
565.580520	10399.509695
565.936615	10409.166025
566.292654	10277.755747
566.648638	10409.534030
567.004567	10369.166990
567.360441	10347.900883
567.716260	10262.962482
568.072023	10359.780362
568.427732	10303.009408
568.783385	10218.807015
569.138982	10288.223703
569.494525	10300.652668
569.850013	10177.973669
570.205445	10256.744218
570.560823	10157.188992
570.916145	10078.794008
571.271412	10149.002158
571.626625	10088.727602
571.981782	10065.503006
572.336884	10040.221619
572.691931	10043.546260
573.046923	9995.196554
573.401860	9951.131828
573.756743	9889.077745
574.111570	9929.553169
574.466342	9917.504811
574.821059	9943.592783
575.175722	9839.003964
575.530330	9842.762144
575.884882	9829.453498
576.239380	9755.353577
576.593823	9740.255322
576.948211	9760.886244
577.302544	9638.895362
577.656823	9655.175768
578.011047	9659.306994
578.365216	9632.447726
578.719330	9546.836331
579.073389	9559.940810
579.427394	9510.587914
579.781344	9487.837187
580.135239	9430.640255
580.489080	9443.520403
580.842866	9346.579015
581.196597	9351.826856
581.550273	9391.848576
581.903895	9363.290440
582.257463	9425.175644
582.610975	9300.742323
582.964434	9323.185540
583.317837	9251.497812
583.671186	9237.100277
584.024481	9226.171055
584.377721	9149.618613
584.730906	9126.053740
585.084037	9161.634204
585.437113	9096.988967
585.790135	9114.088561
586.143103	9011.460751
586.496016	8980.210638
586.848874	9047.288232
587.201679	9031.106128
587.554428	8917.355012
587.907124	8963.584913
588.259765	8937.905275
588.612352	8939.488198
588.964884	8811.447931
589.317362	8825.200199
589.669786	8828.063574
590.022155	8878.933858
590.374470	8891.791321
590.726731	8830.258997
591.078937	8688.438736
591.431090	8796.110221
591.783188	8668.246394
592.135232	8663.200199
592.487222	8661.372781
592.839157	8717.299342
593.191038	8647.655802
593.542866	8595.442051
593.894639	8488.055391
594.246358	8541.494143
594.598022	8560.705980
594.949633	8454.181358
595.301190	8430.203110
595.652692	8461.087739
596.004141	8572.043535
596.355535	8348.415430
596.706876	8329.553953
597.058162	8264.044158
597.409395	8334.862288
597.760573	8406.542454
598.111698	8314.281777
598.462768	8297.041031
598.813785	8256.048888
599.164748	8228.564518
599.515657	8218.557827
599.866511	8131.166905
600.217312	8258.214064
600.568060	8114.596632
600.918753	8216.463228
601.269392	8186.342334
601.619978	8096.750947
601.970510	8162.767378
602.320988	8158.822675
602.671412	8219.452632
603.021783	8149.415882
603.372100	8125.417469
603.722363	8124.953683
604.072572	8099.626926
604.422728	8116.212322
604.772830	8043.836476
605.122878	8044.670787
605.472872	8045.247999
605.822813	8070.849499
606.172701	8022.192282
606.522534	8094.303467
606.872314	8090.318435
607.222041	8062.944970
607.571714	8123.277499
607.921333	8076.384686
608.270899	8082.131601
608.620411	8180.507198
608.969870	8076.800581
609.319276	8069.621978
609.668627	8086.078825
610.017926	8121.777756
610.367171	8171.206269
610.716362	8145.876992
611.065500	8135.930795
611.414585	8163.344590
611.763616	8151.407137
612.112594	8140.399778
612.461518	8153.153897
612.810389	8210.842341
613.159207	8154.026017
613.507971	8104.529448
613.856682	8214.272847
614.205340	8167.032194
614.553945	8254.465966
614.902496	8143.177454
615.250994	8200.467647
615.599439	8180.098865
615.947830	8194.960186
616.296169	8166.182759
616.644454	8186.110441
616.992686	8182.919390
617.340864	8233.900579
617.688990	8139.326012
618.037063	8235.738080
618.385082	8172.980755
618.733048	8265.347297
619.080961	8211.235551
619.428821	8223.241059
619.776628	8230.880928
620.124382	8176.622989
620.472083	8160.332500
620.819731	8190.765946
621.167326	8082.998680
621.514868	8090.575534
621.862357	7978.069583
622.209793	8002.264601
622.557176	7924.955986
622.904506	7902.565701
623.251783	7838.979107
623.599007	7791.980430
623.946179	7791.667878
624.293297	7750.025427
624.640363	7669.457706
624.987376	7650.414748
625.334336	7592.257476
625.681243	7546.342647
626.028097	7533.926285
626.374899	7509.345619
626.721647	7502.842531
627.068343	7439.684435
627.414987	7401.623723
627.761577	7362.242229
628.108115	7402.652118
628.454600	7289.223636
628.801032	7344.094075
629.147412	7305.970349
629.493739	7290.199100
629.840014	7228.581076
630.186236	7279.443798
630.532405	7172.591501
630.878521	7217.235959
631.224585	7175.613673
631.570597	7099.777075
631.916556	7134.026674
632.262462	7128.052907
632.608316	7091.507062
632.954117	7061.577732
633.299866	7054.278141
633.645562	7040.735081
633.991206	6964.187680
634.336797	6907.177272
634.682336	6862.076589
635.027823	6827.660631
635.373257	6824.550239
635.718639	6752.328149
636.063968	6765.750221
636.409245	6660.473285
636.754470	6662.099057
637.099642	6620.751513
637.444762	6561.903603
637.789829	6570.024902
638.134845	6514.413414
638.479808	6501.261043
638.824719	6498.654767
639.169577	6431.292348
639.514383	6455.207582
639.859137	6376.331169
640.203839	6391.550412
640.548489	6375.832094
640.893086	6351.024576
641.237632	6318.383105
641.582125	6342.356312
641.926566	6312.240459
642.270955	6326.390978
642.615292	6321.564073
642.959576	6336.622000
643.303809	6320.817982
643.647990	6327.217727
643.992118	6322.441234
644.336195	6266.262616
644.680219	6290.346728
645.024192	6280.909688
645.368112	6370.831270
645.711981	6396.785650
646.055797	6468.503626
646.399562	6426.132727
646.743274	6555.816410
647.086935	6603.767866
647.430544	6597.705878
647.774101	6619.541636
648.117606	6625.157481
648.461059	6618.268745
648.804460	6578.504123
649.147810	6486.908878
649.491108	6459.192614
649.834354	6429.827893
650.177548	6345.887641
650.520690	6261.534013
650.863781	6238.001907
651.206820	6257.848930
651.549807	6180.510068
651.892742	6118.493793
652.235626	6124.245750
652.578458	6110.763184
652.921238	6018.815058
653.263967	6059.315688
653.606644	6003.477348
653.949269	5998.468962
654.291843	5941.244304
654.634365	5987.101160
654.976836	5940.704900
655.319255	5939.618532
655.661622	5914.276651
656.003938	5909.663995
656.346203	5869.039857
656.688416	5901.880454
657.030577	5856.416808
657.372687	5818.472043
657.714746	5813.902237
658.056753	5850.269121
658.398708	5790.239061
658.740612	5782.909223
659.082465	5827.354556
659.424266	5822.101674
659.766016	5820.796015
660.107715	5794.062776
660.449362	5805.967461
660.790958	5801.324558
661.132503	5785.560870
661.473996	5817.496580
661.815438	5807.285722
662.156829	5803.096524
662.498168	5795.197036
662.839456	5768.100834
663.180693	5800.386903
663.521879	5805.738088
663.863013	5790.836437
664.204097	5803.920752
664.545129	5845.154870
664.886110	5842.052040
665.227040	5869.173448
665.567918	5833.787068
665.908746	5860.732036
666.249522	5861.934351
666.590248	5847.776270
666.930922	5871.454570
667.271545	5881.567124
667.612118	5885.945367
667.952639	5855.882446
668.293109	5870.834508
668.633528	5828.609803
668.973896	5835.982491
669.314213	5827.178116
669.654480	5799.285411
669.994695	5793.150327
670.334859	5785.354183
670.674973	5773.620897
671.015035	5776.829592
671.355047	5767.160658
671.695008	5756.710347
672.034918	5731.681018
672.374777	5738.514302
672.714585	5721.991920
673.054342	5721.074430
673.394049	5713.520261
673.733705	5740.099745
674.073310	5722.183484
674.412864	5686.729049
674.752368	5674.360578
675.091820	5676.321587
675.431223	5618.154233
675.770574	5613.062668
676.109875	5564.957457
676.449125	5566.918466
676.788324	5534.234145
677.127473	5472.732068
677.466571	5467.678311
677.805619	5455.942505
678.144616	5434.666315
678.483562	5415.431793
678.822458	5385.822576
679.161303	5382.024066
679.500098	5365.607549
679.838842	5350.471484
680.177535	5351.920816
680.516179	5361.433473
680.854771	5371.707345
681.193314	5446.260969
681.531805	5546.746289
681.870247	5679.310991
682.208638	5776.973264
682.546978	5783.980468
682.885268	5761.625472
683.223508	5671.567779
683.561697	5622.449296
683.899836	5589.528041
684.237925	5546.605137
684.575963	5512.166494
684.913951	5470.629907
685.251889	5517.429459
685.589776	5487.341332
685.927614	5464.419205
686.265401	5516.088512
686.603137	5502.996635
686.940824	5567.553651
687.278460	5584.128965
687.616046	5586.336991
687.953582	5651.743441
688.291068	5627.588752
688.628504	5676.450136
688.965889	5644.025435
689.303224	5593.722281
689.640510	5541.969796
689.977745	5467.204443
690.314930	5379.206061
690.652065	5326.921734
690.989150	5242.984002
691.326185	5165.536756
691.663170	5112.120689
692.000105	5044.100401
692.336990	4975.132375
692.673825	4939.451088
693.010610	4881.992016
693.347345	4820.648736
693.684030	4795.044715
694.020665	4758.261936
694.357251	4676.070964
694.693786	4683.892314
695.030272	4650.202283
695.366707	4615.355307
695.703093	4585.413374
696.039429	4602.278554
696.375716	4574.579934
696.711952	4552.953384
697.048139	4541.920819
697.384276	4520.037170
697.720363	4525.831977
698.056400	4528.445815
698.392388	4481.389164
698.728326	4466.830312
699.064214	4447.298361
699.400053	4437.470632
699.735842	4399.535949
700.071581	4378.353021
700.407270	4355.970298
700.742910	4338.187628
701.078501	4286.117549
701.414042	4279.576652
701.749533	4253.062704
702.084974	4197.783931
702.420366	4240.938729
702.755709	4192.853683
703.091002	4137.895023
703.426246	4172.207637
703.761440	4141.496928
704.096584	4109.558698
704.431679	4117.372486
704.766725	4100.774487
705.101721	4087.967436
705.436668	4110.713122
705.771565	4071.586206
706.106413	4095.529167
706.441212	4108.958800
706.775961	4110.556846
707.110661	4104.285651
707.445311	4124.719968
707.779913	4130.731544
708.114465	4142.258142
708.448967	4168.668747
708.783421	4212.252043
709.117825	4241.601640
709.452180	4246.529368
709.786485	4286.152838
710.120742	4352.529710
710.454949	4343.901775
710.789107	4388.924320
711.123216	4448.488074
711.457275	4445.370120
711.791286	4499.625538
712.125247	4501.982278
712.459159	4436.139767
712.793023	4504.744830
713.126837	4440.974234
713.460602	4431.784210
713.794318	4377.485942
714.127985	4381.385275
714.461602	4294.629538
714.795171	4282.946664
715.128691	4221.769741
715.462162	4171.975744
715.795584	4121.899442
716.128957	4104.512503
716.462281	4069.453798
716.795556	4043.716187
717.128782	4000.682377
717.461960	3944.286989
717.795088	3950.664049
718.128167	3915.002927
718.461198	3869.272100
718.794180	3864.659444
719.127113	3837.641380
719.459997	3816.508863
719.792833	3785.599028
720.125619	3781.150210
720.458357	3742.376175
720.791046	3742.532451
721.123686	3722.393041
721.456278	3685.887526
721.788821	3695.216181
722.121315	3676.480732
722.453761	3656.169924
722.786158	3653.669511
723.118506	3672.820855
723.450805	3645.419663
723.783056	3658.204029
724.115259	3661.626973
724.447412	3662.410872
724.779518	3661.561438
725.111574	3660.550686
725.443582	3683.429963
725.775542	3669.589475
726.107453	3704.660783
726.439315	3701.290771
726.771129	3719.910273
727.102895	3749.892535
727.434612	3775.829272
727.766281	3785.072227
728.097901	3788.709420
728.429473	3786.151034
728.760996	3791.696304
729.092471	3787.358391
729.423897	3768.779218
729.755276	3769.936163
730.086606	3774.243829
730.417887	3807.664158
730.749120	3847.310313
731.080305	3888.012589
731.411442	3914.947474
731.742530	3894.994587
732.073570	3897.074063
732.404562	3928.125050
732.735506	3915.955705
733.066401	3885.638206
733.397249	3845.135055
733.728048	3779.963018
734.058798	3702.097356
734.389501	3645.870846
734.720156	3610.499590
735.050762	3568.960483
735.381320	3554.981363
735.711831	3522.150849
736.042293	3498.091942
736.372707	3504.902541
736.703073	3485.196670
737.033391	3484.347236
737.363661	3491.712362
737.693883	3505.827593
738.024056	3514.941999
738.354182	3515.715816
738.684260	3557.867424
739.014290	3574.505752
739.344272	3572.396029
739.674207	3599.328393
740.004093	3602.887448
740.333931	3593.296653
740.663722	3590.801282
740.993464	3585.437494
741.323159	3568.156419
741.652806	3544.392419
741.982405	3520.746887
742.311956	3495.420130
742.641460	3486.998883
742.970915	3466.118424
743.300323	3434.296140
743.629683	3412.972059
743.958996	3401.102662
744.288260	3376.567367
744.617477	3348.835979
744.946647	3340.462623
745.275768	3318.485713
745.604842	3309.635967
745.933869	3287.795168
746.262847	3276.132459
746.591778	3290.963533
746.920662	3274.423508
747.249498	3257.447422
747.578286	3279.477264
747.907027	3295.994605
748.235720	3306.409629
748.564365	3313.147131
748.892963	3298.835295
749.221514	3292.667443
749.550017	3282.877523
749.878473	3277.198663
750.206881	3254.828543
750.535242	3249.860485
750.863555	3246.021647
751.191821	3243.120463
751.520039	3235.087384
751.848210	3221.486351
752.176334	3233.194431
752.504411	3233.938001
752.832440	3212.671893
753.160421	3204.099411
753.488356	3202.551777
753.816243	3204.575800
754.144082	3183.042512
754.471875	3171.341994
754.799620	3178.107222
755.127318	3174.384330
755.454969	3175.500946
755.782572	3175.221162
756.110129	3163.669357
756.437638	3157.647699
756.765100	3158.850014
757.092515	3163.011487
757.419882	3164.609533
757.747203	3153.985301
758.074477	3154.534787
758.401703	3159.938904
758.728882	3170.207734
759.056014	3175.029598
759.383099	3178.820545
759.710138	3181.789785
760.037129	3194.238914
760.364073	3198.896941
760.690970	3190.359747
761.017820	3182.455217
761.344623	3194.075077
761.671379	3219.855538
761.998088	3246.006523
762.324751	3328.878051
762.651366	3504.700895
762.977935	3840.489632
763.304456	4125.657623
763.630931	4162.815968
763.957359	3929.627314
764.283740	3698.152653
764.610074	3558.001014
764.936362	3417.030188
765.262602	3320.620641
765.588796	3245.467120
765.914943	3187.279602
766.241044	3136.250522
766.567097	3108.806480
766.893104	3080.137438
767.219064	3056.388563
767.544978	3038.714277
767.870845	3008.132117
768.196665	2998.374964
768.522438	2995.158708
768.848165	2985.169662
769.173846	2965.063019
769.499479	2957.314766
769.825066	2947.703806
770.150607	2935.423555
770.476101	2936.966148
770.801548	2935.864656
771.126949	2908.705440
771.452303	2899.580952
771.777611	2897.093142
772.102872	2897.022566
772.428087	2885.627038
772.753256	2877.467930
773.078378	2872.721684
773.403453	2850.858200
773.728482	2844.662622
774.053465	2851.485823
774.378401	2841.889987
774.703291	2827.855415
775.028135	2826.900116
775.352932	2822.587409
775.677683	2816.608600
776.002388	2811.527117
776.327046	2812.535348
776.651658	2807.181643
776.976224	2799.887093
777.300743	2794.707307
777.625216	2790.800413
777.949643	2788.526853
778.274024	2791.584313
778.598359	2781.214659
778.922647	2781.466717
779.246889	2781.832201
779.571086	2775.442538
779.895236	2772.982455
780.219339	2780.834052
780.543397	2781.391100
780.867409	2782.739608
781.191374	2781.302879
781.515294	2779.692231
781.839167	2778.502518
782.162995	2773.153854
782.486776	2778.245420
782.810511	2776.813732
783.134201	2765.957607
783.457844	2768.944491
783.781441	2762.043151
784.104993	2753.826070
784.428498	2753.732809
784.751958	2757.801020
785.075372	2754.050402
785.398739	2748.348857
785.722061	2752.018817
786.045337	2756.470156
786.368568	2753.435381
786.691752	2751.713827
787.014891	2770.603030
787.337983	2788.978036
787.661030	2811.834628
787.984031	2854.691997
788.306987	2877.349463
788.629897	2872.288145
788.952760	2860.222143
789.275579	2841.206911
789.598351	2810.453352
789.921078	2791.463325
790.243759	2778.757097
790.566395	2767.361568
790.888984	2753.513519
791.211529	2745.908938
791.534027	2735.771178
791.856480	2733.865622
792.178888	2725.840105
792.501249	2722.591081
792.823566	2719.631924
793.145836	2719.163097
793.468062	2714.731922
793.790241	2711.029195
794.112375	2714.502550
794.434464	2721.862634
794.756507	2723.100238
795.078505	2727.256669
795.400457	2738.258987
795.722364	2756.392018
796.044226	2772.029677
796.366042	2774.709050
796.687812	2766.726383
797.009538	2773.937754
797.331218	2764.876280
797.652852	2759.391504
797.974442	2749.485637
798.295986	2743.375758
798.617484	2736.048441
798.938938	2732.726321
799.260346	2724.249621
799.581709	2720.108313
799.903026	2718.979094
800.224299	2713.993393
800.545526	2709.060624
800.866708	2698.602751
801.187845	2694.831967
801.508936	2695.300795
801.829983	2696.777853
802.150984	2694.577389
802.471940	2684.729495
802.792851	2686.017510
803.113717	2682.834021
803.434538	2684.371573
803.755314	2684.484999
804.076045	2679.607683
804.396731	2675.993176
804.717372	2679.796726
805.037967	2679.915193
805.358518	2681.288908
805.679024	2684.064063
805.999485	2682.869309
806.319901	2688.099507
806.640272	2684.323682
806.960598	2687.393745
807.280879	2688.565813
807.601115	2693.612008
807.921306	2686.466173
808.241453	2685.573888
808.561554	2687.088755
808.881611	2686.078004
809.201623	2683.534742
809.521590	2680.295800
809.841513	2677.485357
810.161390	2679.844617
810.481223	2677.553413
810.801011	2673.394461
811.120755	2671.544357
811.440453	2669.371620
811.760107	2665.923471
812.079716	2668.408760
812.399281	2661.323418
812.718801	2659.841319
813.038276	2657.847542
813.357707	2659.168325
813.677093	2659.140598
813.996434	2658.056750
814.315731	2656.861997
814.634983	2656.090700
814.954191	2653.658343
815.273354	2659.730413
815.592473	2661.623367
815.911547	2664.557318
816.230577	2667.599654
816.549562	2670.205931
816.868502	2671.471261
817.187399	2676.378824
817.506250	2678.102898
817.825058	2676.976201
818.143821	2680.661284
818.462539	2687.378622
818.781213	2699.936136
819.099843	2713.779144
819.418429	2745.727457
819.736970	2778.404216
820.055466	2811.083496
820.373919	2849.136646
820.692327	2906.134452
821.010691	2994.846156
821.329011	3241.645925
821.647286	3785.720016
821.965517	4601.240076
822.283704	5037.514133
822.601847	5000.363350
822.919945	4576.808124
823.237999	4186.688352
823.556010	3839.360413
823.873976	3548.899211
824.191897	3342.111080
824.509775	3193.684387
824.827609	3071.514545
825.145398	3014.925072
825.463144	3010.919875
825.780845	3042.238044
826.098502	3107.415122
826.416116	3255.075559
826.733685	3423.591250
827.051210	3457.147690
827.368692	3375.445710
827.686129	3218.849827
828.003522	3061.772515
828.320872	2945.520987
828.638177	2861.595857
828.955439	2800.366003
829.272656	2763.794952
829.589830	2731.440827
829.906960	2713.675801
830.224046	2695.565455
830.541088	2683.401151
830.858086	2674.102743
831.175041	2666.339366
831.491952	2666.946825
831.808819	2669.232988
832.125642	2674.851354
832.442421	2695.588141
832.759157	2736.542474
833.075849	2816.865699
833.392497	2942.478650
833.709101	3025.287164
834.025662	3005.054493
834.342179	2928.807041
834.658653	2846.028774
834.975083	2782.038888
835.291469	2741.157651
835.607811	2703.901003
835.924110	2680.691531
836.240366	2663.062616
836.556578	2646.003351
836.872746	2635.805097
837.188871	2627.643469
837.504952	2618.115688
837.820990	2615.733743
838.136984	2611.269801
838.452935	2610.304420
838.768842	2607.103288
839.084706	2616.810029
839.400526	2648.791109
839.716303	2709.181612
840.032037	2745.351891
840.347727	2733.318657
840.663373	2703.467464
840.978977	2668.406239
841.294537	2644.483443
841.610054	2621.858745
841.925527	2612.230141
842.240957	2602.664552
842.556344	2595.732965
842.871687	2591.067377
843.186987	2585.993456
843.502244	2580.007086
843.817458	2579.997003
844.132629	2575.827969
844.447756	2574.310582
844.762840	2569.226578
845.077881	2572.576425
845.392879	2569.181208
845.707833	2566.506876
846.022745	2561.238870
846.337613	2568.122566
846.652438	2566.648028
846.967221	2568.072154
847.281960	2568.026784
847.596656	2565.571742
847.911309	2564.497976
848.225919	2566.995868
848.540485	2563.025959
848.855009	2561.498489
849.169490	2561.518654
849.483928	2565.349931
849.798323	2563.845147
850.112675	2562.605023
850.426984	2563.192317
850.741251	2560.452450
851.055474	2561.503531
851.369654	2562.105948
851.683792	2563.393963
851.997887	2561.238870
852.311938	2562.315156
852.625947	2562.819272
852.939914	2564.162739
853.253837	2563.456978
853.567718	2560.517985
853.881555	2562.350444
854.195350	2562.927657
854.509103	2562.819272
854.822812	2561.027142
855.136479	2559.552604
855.450103	2559.469425
855.763685	2563.804817
856.077224	2560.959086
856.390720	2560.321380
856.704173	2562.466391
857.017584	2562.506720
857.330953	2559.045968
857.644278	2561.763150
857.957561	2564.129972
858.270802	2561.498489
858.584000	2562.370609
858.897155	2563.565362
859.210268	2561.296843
859.523339	2562.564693
859.836367	2561.339693
860.149352	2561.115362
860.462295	2559.139229
860.775195	2558.403221
861.088054	2558.567058
861.400869	2557.697459
861.713642	2555.277706
862.026373	2556.139743
862.339062	2558.085628
862.651708	2560.276010
862.964312	2562.625187
863.276873	2563.189797
863.589392	2561.972358
863.901869	2563.300702
864.214303	2565.614592
864.526696	2566.312791
864.839045	2569.929819
865.151353	2568.999726
865.463619	2569.675241
865.775842	2567.273131
866.088023	2566.048131
866.400162	2567.779767
866.712258	2565.869170
867.024313	2565.564180
867.336325	2566.181721
867.648296	2566.766495
867.960224	2565.349931
868.272110	2565.216340
868.583954	2565.947308
868.895755	2565.284396
869.207515	2564.908830
869.519233	2567.512586
869.830909	2567.149623
870.142542	2567.764644
870.454134	2567.830179
870.765684	2569.304716
871.077191	2567.903275
871.388657	2569.828996
871.700081	2569.350087
872.011463	2570.703636
872.322803	2572.878894
872.634101	2572.394943
872.945357	2573.355283
873.256571	2577.083217
873.567744	2575.391909
873.878874	2575.515418
874.189963	2577.128587
874.501010	2577.778896
874.812015	2577.610017
875.122979	2579.702096
875.433900	2575.124728
875.744780	2575.026426
876.055618	2573.383010
876.366415	2574.590366
876.677169	2574.885273
876.987882	2570.774212
877.298554	2567.983934
877.609183	2575.517938
877.919771	2573.541806
878.230317	2578.235120
878.540822	2582.341140
878.851285	2586.910946
879.161707	2595.039807
879.472087	2605.414501
879.782425	2625.841257
880.092722	2659.818633
880.402977	2727.957389
880.713191	2855.115454
881.023363	3015.209897
881.333494	3125.003707
881.643583	3177.466996
881.953631	3141.135400
882.263637	3059.110786
882.573602	2964.735344
882.883526	2898.187073
883.193408	2843.835872
883.503248	2792.466515
883.813048	2752.830442
884.122806	2714.719319
884.432522	2684.306038
884.742197	2661.819972
885.051831	2644.773310
885.361424	2632.669499
885.670975	2620.487551
885.980485	2609.878443
886.289954	2606.241250
886.599382	2599.685230
886.908768	2599.748244
887.218113	2590.434712
887.527417	2587.636872
887.836680	2581.151428
888.145901	2579.008937
888.455082	2575.575912
888.764221	2579.591191
889.073319	2574.325705
889.382376	2574.038360
889.691392	2571.951322
890.000366	2574.454255
890.309300	2571.540468
890.618193	2571.366548
890.927044	2575.205387
891.235855	2574.776889
891.544625	2571.968966
891.853353	2574.492063
892.162041	2575.580953
892.470687	2582.895667
892.779293	2584.110585
893.087858	2589.940679
893.396381	2596.589961
893.704864	2613.770214
894.013306	2634.489356
894.321707	2671.231806
894.630068	2687.534897
894.938387	2698.159129
895.246665	2688.989270
895.554903	2673.623833
895.863100	2654.994249
896.171256	2636.079840
896.479371	2617.510750
896.787446	2606.561364
897.095480	2597.053748
897.403473	2593.381267
897.711425	2589.348344
898.019336	2585.017993
898.327207	2579.747466
898.635038	2580.276787
898.942827	2578.043556
899.250576	2575.769996
899.558284	2571.709347
899.865952	2571.207752
900.173579	2566.579972
900.481165	2572.205900
900.788711	2568.553584
901.096216	2564.261042
901.403681	2565.284396
901.711105	2562.453788
902.018489	2564.729869
902.325832	2568.984603
902.633135	2565.102914
902.940397	2574.161868
903.247619	2582.527663
903.554800	2606.440376
903.861941	2654.109527
904.169041	2701.632484
904.476101	2726.364385
904.783121	2719.644527
905.090100	2697.715507
905.397039	2666.662000
905.703938	2642.197280
906.010796	2621.445370
906.317614	2606.112701
906.624391	2593.411514
906.931129	2579.649164
907.237826	2575.649008
907.544483	2567.008471
907.851099	2562.363047
908.157675	2561.601833
908.464211	2560.573438
908.770707	2552.678991
909.077163	2553.772921
909.383578	2550.518856
909.689954	2547.048022
909.996289	2548.653629
910.302584	2553.173024
910.608839	2551.847200
910.915054	2552.575647
911.221229	2548.973743
911.527363	2553.530946
911.833458	2550.440718
912.139513	2554.488765
912.445527	2552.250493
912.751502	2553.291491
913.057436	2554.917263
913.363331	2557.823488
913.669186	2561.334652
913.975000	2568.054510
914.280775	2572.891497
914.586510	2581.796695
914.892205	2593.565269
915.197859	2612.076386
915.503475	2642.774492
915.809050	2668.852381
916.114585	2679.703465
916.420081	2682.816377
916.725536	2682.264371
917.030952	2667.690395
917.336328	2651.334372
917.641665	2637.819038
917.946961	2624.212964
918.252218	2610.818618
918.557435	2600.143975
918.862612	2590.825402
919.167750	2586.369022
919.472848	2578.668659
919.777906	2572.551219
920.082925	2572.881415
920.387904	2564.815569
920.692843	2569.198852
920.997743	2562.413459
921.302603	2559.817265
921.607423	2559.204764
921.912204	2557.372305
922.216946	2555.134033
922.521647	2555.106306
922.826310	2556.999260
923.130932	2554.932387
923.435516	2552.852911
923.740059	2550.143290
924.044564	2550.168496
924.349028	2548.704041
924.653454	2543.587270
924.957840	2543.126004
925.262186	2542.483257
925.566493	2541.285983
925.870761	2538.044521
926.174989	2545.641540
926.479178	2545.122301
926.783328	2542.417722
927.087438	2542.631971
927.391509	2543.433515
927.695541	2541.787578
927.999533	2544.207332
928.303486	2541.021323
928.607400	2542.465613
928.911275	2540.635674
929.215110	2541.885880
929.518906	2538.629295
929.822663	2540.872608
930.126381	2542.531148
930.430060	2541.845551
930.733699	2540.055942
931.037299	2543.614996
931.340861	2540.481919
931.644383	2542.324461
931.947866	2542.637012
932.251309	2541.424615
932.554714	2542.873947
932.858080	2545.180274
933.161407	2538.901517
933.464694	2540.920499
933.767943	2540.887732
934.071153	2539.808925
934.374323	2538.099974
934.677455	2540.567619
934.980548	2537.855478
935.283602	2540.749100
935.586617	2540.789429
935.889593	2541.228010
936.192530	2538.422608
936.495428	2539.481250
936.798287	2542.405119
937.101108	2539.884542
937.403890	2541.452341
937.706632	2543.574667
938.009336	2544.963505
938.312002	2545.933927
938.614628	2545.233207
938.917216	2547.229503
939.219765	2547.335368
939.522275	2547.090872
939.824747	2550.065153
940.127179	2544.086344
940.429573	2542.246323
940.731929	2543.735984
941.034246	2543.057949
941.336524	2544.323278
941.638763	2542.599204
941.940964	2543.315047
942.243126	2545.288659
942.545250	2542.294214
942.847335	2541.555685
943.149381	2542.659698
943.451389	2541.933771
943.753359	2540.983514
944.055290	2540.802032
944.357182	2541.865716
944.659036	2540.492001
944.960851	2542.359749
945.262628	2541.044008
945.564367	2541.938812
945.866067	2541.734646
946.167729	2540.799512
946.469352	2538.278935
946.770937	2542.185829
947.072484	2540.232382
947.373992	2538.339429
947.675462	2540.474357
947.976893	2540.111394
948.278286	2540.991076
948.579641	2537.837834
948.880958	2540.527289
949.182236	2538.994779
949.483476	2539.566950
949.784678	2540.562578
950.085841	2539.645088
950.386967	2541.036446
950.688054	2540.547454
950.989103	2539.503935
951.290114	2542.694986
951.591087	2537.686599
951.892021	2541.699358
952.192917	2543.735984
952.493776	2542.037115
952.794596	2542.634492
953.095378	2540.776827
953.396122	2541.601055
953.696828	2540.265149
953.997496	2541.154913
954.298126	2538.142824
954.598718	2540.212217
954.899272	2539.526620
955.199788	2540.938143
955.500266	2539.740869
955.800706	2533.573018
956.101108	2532.156453
956.401472	2535.115611
956.701798	2533.235260
957.002087	2534.477905
957.302337	2535.160981
957.602550	2537.116949
957.902724	2534.954294
958.202861	2535.188707
958.502960	2533.348686
958.803022	2534.341794
959.103045	2535.135775
959.403031	2536.902700
959.702979	2531.990095
960.002889	2535.990251
960.302762	2534.636701
960.602596	2534.495549
960.902393	2530.573531
961.202153	2534.800539
961.501875	2536.113759
961.801559	2534.482946
962.101205	2534.286341
962.400814	2534.248532
962.700385	2532.433717
962.999918	2533.746938
963.299414	2532.796680
963.598873	2532.582431
963.898293	2533.658717
964.197677	2534.520755
964.497022	2533.777184
964.796331	2534.493028
965.095601	2534.684592
965.394835	2533.368851
965.694030	2530.394570
965.993189	2533.472195
966.292309	2533.308357
966.591393	2531.574200
966.890439	2532.285003
967.189447	2532.060672
967.488419	2532.874818
967.787353	2531.614529
968.086249	2531.228881
968.385108	2532.380785
968.683930	2529.852646
968.982714	2533.598223
969.281462	2533.918337
969.580172	2534.056968
969.878844	2532.796680
970.177480	2532.461443
970.476078	2535.324819
970.774639	2531.622091
971.073162	2532.388347
971.371649	2531.140661
971.670098	2530.868439
971.968510	2530.749972
972.266885	2528.158818
972.565223	2533.338604
972.863524	2531.929602
973.161788	2532.126207
973.460014	2529.093953
973.758204	2533.792308
974.056356	2533.930940
974.354471	2533.583100
974.652550	2533.754499
974.950591	2533.744417
975.248595	2534.432534
975.546563	2532.544622
975.844493	2533.658717
976.142386	2534.661907
976.440243	2529.872811
976.738062	2531.667462
977.035845	2529.915661
977.333590	2532.741227
977.631299	2532.779036
977.928971	2533.225178
978.226606	2534.366999
978.524204	2531.783408
978.821765	2531.049920
979.119290	2533.225178
979.416777	2529.867770
979.714228	2530.593696
980.011642	2532.000178
980.309020	2535.163502
980.606360	2529.777029
980.903664	2530.747451
981.200931	2529.628315
981.498162	2532.645445
981.795356	2534.568646
982.092513	2534.525796
982.389633	2534.182997
982.686717	2534.316588
982.983764	2534.586290
983.280775	2536.940508
983.577749	2539.135931
983.874686	2535.125693
984.171587	2537.265663
984.468451	2534.896321
984.765279	2535.183666
985.062070	2533.691485
985.358824	2534.543440
985.655543	2532.385826
985.952224	2532.000178
986.248869	2531.327184
986.545478	2525.744106
986.842050	2528.821730
987.138586	2526.853160
987.435086	2527.934487
987.731549	2526.555732
988.027975	2531.435568
988.324366	2532.348017
988.620719	2531.927081
988.917037	2528.909950
989.213318	2533.315919
989.509563	2528.914992
989.805772	2531.974972
990.101944	2528.945238
990.398080	2531.541433
990.694180	2530.182842
990.990244	2528.078160
991.286271	2528.483973
991.582262	2530.124868
991.878217	2532.700898
992.174136	2530.543284
992.470019	2527.994981
992.765865	2530.704601
993.061676	2528.090763
993.357450	2531.866587
993.653188	2529.361134
993.948890	2530.455064
994.244556	2530.157636
994.540186	2531.642256
994.835780	2530.157636
995.131337	2529.381298
995.426859	2530.225692
995.722345	2530.422297
996.017795	2530.843233
996.313208	2530.250897
996.608586	2531.254087
996.903928	2527.059847
997.199234	2529.829961
997.494504	2531.536392
997.789738	2529.466998
998.084936	2530.208048
998.380099	2532.302647
998.675225	2531.014632
998.970316	2528.741072
999.265371	2530.679395
999.560390	2529.436751
999.855373	2534.379602
1000.150320	2529.376257
1000.445232	2529.212420
1000.740108	2527.528674
1001.034948	2528.070598
1001.329752	2528.541946
1001.624521	2528.199148
1001.919254	2525.310567
1002.213951	2525.091276
1002.508613	2525.456760
1002.803239	2528.592358
1003.097829	2525.280320
1003.392384	2528.594878
1003.686903	2530.792821
1003.981386	2530.497914
1004.275834	2528.766278
1004.570246	2530.387008
1004.864623	2529.666123
1005.158964	2530.588655
1005.453270	2527.180835
1005.747540	2529.328366
1006.041775	2528.158818
1006.335974	2528.231915
1006.630138	2527.848787
1006.924266	2530.208048
1007.218359	2527.689991
1007.512416	2528.471370
1007.806438	2528.456247
1008.100425	2529.504807
1008.394376	2526.250742
1008.688292	2528.796524
1008.982172	2528.259642
1009.276017	2530.412214
1009.569827	2530.681916
1009.863602	2529.845084
1010.157341	2528.075639
1010.451045	2529.156967
1010.744714	2526.444826
1011.038347	2528.529343
1011.331945	2528.390712
1011.625508	2527.813499
1011.919036	2528.466329
1012.212528	2528.012625
1012.505986	2528.526823
1012.799408	2527.374919
1013.092795	2528.932636
1013.386147	2529.819879
1013.679464	2528.146216
1013.972745	2527.964734
1014.265992	2526.946421
1014.559204	2528.052954
1014.852380	2529.068747
1015.145521	2530.626463
1015.438628	2528.073119
1015.731699	2530.727286
1016.024736	2529.630835
1016.317737	2526.906092
1016.610703	2527.753006
1016.903635	2526.134795
1017.196531	2523.649506
1017.489393	2525.739065
1017.782219	2522.835360
1018.075011	2526.028931
1018.367768	2528.796524
1018.660490	2524.695546
1018.953177	2524.695546
1019.245829	2524.695546
