Dividing Wavelength (nm)	Counts (n)	Blue Motor Position (mm): 0.000000	Red Motor Position (mm): 24.100000	
326.493990	2128.546553
326.888308	2128.546553
327.282561	2128.546553
327.676750	2096.305854
328.070874	2092.963569
328.464933	2096.799887
328.858929	2103.340784
329.252859	2114.708586
329.646726	2122.376181
330.040528	2135.931843
330.434265	2153.185193
330.827938	2169.624395
331.221547	2188.591737
331.615091	2206.618903
332.008571	2228.545401
332.401986	2251.291088
332.795338	2266.112080
333.188625	2285.739812
333.581847	2305.967442
333.975006	2323.432520
334.368100	2341.852896
334.761129	2358.917202
335.154095	2375.580736
335.546996	2393.585217
335.939833	2410.342012
336.332606	2423.385998
336.725315	2437.327308
337.117960	2448.816098
337.510540	2455.493106
337.903056	2466.603809
338.295508	2473.883236
338.687896	2485.480410
339.080220	2492.454846
339.472480	2494.637666
339.864676	2502.685868
340.256807	2504.331805
340.648875	2508.926817
341.040879	2509.216683
341.432818	2513.365552
341.824694	2515.896212
342.216506	2514.386386
342.608253	2513.975532
342.999937	2513.247085
343.391557	2515.281191
343.783113	2516.385204
344.174605	2513.549555
344.566033	2510.116529
344.957397	2509.592249
345.348697	2505.735766
345.739934	2502.973214
346.131106	2505.241733
346.522215	2503.237874
346.913260	2497.259066
347.304241	2499.154540
347.695159	2497.700167
348.086012	2496.702018
348.476802	2494.917450
348.867528	2494.120948
349.258191	2490.413179
349.648789	2490.448467
350.039324	2488.827736
350.429796	2488.563076
350.820203	2486.743219
351.210548	2485.813126
351.600828	2482.034781
351.991045	2485.704741
352.381198	2484.825060
352.771288	2482.662405
353.161314	2484.247848
353.551276	2482.029740
353.941175	2483.655512
354.331010	2481.780203
354.720782	2483.348002
355.110490	2481.828094
355.500135	2485.664412
355.889717	2481.606283
356.279235	2485.160297
356.668689	2484.177272
357.058080	2485.835811
357.447408	2484.573002
357.836672	2482.241469
358.225873	2484.953609
358.615010	2482.596870
359.004084	2484.467138
359.393095	2487.572489
359.782043	2490.284630
360.170927	2490.743375
360.559748	2489.266317
360.948505	2489.301605
361.337199	2493.710094
361.725830	2490.456029
362.114398	2490.972747
362.502903	2492.225474
362.891344	2492.122130
363.279722	2491.320587
363.668037	2495.146823
364.056289	2496.129848
364.444478	2495.237563
364.832603	2495.204796
365.220665	2496.712101
365.608665	2497.301916
365.996601	2497.551453
366.384474	2501.007164
366.772284	2500.624036
367.160031	2501.385250
367.547715	2501.720487
367.935336	2506.948164
368.322893	2509.022598
368.710388	2515.606345
369.097820	2517.874865
369.485189	2521.837212
369.872495	2525.272758
370.259738	2534.636701
370.646918	2543.234389
371.034035	2548.930893
371.421090	2559.804662
371.808081	2568.306568
372.195010	2577.146231
372.581875	2593.719024
372.968678	2604.255036
373.355418	2615.529576
373.742096	2630.718573
374.128710	2647.490492
374.515262	2662.130003
374.901751	2675.950326
375.288177	2691.305680
375.674540	2714.633620
376.060841	2729.111814
376.447079	2751.449166
376.833254	2773.814245
377.219367	2782.941254
377.605417	2823.053716
377.991404	2830.154181
378.377329	2854.611339
378.763191	2869.364275
379.148991	2910.129566
379.534727	2934.294337
379.920402	2959.956331
380.306013	2974.434524
380.691563	3021.208870
381.077049	3042.091850
381.462474	3062.269068
381.847835	3100.481015
382.233134	3124.923049
382.618371	3123.521608
383.003545	3192.890406
383.388657	3199.113710
383.773706	3231.699729
384.158693	3245.454517
384.543618	3274.665483
384.928480	3307.110349
385.313280	3356.140611
385.698017	3352.725230
386.082692	3404.719690
386.467305	3412.019281
386.851856	3444.116308
387.236344	3466.178918
387.620770	3496.582116
388.005133	3525.377187
388.389435	3553.199315
388.773674	3561.071077
389.157851	3606.386009
389.541965	3618.520066
389.926018	3584.378852
390.310008	3655.829646
390.693936	3674.950742
391.077802	3715.000189
391.461606	3699.324721
391.845348	3766.825771
392.229027	3767.138323
392.612645	3777.881022
392.996200	3854.859441
393.379694	3898.919125
393.763125	3963.019917
394.146494	3928.377108
394.529801	3986.652846
394.913047	4040.215106
395.296230	4006.094056
395.679351	4058.333013
396.062410	4082.792691
396.445408	4067.381884
396.828343	4094.636882
397.211217	4123.479844
397.594028	4042.957494
397.976778	4107.806897
398.359466	4134.091473
398.742092	4163.932583
399.124656	4088.184205
399.507158	4163.846883
399.889598	4189.682797
400.271977	4250.050614
400.654294	4220.864854
401.036549	4233.213160
401.418742	4201.227039
401.800874	4304.858039
402.182944	4325.448632
402.564952	4389.153693
402.946898	4374.882186
403.328783	4370.090570
403.710606	4284.070841
404.092367	4478.354390
404.474067	4441.790901
404.855705	4451.845482
405.237282	4374.922516
405.618797	4487.811594
406.000250	4518.880225
406.381642	4601.960961
406.762972	4567.517278
407.144240	4573.866611
407.525447	4575.363834
407.906593	4633.039675
408.287677	4675.070295
408.668700	4605.729224
409.049661	4658.386596
409.430560	4697.654664
409.811399	4624.144559
410.192176	4782.338487
410.572891	4719.172829
410.953545	4828.268440
411.334138	4709.760995
411.714669	4774.938073
412.095139	4669.887989
412.475547	4811.925019
412.855894	4793.360970
413.236180	4803.221467
413.616405	4754.990227
413.996568	4841.403166
414.376670	4784.707829
414.756711	4738.724945
415.136691	4771.890696
415.516609	4845.665462
415.896466	4886.365217
416.276262	4920.365279
416.655997	4902.302825
417.035670	5078.748251
417.415283	5172.158311
417.794834	5118.162512
418.174324	5070.256427
418.553753	4975.744875
418.933121	5162.068442
419.312428	5226.297783
419.691674	5167.318803
420.070859	5293.418226
420.449983	5200.522363
420.829045	5318.049303
421.208047	5228.329368
421.586988	5304.508764
421.965867	5307.286440
422.344686	5436.037509
422.723444	5294.751611
423.102141	5117.328201
423.480777	5411.441720
423.859352	5180.340104
424.237866	5438.830308
424.616319	5426.350932
424.994712	5540.384353
425.373044	5418.285086
425.751314	5558.318258
426.129524	5359.701837
426.507673	5553.302309
426.885762	5636.665350
427.263789	5565.285132
427.641756	5444.146205
428.019662	5563.432508
428.397508	5566.263116
428.775292	5516.701012
429.153016	5607.260300
429.530679	5527.678124
429.908282	5609.743068
430.285824	5474.904805
430.663305	5747.457309
431.040726	5479.061237
431.418086	5472.089321
431.795385	5572.390638
432.172624	5573.219908
432.549802	5554.512186
432.926920	5565.063321
433.303977	5566.336213
433.680974	5587.183904
434.057910	5596.220173
434.434786	5589.734728
434.811601	5548.853491
435.188355	5759.097333
435.565050	5625.428618
435.941683	5592.338484
436.318257	5778.316732
436.694770	5746.824644
437.071222	5763.538589
437.447614	5676.621535
437.823946	5581.626032
438.200218	5703.266554
438.576429	5558.769441
438.952580	5624.879132
439.328670	5640.486545
439.704700	5538.380494
440.080670	5501.696017
440.456580	5707.458273
440.832429	5578.717287
441.208218	5419.928502
441.583947	5523.267115
441.959616	5497.020347
442.335224	5407.885186
442.710773	5485.660107
443.086261	5469.089834
443.461689	5269.278661
443.837057	5352.745045
444.212365	5433.587508
444.587612	5314.891021
444.962800	5393.691817
445.337927	5337.147715
445.712995	5002.558772
446.088002	5382.324015
446.462949	5219.630857
446.837837	5117.875167
447.212664	5203.715934
447.587431	5240.428137
447.962139	5546.617739
448.336786	6084.155974
448.711374	5868.709662
449.085901	5226.116301
449.460369	5118.122183
449.834776	5019.776833
450.209124	5190.049366
450.583412	5206.876738
450.957640	5249.913068
451.331808	5050.215320
451.705917	4745.470008
452.079965	4648.357221
452.453954	4697.521074
452.827883	4586.895473
453.201752	4573.533895
453.575562	4424.845062
453.949311	4457.461328
454.323001	4361.641596
454.696632	4344.272300
455.070202	4338.916074
455.443713	4345.736755
455.817164	4326.829908
456.190556	4293.825474
456.563888	4267.979478
456.937160	4225.895926
457.310373	4052.775141
457.683526	4003.838140
458.056619	3912.043769
458.429653	3856.162579
458.802628	3795.116727
459.175542	3776.688789
459.548398	3820.360304
459.921194	3819.853668
460.293930	3778.808594
460.666607	3853.266436
461.039224	3886.628792
461.411782	3862.479145
461.784280	3805.138540
462.156719	3718.786096
462.529099	3637.396667
462.901419	3500.980523
463.273680	3432.564504
463.645882	3392.071435
464.018024	3322.886640
464.390106	3309.399033
464.762130	3329.437619
465.134094	3368.670399
465.505999	3497.625635
465.877845	3627.014410
466.249631	3644.487050
466.621358	3517.689428
466.993026	3374.903786
467.364634	3301.910399
467.736184	3216.331771
468.107674	3148.800474
468.479105	3113.530041
468.850477	3063.587330
469.221790	3013.274094
469.593043	2956.447688
469.964238	2919.105340
470.335373	2895.212792
470.706449	2878.619834
471.077467	2857.643593
471.448425	2906.719225
471.819324	2938.133176
472.190164	2916.020154
472.560945	2835.850685
472.931667	2787.488375
473.302330	2766.257556
473.672934	2739.710840
474.043479	2738.377454
474.413965	2723.004456
474.784393	2707.417208
475.154761	2702.776826
475.525070	2692.203006
475.895321	2680.555420
476.265513	2675.559636
476.635645	2676.063752
477.005719	2666.420024
477.375734	2663.402894
477.745691	2662.571103
478.115588	2654.532984
478.485427	2654.018786
478.855207	2656.993067
479.224928	2664.375837
479.594591	2669.021260
479.964194	2660.007677
480.333739	2656.940135
480.703226	2649.222128
481.072653	2648.874288
481.442022	2648.239103
481.811333	2647.689617
482.180584	2644.352373
482.549777	2634.471712
482.918912	2630.978192
483.287988	2630.116155
483.657005	2627.988788
484.025964	2621.825977
484.394864	2621.334465
484.763706	2621.447891
485.132489	2614.786006
485.501213	2615.090996
485.869879	2614.677621
486.238487	2610.294338
486.607036	2613.124946
486.975527	2607.836776
487.343959	2607.025150
487.712333	2609.361725
488.080648	2607.481374
488.448905	2605.091867
488.817104	2602.679675
489.185244	2605.124635
489.553326	2605.953905
489.921350	2613.213166
490.289315	2616.973867
490.657222	2618.466048
491.025070	2617.291460
491.392861	2617.845987
491.760593	2614.160903
492.128267	2610.185953
492.495883	2606.957094
492.863440	2603.718153
493.230939	2601.852926
493.598380	2602.286465
493.965763	2595.206165
494.333088	2596.093408
494.700354	2594.727255
495.067563	2595.972420
495.434713	2591.710124
495.801805	2597.416711
496.168839	2595.425455
496.535815	2593.429158
496.902733	2594.392018
497.269593	2593.242635
497.636395	2595.720362
498.003139	2592.829261
498.369825	2593.116606
498.736453	2590.260793
499.103023	2590.512850
499.469535	2594.702049
499.835989	2591.712645
500.202385	2591.740371
500.568723	2588.451018
500.935003	2590.999322
501.301226	2587.962027
501.667390	2592.088211
502.033497	2590.601071
502.399546	2590.545618
502.765537	2590.016297
503.131470	2588.763570
503.497345	2591.750454
503.863163	2589.739033
504.228923	2590.167531
504.594625	2589.192068
504.960269	2586.202664
505.325856	2588.637541
505.691385	2586.709300
506.056856	2590.517892
506.422270	2588.360278
506.787625	2588.632500
507.152924	2589.628128
507.518164	2589.345823
507.883347	2588.788776
508.248472	2588.130905
508.613540	2589.141657
508.978550	2587.379773
509.343503	2587.989753
509.708398	2588.826584
510.073236	2589.837336
510.438016	2587.137798
510.802738	2587.588981
511.167403	2589.582757
511.532010	2585.985894
511.896561	2591.390011
512.261053	2593.167018
512.625488	2587.233580
512.989866	2586.028744
513.354186	2587.470514
513.718449	2584.385328
514.082655	2587.306677
514.446803	2590.059147
514.810894	2591.226174
515.174927	2588.715679
515.538904	2587.717531
515.902822	2588.551842
516.266684	2589.030751
516.630488	2590.278437
516.994235	2589.023189
517.357925	2590.311204
517.721558	2590.343972
518.085133	2590.253231
518.448651	2592.282295
518.812112	2589.255082
519.175516	2588.680391
519.538863	2592.763726
519.902152	2588.566965
520.265385	2590.991760
520.628560	2590.540577
520.991678	2587.848601
521.354739	2590.785073
521.717743	2589.766760
522.080690	2592.128540
522.443580	2588.599732
522.806413	2591.359764
523.169189	2592.758684
523.531908	2595.077615
523.894569	2590.303642
524.257174	2591.306832
524.619722	2589.197109
524.982213	2589.865062
525.344647	2590.659044
525.707025	2590.371698
526.069345	2592.115937
526.431608	2592.862028
526.793815	2591.773139
527.155964	2592.887234
527.518057	2592.395721
527.880093	2592.904878
528.242072	2592.163828
528.603995	2591.924373
528.965860	2588.912284
529.327669	2592.327666
529.689421	2592.294898
530.051117	2590.568303
530.412755	2592.214240
530.774337	2594.197934
531.135862	2590.477562
531.497331	2588.919846
531.858743	2589.416399
532.220098	2591.410176
532.581396	2586.573189
532.942638	2587.347006
533.303824	2590.046544
533.664953	2590.714497
534.026025	2590.349013
534.387040	2592.514188
534.747999	2588.561924
535.108902	2590.840525
535.469748	2589.199630
535.830537	2590.349013
536.191270	2594.195413
536.551947	2590.878334
536.912567	2591.662233
537.273131	2590.253231
537.633638	2590.933787
537.994089	2590.802717
538.354483	2590.051585
538.714821	2590.969075
539.075103	2589.670978
539.435328	2591.442943
539.795497	2589.209712
540.155609	2591.752974
540.515665	2592.017635
540.875665	2589.925556
541.235609	2589.623087
541.595496	2588.468662
541.955328	2589.975967
542.315102	2590.606112
542.674821	2591.364805
543.034483	2590.928746
543.394090	2590.470001
543.753640	2588.282140
544.113134	2592.143664
544.472571	2592.181472
544.831953	2589.456729
545.191278	2591.304312
545.550548	2589.902871
545.909761	2594.024014
546.268918	2593.119127
546.628019	2593.078798
546.987064	2590.999322
547.346053	2590.724579
547.704986	2590.749785
548.063863	2588.884558
548.422684	2591.158118
548.781449	2590.618715
549.140158	2592.713314
549.498811	2590.225505
549.857408	2590.830443
550.215949	2589.917994
550.574434	2587.984712
550.932864	2590.260793
551.291237	2587.251224
551.649555	2591.765577
552.007817	2593.330855
552.366022	2593.146853
552.724173	2591.208530
553.082267	2589.224836
553.440305	2592.947728
553.798288	2589.408838
554.156215	2591.808427
554.514086	2592.574682
554.871902	2590.245669
555.229661	2593.058633
555.587365	2590.210381
555.945014	2589.532346
556.302606	2588.193920
556.660143	2590.764908
557.017625	2591.720207
557.375050	2592.544435
557.732421	2591.087542
558.089735	2590.646441
558.446994	2591.009404
558.804197	2592.085690
559.161345	2591.667275
559.518437	2590.467480
559.875474	2590.533015
560.232455	2588.771132
560.589381	2592.138622
560.946251	2592.330186
561.303065	2589.824733
561.659825	2592.801534
562.016528	2590.686770
562.373177	2587.800710
562.729770	2591.682398
563.086307	2593.834971
563.442789	2592.367995
563.799216	2590.333889
564.155587	2589.872624
564.511904	2591.253900
564.868164	2590.341451
565.224370	2590.533015
565.580520	2590.911102
565.936615	2591.702563
566.292654	2588.443457
566.648638	2591.490834
567.004567	2590.590988
567.360441	2591.427820
567.716260	2588.209043
568.072023	2592.310022
568.427732	2586.341296
568.783385	2588.413210
569.138982	2587.881368
569.494525	2587.964547
569.850013	2585.270050
570.205445	2590.222984
570.560823	2589.534867
570.916145	2585.575040
571.271412	2588.541759
571.626625	2590.439754
571.981782	2587.518405
572.336884	2590.159970
572.691931	2589.673498
573.046923	2587.059660
573.401860	2590.810278
573.756743	2588.783735
574.111570	2587.858683
574.466342	2586.706779
574.821059	2585.887592
575.175722	2588.445977
575.530330	2587.649475
575.884882	2585.290215
576.239380	2586.550503
576.593823	2591.090062
576.948211	2588.297263
577.302544	2586.479927
577.656823	2586.633682
578.011047	2590.913622
578.365216	2585.852304
578.719330	2585.499423
579.073389	2587.914136
579.427394	2586.885740
579.781344	2586.784917
580.135239	2586.454722
580.489080	2586.898343
580.842866	2586.807602
581.196597	2592.741040
581.550273	2585.711151
581.903895	2587.959506
582.257463	2586.923549
582.610975	2583.170410
582.964434	2582.474731
583.317837	2587.125195
583.671186	2586.966399
584.024481	2587.583940
584.377721	2584.082859
584.730906	2584.007241
585.084037	2585.880030
585.437113	2582.678897
585.790135	2586.979002
586.143103	2583.634196
586.496016	2584.559248
586.848874	2578.580439
587.201679	2584.130750
587.554428	2581.549679
587.907124	2580.342322
588.259765	2577.015161
588.612352	2582.550348
588.964884	2586.122005
589.317362	2581.935327
589.669786	2580.987590
590.022155	2586.242993
590.374470	2585.204515
590.726731	2583.505647
591.078937	2583.606470
591.431090	2583.324165
591.783188	2578.678742
592.135232	2581.688311
592.487222	2580.526325
592.839157	2582.542786
593.191038	2580.433063
593.542866	2581.269895
593.894639	2582.131932
594.246358	2580.249061
594.598022	2582.562951
594.949633	2577.761252
595.301190	2580.501119
595.652692	2579.979359
596.004141	2579.752507
596.355535	2581.723599
596.706876	2578.038515
597.058162	2579.628999
597.409395	2577.960377
597.760573	2580.117991
598.111698	2581.582446
598.462768	2578.386355
598.813785	2579.195460
599.164748	2578.560275
599.515657	2578.724112
599.866511	2579.066911
600.217312	2580.107909
600.568060	2579.071952
600.918753	2580.415419
601.269392	2578.194791
601.619978	2578.043556
601.970510	2581.587488
602.320988	2576.299317
602.671412	2576.810994
603.021783	2578.479616
603.372100	2578.154462
603.722363	2576.538772
604.072572	2578.063721
604.422728	2579.835687
604.772830	2575.578432
605.122878	2575.346539
605.472872	2576.430387
605.822813	2572.629357
606.172701	2575.069276
606.522534	2579.709658
606.872314	2577.821746
607.222041	2576.700089
607.571714	2577.746128
607.921333	2578.772003
608.270899	2577.229410
608.620411	2579.777713
608.969870	2579.011458
609.319276	2580.485995
609.668627	2581.164031
610.017926	2585.285174
610.367171	2587.042016
610.716362	2586.653847
611.065500	2582.678897
611.414585	2580.889288
611.763616	2581.708475
612.112594	2581.814339
612.461518	2579.324009
612.810389	2579.901222
613.159207	2580.422981
613.507971	2579.150090
613.856682	2579.694534
614.205340	2578.209914
614.553945	2580.057497
614.902496	2578.577919
615.250994	2578.845100
615.599439	2579.540779
615.947830	2579.049267
616.296169	2575.792681
616.644454	2578.658577
616.992686	2578.141859
617.340864	2578.711509
617.688990	2576.506004
618.037063	2580.785944
618.385082	2575.197825
618.733048	2576.654718
619.080961	2576.707651
619.428821	2578.923238
619.776628	2580.448187
620.124382	2581.592529
620.472083	2578.633371
620.819731	2577.995665
621.167326	2574.882753
621.514868	2577.647826
621.862357	2575.122208
622.209793	2577.052970
622.557176	2575.901066
622.904506	2573.438462
623.251783	2568.359500
623.599007	2571.137176
623.946179	2570.028122
624.293297	2574.446693
624.640363	2572.732701
624.987376	2575.701940
625.334336	2572.541137
625.681243	2572.150447
626.028097	2572.757907
626.374899	2572.568863
626.721647	2571.487536
627.068343	2575.671693
627.414987	2570.149109
627.761577	2572.354614
628.108115	2574.776889
628.454600	2575.165057
628.801032	2570.570046
629.147412	2573.309913
629.493739	2571.240519
629.840014	2572.160530
630.186236	2570.990982
630.532405	2573.821590
630.878521	2571.278328
631.224585	2573.226734
631.570597	2571.122052
631.916556	2571.500139
632.262462	2570.985941
632.608316	2569.564336
632.954117	2569.849161
633.299866	2567.537792
633.645562	2569.879408
633.991206	2569.206414
634.336797	2567.643656
634.682336	2569.889490
635.027823	2569.037535
635.373257	2566.965621
635.718639	2565.541495
636.063968	2567.968810
636.409245	2566.537123
636.754470	2566.602658
637.099642	2565.294478
637.444762	2567.426886
637.789829	2568.659448
638.134845	2568.145251
638.479808	2567.318502
638.824719	2561.942111
639.169577	2562.592420
639.514383	2564.409756
639.859137	2565.728017
640.203839	2564.182904
640.548489	2563.570404
640.893086	2562.741134
641.237632	2559.512275
641.582125	2562.330280
641.926566	2559.323232
642.270955	2562.766340
642.615292	2561.437996
642.959576	2564.402194
643.303809	2564.387071
643.647990	2564.797925
643.992118	2562.327759
644.336195	2565.798594
644.680219	2562.032852
645.024192	2565.838923
645.368112	2562.252142
645.711981	2562.809189
646.055797	2565.294478
646.399562	2565.627194
646.743274	2565.274314
647.086935	2564.510579
647.430544	2566.738769
647.774101	2566.811866
648.117606	2564.770198
648.461059	2567.482339
648.804460	2567.134499
649.147810	2568.331773
649.491108	2567.263049
649.834354	2567.709191
650.177548	2565.115517
650.520690	2564.694581
650.863781	2564.321536
651.206820	2566.010322
651.549807	2563.373799
651.892742	2563.184755
652.235626	2561.145609
652.578458	2562.204251
652.921238	2562.960424
653.263967	2560.709549
653.606644	2561.304405
653.949269	2562.925136
654.291843	2559.555125
654.634365	2561.952193
654.976836	2559.355999
655.319255	2563.986299
655.661622	2562.738613
656.003938	2560.833057
656.346203	2558.904816
656.688416	2560.969168
657.030577	2561.332131
657.372687	2560.346586
657.714746	2559.902964
658.056753	2556.825340
658.398708	2558.879610
658.740612	2558.463715
659.082465	2554.856769
659.424266	2558.176369
659.766016	2556.883313
660.107715	2560.991853
660.449362	2559.920608
660.790958	2558.408262
661.132503	2557.541184
661.473996	2563.149467
661.815438	2559.781977
662.156829	2558.882131
662.498168	2558.914898
662.839456	2560.790207
663.180693	2559.590413
663.521879	2560.099569
663.863013	2561.894220
664.204097	2558.824157
664.545129	2561.198541
664.886110	2559.928170
665.227040	2560.691905
665.567918	2561.642162
665.908746	2559.035886
666.249522	2559.441699
666.590248	2558.438509
666.930922	2559.451781
667.271545	2560.187789
667.612118	2560.482697
667.952639	2560.260886
668.293109	2561.735424
668.633528	2560.727193
668.973896	2557.969682
669.314213	2559.996226
669.654480	2562.408418
669.994695	2559.908005
670.334859	2559.731565
670.674973	2558.907336
671.015035	2561.052347
671.355047	2559.565207
671.695008	2559.403890
672.034918	2557.306770
672.374777	2558.672923
672.714585	2559.582851
673.054342	2558.814075
673.394049	2561.763150
673.733705	2560.981771
674.073310	2558.372974
674.412864	2564.845816
674.752368	2559.726524
675.091820	2558.801472
675.431223	2558.125957
675.770574	2561.057388
676.109875	2551.854762
676.449125	2557.752912
676.788324	2553.314176
677.127473	2558.433468
677.466571	2552.983981
677.805619	2560.364230
678.144616	2556.764846
678.483562	2558.350289
678.822458	2559.000598
679.161303	2560.747357
679.500098	2556.313663
679.838842	2556.994218
680.177535	2558.075546
680.516179	2555.466749
680.854771	2559.192162
681.193314	2554.093034
681.531805	2559.678633
681.870247	2561.039744
682.208638	2559.736606
682.546978	2559.449260
682.885268	2560.674261
683.223508	2558.894733
683.561697	2558.446071
683.899836	2560.533108
684.237925	2557.367264
684.575963	2558.133519
684.913951	2557.407593
685.251889	2563.157029
685.589776	2558.803993
685.927614	2559.355999
686.265401	2558.594785
686.603137	2558.632593
686.940824	2558.637635
687.278460	2562.413459
687.616046	2559.338355
687.953582	2560.200392
688.291068	2560.528067
688.628504	2557.578992
688.965889	2559.930691
689.303224	2557.389949
689.640510	2560.202913
689.977745	2561.145609
690.314930	2558.504044
690.652065	2559.630742
690.989150	2560.422203
691.326185	2555.103786
691.663170	2556.096893
692.000105	2555.204609
692.336990	2554.488765
692.673825	2557.163097
693.010610	2556.757284
693.347345	2552.116902
693.684030	2549.130018
694.020665	2551.580019
694.357251	2547.962991
694.693786	2553.215874
695.030272	2552.482386
695.366707	2554.680329
695.703093	2551.988353
696.039429	2552.331151
696.375716	2555.938097
696.711952	2551.809392
697.048139	2551.587581
697.384276	2553.107489
697.720363	2552.552962
698.056400	2551.204453
698.392388	2551.476676
698.728326	2552.439536
699.064214	2551.438867
699.400053	2551.922818
699.735842	2549.024154
700.071581	2551.224618
700.407270	2549.114895
700.742910	2550.957437
701.078501	2548.729247
701.414042	2549.830739
701.749533	2550.879299
702.084974	2551.224618
702.420366	2549.251006
702.755709	2550.312169
703.091002	2548.895605
703.426246	2550.067673
703.761440	2551.582540
704.096584	2547.796633
704.431679	2552.308466
704.766725	2548.048691
705.101721	2549.505584
705.436668	2550.012220
705.771565	2548.623382
706.106413	2548.900646
706.441212	2546.899308
706.775961	2548.527601
707.110661	2548.578012
707.445311	2550.302087
707.779913	2549.871068
708.114465	2553.210832
708.448967	2553.026830
708.783421	2550.944834
709.117825	2551.809392
709.452180	2551.922818
709.786485	2552.598332
710.120742	2552.177396
710.454949	2553.062118
710.789107	2551.857283
711.123216	2546.700182
711.457275	2549.896274
711.791286	2547.156407
712.125247	2550.274360
712.459159	2554.312325
712.793023	2556.326266
713.126837	2549.366953
713.460602	2551.509443
713.794318	2550.362581
714.127985	2553.399876
714.461602	2550.602035
714.795171	2552.235369
715.128691	2551.693445
715.462162	2550.360060
715.795584	2550.034906
716.128957	2550.102961
716.462281	2550.097920
716.795556	2549.150183
717.128782	2546.730429
717.461960	2548.913249
717.795088	2549.462735
718.128167	2548.625903
718.461198	2548.583053
718.794180	2547.753783
719.127113	2548.164638
719.459997	2548.116747
719.792833	2550.400389
720.125619	2551.085986
720.458357	2545.485264
720.791046	2547.879812
721.123686	2544.935778
721.456278	2545.954092
721.788821	2546.851417
722.121315	2546.042312
722.453761	2545.744884
722.786158	2545.026519
723.118506	2547.131201
723.450805	2545.407126
723.783056	2545.318906
724.115259	2544.015768
724.447412	2545.631458
724.779518	2546.937117
725.111574	2546.417878
725.443582	2549.961809
725.775542	2548.613300
726.107453	2545.535676
726.439315	2547.121119
726.771129	2553.165462
727.102895	2546.080120
727.434612	2549.137580
727.766281	2545.918803
728.097901	2545.414688
728.429473	2544.416540
728.760996	2544.290511
729.092471	2544.870243
729.423897	2547.287477
729.755276	2546.218752
730.086606	2548.373845
730.417887	2549.629093
730.749120	2550.329813
731.080305	2548.479710
731.411442	2548.792261
731.742530	2548.416695
732.073570	2547.960471
732.404562	2551.385935
732.735506	2551.529608
733.066401	2548.154555
733.397249	2552.416851
733.728048	2548.779658
734.058798	2545.742363
734.389501	2547.244627
734.720156	2548.121788
735.050762	2545.331509
735.381320	2548.086500
735.711831	2543.869574
736.042293	2546.680018
736.372707	2545.565923
736.703073	2547.368135
737.033391	2547.499205
737.363661	2545.117260
737.693883	2543.627599
738.024056	2550.256716
738.354182	2545.762528
738.684260	2548.928372
739.014290	2545.512991
739.344272	2544.729091
739.674207	2547.726057
740.004093	2548.376366
740.333931	2547.252189
740.663722	2546.692621
740.993464	2547.771428
741.323159	2547.413506
741.652806	2544.930737
741.982405	2547.156407
742.311956	2545.644061
742.641460	2547.148845
742.970915	2545.618855
743.300323	2547.766386
743.629683	2545.409647
743.958996	2546.962322
744.288260	2542.765562
744.617477	2548.131870
744.946647	2540.706250
745.275768	2543.398227
745.604842	2543.539379
745.933869	2542.155582
746.262847	2543.554502
746.591778	2544.119112
746.920662	2542.296734
747.249498	2544.487116
747.578286	2541.843031
747.907027	2545.686910
748.235720	2544.124153
748.564365	2546.528783
748.892963	2542.810932
749.221514	2543.312527
749.550017	2544.996272
749.878473	2542.218597
750.206881	2543.085675
750.535242	2541.457382
750.863555	2543.352856
751.191821	2543.698175
751.520039	2541.653987
751.848210	2541.719522
752.176334	2543.176416
752.504411	2545.170192
752.832440	2541.149872
753.160421	2542.679862
753.488356	2540.489481
753.816243	2547.673125
754.144082	2543.065510
754.471875	2543.529297
754.799620	2543.788916
755.127318	2540.809594
755.454969	2543.433515
755.782572	2543.400747
756.110129	2545.412168
756.437638	2544.204811
756.765100	2539.798843
757.092515	2543.567105
757.419882	2541.432177
757.747203	2542.374872
758.074477	2542.016950
758.401703	2544.620706
758.728882	2543.120963
759.056014	2545.591128
759.383099	2544.398896
759.710138	2543.940151
760.037129	2546.685059
760.364073	2541.596014
760.690970	2545.029040
761.017820	2546.695141
761.344623	2543.909904
761.671379	2546.014585
761.998088	2541.041487
762.324751	2543.577187
762.651366	2544.345963
762.977935	2555.733930
763.304456	2555.547407
763.630931	2557.921791
763.957359	2554.022458
764.283740	2553.324258
764.610074	2550.838970
764.936362	2547.289997
765.262602	2545.462579
765.588796	2545.971736
765.914943	2544.744215
766.241044	2547.315203
766.567097	2543.065510
766.893104	2542.090047
767.219064	2541.810263
767.544978	2541.628782
767.870845	2542.894111
768.196665	2540.363452
768.522438	2543.176416
768.848165	2543.143648
769.173846	2540.527289
769.499479	2540.091230
769.825066	2542.894111
770.150607	2540.618030
770.476101	2540.023174
770.801548	2541.432177
771.126949	2537.840354
771.452303	2540.494522
771.777611	2539.970242
772.102872	2541.676672
772.428087	2537.220292
772.753256	2539.372865
773.078378	2541.099460
773.403453	2538.546116
773.728482	2538.888914
774.053465	2536.968235
774.378401	2538.155427
774.703291	2537.358924
775.028135	2537.472350
775.352932	2539.879501
775.677683	2538.014274
776.002388	2537.593338
776.327046	2538.137783
776.651658	2539.435880
776.976224	2536.559901
777.300743	2537.842875
777.625216	2537.305992
777.949643	2539.279604
778.274024	2539.466127
778.598359	2534.583769
778.922647	2534.888759
779.246889	2534.772812
779.571086	2534.503111
779.895236	2535.264325
780.219339	2539.554347
780.543397	2534.873635
780.867409	2538.861188
781.191374	2538.828421
781.515294	2539.272042
781.839167	2538.157947
782.162995	2538.397402
782.486776	2537.691640
782.810511	2538.916641
783.134201	2540.197094
783.457844	2538.299099
783.781441	2540.585263
784.104993	2538.594007
784.428498	2541.298586
784.751958	2537.603420
785.075372	2537.220293
785.398739	2538.800694
785.722061	2538.513348
786.045337	2537.933616
786.368568	2538.447813
786.691752	2538.296579
787.014891	2538.415046
787.337983	2541.485109
787.661030	2540.229861
787.984031	2539.730787
788.306987	2542.269008
788.629897	2540.870088
788.952760	2540.416384
789.275579	2537.810107
789.598351	2543.597352
789.921078	2537.941177
790.243759	2538.140303
790.566395	2536.111239
790.888984	2539.017464
791.211529	2537.676517
791.534027	2540.630633
791.856480	2537.563091
792.178888	2537.447144
792.501249	2536.973276
792.823566	2538.762886
793.145836	2537.154758
793.468062	2539.153575
793.790241	2538.886394
794.112375	2539.161137
794.434464	2536.842206
794.756507	2537.633667
795.078505	2539.017464
795.400457	2535.012267
795.722364	2533.472195
796.044226	2537.479912
796.366042	2533.212575
796.687812	2533.739376
797.009538	2537.454706
797.331218	2540.335726
797.652852	2538.992258
797.974442	2539.519059
798.295986	2537.031249
798.617484	2537.578214
798.938938	2536.927906
799.260346	2538.430169
799.581709	2537.497556
799.903026	2539.758513
800.224299	2536.648122
800.545526	2540.829759
800.866708	2537.643749
801.187845	2537.414377
801.508936	2537.270704
801.829983	2535.657535
802.150984	2535.264325
802.471940	2537.943698
802.792851	2536.317926
803.113717	2537.121990
803.434538	2535.806249
803.755314	2537.726928
804.076045	2537.817669
804.396731	2538.780530
804.717372	2537.656352
805.037967	2535.934798
805.358518	2536.358255
805.679024	2535.138296
805.999485	2536.849768
806.319901	2540.149203
806.640272	2538.659542
806.960598	2534.971938
807.280879	2535.753317
807.601115	2536.648122
807.921306	2535.733152
808.241453	2535.851619
808.561554	2537.227854
808.881611	2538.306661
809.201623	2537.537885
809.521590	2536.454037
809.841513	2537.293389
810.161390	2537.825231
810.481223	2537.590817
810.801011	2534.210724
811.120755	2536.945550
811.440453	2537.863040
811.760107	2536.920344
812.079716	2535.541588
812.399281	2533.580579
812.718801	2534.699716
813.038276	2531.241484
813.357707	2538.140303
813.677093	2535.082843
813.996434	2536.832124
814.315731	2535.090405
814.634983	2536.819521
814.954191	2534.530837
815.273354	2534.694674
815.592473	2537.737011
815.911547	2537.618544
816.230577	2535.839016
816.549562	2537.432021
816.868502	2535.387833
817.187399	2539.284645
817.506250	2538.959491
817.825058	2538.989738
818.143821	2536.353214
818.462539	2539.370345
818.781213	2537.119469
819.099843	2540.446631
819.418429	2540.512166
819.736970	2543.713299
820.055466	2546.019627
820.373919	2545.704554
820.692327	2546.322096
821.010691	2552.684032
821.329011	2562.841957
821.647286	2580.382652
821.965517	2605.280911
822.283704	2617.535956
822.601847	2621.692387
822.919945	2612.908176
823.237999	2595.836309
823.556010	2587.470514
823.873976	2573.420818
824.191897	2569.594582
824.509775	2559.933211
824.827609	2556.381718
825.145398	2557.011862
825.463144	2557.984805
825.780845	2553.888868
826.098502	2557.190823
826.416116	2561.916905
826.733685	2568.276321
827.051210	2573.229254
827.368692	2568.195662
827.686129	2562.400856
828.003522	2554.090514
828.320872	2547.161448
828.638177	2547.332847
828.955439	2540.537372
829.272656	2540.078627
829.589830	2534.261135
829.906960	2542.974770
830.224046	2540.975952
830.541088	2540.618030
830.858086	2539.995448
831.175041	2538.117618
831.491952	2538.929244
831.808819	2537.963863
832.125642	2539.229192
832.442421	2541.737166
832.759157	2541.212886
833.075849	2546.939637
833.392497	2555.466749
833.709101	2552.658826
834.025662	2553.266285
834.342179	2553.266285
834.658653	2547.393341
834.975083	2548.250337
835.291469	2547.721016
835.607811	2541.714481
835.924110	2540.557536
836.240366	2538.437731
836.556578	2538.679707
836.872746	2537.396733
837.188871	2534.087215
837.504952	2536.985879
837.820990	2535.145858
838.136984	2533.099149
838.452935	2536.567463
838.768842	2534.354397
839.084706	2537.598379
839.400526	2536.789274
839.716303	2538.949408
840.032037	2541.727084
840.347727	2542.921838
840.663373	2538.989737
840.978977	2537.086702
841.294537	2537.487474
841.610054	2536.645601
841.925527	2535.135775
842.240957	2534.455220
842.556344	2534.760209
842.871687	2535.150899
843.186987	2534.911444
843.502244	2533.774664
843.817458	2532.705939
844.132629	2531.465815
844.447756	2533.477236
844.762840	2530.298788
845.077881	2529.217461
845.392879	2529.797193
845.707833	2529.449354
846.022745	2529.945907
846.337613	2531.677544
846.652438	2535.682741
846.967221	2534.414890
847.281960	2531.725435
847.596656	2533.578059
847.911309	2532.229550
848.225919	2533.567977
848.540485	2533.240302
848.855009	2534.147709
849.169490	2533.998995
849.483928	2532.519417
849.798323	2531.793490
850.112675	2530.515558
850.426984	2532.153933
850.741251	2535.019829
851.055474	2532.940353
851.369654	2533.704088
851.683792	2531.896834
851.997887	2533.835158
852.311938	2531.133099
852.625947	2533.469674
852.939914	2532.653007
853.253837	2530.739889
853.567718	2530.898686
853.881555	2533.872966
854.195350	2531.770805
854.509103	2531.811134
854.822812	2531.730476
855.136479	2532.668131
855.450103	2532.902544
855.763685	2533.837678
856.077224	2530.616381
856.390720	2532.504293
856.704173	2532.821886
857.017584	2534.132586
857.330953	2529.991278
857.644278	2532.514375
857.957561	2536.169212
858.270802	2533.368851
858.584000	2534.835827
858.897155	2534.750127
859.210268	2531.818696
859.523339	2532.211906
859.836367	2531.291896
860.149352	2533.033614
860.462295	2531.768285
860.775195	2532.065713
861.088054	2529.598068
861.400869	2529.938346
861.713642	2526.671678
862.026373	2533.411701
862.339062	2532.557225
862.651708	2532.448840
862.964312	2532.801721
863.276873	2533.678882
863.589392	2531.135620
863.901869	2529.910619
864.214303	2532.209386
864.526696	2532.847092
864.839045	2533.381454
865.151353	2534.677030
865.463619	2533.595703
865.775842	2535.350024
866.088023	2531.574200
866.400162	2536.217103
866.712258	2532.448840
867.024313	2533.714170
867.336325	2532.771474
867.648296	2534.684592
867.960224	2533.212575
868.272110	2533.073943
868.583954	2532.418593
868.895755	2533.847761
869.207515	2534.608975
869.519233	2532.685775
869.830909	2533.502442
870.142542	2533.141999
870.454134	2533.580579
870.765684	2533.116793
871.077191	2533.787267
871.388657	2532.395908
871.700081	2533.484797
872.011463	2532.153933
872.322803	2534.503111
872.634101	2532.733666
872.945357	2534.946732
873.256571	2534.288862
873.567744	2533.086546
873.878874	2534.372041
874.189963	2530.954138
874.501010	2535.072761
874.812015	2530.858356
875.122979	2534.031763
875.433900	2533.832637
875.744780	2536.204500
876.055618	2532.345497
876.366415	2536.159130
876.677169	2533.898172
876.987882	2531.944725
877.298554	2530.807945
877.609183	2532.703419
877.919771	2531.299457
878.230317	2534.062010
878.540822	2538.321785
878.851285	2535.655014
879.161707	2535.932278
879.472087	2540.328164
879.782425	2538.750283
880.092722	2548.613300
880.402977	2553.011707
880.713191	2561.193500
881.023363	2574.524831
881.333494	2582.567992
881.643583	2583.646799
881.953631	2580.675039
882.263637	2578.106571
882.573602	2577.418453
882.883526	2572.130283
883.193408	2564.039231
883.503248	2559.330793
883.813048	2554.677808
884.122806	2552.414330
884.432522	2547.859648
884.742197	2546.614483
885.051831	2544.408978
885.361424	2540.693648
885.670975	2539.960160
885.980485	2541.255736
886.289954	2536.622916
886.599382	2541.044008
886.908768	2536.554860
887.218113	2535.594520
887.527417	2537.409336
887.836680	2534.828265
888.145901	2534.893800
888.455082	2533.441948
888.764221	2535.791125
889.073319	2534.893800
889.382376	2535.597041
889.691392	2537.616023
890.000366	2533.641073
890.309300	2531.914478
890.618193	2534.661907
890.927044	2533.900693
891.235855	2536.897659
891.544625	2532.945394
891.853353	2533.840199
892.162041	2533.570497
892.470687	2538.891435
892.779293	2535.995292
893.087858	2535.259284
893.396381	2534.828265
893.704864	2538.571322
894.013306	2538.266332
894.321707	2544.623227
894.630068	2548.678835
894.938387	2551.091027
895.246665	2551.257385
895.554903	2548.046170
895.863100	2545.545758
896.171256	2543.385624
896.479371	2543.705737
896.787446	2543.330171
897.095480	2539.428318
897.403473	2537.086702
897.711425	2535.597041
898.019336	2538.606610
898.327207	2536.817000
898.635038	2535.791125
898.942827	2531.591844
899.250576	2534.523275
899.558284	2535.672658
899.865952	2535.937319
900.173579	2533.220137
900.481165	2534.520755
900.788711	2534.119983
901.096216	2535.725590
901.403681	2533.628470
901.711105	2537.263142
902.018489	2534.102339
902.325832	2537.245498
902.633135	2533.457071
902.940397	2535.299613
903.247619	2537.832793
903.554800	2540.824718
903.861941	2545.848227
904.169041	2553.475493
904.476101	2556.268292
904.783121	2558.723334
905.090100	2551.108671
905.397039	2547.655481
905.703938	2543.945192
906.010796	2541.190201
906.317614	2540.063503
906.624391	2542.309337
906.931129	2535.385313
907.237826	2534.760209
907.544483	2533.283151
907.851099	2536.925385
908.157675	2530.331556
908.464211	2534.997144
908.770707	2528.688140
909.077163	2531.639735
909.383578	2528.874662
909.689954	2530.737369
909.996289	2525.726462
910.302584	2530.248377
910.608839	2532.713501
910.915054	2532.831968
911.221229	2534.397246
911.527363	2532.847092
911.833458	2531.170908
912.139513	2533.671320
912.445527	2529.416586
912.751502	2535.097967
913.057436	2532.983203
913.363331	2534.447658
913.669186	2533.091588
913.975000	2536.895138
914.280775	2534.014119
914.586510	2540.265149
914.892205	2538.994779
915.197859	2542.379913
915.503475	2546.977446
915.809050	2550.982642
916.114585	2555.973385
916.420081	2554.718138
916.725536	2552.346275
917.030952	2552.868034
917.336328	2550.319731
917.641665	2548.643547
917.946961	2543.599873
918.252218	2542.584080
918.557435	2541.328833
918.862612	2536.915303
919.167750	2536.690971
919.472848	2537.318595
919.777906	2535.697864
920.082925	2536.431352
920.387904	2534.878677
920.692843	2537.510159
920.997743	2534.551002
921.302603	2533.870446
921.607423	2532.411032
921.912204	2531.296937
922.216946	2533.726773
922.521647	2533.099149
922.826310	2530.722245
923.130932	2531.483459
923.435516	2531.337266
923.740059	2530.659231
924.044564	2532.048069
924.349028	2529.794673
924.653454	2525.222346
924.957840	2527.027079
925.262186	2527.271575
925.566493	2528.703263
925.870761	2528.083201
926.174989	2532.894982
926.479178	2528.746113
926.783328	2530.344159
927.087438	2531.344828
927.391509	2532.622760
927.695541	2527.306863
927.999533	2528.471370
928.303486	2529.189734
928.607400	2532.138809
928.911275	2528.962883
929.215110	2531.901875
929.518906	2526.223015
929.822663	2529.383819
930.126381	2529.280475
930.430060	2529.361134
930.733699	2528.531864
931.037299	2529.464477
931.340861	2526.880886
931.644383	2529.756864
931.947866	2529.910619
932.251309	2530.142512
932.554714	2530.051772
932.858080	2530.308871
933.161407	2531.493542
933.464694	2528.478932
933.767943	2528.857018
934.071153	2530.669313
934.374323	2529.285516
934.677455	2528.531864
934.980548	2530.064375
935.283602	2529.976154
935.586617	2527.218643
935.889593	2529.323325
936.192530	2527.798376
936.495428	2529.562780
936.798287	2528.360465
937.101108	2532.249715
937.403890	2528.375588
937.706632	2533.731814
938.009336	2532.705939
938.312002	2532.872297
938.614628	2530.026566
938.917216	2532.952956
939.219765	2530.192924
939.522275	2528.829292
939.824747	2531.874149
940.127179	2527.367357
940.429573	2526.338962
940.731929	2526.623787
941.034246	2521.978364
941.336524	2528.115969
941.638763	2529.953469
941.940964	2529.731658
942.243126	2531.271731
942.545250	2529.519930
942.847335	2528.864580
943.149381	2531.183511
943.451389	2527.644621
943.753359	2529.524971
944.055290	2529.149405
944.357182	2533.121834
944.659036	2528.942718
944.960851	2529.298119
945.262628	2527.760567
945.564367	2531.148223
945.866067	2527.153108
946.167729	2528.322656
946.469352	2529.872811
946.770937	2528.151257
947.072484	2529.857687
947.373992	2528.443644
947.675462	2529.232584
947.976893	2528.816689
948.278286	2529.104035
948.579641	2528.773839
948.880958	2529.908099
949.182236	2531.491021
949.483476	2530.719725
949.784678	2528.373067
950.085841	2527.150588
950.386967	2531.269210
950.688054	2527.687471
950.989103	2528.030269
951.290114	2529.109076
951.591087	2529.431710
951.892021	2528.327697
952.192917	2532.879859
952.493776	2529.829961
952.794596	2528.362985
953.095378	2528.899868
953.396122	2529.318284
953.696828	2528.761236
953.997496	2530.228212
954.298126	2526.729651
954.598718	2530.576052
954.899272	2529.882893
955.199788	2528.521782
955.500266	2530.571011
955.800706	2528.272244
956.101108	2524.584640
956.401472	2527.596730
956.701798	2524.413241
957.002087	2527.226205
957.302337	2528.526823
957.602550	2530.631504
957.902724	2527.284178
958.202861	2528.824251
958.502960	2528.758716
958.803022	2526.762419
959.103045	2526.228057
959.403031	2527.200999
959.702979	2528.610002
960.002889	2527.153108
960.302762	2527.170752
960.602596	2528.272244
960.902393	2528.544467
961.202153	2526.676719
961.501875	2526.381812
961.801559	2528.146216
962.101205	2526.338962
962.400814	2527.848788
962.700385	2527.710156
962.999918	2527.518592
963.299414	2525.398787
963.598873	2526.394415
963.898293	2529.426669
964.197677	2528.373067
964.497022	2524.566996
964.796331	2529.338448
965.095601	2528.826771
965.394835	2527.490866
965.694030	2525.522295
965.993189	2528.093283
966.292309	2527.349713
966.591393	2527.879034
966.890439	2527.584127
967.189447	2528.995650
967.488419	2525.310567
967.787353	2528.400794
968.086249	2527.800897
968.385108	2525.774353
968.683930	2526.938859
968.982714	2526.298633
969.281462	2526.462470
969.580172	2527.725279
969.878844	2525.703777
970.177480	2527.100176
970.476078	2526.860721
970.774639	2528.073119
971.073162	2526.437264
971.371649	2524.390556
971.670098	2524.226718
971.968510	2524.750998
972.266885	2524.478776
972.565223	2528.000022
972.863524	2527.861390
973.161788	2524.960206
973.460014	2525.839888
973.758204	2527.596730
974.056356	2527.591689
974.354471	2527.110258
974.652550	2526.152439
974.950591	2528.587317
975.248595	2527.175793
975.546563	2529.731658
975.844493	2526.558252
976.142386	2525.784435
976.440243	2528.874662
976.738062	2526.381812
977.035845	2526.311236
977.333590	2528.219312
977.631299	2526.028931
977.928971	2528.819210
978.226606	2528.194107
978.524204	2527.410207
978.821765	2527.788294
979.119290	2525.973478
979.416777	2525.058509
979.714228	2527.193438
980.011642	2524.083046
980.309020	2529.134282
980.606360	2527.916843
980.903664	2528.118489
981.200931	2524.879548
981.498162	2526.089425
981.795356	2525.335772
982.092513	2526.742254
982.389633	2526.790145
982.686717	2529.716535
982.983764	2528.345341
983.280775	2529.227543
983.577749	2527.269055
983.874686	2529.751823
984.171587	2529.066226
984.468451	2527.637059
984.765279	2527.906761
985.062070	2527.200999
985.358824	2524.889630
985.655543	2526.432223
985.952224	2524.824095
986.248869	2526.792666
986.545478	2520.138343
986.842050	2524.118334
987.138586	2522.474918
987.435086	2524.093128
987.731549	2521.171779
988.027975	2526.245701
988.324366	2525.471883
988.620719	2527.410207
988.917037	2523.979702
989.213318	2526.832995
989.509563	2526.918695
989.805772	2526.180166
990.101944	2524.219157
990.398080	2528.305012
990.694180	2527.226205
990.990244	2526.732172
991.286271	2525.900382
991.582262	2525.855011
991.878217	2525.648324
992.174136	2526.054137
992.470019	2525.791997
992.765865	2526.492717
993.061676	2525.832326
993.357450	2527.432892
993.653188	2529.013294
993.948890	2525.393746
994.244556	2527.788294
994.540186	2528.662934
994.835780	2524.788807
995.131337	2529.235105
995.426859	2525.892820
995.722345	2525.991122
996.017795	2524.995494
996.313208	2526.795186
996.608586	2526.845598
996.903928	2525.643283
997.199234	2525.771832
997.494504	2525.610515
997.789738	2525.048427
998.084936	2525.602953
998.380099	2524.806451
998.675225	2527.611853
998.970316	2527.541277
999.265371	2525.575227
999.560390	2526.863242
999.855373	2525.665968
1000.150320	2524.967768
1000.445232	2524.846780
1000.740108	2523.518436
1001.034948	2526.744775
1001.329752	2526.611184
1001.624521	2526.712007
1001.919254	2520.957530
1002.213951	2525.786956
1002.508613	2520.551717
1002.803239	2525.239990
1003.097829	2519.006604
1003.392384	2524.667819
1003.686903	2527.080012
1003.981386	2528.405835
1004.275834	2527.276617
1004.570246	2527.233767
1004.864623	2526.860721
1005.158964	2526.785104
1005.453270	2526.401976
1005.747540	2524.093128
1006.041775	2527.435413
1006.335974	2524.211595
1006.630138	2525.217305
1006.924266	2529.429189
1007.218359	2526.349044
1007.512416	2527.460619
1007.806438	2523.762932
1008.100425	2526.089425
1008.394376	2524.786287
1008.688292	2523.402490
1008.982172	2525.360978
1009.276017	2525.625639
1009.569827	2528.426000
1009.863602	2526.371729
1010.157341	2524.690505
1010.451045	2525.287881
1010.744714	2524.924918
1011.038347	2527.400125
1011.331945	2524.118334
1011.625508	2527.758047
1011.919036	2522.512726
1012.212528	2527.337110
1012.505986	2525.789476
1012.799408	2526.366688
1013.092795	2524.655217
1013.386147	2525.182017
1013.679464	2524.972809
1013.972745	2525.834847
1014.265992	2525.355937
1014.559204	2527.158149
1014.852380	2525.166894
1015.145521	2526.623787
1015.438628	2527.052285
1015.731699	2525.862573
1016.024736	2526.391894
1016.317737	2522.893333
1016.610703	2524.521626
1016.903635	2521.456604
1017.196531	2523.263858
1017.489393	2522.389218
1017.782219	2520.929804
1018.075011	2525.587830
1018.367768	2526.185207
1018.660490	2524.955165
1018.953177	2524.955165
1019.245829	2524.955165
