Dividing Wavelength (nm)	Counts (n)	Blue Motor Position (mm): 0.000000	Red Motor Position (mm): 34.400000	
326.493990	2129.602675
326.888308	2129.602675
327.282561	2129.602675
327.676750	2096.295771
328.070874	2095.012798
328.464933	2096.557911
328.858929	2102.950094
329.252859	2111.565426
329.646726	2124.826182
330.040528	2136.869498
330.434265	2151.080511
330.827938	2171.144303
331.221547	2189.415965
331.615091	2208.116125
332.008571	2230.198900
332.401986	2245.284553
332.795338	2266.356576
333.188625	2287.269803
333.581847	2305.881743
333.975006	2321.451346
334.368100	2341.305931
334.761129	2360.714373
335.154095	2375.875643
335.546996	2395.694939
335.939833	2413.918711
336.332606	2425.389856
336.725315	2444.992383
337.117960	2452.095369
337.510540	2458.540484
337.903056	2470.586321
338.295508	2478.173258
338.687896	2487.217087
339.080220	2494.410814
339.472480	2503.618482
339.864676	2505.380365
340.256807	2511.472599
340.648875	2512.906807
341.040879	2514.242713
341.432818	2516.221366
341.824694	2518.610873
342.216506	2518.351254
342.608253	2519.261182
342.999937	2517.441325
343.391557	2518.469721
343.783113	2516.362518
344.174605	2518.252951
344.566033	2513.403361
344.957397	2514.532580
345.348697	2512.561488
345.739934	2511.618793
346.131106	2507.716940
346.522215	2508.997393
346.913260	2505.090498
347.304241	2503.747031
347.695159	2503.316012
348.086012	2502.280055
348.476802	2497.800990
348.867528	2497.541371
349.258191	2497.682523
349.648789	2495.955928
350.039324	2493.697491
350.429796	2494.098263
350.820203	2491.449136
351.210548	2489.720020
351.600828	2489.987202
351.991045	2490.589619
352.381198	2488.888230
352.771288	2488.137098
353.161314	2486.649958
353.551276	2486.246665
353.941175	2485.782879
354.331010	2489.513333
354.720782	2488.580720
355.110490	2488.716831
355.500135	2486.392859
355.889717	2488.028713
356.279235	2486.423106
356.668689	2491.471821
357.058080	2486.350009
357.447408	2488.200113
357.836672	2485.102323
358.225873	2490.657675
358.615010	2485.694659
359.004084	2493.868890
359.393095	2489.951913
359.782043	2494.473828
360.170927	2490.972747
360.559748	2495.671103
360.948505	2494.927532
361.337199	2495.708911
361.725830	2496.215547
362.114398	2494.927532
362.502903	2497.160763
362.891344	2500.054386
363.279722	2499.787205
363.668037	2499.635970
364.056289	2499.414159
364.444478	2499.154540
364.832603	2497.503562
365.220665	2501.780981
365.608665	2502.403563
365.996601	2500.813079
366.384474	2503.021105
366.772284	2503.837772
367.160031	2505.619820
367.547715	2509.940088
367.935336	2511.558299
368.322893	2515.951664
368.710388	2516.591891
369.097820	2523.553724
369.485189	2524.418282
369.872495	2532.935312
370.259738	2541.719522
370.646918	2547.552137
371.034035	2555.224773
371.421090	2566.937894
371.808081	2574.103895
372.195010	2579.739905
372.581875	2594.384457
372.968678	2609.278546
373.355418	2619.413785
373.742096	2638.446662
374.128710	2651.856131
374.515262	2668.597803
374.901751	2681.989628
375.288177	2694.700897
375.674540	2719.478169
376.060841	2737.137331
376.447079	2755.114085
376.833254	2774.487239
377.219367	2788.909981
377.605417	2827.106803
377.991404	2839.709688
378.377329	2858.253572
378.763191	2876.242930
379.148991	2914.694331
379.534727	2936.182249
379.920402	2967.195428
380.306013	2977.108857
380.691563	3028.316897
381.077049	3048.181564
381.462474	3064.403997
381.847835	3103.929164
382.233134	3128.895478
382.618371	3127.279788
383.003545	3198.443237
383.388657	3202.546736
383.773706	3236.108218
384.158693	3251.624889
384.543618	3276.656739
384.928480	3314.256185
385.313280	3358.961137
385.698017	3357.852083
386.082692	3409.458375
386.467305	3415.820311
386.851856	3450.400106
387.236344	3471.888024
387.620770	3500.378105
388.005133	3528.059081
388.389435	3552.395251
388.773674	3565.724062
389.157851	3606.791822
389.541965	3627.528608
389.926018	3588.941096
390.310008	3661.445491
390.693936	3680.254036
391.077802	3719.310376
391.461606	3708.497101
391.845348	3771.549332
392.229027	3775.940177
392.612645	3785.566261
392.996200	3860.127447
393.379694	3902.584044
393.763125	3965.427068
394.146494	3934.900361
394.529801	3990.658043
394.913047	4043.731311
395.296230	4008.284437
395.679351	4065.075556
396.062410	4088.534566
396.445408	4070.474632
396.828343	4104.542750
397.211217	4127.729537
397.594028	4040.787277
397.976778	4113.475674
398.359466	4138.094149
398.742092	4169.329138
399.124656	4089.928445
399.507158	4171.514478
399.889598	4194.580278
400.271977	4255.711830
400.654294	4229.167634
401.036549	4236.908326
401.418742	4205.154098
401.800874	4307.766785
402.182944	4330.686391
402.564952	4389.829207
402.946898	4379.068865
403.328783	4375.650962
403.710606	4293.696924
404.092367	4482.901510
404.474067	4447.928506
404.855705	4456.478303
405.237282	4386.207138
405.618797	4495.262420
406.000250	4529.133932
406.381642	4607.942290
406.762972	4571.903082
407.144240	4577.264349
407.525447	4582.993620
407.906593	4642.753978
408.287677	4683.579763
408.668700	4609.757106
409.049661	4663.740302
409.430560	4704.840829
409.811399	4629.210918
410.192176	4788.438283
410.572891	4730.621290
410.953545	4835.426878
411.334138	4716.342222
411.714669	4780.301861
412.095139	4678.031973
412.475547	4815.773940
412.855894	4799.937155
413.236180	4804.670799
413.616405	4760.079272
413.996568	4848.549002
414.376670	4792.143531
414.756711	4749.089557
415.136691	4776.432775
415.516609	4856.569477
415.896466	4892.379314
416.276262	4922.648922
416.655997	4905.070419
417.035670	5092.860961
417.415283	5181.146688
417.794834	5125.157113
418.174324	5081.296554
418.553753	4986.487574
418.933121	5168.715203
419.312428	5240.513837
419.691674	5178.734496
420.070859	5301.196726
420.449983	5216.172625
420.829045	5328.721426
421.208047	5238.746912
421.586988	5310.936235
421.965867	5321.189942
422.344686	5455.335046
422.723444	5307.331810
423.102141	5124.680724
423.480777	5423.270787
423.859352	5191.980128
424.237866	5451.226506
424.616319	5445.114107
424.994712	5555.013781
425.373044	5426.993679
425.751314	5569.514660
426.129524	5371.072160
426.507673	5567.248662
426.885762	5653.114635
427.263789	5584.991002
427.641756	5465.883661
428.019662	5583.599644
428.397508	5594.939720
428.775292	5542.342841
429.153016	5639.067460
429.530679	5566.472324
429.908282	5647.206403
430.285824	5521.908524
430.663305	5796.202746
431.040726	5531.789185
431.418086	5530.302045
431.795385	5636.647706
432.172624	5649.762268
432.549802	5639.932018
432.926920	5656.512373
433.303977	5664.739536
433.680974	5699.689855
434.057910	5723.892435
434.434786	5726.730605
434.811601	5695.667015
435.188355	5929.730308
435.565050	5804.336648
435.941683	5785.886024
436.318257	5999.121791
436.694770	5982.758206
437.071222	6017.675758
437.447614	5949.685716
437.823946	5862.070462
438.200218	6014.779615
438.576429	5880.246342
438.952580	5976.857535
439.328670	6022.444689
439.704700	5929.712664
440.080670	5915.514254
440.456580	6185.042065
440.832429	6069.367749
441.208218	5917.087094
441.583947	6072.120219
441.959616	6078.149439
442.335224	6005.950034
442.710773	6137.075487
443.086261	6160.330329
443.461689	5965.406554
443.837057	6111.877279
444.212365	6266.877636
444.587612	6161.348642
444.962800	6315.950748
445.337927	6293.172295
445.712995	5903.077728
446.088002	6476.750953
446.462949	6308.820036
446.837837	6241.167752
447.212664	6415.004380
447.587431	6556.456637
447.962139	7099.721622
448.336786	8022.968620
448.711374	7763.921368
449.085901	6836.288566
449.460369	6760.237719
449.834776	6697.767741
450.209124	7084.091525
450.583412	7239.497695
450.957640	7383.989767
451.331808	7146.495968
451.705917	6700.326126
452.079965	6623.635053
452.453954	6837.571540
452.827883	6715.056378
453.201752	6804.672970
453.575562	6601.401044
453.949311	6807.526263
454.323001	6698.067689
454.696632	6768.248113
455.070202	6906.688280
455.443713	7061.897845
455.817164	7167.336098
456.190556	7240.795792
456.563888	7317.408728
456.937160	7365.481171
457.310373	7016.663571
457.683526	7042.116357
458.056619	6936.657939
458.429653	6921.675630
458.802628	6857.821855
459.175542	6971.235213
459.548398	7327.170922
459.921194	7480.855538
460.293930	7485.047258
460.666607	8016.304214
461.039224	8326.579672
461.411782	8448.615924
461.784280	8467.905899
462.156719	8361.787090
462.529099	8241.404337
462.901419	7833.459044
463.273680	7720.086014
463.645882	7738.347594
464.018024	7598.067406
464.390106	7766.043693
464.762130	8150.759349
465.134094	8625.053788
465.505999	9641.597420
465.877845	10869.826664
466.249631	11514.043276
466.621358	11135.377004
466.993026	10493.554941
467.364634	10240.821734
467.736184	9873.704746
468.107674	9539.952635
468.479105	9582.883101
468.850477	9341.860495
469.221790	9114.819528
469.593043	8785.564127
469.964238	8643.426273
470.335373	8653.654775
470.706449	8719.058705
471.077467	8695.826547
471.448425	10008.865643
471.819324	11076.161091
472.190164	11111.464291
472.560945	9861.356440
472.931667	9067.936798
473.302330	8934.489894
473.672934	8579.098630
474.043479	8942.245709
474.413965	8876.201552
474.784393	8755.758305
475.154761	8916.676977
475.525070	9005.676027
475.895321	8833.364347
476.265513	9006.911110
476.635645	9176.510649
477.005719	9164.442126
477.375734	9292.336199
477.745691	9526.001242
478.115588	9656.247013
478.485427	9903.709694
478.855207	10438.593761
479.224928	11255.815211
479.594591	11878.422917
479.964194	11702.998325
480.333739	11628.119546
480.703226	11539.417923
481.072653	11639.953655
481.442022	11881.805531
481.811333	12062.508211
482.180584	11865.343643
482.549777	11581.448544
482.918912	11398.686552
483.287988	11428.739391
483.657005	11436.646441
484.025964	11114.183994
484.394864	11246.761299
484.763706	11219.113090
485.132489	10972.575462
485.501213	10938.608167
485.869879	11014.338901
486.238487	10856.981804
486.607036	10964.537342
486.975527	10744.410318
487.343959	10938.366192
487.712333	10985.926958
488.080648	10912.673951
488.448905	10953.640888
488.817104	10900.514688
489.185244	11154.747638
489.553326	11318.620426
489.921350	11849.927795
490.289315	12908.983477
490.657222	13247.204571
491.025070	13164.290193
491.392861	13027.909337
491.760593	12653.225578
492.128267	12298.771968
492.495883	11978.388998
492.863440	11640.435085
493.230939	11303.307921
493.598380	11236.250493
493.965763	11105.185534
494.333088	11006.351192
494.700354	10926.900087
495.067563	10981.573921
495.434713	10810.451954
495.801805	10934.887795
496.168839	10859.991373
496.535815	10803.076746
496.902733	10789.702565
497.269593	10719.406195
497.636395	10813.053189
498.003139	10807.207971
498.369825	10671.568165
498.736453	10818.719446
499.103023	10747.172870
499.469535	10767.884451
499.835989	10760.620148
500.202385	10714.395288
500.568723	10563.992463
500.935003	10776.275451
501.301226	10584.192366
501.667390	10834.901550
502.033497	10921.896742
502.399546	10783.474219
502.765537	10683.712305
503.131470	10751.346946
503.497345	10924.815570
503.863163	10536.629080
504.228923	10828.181692
504.594625	10887.516073
504.960269	10635.846549
505.325856	10847.103663
505.691385	10633.436878
506.056856	10776.900554
506.422270	10786.796339
506.787625	10674.572693
507.152924	10777.523137
507.518164	10745.889897
507.883347	10656.424539
508.248472	10570.649307
508.613540	10783.272573
508.978550	10663.212453
509.343503	10622.900866
509.708398	10722.622451
510.073236	10819.125259
510.438016	10818.638788
510.802738	10755.775599
511.167403	10786.130907
511.532010	10665.954841
511.896561	10882.986596
512.261053	10935.601119
512.625488	10787.338263
512.989866	10753.781823
513.354186	10727.603111
513.718449	10607.419483
514.082655	10781.472881
514.446803	10655.527214
514.810894	10747.981975
515.174927	10602.138874
515.538904	10607.472415
515.902822	10722.947605
516.266684	10596.152504
516.630488	10510.243681
516.994235	10549.715915
517.357925	10565.053626
517.721558	10625.426484
518.085133	10610.161870
518.448651	10592.714437
518.812112	10460.008583
519.175516	10446.238671
519.538863	10511.619916
519.902152	10416.483260
520.265385	10517.772644
520.628560	10411.769781
520.991678	10354.232572
521.354739	10377.779802
521.717743	10289.816708
522.080690	10231.309077
522.443580	10311.591972
522.806413	10227.029137
523.169189	10226.298170
523.531908	10231.387214
523.894569	10038.248008
524.257174	10002.977575
524.619722	10059.935052
524.982213	9990.203291
525.344647	9973.660745
525.707025	9896.084949
526.069345	9929.422099
526.431608	9808.094129
526.793815	9853.809832
527.155964	9646.121856
527.518057	9648.120673
527.880093	9554.594667
528.242072	9572.279034
528.603995	9441.713150
528.965860	9327.659564
529.327669	9323.472886
529.689421	9235.890400
530.051117	9171.472015
530.412755	9188.674953
530.774337	9070.780008
531.135862	8994.542639
531.497331	8967.935429
531.858743	8806.265625
532.220098	8874.721974
532.581396	8730.696208
532.942638	8660.472935
533.303824	8590.859642
533.664953	8538.910551
534.026025	8428.032893
534.387040	8443.448742
534.747999	8393.536277
535.108902	8371.745890
535.469748	8160.985330
535.830537	8182.153135
536.191270	8107.289480
536.551947	8064.961431
536.912567	8012.160386
537.273131	7918.397445
537.633638	7845.625869
537.994089	7778.911239
538.354483	7690.116355
538.714821	7735.804332
539.075103	7683.736775
539.435328	7599.748631
539.795497	7455.508617
540.155609	7487.230077
540.515665	7490.562280
540.875665	7279.957996
541.235609	7253.978409
541.595496	7204.958229
541.955328	7231.114256
542.315102	7116.901874
542.674821	7037.659977
543.034483	6983.911195
543.394090	6927.394819
543.753640	6837.203536
544.113134	6887.196658
544.472571	6761.356855
544.831953	6774.867148
545.191278	6631.204345
545.550548	6588.294044
545.909761	6603.084789
546.268918	6533.312699
546.628019	6522.527151
546.987064	6399.555764
547.346053	6321.077602
547.704986	6300.350898
548.063863	6241.419809
548.422684	6199.681576
548.781449	6095.483447
549.140158	6091.899186
549.498811	5986.150902
549.857408	5885.204317
550.215949	5908.693573
550.574434	5805.682636
550.932864	5789.598834
551.291237	5769.519918
551.649555	5683.669068
552.007817	5649.419469
552.366022	5594.302014
552.724173	5533.525863
553.082267	5486.139017
553.440305	5470.942458
553.798288	5372.972675
554.156215	5363.865830
554.514086	5309.852387
554.871902	5218.282348
555.229661	5185.756824
555.587365	5133.555676
555.945014	5064.872475
556.302606	5038.920615
556.660143	4981.476667
557.017625	4968.586437
557.375050	4902.232249
557.732421	4893.470724
558.089735	4828.381866
558.446994	4789.696051
558.804197	4752.472171
559.161345	4711.268300
559.518437	4645.209020
559.875474	4614.974700
560.232455	4580.329370
560.589381	4540.574831
560.946251	4489.649095
561.303065	4486.755473
561.659825	4420.459258
562.016528	4375.751785
562.373177	4317.839010
562.729770	4292.121564
563.086307	4247.409050
563.442789	4234.980085
563.799216	4160.809588
564.155587	4141.315446
564.511904	4094.861214
564.868164	4060.508271
565.224370	4034.810989
565.580520	3981.384841
565.936615	3964.277685
566.292654	3897.933580
566.648638	3894.722365
567.004567	3856.303731
567.360441	3825.416582
567.716260	3778.475878
568.072023	3771.997995
568.427732	3725.185840
568.783385	3695.203578
569.138982	3672.581400
569.494525	3649.734891
569.850013	3604.326697
570.205445	3589.843462
570.560823	3560.173752
570.916145	3521.276208
571.271412	3506.119979
571.626625	3474.700988
571.981782	3454.548976
572.336884	3426.114347
572.691931	3407.474681
573.046923	3380.754045
573.401860	3356.914428
573.756743	3329.178000
574.111570	3312.895073
574.466342	3293.577372
574.821059	3277.039866
575.175722	3250.697317
575.530330	3231.089749
575.884882	3213.102912
576.239380	3188.718851
576.593823	3169.507014
576.948211	3151.961278
577.302544	3133.692136
577.656823	3114.974332
578.011047	3104.420676
578.365216	3085.624734
578.719330	3067.973134
579.073389	3049.852707
579.427394	3034.310829
579.781344	3021.917153
580.135239	3005.719925
580.489080	2995.506548
580.842866	2975.271356
581.196597	2967.797845
581.550273	2960.082359
581.903895	2942.692899
582.257463	2942.375307
582.610975	2924.864859
582.964434	2916.035278
583.317837	2902.456930
583.671186	2895.472411
584.024481	2885.231307
584.377721	2870.095243
584.730906	2862.339428
585.084037	2853.310721
585.437113	2843.596417
585.790135	2837.899914
586.143103	2822.209322
586.496016	2818.390648
586.848874	2807.078299
587.201679	2804.106539
587.554428	2790.374436
587.907124	2784.877057
588.259765	2776.609565
588.612352	2775.513114
588.964884	2768.014398
589.317362	2761.528953
589.669786	2755.915629
590.022155	2754.874630
590.374470	2748.689135
590.726731	2745.256109
591.078937	2731.793707
591.431090	2732.907802
591.783188	2723.707697
592.135232	2719.584033
592.487222	2716.186295
592.839157	2712.917107
593.191038	2705.715819
593.542866	2703.464943
593.894639	2697.720549
594.246358	2694.426155
594.598022	2691.870290
594.949633	2684.469876
595.301190	2682.667663
595.652692	2680.462158
596.004141	2679.900070
596.355535	2672.950839
596.706876	2670.818431
597.058162	2666.188131
597.409395	2662.674447
597.760573	2663.707884
598.111698	2660.746206
598.462768	2656.877120
598.813785	2656.680515
599.164748	2654.064156
599.515657	2650.999135
599.866511	2644.846407
600.217312	2648.718013
600.568060	2645.615182
600.918753	2645.985707
601.269392	2643.024029
601.619978	2641.385654
601.970510	2640.528658
602.320988	2637.209058
602.671412	2635.986579
603.021783	2635.432052
603.372100	2635.580766
603.722363	2632.341824
604.072572	2633.788636
604.422728	2633.564304
604.772830	2626.602471
605.122878	2624.845629
605.472872	2625.803448
605.822813	2624.003756
606.172701	2624.928808
606.522534	2624.817902
606.872314	2626.302522
607.222041	2621.647017
607.571714	2622.047788
607.921333	2623.802110
608.270899	2619.948148
608.620411	2624.767491
608.969870	2623.807151
609.319276	2624.404528
609.668627	2623.469394
610.017926	2625.233797
610.367171	2625.770680
610.716362	2624.071812
611.065500	2625.861421
611.414585	2622.236832
611.763616	2621.425206
612.112594	2618.783641
612.461518	2617.914042
612.810389	2620.114506
613.159207	2618.710544
613.507971	2615.953033
613.856682	2617.016717
614.205340	2616.452107
614.553945	2617.175513
614.902496	2615.511932
615.250994	2613.321551
615.599439	2615.537138
615.947830	2614.846500
616.296169	2613.659308
616.644454	2613.127467
616.992686	2612.759462
617.340864	2613.326592
617.688990	2610.223762
618.037063	2612.739298
618.385082	2610.664863
618.733048	2614.259206
619.080961	2609.336519
619.428821	2613.268619
619.776628	2610.158227
620.124382	2612.177209
620.472083	2608.519852
620.819731	2608.214862
621.167326	2609.170161
621.514868	2605.638832
621.862357	2603.539192
622.209793	2608.809718
622.557176	2604.071034
622.904506	2603.055241
623.251783	2598.492997
623.599007	2597.767071
623.946179	2600.025508
624.293297	2601.058944
624.640363	2600.761516
624.987376	2602.742690
625.334336	2600.695981
625.681243	2600.091043
626.028097	2598.114910
626.374899	2598.893769
626.721647	2596.718511
627.068343	2599.453337
627.414987	2600.128851
627.761577	2596.232039
628.108115	2597.338573
628.454600	2596.655496
628.801032	2595.243973
629.147412	2596.534509
629.493739	2594.442430
629.840014	2596.947883
630.186236	2596.073243
630.532405	2594.132399
630.878521	2595.455702
631.224585	2595.072574
631.570597	2589.292891
631.916556	2592.640217
632.262462	2593.577872
632.608316	2589.439085
632.954117	2589.575196
633.299866	2593.109045
633.645562	2591.369847
633.991206	2589.371029
634.336797	2591.697522
634.682336	2591.115268
635.027823	2587.558734
635.373257	2587.662078
635.718639	2587.636872
636.063968	2588.143508
636.409245	2587.044537
636.754470	2588.060329
637.099642	2582.406675
637.444762	2586.283322
637.789829	2584.264340
638.134845	2586.815164
638.479808	2586.636203
638.824719	2584.471027
639.169577	2584.231573
639.514383	2583.795513
639.859137	2581.219483
640.203839	2582.633527
640.548489	2581.947930
640.893086	2578.847620
641.237632	2576.574060
641.582125	2579.369380
641.926566	2574.229923
642.270955	2582.913311
642.615292	2582.510019
642.959576	2583.195616
643.303809	2580.475913
643.647990	2583.510688
643.992118	2583.800554
644.336195	2579.634040
644.680219	2583.026737
645.024192	2582.870461
645.368112	2583.072107
645.711981	2579.056828
646.055797	2584.665112
646.399562	2583.288877
646.743274	2583.180492
647.086935	2584.284505
647.430544	2586.822726
647.774101	2586.323652
648.117606	2584.899526
648.461059	2586.280802
648.804460	2586.399269
649.147810	2584.465986
649.491108	2581.438773
649.834354	2583.644278
650.177548	2582.794844
650.520690	2583.155286
650.863781	2579.218145
651.206820	2583.382138
651.549807	2580.032292
651.892742	2579.679411
652.235626	2578.388875
652.578458	2578.724112
652.921238	2577.289904
653.263967	2579.112281
653.606644	2576.977352
653.949269	2579.770152
654.291843	2577.446180
654.634365	2580.680080
654.976836	2578.756880
655.319255	2578.996334
655.661622	2577.093299
656.003938	2579.374421
656.346203	2579.381983
656.688416	2578.227558
657.030577	2574.000551
657.372687	2579.182857
657.714746	2574.076168
658.056753	2576.863926
658.398708	2571.341342
658.740612	2573.199007
659.082465	2570.895200
659.424266	2573.708164
659.766016	2573.556929
660.107715	2576.692527
660.449362	2577.592373
660.790958	2578.824935
661.132503	2577.418453
661.473996	2573.640108
661.815438	2579.813001
662.156829	2578.673701
662.498168	2576.190932
662.839456	2576.067424
663.180693	2576.062383
663.521879	2577.544482
663.863013	2578.088927
664.204097	2574.512228
664.545129	2577.940213
664.886110	2581.108578
665.227040	2575.971642
665.567918	2576.281673
665.908746	2577.660429
666.249522	2577.783937
666.590248	2578.131777
666.930922	2577.872157
667.271545	2576.493402
667.612118	2578.333423
667.952639	2580.125553
668.293109	2576.599266
668.633528	2576.543813
668.973896	2575.979204
669.314213	2576.508525
669.654480	2577.501632
669.994695	2577.466344
670.334859	2579.669328
670.674973	2578.414081
671.015035	2577.342836
671.355047	2574.915520
671.695008	2577.211766
672.034918	2576.379976
672.374777	2576.286714
672.714585	2577.872157
673.054342	2577.708320
673.394049	2573.347722
673.733705	2578.522466
674.073310	2579.185378
674.412864	2575.848134
674.752368	2576.937023
675.091820	2575.480130
675.431223	2576.921900
675.770574	2575.681776
676.109875	2569.904613
676.449125	2571.701785
676.788324	2568.518296
677.127473	2573.786302
677.466571	2570.812021
677.805619	2572.253791
678.144616	2568.871177
678.483562	2574.111456
678.822458	2570.207083
679.161303	2573.748493
679.500098	2573.090623
679.838842	2572.752865
680.177535	2574.209759
680.516179	2571.232957
680.854771	2573.398133
681.193314	2577.027764
681.531805	2576.206056
681.870247	2577.778896
682.208638	2577.287383
682.546978	2575.424677
682.885268	2578.111612
683.223508	2574.608010
683.561697	2573.599779
683.899836	2575.991807
684.237925	2572.934347
684.575963	2574.623133
684.913951	2574.403843
685.251889	2576.952147
685.589776	2575.580953
685.927614	2574.242526
686.265401	2572.949470
686.603137	2577.705799
686.940824	2576.526169
687.278460	2578.666139
687.616046	2576.107753
687.953582	2575.139852
688.291068	2577.436097
688.628504	2574.683627
688.965889	2578.235120
689.303224	2578.887950
689.640510	2576.047259
689.977745	2574.280335
690.314930	2574.189594
690.652065	2575.230592
690.989150	2569.839078
691.326185	2574.630695
691.663170	2570.070972
692.000105	2570.998544
692.336990	2568.195662
692.673825	2568.936712
693.010610	2569.728173
693.347345	2564.984447
693.684030	2562.559652
694.020665	2565.022256
694.357251	2558.466235
694.693786	2564.636608
695.030272	2563.784653
695.366707	2568.402350
695.703093	2566.920250
696.039429	2566.837071
696.375716	2565.498645
696.711952	2564.959242
697.048139	2564.185424
697.384276	2563.938408
697.720363	2564.157698
698.056400	2563.562842
698.392388	2564.046793
698.728326	2565.566701
699.064214	2566.942936
699.400053	2565.665003
699.735842	2561.679971
700.071581	2563.598130
700.407270	2564.535785
700.742910	2565.594427
701.078501	2560.830537
701.414042	2563.933367
701.749533	2562.796587
702.084974	2561.753068
702.420366	2562.980589
702.755709	2558.380536
703.091002	2562.378171
703.426246	2562.350444
703.761440	2561.521175
704.096584	2561.581668
704.431679	2562.358006
704.766725	2561.619477
705.101721	2561.163253
705.436668	2561.190979
705.771565	2560.117213
706.106413	2562.259704
706.441212	2560.868345
706.775961	2559.570248
707.110661	2560.129816
707.445311	2563.449416
707.779913	2560.185269
708.114465	2565.188614
708.448967	2559.958417
708.783421	2562.199210
709.117825	2563.330949
709.452180	2562.090825
709.786485	2564.571073
710.120742	2563.951011
710.454949	2567.736917
710.789107	2561.521175
711.123216	2562.584858
711.457275	2562.589899
711.791286	2564.114848
712.125247	2563.817420
712.459159	2568.407391
712.793023	2568.929150
713.126837	2564.752554
713.460602	2568.162895
713.794318	2564.838254
714.127985	2566.544684
714.461602	2564.442523
714.795171	2565.120558
715.128691	2565.024777
715.462162	2562.536967
715.795584	2561.241391
716.128957	2560.908674
716.462281	2559.613098
716.795556	2559.383725
717.128782	2559.865156
717.461960	2561.117882
717.795088	2559.721483
718.128167	2562.181566
718.461198	2558.546894
718.794180	2560.603685
719.127113	2560.817934
719.459997	2558.665361
719.792833	2555.728889
720.125619	2557.513457
720.458357	2555.121430
720.791046	2560.076884
721.123686	2556.719476
721.456278	2559.597974
721.788821	2557.442881
722.121315	2556.333827
722.453761	2557.642007
722.786158	2554.881975
723.118506	2555.872562
723.450805	2558.176369
723.783056	2555.683518
724.115259	2557.057233
724.447412	2556.394321
724.779518	2555.323076
725.111574	2558.471277
725.443582	2556.593447
725.775542	2559.449260
726.107453	2561.682492
726.439315	2558.846842
726.771129	2561.453119
727.102895	2558.078067
727.434612	2560.404559
727.766281	2561.949673
728.097901	2558.907336
728.429473	2557.279044
728.760996	2559.560166
729.092471	2556.033879
729.423897	2558.161246
729.755276	2556.429609
730.086606	2561.627039
730.417887	2564.563511
730.749120	2563.144426
731.080305	2559.913047
731.411442	2560.467573
731.742530	2560.142419
732.073570	2562.748696
732.404562	2560.525547
732.735506	2562.597461
733.066401	2563.459498
733.397249	2560.840619
733.728048	2561.425393
734.058798	2559.527398
734.389501	2560.341545
734.720156	2557.568910
735.050762	2557.042109
735.381320	2555.398693
735.711831	2556.681667
736.042293	2557.074877
736.372707	2555.975905
736.703073	2555.048333
737.033391	2555.421378
737.363661	2557.158056
737.693883	2556.520350
738.024056	2558.067984
738.354182	2554.982798
738.684260	2559.960937
739.014290	2556.296019
739.344272	2557.289126
739.674207	2557.677295
740.004093	2558.224260
740.333931	2558.970351
740.663722	2558.015052
740.993464	2556.190154
741.323159	2557.775597
741.652806	2556.374157
741.982405	2559.918088
742.311956	2555.315514
742.641460	2555.328117
742.970915	2555.602860
743.300323	2555.338199
743.629683	2555.580175
743.958996	2554.367777
744.288260	2554.634958
744.617477	2554.123281
744.946647	2550.153373
745.275768	2552.023641
745.604842	2551.688404
745.933869	2550.483568
746.262847	2547.383259
746.591778	2554.072870
746.920662	2554.120761
747.249498	2553.130174
747.578286	2556.734599
747.907027	2554.740823
748.235720	2552.479865
748.564365	2555.184444
748.892963	2553.185627
749.221514	2552.222766
749.550017	2551.897612
749.878473	2557.233673
750.206881	2552.411810
750.535242	2551.758980
750.863555	2551.464073
751.191821	2553.228477
751.520039	2553.125133
751.848210	2553.898950
752.176334	2551.252344
752.504411	2552.910884
752.832440	2551.615307
753.160421	2551.370811
753.488356	2551.325441
753.816243	2553.077242
754.144082	2549.001469
754.471875	2553.299053
754.799620	2548.913249
755.127318	2551.181768
755.454969	2552.678991
755.782572	2549.702189
756.110129	2552.797458
756.437638	2548.832590
756.765100	2549.200595
757.092515	2551.867365
757.419882	2550.468445
757.747203	2551.758980
758.074477	2552.132026
758.401703	2551.761501
758.728882	2553.294012
759.056014	2554.438353
759.383099	2551.761501
759.710138	2552.081614
760.037129	2553.682180
760.364073	2554.067829
760.690970	2551.194371
761.017820	2553.435164
761.344623	2551.701007
761.671379	2555.519681
761.998088	2550.642365
762.324751	2555.282747
762.651366	2559.408931
762.977935	2568.016701
763.304456	2574.192115
763.630931	2578.041036
763.957359	2574.328226
764.283740	2568.440158
764.610074	2564.886145
764.936362	2562.083263
765.262602	2557.586554
765.588796	2556.301060
765.914943	2556.154866
766.241044	2553.926676
766.567097	2549.981973
766.893104	2554.082952
767.219064	2550.405430
767.544978	2552.126984
767.870845	2549.084648
768.196665	2550.274360
768.522438	2545.114739
768.848165	2547.400903
769.173846	2545.727240
769.499479	2548.290666
769.825066	2549.515667
770.150607	2547.796633
770.476101	2547.970553
770.801548	2547.295038
771.126949	2546.906870
771.452303	2547.284956
771.777611	2545.860830
772.102872	2548.691438
772.428087	2545.717157
772.753256	2543.025181
773.078378	2546.927034
773.403453	2547.410985
773.728482	2545.815460
774.053465	2545.762528
774.378401	2545.472661
774.703291	2543.919986
775.028135	2544.111550
775.352932	2544.845038
775.677683	2543.862013
776.002388	2547.400903
776.327046	2543.499050
776.651658	2544.850079
776.976224	2545.250851
777.300743	2545.180274
777.625216	2544.872764
777.949643	2545.578526
778.274024	2545.976777
778.598359	2543.287321
778.922647	2540.507125
779.246889	2540.045859
779.571086	2539.203987
779.895236	2544.156920
780.219339	2541.986703
780.543397	2545.102137
780.867409	2542.316899
781.191374	2542.379913
781.515294	2544.726571
781.839167	2542.526107
782.162995	2543.511653
782.486776	2546.304452
782.810511	2541.263298
783.134201	2548.310831
783.457844	2544.608103
783.781441	2541.926210
784.104993	2543.925027
784.428498	2546.894267
784.751958	2542.705068
785.075372	2545.167672
785.398739	2542.445448
785.722061	2545.976777
786.045337	2544.285470
786.368568	2543.713299
786.691752	2542.798329
787.014891	2541.870757
787.337983	2543.317568
787.661030	2546.508618
787.984031	2548.923331
788.306987	2549.003990
788.629897	2546.954761
788.952760	2545.709596
789.275579	2547.403423
789.598351	2546.765717
789.921078	2546.627086
790.243759	2545.147507
790.566395	2546.072559
790.888984	2547.176571
791.211529	2543.277239
791.534027	2544.857641
791.856480	2541.802701
792.178888	2545.507949
792.501249	2538.914120
792.823566	2540.998637
793.145836	2543.453679
793.468062	2544.177085
793.790241	2542.947043
794.112375	2543.781354
794.434464	2542.276570
794.756507	2544.552651
795.078505	2543.957795
795.400457	2541.003678
795.722364	2541.192722
796.044226	2542.009389
796.366042	2541.056611
796.687812	2543.995603
797.009538	2542.999975
797.331218	2544.540048
797.652852	2544.615665
797.974442	2545.964174
798.295986	2544.688762
798.617484	2543.241951
798.938938	2541.785057
799.260346	2543.350336
799.581709	2542.279090
799.903026	2543.975439
800.224299	2542.982331
800.545526	2543.867054
800.866708	2542.493339
801.187845	2542.924358
801.508936	2542.213555
801.829983	2541.394368
802.150984	2543.393185
802.471940	2542.437887
802.792851	2541.777496
803.113717	2543.239430
803.434538	2541.596014
803.755314	2543.801519
804.076045	2540.940664
804.396731	2539.582073
804.717372	2541.774975
805.037967	2543.569626
805.358518	2541.974101
805.679024	2542.362269
805.999485	2539.768596
806.319901	2541.601055
806.640272	2539.506456
806.960598	2542.019471
807.280879	2540.610468
807.601115	2544.073741
807.921306	2542.148020
808.241453	2542.705068
808.561554	2541.260777
808.881611	2543.660367
809.201623	2542.077444
809.521590	2543.062990
809.841513	2541.951415
810.161390	2541.348997
810.481223	2540.408822
810.801011	2540.406302
811.120755	2541.991745
811.440453	2542.185829
811.760107	2541.633823
812.079716	2540.839841
812.399281	2538.006712
812.718801	2537.618544
813.038276	2535.619726
813.357707	2542.526107
813.677093	2543.269677
813.996434	2545.008875
814.315731	2539.448482
814.634983	2542.586601
814.954191	2543.753628
815.273354	2543.476364
815.592473	2539.224151
815.911547	2544.960984
816.230577	2539.982845
816.549562	2541.964018
816.868502	2541.553164
817.187399	2542.952084
817.506250	2543.798998
817.825058	2545.265974
818.143821	2542.906714
818.462539	2543.945192
818.781213	2544.580377
819.099843	2545.563402
819.418429	2547.174051
819.736970	2548.482230
820.055466	2555.005483
820.373919	2556.885834
820.692327	2559.741647
821.010691	2567.507545
821.329011	2583.795513
821.647286	2619.154166
821.965517	2654.958961
822.283704	2677.775223
822.601847	2686.748477
822.919945	2667.806342
823.237999	2645.839514
823.556010	2626.126082
823.873976	2609.669235
824.191897	2594.661720
824.509775	2586.747108
824.827609	2576.813515
825.145398	2571.154820
825.463144	2571.366548
825.780845	2572.621795
826.098502	2576.074986
826.416116	2586.220308
826.733685	2595.977461
827.051210	2601.043821
827.368692	2597.910744
827.686129	2584.919690
828.003522	2575.001220
828.320872	2561.828685
828.638177	2558.872048
828.955439	2552.358877
829.272656	2550.654968
829.589830	2546.969884
829.906960	2547.902497
830.224046	2545.318906
830.541088	2547.554658
830.858086	2543.582229
831.175041	2544.356046
831.491952	2545.573484
831.808819	2544.620706
832.125642	2542.848741
832.442421	2549.397200
832.759157	2551.799309
833.075849	2559.534960
833.392497	2565.939746
833.709101	2572.520972
834.025662	2572.531055
834.342179	2570.081054
834.658653	2562.380691
834.975083	2554.579506
835.291469	2559.895402
835.607811	2549.745039
835.924110	2548.008362
836.240366	2545.825542
836.556578	2544.542568
836.872746	2544.890408
837.188871	2542.533669
837.504952	2542.828576
837.820990	2540.756662
838.136984	2537.384130
838.452935	2542.747918
838.768842	2539.032587
839.084706	2543.972918
839.400526	2544.333361
839.716303	2546.397713
840.032037	2554.725699
840.347727	2551.930379
840.663373	2549.288815
840.978977	2546.669935
841.294537	2542.402599
841.610054	2541.394368
841.925527	2541.583411
842.240957	2540.093750
842.556344	2540.562577
842.871687	2540.547454
843.186987	2536.915303
843.502244	2536.955632
843.817458	2535.244160
844.132629	2538.417567
844.447756	2537.686599
844.762840	2533.215096
845.077881	2533.998995
845.392879	2530.815507
845.707833	2532.342976
846.022745	2529.182173
846.337613	2536.625436
846.652438	2535.644932
846.967221	2535.554191
847.281960	2535.024870
847.596656	2536.121321
847.911309	2534.198121
848.225919	2535.402957
848.540485	2535.125693
848.855009	2536.330529
849.169490	2536.567463
849.483928	2535.952442
849.798323	2536.242309
850.112675	2537.084181
850.426984	2535.556712
850.741251	2536.194418
851.055474	2534.959335
851.369654	2534.636701
851.683792	2535.450848
851.997887	2534.361958
852.311938	2536.365817
852.625947	2534.913965
852.939914	2537.235416
853.253837	2536.605272
853.567718	2536.179294
853.881555	2536.607792
854.195350	2535.476053
854.509103	2535.970086
854.822812	2537.036290
855.136479	2535.886907
855.450103	2535.677699
855.763685	2533.608306
856.077224	2537.232895
856.390720	2535.942360
856.704173	2536.227185
857.017584	2535.833975
857.330953	2536.373379
857.644278	2533.061341
857.957561	2537.870601
858.270802	2536.595189
858.584000	2534.366999
858.897155	2534.997144
859.210268	2535.302133
859.523339	2536.554860
859.836367	2534.213244
860.149352	2537.563091
860.462295	2534.777853
860.775195	2534.679551
861.088054	2529.741741
861.400869	2533.353728
861.713642	2531.042358
862.026373	2535.385313
862.339062	2534.556043
862.651708	2535.090405
862.964312	2534.873635
863.276873	2536.297761
863.589392	2534.654345
863.901869	2537.810107
864.214303	2533.162164
864.526696	2537.263142
864.839045	2535.760878
865.151353	2536.723739
865.463619	2535.574356
865.775842	2535.458409
866.088023	2537.764737
866.400162	2535.039993
866.712258	2537.573173
867.024313	2536.403626
867.336325	2536.791794
867.648296	2536.837165
867.960224	2536.625436
868.272110	2536.247350
868.583954	2534.634181
868.895755	2538.515869
869.207515	2536.585107
869.519233	2536.975797
869.830909	2534.019160
870.142542	2536.212062
870.454134	2537.689120
870.765684	2536.948070
871.077191	2536.093595
871.388657	2541.096940
871.700081	2537.447144
872.011463	2539.569470
872.322803	2537.767258
872.634101	2535.377751
872.945357	2539.186342
873.256571	2538.009233
873.567744	2538.783050
873.878874	2534.067051
874.189963	2537.396733
874.501010	2541.573329
874.812015	2538.478060
875.122979	2541.225489
875.433900	2535.977648
875.744780	2540.277752
876.055618	2539.219110
876.366415	2538.203318
876.677169	2540.262629
876.987882	2536.844727
877.298554	2534.175436
877.609183	2537.011085
877.919771	2537.104346
878.230317	2537.248019
878.540822	2544.164482
878.851285	2540.053421
879.161707	2546.848896
879.472087	2547.968032
879.782425	2552.658826
880.092722	2557.846173
880.402977	2567.431928
880.713191	2586.048909
881.023363	2605.825355
881.333494	2622.335134
881.643583	2621.273971
881.953631	2622.153653
882.263637	2617.039402
882.573602	2610.289297
882.883526	2599.481063
883.193408	2588.776173
883.503248	2582.376428
883.813048	2570.277659
884.122806	2569.682803
884.432522	2563.945970
884.742197	2557.445402
885.051831	2556.069167
885.361424	2552.295863
885.670975	2546.231355
885.980485	2549.445091
886.289954	2545.144986
886.599382	2544.650953
886.908768	2545.281098
887.218113	2543.211704
887.527417	2542.992414
887.836680	2539.851775
888.145901	2539.299768
888.455082	2540.451672
888.764221	2539.662732
889.073319	2539.937474
889.382376	2540.192053
889.691392	2537.951260
890.000366	2538.067206
890.309300	2539.037628
890.618193	2539.133410
890.927044	2539.766075
891.235855	2538.815818
891.544625	2537.613503
891.853353	2540.381096
892.162041	2539.607279
892.470687	2541.777496
892.779293	2540.030736
893.087858	2541.500232
893.396381	2542.160623
893.704864	2548.020965
894.013306	2551.481717
894.321707	2561.364899
894.630068	2565.402863
894.938387	2568.089798
895.246665	2565.811197
895.554903	2562.506720
895.863100	2555.837274
896.171256	2554.607232
896.479371	2553.528425
896.787446	2549.664381
897.095480	2546.196067
897.403473	2546.591798
897.711425	2543.378062
898.019336	2542.233720
898.327207	2541.696837
898.635038	2545.606252
898.942827	2540.358411
899.250576	2539.929913
899.558284	2540.381096
899.865952	2540.113915
900.173579	2538.760365
900.481165	2538.720036
900.788711	2538.654501
901.096216	2540.204656
901.403681	2540.136600
901.711105	2540.134079
902.018489	2539.022505
902.325832	2543.143648
902.633135	2539.171219
902.940397	2538.853626
903.247619	2542.833617
903.554800	2546.259081
903.861941	2561.422872
904.169041	2570.146589
904.476101	2578.272929
904.783121	2576.049780
905.090100	2572.626837
905.397039	2564.959242
905.703938	2557.952038
906.010796	2552.520194
906.317614	2551.446429
906.624391	2546.218752
906.931129	2543.882177
907.237826	2542.130376
907.544483	2540.759183
907.851099	2536.055786
908.157675	2535.443286
908.464211	2537.704243
908.770707	2533.494880
909.077163	2533.136958
909.383578	2534.324150
909.689954	2531.201155
909.996289	2530.243336
910.302584	2536.103677
910.608839	2535.236598
910.915054	2536.859850
911.221229	2533.676361
911.527363	2536.433872
911.833458	2532.559746
912.139513	2537.273225
912.445527	2536.990920
912.751502	2535.576876
913.057436	2537.195087
913.363331	2539.907227
913.669186	2534.982020
913.975000	2541.936292
914.280775	2541.724563
914.586510	2544.328319
914.892205	2546.344781
915.197859	2554.418189
915.503475	2559.575289
915.809050	2569.786146
916.114585	2573.879563
916.420081	2576.690007
916.725536	2573.297310
917.030952	2568.659448
917.336328	2565.193655
917.641665	2561.826164
917.946961	2556.043961
918.252218	2553.891388
918.557435	2551.670760
918.862612	2547.100954
919.167750	2546.143135
919.472848	2543.708257
919.777906	2541.964018
920.082925	2542.211035
920.387904	2539.839172
920.692843	2541.742207
920.997743	2537.053934
921.302603	2537.994110
921.607423	2537.976466
921.912204	2536.461599
922.216946	2537.492515
922.521647	2538.362114
922.826310	2534.795497
923.130932	2537.081661
923.435516	2534.654345
923.740059	2536.489325
924.044564	2532.935312
924.349028	2534.588810
924.653454	2526.568334
924.957840	2531.027235
925.262186	2529.441792
925.566493	2527.982378
925.870761	2527.800897
926.174989	2532.471526
926.479178	2530.593696
926.783328	2532.458923
927.087438	2529.774508
927.391509	2533.452030
927.695541	2533.169725
927.999533	2533.189890
928.303486	2531.289375
928.607400	2532.864736
928.911275	2531.483459
929.215110	2529.714014
929.518906	2528.579755
929.822663	2530.767616
930.126381	2529.804755
930.430060	2531.954807
930.733699	2530.848274
931.037299	2528.854498
931.340861	2532.731145
931.644383	2531.801052
931.947866	2530.422297
932.251309	2532.325332
932.554714	2529.308202
932.858080	2531.763243
933.161407	2531.027235
933.464694	2532.942873
933.767943	2534.359438
934.071153	2531.496062
934.374323	2531.299457
934.677455	2535.954963
934.980548	2530.513037
935.283602	2530.112266
935.586617	2532.905065
935.889593	2530.802904
936.192530	2531.183511
936.495428	2530.024045
936.798287	2532.075795
937.101108	2534.528316
937.403890	2529.938346
937.706632	2531.594365
938.009336	2532.766433
938.312002	2531.894313
938.614628	2532.816845
938.917216	2534.674510
939.219765	2534.669469
939.522275	2532.292565
939.824747	2536.822041
940.127179	2532.216947
940.429573	2532.232071
940.731929	2530.931453
941.034246	2527.508510
941.336524	2531.664941
941.638763	2534.742565
941.940964	2532.547143
942.243126	2531.828778
942.545250	2534.306506
942.847335	2532.002698
943.149381	2531.276772
943.451389	2531.740558
943.753359	2531.281813
944.055290	2531.022194
944.357182	2529.512368
944.659036	2528.463808
944.960851	2532.327853
945.262628	2530.172759
945.564367	2531.700229
945.866067	2530.475229
946.167729	2529.983716
946.469352	2531.183511
946.770937	2534.976979
947.072484	2531.753161
947.373992	2530.031607
947.675462	2532.227030
947.976893	2532.451361
948.278286	2531.410363
948.579641	2530.530681
948.880958	2530.646628
949.182236	2533.605785
949.483476	2531.385157
949.784678	2531.564118
950.085841	2531.294416
950.386967	2532.040507
950.688054	2529.492204
950.989103	2531.889272
951.290114	2529.933305
951.591087	2530.407173
951.892021	2530.608819
952.192917	2530.936494
952.493776	2530.364323
952.794596	2533.066382
953.095378	2530.167718
953.396122	2532.101001
953.696828	2534.566125
953.997496	2529.522451
954.298126	2533.273069
954.598718	2532.153933
954.899272	2529.920702
955.199788	2533.187369
955.500266	2531.571680
955.800706	2529.819879
956.101108	2527.369878
956.401472	2530.613860
956.701798	2525.872655
957.002087	2525.880217
957.302337	2532.479087
957.602550	2527.054806
957.902724	2530.013963
958.202861	2528.594878
958.502960	2527.710156
958.803022	2529.222502
959.103045	2525.902902
959.403031	2528.942718
959.702979	2527.758047
960.002889	2528.443644
960.302762	2527.188396
960.602596	2527.372398
960.902393	2528.307532
961.202153	2525.484486
961.501875	2529.000691
961.801559	2529.323325
962.101205	2524.652696
962.400814	2530.795342
962.700385	2528.662934
962.999918	2530.457585
963.299414	2529.318284
963.598873	2528.347862
963.898293	2529.041020
964.197677	2529.703932
964.497022	2527.649662
964.796331	2527.425331
965.095601	2527.226205
965.394835	2530.376926
965.694030	2526.747295
965.993189	2530.737369
966.292309	2528.035310
966.591393	2529.156967
966.890439	2528.012625
967.189447	2527.052285
967.488419	2526.036493
967.787353	2531.934643
968.086249	2528.809127
968.385108	2527.566483
968.683930	2531.153264
968.982714	2530.139992
969.281462	2528.088242
969.580172	2530.203006
969.878844	2528.032790
970.177480	2530.369364
970.476078	2527.422810
970.774639	2528.836854
971.073162	2529.174611
971.371649	2525.832326
971.670098	2521.189423
971.968510	2524.786287
972.266885	2523.518436
972.565223	2528.514220
972.863524	2527.737882
973.161788	2529.570342
973.460014	2529.119158
973.758204	2529.923222
974.056356	2529.625794
974.354471	2529.610671
974.652550	2527.279137
974.950591	2530.323994
975.248595	2525.940711
975.546563	2529.590506
975.844493	2527.843746
976.142386	2527.616894
976.440243	2528.617563
976.738062	2527.173273
977.035845	2525.887779
977.333590	2527.016997
977.631299	2527.397604
977.928971	2527.037162
978.226606	2527.488345
978.524204	2527.354754
978.821765	2528.995650
979.119290	2528.743592
979.416777	2528.483973
979.714228	2528.332738
980.011642	2525.915505
980.309020	2530.525640
980.606360	2523.470545
980.903664	2528.695701
981.200931	2529.814838
981.498162	2529.230064
981.795356	2530.013963
982.092513	2531.060002
982.389633	2528.804086
982.686717	2527.727800
982.983764	2527.795855
983.280775	2531.818696
983.577749	2529.076308
983.874686	2531.186031
984.171587	2527.808458
984.468451	2529.247708
984.765279	2527.601771
985.062070	2530.399611
985.358824	2529.104035
985.655543	2528.446164
985.952224	2526.364168
986.248869	2525.474404
986.545478	2522.900895
986.842050	2526.177645
987.138586	2522.701769
987.435086	2523.241173
987.731549	2522.109434
988.027975	2527.022038
988.324366	2528.499096
988.620719	2525.572707
988.917037	2525.338293
989.213318	2526.462470
989.509563	2528.695701
989.805772	2526.086904
990.101944	2527.929446
990.398080	2527.904240
990.694180	2526.467511
990.990244	2529.162008
991.286271	2527.962213
991.582262	2530.336597
991.878217	2525.272758
992.174136	2528.584796
992.470019	2525.907943
992.765865	2529.827440
993.061676	2527.569003
993.357450	2528.002543
993.653188	2526.969106
993.948890	2527.097656
994.244556	2526.278468
994.540186	2527.710156
994.835780	2523.747809
995.131337	2527.206040
995.426859	2526.293592
995.722345	2525.239990
996.017795	2526.492717
996.313208	2527.677388
996.608586	2525.381143
996.903928	2526.626308
997.199234	2526.654034
997.494504	2526.210412
997.789738	2528.892306
998.084936	2526.608664
998.380099	2526.472552
998.675225	2527.914323
998.970316	2525.529857
999.265371	2529.421628
999.560390	2527.309384
999.855373	2530.636546
1000.150320	2528.325177
1000.445232	2528.257121
1000.740108	2526.515402
1001.034948	2527.029600
1001.329752	2526.306194
1001.624521	2527.448016
1001.919254	2524.856863
1002.213951	2524.166225
1002.508613	2521.234794
1002.803239	2522.192613
1003.097829	2522.669002
1003.392384	2527.959693
1003.686903	2524.282171
1003.981386	2528.010104
1004.275834	2525.681091
1004.570246	2527.014477
1004.864623	2526.737213
1005.158964	2527.538757
1005.453270	2528.148736
1005.747540	2526.283509
1006.041775	2525.502130
1006.335974	2526.046575
1006.630138	2526.603623
1006.924266	2527.337110
1007.218359	2527.485824
1007.512416	2526.918695
1007.806438	2525.174455
1008.100425	2528.350382
1008.394376	2523.374763
1008.688292	2525.625639
1008.982172	2529.119158
1009.276017	2525.116482
1009.569827	2527.241328
1009.863602	2526.102028
1010.157341	2525.050947
1010.451045	2526.210413
1010.744714	2526.278468
1011.038347	2525.441637
1011.331945	2526.023890
1011.625508	2524.808972
1011.919036	2526.076822
1012.212528	2527.417769
1012.505986	2524.756040
1012.799408	2528.052954
1013.092795	2525.550021
1013.386147	2524.982892
1013.679464	2527.793335
1013.972745	2523.830988
1014.265992	2525.265196
1014.559204	2526.739734
1014.852380	2526.888448
1015.145521	2528.836854
1015.438628	2524.803931
1015.731699	2526.764939
1016.024736	2526.033972
1016.317737	2526.119672
1016.610703	2526.172604
1016.903635	2522.232942
1017.196531	2522.936183
1017.489393	2522.444671
1017.782219	2522.910977
1018.075011	2525.711338
1018.367768	2525.366019
1018.660490	2527.213602
1018.953177	2527.213602
1019.245829	2527.213602
