Dividing Wavelength (nm)	Counts (n)	Blue Motor Position (mm): 0.000000	Red Motor Position (mm): 33.800000	
326.493990	2126.696450
326.888308	2126.696450
327.282561	2126.696450
327.676750	2093.520616
328.070874	2093.860894
328.464933	2097.001533
328.858929	2100.817686
329.252859	2112.646754
329.646726	2126.421707
330.040528	2136.604838
330.434265	2155.264668
330.827938	2172.147493
331.221547	2189.547035
331.615091	2208.710982
332.008571	2227.809393
332.401986	2248.437794
332.795338	2266.908582
333.188625	2286.238887
333.581847	2304.470219
333.975006	2324.710452
334.368100	2341.477330
334.761129	2356.207581
335.154095	2375.074100
335.546996	2393.502038
335.939833	2412.113978
336.332606	2430.441092
336.725315	2442.224789
337.117960	2448.445573
337.510540	2456.662654
337.903056	2473.227886
338.295508	2477.293576
338.687896	2486.962509
339.080220	2493.082470
339.472480	2500.651763
339.864676	2505.166116
340.256807	2508.614265
340.648875	2511.943947
341.040879	2515.843280
341.432818	2518.628517
341.824694	2517.932838
342.216506	2516.912004
342.608253	2519.089783
342.999937	2519.102386
343.391557	2517.421161
343.783113	2518.089114
344.174605	2516.080214
344.566033	2514.502333
344.957397	2513.478978
345.348697	2509.012516
345.739934	2512.788340
346.131106	2508.233658
346.522215	2508.876405
346.913260	2504.180570
347.304241	2506.766682
347.695159	2501.458347
348.086012	2501.977586
348.476802	2498.300064
348.867528	2497.584220
349.258191	2495.905516
349.648789	2493.934425
350.039324	2494.562049
350.429796	2492.774960
350.820203	2490.375370
351.210548	2488.714310
351.600828	2489.392345
351.991045	2489.220946
352.381198	2486.234063
352.771288	2487.065853
353.161314	2485.329175
353.551276	2489.667088
353.941175	2484.497385
354.331010	2487.885040
354.720782	2488.069043
355.110490	2489.644403
355.500135	2490.428302
355.889717	2487.869917
356.279235	2488.704228
356.668689	2490.289671
357.058080	2487.953096
357.447408	2485.150214
357.836672	2485.382108
358.225873	2489.180617
358.615010	2484.686428
359.004084	2493.521050
359.393095	2492.578355
359.782043	2493.324445
360.170927	2491.701194
360.559748	2491.796976
360.948505	2493.435351
361.337199	2495.353510
361.725830	2493.440392
362.114398	2495.124137
362.502903	2492.464929
362.891344	2498.269817
363.279722	2496.455002
363.668037	2499.555312
364.056289	2498.332832
364.444478	2502.280055
364.832603	2500.041783
365.220665	2500.324088
365.608665	2499.830054
365.996601	2504.576301
366.384474	2500.934067
366.772284	2502.995899
367.160031	2507.762310
367.547715	2508.374810
367.935336	2509.935047
368.322893	2510.234996
368.710388	2516.604494
369.097820	2523.011800
369.485189	2526.207892
369.872495	2529.446833
370.259738	2536.239788
370.646918	2545.671787
371.034035	2549.825698
371.421090	2565.730538
371.808081	2574.229923
372.195010	2585.035637
372.581875	2597.497369
372.968678	2609.439862
373.355418	2619.496964
373.742096	2636.881383
374.128710	2652.302273
374.515262	2666.495642
374.901751	2682.549196
375.288177	2695.131916
375.674540	2718.815257
376.060841	2736.383678
376.447079	2755.371184
376.833254	2778.172323
377.219367	2787.054836
377.605417	2826.080928
377.991404	2834.769357
378.377329	2858.130064
378.763191	2874.753269
379.148991	2914.260792
379.534727	2938.778443
379.920402	2965.650314
380.306013	2977.769248
380.691563	3028.168183
381.077049	3049.714075
381.462474	3066.919533
381.847835	3106.681634
382.233134	3132.373874
382.618371	3128.608132
383.003545	3197.699667
383.388657	3206.264587
383.773706	3236.113259
384.158693	3250.377204
384.543618	3281.644960
384.928480	3313.633602
385.313280	3362.694111
385.698017	3359.956765
386.082692	3414.688572
386.467305	3418.804674
386.851856	3451.002524
387.236344	3475.890700
387.620770	3503.765761
388.005133	3526.453473
388.389435	3556.382804
388.773674	3569.570462
389.157851	3609.657718
389.541965	3627.268989
389.926018	3592.101899
390.310008	3665.848939
390.693936	3680.798481
391.077802	3724.096951
391.461606	3712.925754
391.845348	3776.542595
392.229027	3773.442286
392.612645	3785.213380
392.996200	3863.247921
393.379694	3908.096546
393.763125	3968.270279
394.146494	3937.093263
394.529801	3998.355885
394.913047	4046.415725
395.296230	4016.491436
395.679351	4067.830547
396.062410	4090.903908
396.445408	4067.485228
396.828343	4105.606433
397.211217	4128.097541
397.594028	4053.133063
397.976778	4116.548258
398.359466	4143.861229
398.742092	4173.543543
399.124656	4093.701748
399.507158	4173.664531
399.889598	4197.509188
400.271977	4260.533694
400.654294	4227.327613
401.036549	4241.286568
401.418742	4206.986558
401.800874	4312.636539
402.182944	4333.343079
402.564952	4398.560486
402.946898	4385.589597
403.328783	4379.958628
403.710606	4295.098365
404.092367	4488.071214
404.474067	4450.859937
404.855705	4462.048777
405.237282	4386.935585
405.618797	4497.535980
406.000250	4531.462945
406.381642	4617.734732
406.762972	4577.594544
407.144240	4586.414043
407.525447	4582.731480
407.906593	4646.189525
408.287677	4686.155792
408.668700	4617.691882
409.049661	4664.251979
409.430560	4708.508268
409.811399	4637.871621
410.192176	4795.117812
410.572891	4736.048092
410.953545	4838.312939
411.334138	4715.417170
411.714669	4786.615906
412.095139	4680.431562
412.475547	4825.735260
412.855894	4800.164007
413.236180	4812.605575
413.616405	4765.649747
413.996568	4856.551833
414.376670	4799.871620
414.756711	4753.787912
415.136691	4789.675887
415.516609	4864.534501
415.896466	4903.487496
416.276262	4934.523360
416.655997	4914.693981
417.035670	5093.294500
417.415283	5189.026012
417.794834	5131.511488
418.174324	5084.326288
418.553753	4987.916741
418.933121	5175.561090
419.312428	5241.443930
419.691674	5182.447306
420.070859	5312.030166
420.449983	5219.527513
420.829045	5337.651830
421.208047	5243.367130
421.586988	5314.792718
421.965867	5328.338298
422.344686	5456.602896
422.723444	5313.093849
423.102141	5128.597701
423.480777	5434.323517
423.859352	5196.865006
424.237866	5456.688596
424.616319	5448.705929
424.994712	5561.234565
425.373044	5436.614721
425.751314	5579.261731
426.129524	5381.333428
426.507673	5578.732410
426.885762	5660.396582
427.263789	5594.349905
427.641756	5470.665195
428.019662	5597.941727
428.397508	5602.556903
428.775292	5549.995312
429.153016	5649.013656
429.530679	5571.939455
429.908282	5655.294934
430.285824	5530.823804
430.663305	5803.401513
431.040726	5536.694228
431.418086	5539.950813
431.795385	5643.004601
432.172624	5656.814842
432.549802	5646.856042
432.926920	5661.266181
433.303977	5671.595505
433.680974	5707.579261
434.057910	5728.822683
434.434786	5734.758642
434.811601	5702.459969
435.188355	5939.464776
435.565050	5807.416793
435.941683	5796.752232
436.318257	6010.905488
436.694770	5989.515872
437.071222	6028.073138
437.447614	5960.725843
437.823946	5870.400969
438.200218	6024.163723
438.576429	5886.076437
438.952580	5989.377241
439.328670	6031.722933
439.704700	5939.696669
440.080670	5920.570532
440.456580	6198.537234
440.832429	6080.324697
441.208218	5923.570018
441.583947	6081.844605
441.959616	6085.895172
442.335224	6008.944479
442.710773	6145.723586
443.086261	6174.765673
443.461689	5968.229600
443.837057	6116.931036
444.212365	6276.808709
444.587612	6165.994066
444.962800	6320.384443
445.337927	6300.492050
445.712995	5908.146608
446.088002	6486.566080
446.462949	6316.200286
446.837837	6246.917188
447.212664	6420.968065
447.587431	6565.949129
447.962139	7106.648167
448.336786	8037.540075
448.711374	7777.872761
449.085901	6851.391863
449.460369	6767.985973
449.834776	6704.906015
450.209124	7094.088133
450.583412	7245.441215
450.957640	7392.431179
451.331808	7159.411404
451.705917	6708.286108
452.079965	6631.655529
452.453954	6845.483631
452.827883	6723.613737
453.201752	6810.480379
453.575562	6613.993846
453.949311	6815.440874
454.323001	6703.847372
454.696632	6780.543487
455.070202	6918.156905
455.443713	7071.798671
455.817164	7173.466141
456.190556	7255.911692
456.563888	7331.637384
456.937160	7368.538630
457.310373	7033.566560
457.683526	7055.719911
458.056619	6942.946779
458.429653	6935.735408
458.802628	6868.015068
459.175542	6981.990515
459.548398	7334.359607
459.921194	7494.572518
460.293930	7497.531675
460.666607	8023.324021
461.039224	8334.395981
461.411782	8466.864901
461.784280	8477.743711
462.156719	8372.693627
462.529099	8255.532170
462.901419	7839.901638
463.273680	7732.280566
463.645882	7748.876044
464.018024	7612.212884
464.390106	7776.738501
464.762130	8168.476484
465.134094	8629.744582
465.505999	9657.172065
465.877845	10884.607327
466.249631	11524.871674
466.621358	11146.099539
466.993026	10515.531851
467.364634	10255.481409
467.736184	9891.731912
468.107674	9564.941635
468.479105	9595.995143
468.850477	9362.945121
469.221790	9128.019790
469.593043	8799.979306
469.964238	8662.320518
470.335373	8675.180502
470.706449	8733.685613
471.077467	8710.589566
471.448425	10028.377428
471.819324	11098.125398
472.190164	11127.157403
472.560945	9879.663390
472.931667	9087.002442
473.302330	8947.947254
473.672934	8593.299560
474.043479	8950.238458
474.413965	8891.998008
474.784393	8774.952498
475.154761	8932.009646
475.525070	9017.905866
475.895321	8844.278446
476.265513	9022.158080
476.635645	9193.075880
477.005719	9193.083442
477.375734	9302.597468
477.745691	9544.908089
478.115588	9674.412811
478.485427	9915.034646
478.855207	10456.162182
479.224928	11272.186358
479.594591	11892.535627
479.964194	11715.971734
480.333739	11647.641414
480.703226	11559.809391
481.072653	11656.276911
481.442022	11896.341698
481.811333	12085.513517
482.180584	11887.270142
482.549777	11594.464803
482.918912	11422.841241
483.287988	11450.159253
483.657005	11455.054214
484.025964	11134.462035
484.394864	11264.667477
484.763706	11240.200237
485.132489	10990.625313
485.501213	10953.202307
485.869879	11033.523012
486.238487	10864.735098
486.607036	10981.909158
486.975527	10764.159038
487.343959	10947.253746
487.712333	10995.066569
488.080648	10923.953533
488.448905	10972.615791
488.817104	10908.593137
489.185244	11169.722386
489.553326	11326.983700
489.921350	11852.178670
490.289315	12916.129313
490.657222	13260.389709
491.025070	13158.840706
491.392861	13033.714226
491.760593	12653.359168
492.128267	12304.619707
492.495883	11970.459262
492.863440	11637.196143
493.230939	11299.688373
493.598380	11232.782179
493.965763	11096.527352
494.333088	10992.772844
494.700354	10909.256049
495.067563	10964.534821
495.434713	10789.712647
495.801805	10915.680999
496.168839	10828.136322
496.535815	10761.184757
496.902733	10758.656619
497.269593	10683.906389
497.636395	10775.184042
498.003139	10756.332647
498.369825	10621.010433
498.736453	10768.779256
499.103023	10690.306134
499.469535	10706.488238
499.835989	10692.962822
500.202385	10649.253498
500.568723	10489.345577
500.935003	10697.144459
501.301226	10492.191309
501.667390	10743.238250
502.033497	10827.768317
502.399546	10673.735862
502.765537	10579.829248
503.131470	10637.953752
503.497345	10794.867227
503.863163	10407.948587
504.228923	10693.361073
504.594625	10741.746068
504.960269	10478.413835
505.325856	10682.116780
505.691385	10462.324993
506.056856	10601.385222
506.422270	10601.538977
506.787625	10486.313323
507.152924	10568.665612
507.518164	10531.671105
507.883347	10443.120717
508.248472	10345.115645
508.613540	10543.290965
508.978550	10403.708976
509.343503	10358.880516
509.708398	10447.912334
510.073236	10529.581547
510.438016	10514.765596
510.802738	10439.256673
511.167403	10460.142173
511.532010	10333.682308
511.896561	10522.317244
512.261053	10560.481299
512.625488	10408.946735
512.989866	10363.110044
513.354186	10321.765021
513.718449	10195.758860
514.082655	10353.045380
514.446803	10216.543537
514.810894	10289.426019
515.174927	10136.220312
515.538904	10123.188929
515.902822	10221.423374
516.266684	10079.898021
516.630488	9987.781017
516.994235	10001.800465
517.357925	10008.905972
517.721558	10045.960973
518.085133	10016.092137
518.448651	9986.054421
518.812112	9841.824489
519.175516	9807.839551
519.538863	9863.622438
519.902152	9760.629145
520.265385	9831.096914
520.628560	9723.916942
520.991678	9639.676741
521.354739	9653.610490
521.717743	9550.599552
522.080690	9486.239141
522.443580	9530.369402
522.806413	9447.578532
523.169189	9422.118185
523.531908	9411.262060
523.894569	9219.632679
524.257174	9171.257766
524.619722	9194.487403
524.982213	9113.947409
525.344647	9081.505063
525.707025	9002.714349
526.069345	9006.832972
526.431608	8886.006597
526.793815	8907.008043
527.155964	8703.655459
527.518057	8690.493006
527.880093	8590.058098
528.242072	8585.606759
528.603995	8445.828166
528.965860	8340.200870
529.327669	8311.836818
529.689421	8226.021256
530.051117	8144.780541
530.412755	8139.603276
530.774337	8020.047271
531.135862	7931.718694
531.497331	7907.523676
531.858743	7741.205928
532.220098	7792.794576
532.581396	7647.536249
532.942638	7585.250273
533.303824	7498.534865
533.664953	7439.913807
534.026025	7335.851789
534.387040	7330.445151
534.747999	7278.342306
535.108902	7245.637820
535.469748	7057.794346
535.830537	7057.290230
536.191270	6986.610733
536.551947	6937.144411
536.912567	6878.087293
537.273131	6795.349356
537.633638	6717.778601
537.994089	6654.348283
538.354483	6579.903043
538.714821	6588.886379
539.075103	6537.718668
539.435328	6454.113652
539.795497	6332.178223
540.155609	6332.531103
540.515665	6317.846222
540.875665	6145.128730
541.235609	6116.953721
541.595496	6066.244754
541.955328	6062.867181
542.315102	5970.039374
542.674821	5895.732767
543.034483	5839.569272
543.394090	5787.889883
543.753640	5706.755032
544.113134	5732.364094
544.472571	5626.230162
544.831953	5624.420387
545.191278	5502.812633
545.550548	5459.665397
545.909761	5457.923679
546.268918	5395.972939
546.628019	5376.577100
546.987064	5274.249238
547.346053	5213.175659
547.704986	5182.747255
548.063863	5132.799503
548.422684	5088.601186
548.781449	5008.605636
549.140158	4993.209953
549.498811	4905.831633
549.857408	4831.673739
550.215949	4834.184234
550.574434	4755.728757
550.932864	4728.148604
551.291237	4713.814083
551.649555	4646.794463
552.007817	4612.922950
552.366022	4565.520981
552.724173	4523.016492
553.082267	4477.051251
553.440305	4457.731029
553.798288	4386.174371
554.156215	4369.755333
554.514086	4326.736647
554.871902	4259.694342
555.229661	4230.405238
555.587365	4189.236655
555.945014	4138.237822
556.302606	4118.287456
556.660143	4069.531936
557.017625	4054.161458
557.375050	4006.913244
557.732421	3991.391531
558.089735	3943.742545
558.446994	3913.288934
558.804197	3885.686097
559.161345	3850.627392
559.518437	3800.001605
559.875474	3780.129376
560.232455	3755.178185
560.589381	3722.118298
560.946251	3680.740508
561.303065	3679.018953
561.659825	3634.671923
562.016528	3599.998867
562.373177	3562.154925
562.729770	3540.450237
563.086307	3514.064838
563.442789	3501.386336
563.799216	3452.550158
564.155587	3437.938374
564.511904	3409.027356
564.868164	3386.984911
565.224370	3367.163094
565.580520	3331.156653
565.936615	3319.632575
566.292654	3280.273767
566.648638	3276.369393
567.004567	3251.161103
567.360441	3227.913822
567.716260	3202.302240
568.072023	3193.913760
568.427732	3168.463495
568.783385	3148.555978
569.138982	3129.480252
569.494525	3116.826956
569.850013	3093.924994
570.205445	3083.114240
570.560823	3068.174780
570.916145	3044.395658
571.271412	3033.688247
571.626625	3021.196268
571.981782	3003.433762
572.336884	2990.372132
572.691931	2977.658342
573.046923	2960.006742
573.401860	2945.576439
573.756743	2932.013215
574.111570	2924.726227
574.466342	2915.984866
574.821059	2903.197979
575.175722	2889.581823
575.530330	2875.769061
575.884882	2867.504090
576.239380	2856.221987
576.593823	2844.458455
576.948211	2836.952177
577.302544	2828.344407
577.656823	2817.601708
578.011047	2811.711119
578.365216	2804.434214
578.719330	2794.896351
579.073389	2785.789506
579.427394	2776.445728
579.781344	2771.195366
580.135239	2764.036927
580.489080	2760.518202
580.842866	2747.935482
581.196597	2748.800040
581.550273	2744.416757
581.903895	2737.636405
582.257463	2735.637587
582.610975	2727.975033
582.964434	2724.579816
583.317837	2716.569423
583.671186	2714.890719
584.024481	2710.898125
584.377721	2706.726570
584.730906	2699.636187
585.084037	2696.321628
585.437113	2693.485979
585.790135	2691.502285
586.143103	2683.869978
586.496016	2681.979546
586.848874	2675.607527
587.201679	2676.706499
587.554428	2670.997392
587.907124	2670.546209
588.259765	2661.651093
588.612352	2664.063285
588.964884	2662.951711
589.317362	2659.899292
589.669786	2655.926863
590.022155	2658.891061
590.374470	2656.015083
590.726731	2656.577172
591.078937	2649.532159
591.431090	2648.039977
591.783188	2646.923362
592.135232	2644.944709
592.487222	2643.177785
592.839157	2644.884215
593.191038	2639.994296
593.542866	2639.691827
593.894639	2636.195787
594.246358	2633.995323
594.598022	2630.635394
594.949633	2631.023563
595.301190	2631.424334
595.652692	2631.426855
596.004141	2632.160343
596.355535	2628.298819
596.706876	2627.315794
597.058162	2624.976699
597.409395	2625.896709
597.760573	2622.516616
598.111698	2620.243055
598.462768	2621.475617
598.813785	2621.861266
599.164748	2619.822119
599.515657	2618.213991
599.866511	2616.666357
600.217312	2619.749022
600.568060	2617.147787
600.918753	2618.808847
601.269392	2614.899432
601.619978	2612.903135
601.970510	2616.721809
602.320988	2612.293156
602.671412	2614.937241
603.021783	2611.131170
603.372100	2610.571602
603.722363	2612.575460
604.072572	2613.198043
604.422728	2614.798609
604.772830	2607.229317
605.122878	2605.437186
605.472872	2609.205449
605.822813	2605.036415
606.172701	2606.836107
606.522534	2606.372320
606.872314	2608.708895
607.222041	2604.587752
607.571714	2607.120932
607.921333	2606.142948
608.270899	2606.828545
608.620411	2608.933227
608.969870	2608.857609
609.319276	2607.970366
609.668627	2609.941457
610.017926	2610.339708
610.367171	2611.405912
610.716362	2611.327775
611.065500	2608.779471
611.414585	2609.737291
611.763616	2610.304420
612.112594	2607.211672
612.461518	2605.971549
612.810389	2607.796446
613.159207	2609.248299
613.507971	2604.945674
613.856682	2604.600355
614.205340	2602.712443
614.553945	2606.435335
614.902496	2604.557505
615.250994	2605.507762
615.599439	2603.735797
615.947830	2602.886362
616.296169	2605.391816
616.644454	2605.361569
616.992686	2603.627412
617.340864	2605.031373
617.688990	2601.326125
618.037063	2604.731425
618.385082	2602.556167
618.733048	2604.212186
619.080961	2603.665221
619.428821	2601.043821
619.776628	2604.330653
620.124382	2603.619850
620.472083	2604.121445
620.819731	2599.859150
621.167326	2600.990889
621.514868	2602.929212
621.862357	2599.463419
622.209793	2601.812597
622.557176	2601.318564
622.904506	2596.796649
623.251783	2593.787080
623.599007	2595.788418
623.946179	2590.986719
624.293297	2597.336052
624.640363	2595.140630
624.987376	2596.509303
625.334336	2597.910744
625.681243	2594.606267
626.028097	2593.214909
626.374899	2596.458891
626.721647	2590.858169
627.068343	2594.182810
627.414987	2592.678026
627.761577	2589.711307
628.108115	2594.533171
628.454600	2588.677870
628.801032	2594.674323
629.147412	2594.518047
629.493739	2594.830599
629.840014	2590.326328
630.186236	2593.998808
630.532405	2590.462439
630.878521	2590.996801
631.224585	2590.195258
631.570597	2589.839856
631.916556	2588.773652
632.262462	2588.342634
632.608316	2589.406317
632.954117	2590.094435
633.299866	2587.856162
633.645562	2589.517223
633.991206	2589.318097
634.336797	2587.410020
634.682336	2588.627459
635.027823	2586.782397
635.373257	2584.289546
635.718639	2583.417426
636.063968	2585.590164
636.409245	2583.029257
636.754470	2585.290215
637.099642	2585.781727
637.444762	2584.788620
637.789829	2583.419947
638.134845	2583.195616
638.479808	2582.013465
638.824719	2582.837694
639.169577	2583.281315
639.514383	2580.506160
639.859137	2580.246541
640.203839	2580.289390
640.548489	2582.729309
640.893086	2576.899214
641.237632	2576.437949
641.582125	2578.671180
641.926566	2576.385017
642.270955	2576.485840
642.615292	2580.889288
642.959576	2583.747622
643.303809	2580.019689
643.647990	2580.695203
643.992118	2582.038671
644.336195	2580.196129
644.680219	2579.276118
645.024192	2579.664287
645.368112	2580.238979
645.711981	2580.617065
646.055797	2583.125039
646.399562	2582.852817
646.743274	2584.791141
647.086935	2582.588157
647.430544	2582.457087
647.774101	2582.822570
648.117606	2582.220152
648.461059	2584.287025
648.804460	2583.964392
649.147810	2584.448342
649.491108	2579.785275
649.834354	2580.004565
650.177548	2578.913155
650.520690	2577.670511
650.863781	2579.190419
651.206820	2582.590677
651.549807	2577.269739
651.892742	2580.183526
652.235626	2580.881726
652.578458	2577.531879
652.921238	2578.083886
653.263967	2578.182188
653.606644	2577.751169
653.949269	2577.862075
654.291843	2574.421487
654.634365	2578.759400
654.976836	2578.275449
655.319255	2577.962898
655.661622	2576.664801
656.003938	2577.340315
656.346203	2575.664132
656.688416	2574.290417
657.030577	2573.171281
657.372687	2571.696744
657.714746	2575.459965
658.056753	2576.107753
658.398708	2569.226578
658.740612	2575.528021
659.082465	2571.237999
659.424266	2573.413257
659.766016	2571.744635
660.107715	2575.323854
660.449362	2574.867629
660.790958	2574.176991
661.132503	2574.802094
661.473996	2574.487022
661.815438	2576.170768
662.156829	2574.834862
662.498168	2575.500294
662.839456	2575.175140
663.180693	2576.994996
663.521879	2573.521641
663.863013	2571.316137
664.204097	2571.124573
664.545129	2576.937023
664.886110	2574.970973
665.227040	2573.539285
665.567918	2578.361149
665.908746	2574.638257
666.249522	2576.082547
666.590248	2573.297310
666.930922	2573.884604
667.271545	2576.374934
667.612118	2575.785119
667.952639	2574.176991
668.293109	2577.665470
668.633528	2572.901579
668.973896	2576.808474
669.314213	2572.634398
669.654480	2573.027608
669.994695	2574.809656
670.334859	2574.277814
670.674973	2572.140365
671.015035	2576.964749
671.355047	2573.229254
671.695008	2573.067937
672.034918	2573.335119
672.374777	2573.241857
672.714585	2575.601117
673.054342	2575.734708
673.394049	2574.174471
673.733705	2576.863926
674.073310	2575.744790
674.412864	2576.490881
674.752368	2574.492063
675.091820	2577.035326
675.431223	2573.720767
675.770574	2572.919223
676.109875	2572.324367
676.449125	2570.383523
676.788324	2566.012843
677.127473	2569.430745
677.466571	2567.205076
677.805619	2572.773030
678.144616	2573.690520
678.483562	2571.772361
678.822458	2572.778071
679.161303	2574.154306
679.500098	2570.408729
679.838842	2571.863102
680.177535	2570.960735
680.516179	2571.850499
680.854771	2571.709347
681.193314	2573.410736
681.531805	2571.850499
681.870247	2575.649008
682.208638	2575.381827
682.546978	2575.913669
682.885268	2578.033474
683.223508	2575.540623
683.561697	2575.381827
683.899836	2574.159347
684.237925	2572.883935
684.575963	2573.468709
684.913951	2572.195818
685.251889	2576.584142
685.589776	2574.976014
685.927614	2573.856878
686.265401	2577.063052
686.603137	2575.797722
686.940824	2572.659604
687.278460	2573.672876
687.616046	2573.083061
687.953582	2576.972311
688.291068	2574.262691
688.628504	2577.068093
688.965889	2574.693710
689.303224	2577.846951
689.640510	2573.141034
689.977745	2573.872002
690.314930	2573.665314
690.652065	2573.158678
690.989150	2571.782443
691.326185	2569.045097
691.663170	2567.666341
692.000105	2568.455282
692.336990	2568.117524
692.673825	2567.308419
693.010610	2569.748338
693.347345	2560.903633
693.684030	2561.188458
694.020665	2563.830023
694.357251	2561.861452
694.693786	2565.909499
695.030272	2562.965465
695.366707	2565.576783
695.703093	2563.835064
696.039429	2564.830692
696.375716	2562.816751
696.711952	2563.527554
697.048139	2564.031669
697.384276	2563.658624
697.720363	2564.805486
698.056400	2563.020918
698.392388	2563.126782
698.728326	2563.091494
699.064214	2565.148285
699.400053	2562.826833
699.735842	2562.131154
700.071581	2561.359858
700.407270	2560.505382
700.742910	2561.561504
701.078501	2560.608726
701.414042	2563.330949
701.749533	2560.371792
702.084974	2559.824826
702.420366	2561.911864
702.755709	2559.902964
703.091002	2560.797769
703.426246	2557.654610
703.761440	2561.004456
704.096584	2559.464384
704.431679	2560.187789
704.766725	2561.909343
705.101721	2559.018242
705.436668	2560.092007
705.771565	2560.495300
706.106413	2561.909343
706.441212	2560.452450
706.775961	2560.656617
707.110661	2558.730896
707.445311	2559.799621
707.779913	2561.196020
708.114465	2559.464384
708.448967	2562.252142
708.783421	2560.913716
709.117825	2562.796587
709.452180	2562.456309
709.786485	2563.046124
710.120742	2564.172822
710.454949	2564.520661
710.789107	2565.269272
711.123216	2562.743654
711.457275	2564.760116
711.791286	2563.419169
712.125247	2562.809189
712.459159	2562.526885
712.793023	2568.513255
713.126837	2565.365054
713.460602	2562.713407
713.794318	2564.921433
714.127985	2566.406053
714.461602	2562.330280
714.795171	2564.089643
715.128691	2564.137533
715.462162	2562.592420
715.795584	2560.233160
716.128957	2560.497820
716.462281	2562.226936
716.795556	2562.844477
717.128782	2559.045968
717.461960	2556.883313
717.795088	2555.852397
718.128167	2559.424055
718.461198	2557.354661
718.794180	2559.582851
719.127113	2557.780638
719.459997	2557.604198
719.792833	2558.778787
720.125619	2557.778118
720.458357	2555.345761
720.791046	2557.226112
721.123686	2556.240566
721.456278	2555.842315
721.788821	2554.937428
722.121315	2556.530432
722.453761	2555.920453
722.786158	2553.969526
723.118506	2556.510268
723.450805	2555.290308
723.783056	2557.596636
724.115259	2554.801317
724.447412	2555.159238
724.779518	2557.210988
725.111574	2559.101421
725.443582	2555.476831
725.775542	2554.703014
726.107453	2556.580844
726.439315	2556.026317
726.771129	2564.729869
727.102895	2557.238714
727.434612	2558.937583
727.766281	2556.585885
728.097901	2554.392983
728.429473	2555.910370
728.760996	2556.729558
729.092471	2550.148332
729.423897	2559.527398
729.755276	2556.709393
730.086606	2559.413972
730.417887	2560.376833
730.749120	2562.852039
731.080305	2560.949004
731.411442	2560.437327
731.742530	2560.240722
732.073570	2561.448078
732.404562	2562.201730
732.735506	2561.017059
733.066401	2561.170814
733.397249	2562.383212
733.728048	2559.615618
734.058798	2558.945145
734.389501	2556.895916
734.720156	2558.378015
735.050762	2557.233673
735.381320	2553.714948
735.711831	2556.159908
736.042293	2554.229146
736.372707	2553.046995
736.703073	2553.407438
737.033391	2557.059753
737.363661	2557.296688
737.693883	2554.763508
738.024056	2556.941286
738.354182	2557.939435
738.684260	2556.686708
739.014290	2557.765515
739.344272	2557.357182
739.674207	2556.606050
740.004093	2555.476831
740.333931	2557.216029
740.663722	2556.580844
740.993464	2557.014383
741.323159	2558.030176
741.652806	2555.408776
741.982405	2556.875751
742.311956	2555.055895
742.641460	2558.103272
742.970915	2554.297201
743.300323	2554.806358
743.629683	2551.239741
743.958996	2557.578992
744.288260	2551.905174
744.617477	2553.067160
744.946647	2550.390307
745.275768	2551.360729
745.604842	2548.522559
745.933869	2550.327292
746.262847	2545.008875
746.591778	2551.012889
746.920662	2552.240410
747.249498	2550.319731
747.578286	2552.310987
747.907027	2555.224773
748.235720	2551.827036
748.564365	2554.153528
748.892963	2552.126984
749.221514	2554.884496
749.550017	2553.102448
749.878473	2552.636141
750.206881	2553.331820
750.535242	2552.873075
750.863555	2554.667726
751.191821	2550.879299
751.520039	2552.111861
751.848210	2551.869886
752.176334	2552.346275
752.504411	2550.082797
752.832440	2552.384083
753.160421	2552.036244
753.488356	2548.998948
753.816243	2550.153373
754.144082	2549.762683
754.471875	2550.619679
754.799620	2550.786037
755.127318	2548.262940
755.454969	2552.613456
755.782572	2554.274516
756.110129	2554.143446
756.437638	2550.004659
756.765100	2551.955585
757.092515	2550.617159
757.419882	2548.807385
757.747203	2550.735626
758.074477	2550.425595
758.401703	2551.310318
758.728882	2550.435677
759.056014	2554.670247
759.383099	2552.588250
759.710138	2551.209494
760.037129	2551.791748
760.364073	2553.094886
760.690970	2550.849052
761.017820	2550.039947
761.344623	2552.926007
761.671379	2555.232335
761.998088	2549.929041
762.324751	2554.425751
762.651366	2558.655279
762.977935	2569.491239
763.304456	2572.326888
763.630931	2575.497774
763.957359	2575.404512
764.283740	2566.615261
764.610074	2564.008984
764.936362	2558.587223
765.262602	2557.715103
765.588796	2557.132850
765.914943	2551.990873
766.241044	2550.002138
766.567097	2549.404761
766.893104	2553.568754
767.219064	2549.326623
767.544978	2549.278732
767.870845	2547.111036
768.196665	2549.298897
768.522438	2548.618341
768.848165	2550.397869
769.173846	2550.062632
769.499479	2549.999617
769.825066	2548.278063
770.150607	2546.818649
770.476101	2546.090203
770.801548	2547.037940
771.126949	2547.083310
771.452303	2548.167158
771.777611	2545.727240
772.102872	2545.606252
772.428087	2542.498381
772.753256	2545.651622
773.078378	2543.713299
773.403453	2543.423432
773.728482	2543.055428
774.053465	2543.015099
774.378401	2545.384441
774.703291	2543.604914
775.028135	2541.114584
775.352932	2544.504760
775.677683	2543.957795
776.002388	2545.122301
776.327046	2543.778834
776.651658	2544.340922
776.976224	2543.390665
777.300743	2542.679862
777.625216	2543.360418
777.949643	2542.561395
778.274024	2541.253216
778.598359	2542.621889
778.922647	2540.585263
779.246889	2540.857485
779.571086	2538.465457
779.895236	2543.060469
780.219339	2541.611137
780.543397	2544.187167
780.867409	2541.220448
781.191374	2545.386962
781.515294	2539.516538
781.839167	2543.993083
782.162995	2542.763041
782.486776	2542.851261
782.810511	2545.621375
783.134201	2544.628268
783.457844	2541.275901
783.781441	2544.577857
784.104993	2541.706919
784.428498	2543.030222
784.751958	2541.056611
785.075372	2542.150541
785.398739	2539.541744
785.722061	2545.891077
786.045337	2543.221786
786.368568	2542.216076
786.691752	2543.320089
787.014891	2542.052238
787.337983	2542.155582
787.661030	2544.885367
787.984031	2545.752445
788.306987	2546.347302
788.629897	2546.813608
788.952760	2547.743701
789.275579	2544.726571
789.598351	2546.853938
789.921078	2546.301931
790.243759	2544.592980
790.566395	2544.419060
790.888984	2545.525593
791.211529	2543.718340
791.534027	2542.173226
791.856480	2542.397557
792.178888	2542.763041
792.501249	2541.603576
792.823566	2541.412012
793.145836	2543.778834
793.468062	2541.041487
793.790241	2539.299768
794.112375	2541.780016
794.434464	2541.200283
794.756507	2541.333874
795.078505	2545.490305
795.400457	2543.496529
795.722364	2535.960004
796.044226	2541.497712
796.366042	2539.297248
796.687812	2541.069213
797.009538	2541.800181
797.331218	2546.979966
797.652852	2541.089378
797.974442	2544.991231
798.295986	2544.227496
798.617484	2542.211035
798.938938	2544.056097
799.260346	2542.145500
799.581709	2542.505942
799.903026	2543.239430
800.224299	2541.399409
800.545526	2541.520397
800.866708	2540.847403
801.187845	2544.353525
801.508936	2540.028215
801.829983	2540.940664
802.150984	2541.946374
802.471940	2541.107022
802.792851	2538.881353
803.113717	2540.867567
803.434538	2541.432177
803.755314	2540.814635
804.076045	2540.615510
804.396731	2542.611807
804.717372	2538.503266
805.037967	2542.490819
805.358518	2541.608617
805.679024	2542.432846
805.999485	2537.971424
806.319901	2539.370345
806.640272	2539.433359
806.960598	2540.555016
807.280879	2538.508307
807.601115	2543.380582
807.921306	2541.031405
808.241453	2544.915614
808.561554	2538.619213
808.881611	2542.251364
809.201623	2543.239430
809.521590	2542.878988
809.841513	2541.469985
810.161390	2540.187012
810.481223	2540.355890
810.801011	2541.157434
811.120755	2542.768082
811.440453	2541.633823
811.760107	2542.609286
812.079716	2538.276414
812.399281	2538.583925
812.718801	2539.811446
813.038276	2536.322967
813.357707	2540.993596
813.677093	2540.776827
813.996434	2539.841692
814.315731	2538.185673
814.634983	2539.536703
814.954191	2539.191384
815.273354	2541.931251
815.592473	2541.888401
815.911547	2541.185160
816.230577	2542.740356
816.549562	2543.791437
816.868502	2542.173226
817.187399	2542.110212
817.506250	2539.554347
817.825058	2543.509132
818.143821	2546.059956
818.462539	2548.265461
818.781213	2544.290511
819.099843	2546.730429
819.418429	2549.089689
819.736970	2550.586912
820.055466	2552.752087
820.373919	2555.169321
820.692327	2556.043961
821.010691	2567.741958
821.329011	2584.584453
821.647286	2614.085286
821.965517	2652.856800
822.283704	2676.958557
822.601847	2682.687828
822.919945	2666.641835
823.237999	2643.921355
823.556010	2624.296143
823.873976	2605.182608
824.191897	2593.416555
824.509775	2582.036150
824.827609	2574.784450
825.145398	2571.570715
825.463144	2574.159347
825.780845	2569.980231
826.098502	2573.574573
826.416116	2584.047571
826.733685	2595.972420
827.051210	2599.942329
827.368692	2596.844540
827.686129	2583.079669
828.003522	2575.477609
828.320872	2561.969837
828.638177	2559.310629
828.955439	2553.798127
829.272656	2550.259237
829.589830	2541.999306
829.906960	2548.517518
830.224046	2546.193546
830.541088	2544.895449
830.858086	2544.046015
831.175041	2545.644061
831.491952	2542.198432
831.808819	2544.996272
832.125642	2544.308155
832.442421	2547.645399
832.759157	2551.524567
833.075849	2557.314332
833.392497	2564.997050
833.709101	2573.554409
834.025662	2572.462999
834.342179	2566.958059
834.658653	2562.294992
834.975083	2555.517160
835.291469	2558.930022
835.607811	2547.335368
835.924110	2548.658671
836.240366	2544.920655
836.556578	2544.976108
836.872746	2544.051056
837.188871	2539.115766
837.504952	2541.500232
837.820990	2539.067875
838.136984	2539.259439
838.452935	2539.178781
838.768842	2538.319264
839.084706	2541.769934
839.400526	2541.384286
839.716303	2547.385779
840.032037	2551.701007
840.347727	2554.115720
840.663373	2548.550286
840.978977	2545.066848
841.294537	2541.981662
841.610054	2540.945705
841.925527	2541.298586
842.240957	2538.868750
842.556344	2538.530993
842.871687	2539.398071
843.186987	2538.528472
843.502244	2535.619726
843.817458	2537.646270
844.132629	2534.926568
844.447756	2535.960004
844.762840	2531.307019
845.077881	2532.990764
845.392879	2533.247863
845.707833	2533.721732
846.022745	2531.697708
846.337613	2538.248688
846.652438	2536.993441
846.967221	2536.385982
847.281960	2533.106711
847.596656	2536.552340
847.911309	2533.744417
848.225919	2535.014788
848.540485	2535.486136
848.855009	2533.504962
849.169490	2536.736342
849.483928	2535.776002
849.798323	2535.332380
850.112675	2534.971938
850.426984	2533.288193
850.741251	2537.663914
851.055474	2531.428007
851.369654	2535.536547
851.683792	2536.948070
851.997887	2534.278779
852.311938	2535.861702
852.625947	2533.260466
852.939914	2534.467823
853.253837	2536.411187
853.567718	2534.515713
853.881555	2535.735673
854.195350	2534.868594
854.509103	2536.393543
854.822812	2535.448327
855.136479	2535.854140
855.450103	2535.697864
855.763685	2535.712987
856.077224	2537.850437
856.390720	2534.251053
856.704173	2534.664427
857.017584	2533.865405
857.330953	2533.061341
857.644278	2534.387164
857.957561	2538.553678
858.270802	2534.737524
858.584000	2536.844727
858.897155	2534.054448
859.210268	2532.370703
859.523339	2535.919675
859.836367	2535.758358
860.149352	2534.677030
860.462295	2535.750796
860.775195	2530.807945
861.088054	2531.758202
861.400869	2531.982534
861.713642	2527.775691
862.026373	2533.993954
862.339062	2535.508821
862.651708	2535.586959
862.964312	2535.105528
863.276873	2533.462112
863.589392	2533.441948
863.901869	2536.660724
864.214303	2534.939170
864.526696	2535.352545
864.839045	2534.762730
865.151353	2537.492515
865.463619	2535.939839
865.775842	2536.156609
866.088023	2536.620395
866.400162	2535.334901
866.712258	2536.627957
867.024313	2534.735004
867.336325	2537.517721
867.648296	2538.730118
867.960224	2533.794828
868.272110	2535.960004
868.583954	2534.588810
868.895755	2537.532844
869.207515	2536.252391
869.519233	2535.511341
869.830909	2537.432021
870.142542	2536.164171
870.454134	2537.280786
870.765684	2537.437062
871.077191	2537.268183
871.388657	2536.885056
871.700081	2539.156096
872.011463	2535.450848
872.322803	2534.311547
872.634101	2536.993441
872.945357	2538.377237
873.256571	2536.441434
873.567744	2537.759696
873.878874	2538.997299
874.189963	2539.249357
874.501010	2542.223638
874.812015	2536.817000
875.122979	2537.832793
875.433900	2539.009902
875.744780	2537.749614
876.055618	2539.173740
876.366415	2538.457896
876.677169	2537.404295
876.987882	2537.316074
877.298554	2536.406146
877.609183	2535.327339
877.919771	2535.090405
878.230317	2539.735828
878.540822	2543.685572
878.851285	2541.958977
879.161707	2543.819163
879.472087	2547.007693
879.782425	2550.876778
880.092722	2557.783159
880.402977	2565.649880
880.713191	2586.308528
881.023363	2604.219748
881.333494	2618.574433
881.643583	2621.271451
881.953631	2619.943107
882.263637	2615.247272
882.573602	2607.441045
882.883526	2598.588779
883.193408	2589.295412
883.503248	2581.249730
883.813048	2573.032649
884.122806	2565.967472
884.432522	2564.036710
884.742197	2556.507747
885.051831	2552.096738
885.361424	2551.413661
885.670975	2550.130687
885.980485	2547.526932
886.289954	2548.081458
886.599382	2544.320758
886.908768	2541.835469
887.218113	2541.689275
887.527417	2540.255067
887.836680	2540.537372
888.145901	2540.310520
888.455082	2539.070396
888.764221	2540.670962
889.073319	2538.795653
889.382376	2538.732639
889.691392	2537.696682
890.000366	2538.125180
890.309300	2540.003009
890.618193	2537.381609
890.927044	2540.088709
891.235855	2539.075437
891.544625	2542.223638
891.853353	2538.697351
892.162041	2538.669624
892.470687	2539.617361
892.779293	2540.300437
893.087858	2540.247505
893.396381	2541.585932
893.704864	2545.878474
894.013306	2550.279402
894.321707	2559.108982
894.630068	2565.259190
894.938387	2566.494273
895.246665	2566.879921
895.554903	2563.146947
895.863100	2555.192006
896.171256	2554.266954
896.479371	2553.097407
896.787446	2549.513146
897.095480	2546.720347
897.403473	2542.236241
897.711425	2541.787578
898.019336	2542.470654
898.327207	2541.671631
898.635038	2543.105840
898.942827	2538.702392
899.250576	2538.120138
899.558284	2540.307999
899.865952	2538.982176
900.173579	2539.372865
900.481165	2536.408667
900.788711	2537.404295
901.096216	2537.288348
901.403681	2539.806404
901.711105	2537.371527
902.018489	2537.457227
902.325832	2539.990407
902.633135	2537.424459
902.940397	2540.549975
903.247619	2544.373690
903.554800	2547.186654
903.861941	2557.427758
904.169041	2571.812690
904.476101	2578.315779
904.783121	2578.393917
905.090100	2569.455951
905.397039	2562.557132
905.703938	2559.890361
906.010796	2552.429454
906.317614	2547.390820
906.624391	2547.650440
906.931129	2544.378731
907.237826	2540.587783
907.544483	2538.543595
907.851099	2538.047042
908.157675	2537.096784
908.464211	2535.213913
908.770707	2533.197452
909.077163	2536.398584
909.383578	2530.994467
909.689954	2533.096629
909.996289	2533.469674
910.302584	2535.229037
910.608839	2532.912627
910.915054	2534.979500
911.221229	2534.631660
911.527363	2534.384643
911.833458	2534.850950
912.139513	2534.238450
912.445527	2536.534696
912.751502	2536.912782
913.057436	2539.740869
913.363331	2534.828265
913.669186	2536.743903
913.975000	2540.048380
914.280775	2541.661549
914.586510	2543.761190
914.892205	2547.111036
915.197859	2552.948693
915.503475	2558.078067
915.809050	2569.584500
916.114585	2571.658935
916.420081	2577.007599
916.725536	2570.277659
917.030952	2569.405539
917.336328	2565.037379
917.641665	2560.676781
917.946961	2555.640669
918.252218	2553.036913
918.557435	2549.566078
918.862612	2546.382590
919.167750	2545.699513
919.472848	2542.163144
919.777906	2543.526776
920.082925	2543.148689
920.387904	2539.423277
920.692843	2538.286497
920.997743	2537.946219
921.302603	2536.456558
921.607423	2539.662732
921.912204	2535.604603
922.216946	2535.407998
922.521647	2538.694830
922.826310	2536.650642
923.130932	2533.532688
923.435516	2536.272556
923.740059	2534.298944
924.044564	2534.452699
924.349028	2535.566794
924.653454	2530.021525
924.957840	2533.746938
925.262186	2529.676206
925.566493	2529.814838
925.870761	2528.060516
926.174989	2533.751979
926.479178	2533.177287
926.783328	2532.479087
927.087438	2530.213089
927.391509	2533.600744
927.695541	2532.201824
927.999533	2532.547143
928.303486	2532.589993
928.607400	2530.969262
928.911275	2532.191742
929.215110	2531.788449
929.518906	2531.876669
929.822663	2530.397091
930.126381	2529.769467
930.430060	2531.705270
930.733699	2532.456402
931.037299	2529.797193
931.340861	2529.870290
931.644383	2531.047400
931.947866	2532.370703
932.251309	2532.302647
932.554714	2530.659231
932.858080	2533.595703
933.161407	2531.087729
933.464694	2531.155784
933.767943	2530.830630
934.071153	2530.664272
934.374323	2527.674868
934.677455	2532.111083
934.980548	2527.455577
935.283602	2530.838192
935.586617	2530.944056
935.889593	2531.279293
936.192530	2531.173428
936.495428	2529.711494
936.798287	2531.881711
937.101108	2531.581762
937.403890	2530.303829
937.706632	2532.461443
938.009336	2531.586803
938.312002	2532.355579
938.614628	2532.103521
938.917216	2533.152081
939.219765	2535.392874
939.522275	2536.859850
939.824747	2534.803059
940.127179	2529.517409
940.429573	2531.221319
940.731929	2531.012112
941.034246	2528.352903
941.336524	2530.734848
941.638763	2533.449509
941.940964	2529.219981
942.243126	2532.405991
942.545250	2531.866587
942.847335	2533.036135
943.149381	2530.797863
943.451389	2530.258459
943.753359	2532.282482
944.055290	2529.577903
944.357182	2533.265507
944.659036	2528.612522
944.960851	2530.790301
945.262628	2532.600075
945.564367	2527.727800
945.866067	2530.112266
946.167729	2532.325332
946.469352	2531.241484
946.770937	2533.232740
947.072484	2530.298788
947.373992	2531.823737
947.675462	2529.338448
947.976893	2532.612678
948.278286	2530.117307
948.579641	2532.040507
948.880958	2533.343645
949.182236	2532.665610
949.483476	2531.299457
949.784678	2529.494724
950.085841	2531.349869
950.386967	2529.794673
950.688054	2529.025897
950.989103	2529.522451
951.290114	2532.337935
951.591087	2531.206196
951.892021	2529.106555
952.192917	2529.225022
952.493776	2530.893644
952.794596	2531.654859
953.095378	2529.237625
953.396122	2532.519417
953.696828	2533.018491
953.997496	2529.426669
954.298126	2528.201668
954.598718	2531.551515
954.899272	2530.369364
955.199788	2532.166536
955.500266	2530.472708
955.800706	2528.615043
956.101108	2526.470032
956.401472	2528.972965
956.701798	2524.352747
957.002087	2524.768642
957.302337	2530.099663
957.602550	2528.887265
957.902724	2527.984899
958.202861	2529.814838
958.502960	2528.166380
958.803022	2527.369878
959.103045	2527.669827
959.403031	2530.923891
959.702979	2526.704446
960.002889	2529.477080
960.302762	2528.725948
960.602596	2530.127389
960.902393	2529.003212
961.202153	2528.471370
961.501875	2526.389373
961.801559	2526.744775
962.101205	2524.942562
962.400814	2528.577234
962.700385	2524.418282
962.999918	2532.143851
963.299414	2528.307533
963.598873	2527.899199
963.898293	2527.390043
964.197677	2528.635207
964.497022	2525.587830
964.796331	2525.217305
965.095601	2524.826616
965.394835	2528.794004
965.694030	2529.270393
965.993189	2527.876514
966.292309	2528.834333
966.591393	2524.879548
966.890439	2527.730320
967.189447	2527.614374
967.488419	2527.115300
967.787353	2525.081194
968.086249	2524.778725
968.385108	2527.024559
968.683930	2526.964065
968.982714	2529.449354
969.281462	2526.074301
969.580172	2528.307533
969.878844	2526.714528
970.177480	2527.198479
970.476078	2525.986081
970.774639	2528.743592
971.073162	2528.882224
971.371649	2525.618077
971.670098	2523.498272
971.968510	2525.376102
972.266885	2524.529188
972.565223	2526.207892
972.863524	2526.303674
973.161788	2527.720238
973.460014	2526.903571
973.758204	2527.856349
974.056356	2528.559590
974.354471	2524.975330
974.652550	2528.110928
974.950591	2527.332069
975.248595	2529.421627
975.546563	2526.432223
975.844493	2527.238808
976.142386	2527.334590
976.440243	2528.826771
976.738062	2528.572193
977.035845	2524.793848
977.333590	2527.122861
977.631299	2527.992460
977.928971	2526.989271
978.226606	2526.966586
978.524204	2525.741585
978.821765	2527.513551
979.119290	2525.267717
979.416777	2525.572707
979.714228	2526.631349
980.011642	2526.767460
980.309020	2530.724766
980.606360	2526.215454
980.903664	2528.090763
981.200931	2529.386339
981.498162	2528.010104
981.795356	2528.753675
982.092513	2528.546987
982.389633	2528.978006
982.686717	2527.861390
982.983764	2528.693181
983.280775	2528.509179
983.577749	2527.790814
983.874686	2530.366844
984.171587	2529.146885
984.468451	2524.330062
984.765279	2528.713345
985.062070	2526.694363
985.358824	2527.377440
985.655543	2529.414066
985.952224	2525.101359
986.248869	2525.678571
986.545478	2523.604136
986.842050	2523.349558
987.138586	2523.175638
987.435086	2524.728313
987.731549	2520.302180
988.027975	2529.938346
988.324366	2525.862573
988.620719	2527.556401
988.917037	2528.612522
989.213318	2528.451205
989.509563	2525.693694
989.805772	2525.179497
990.101944	2525.663447
990.398080	2526.555732
990.694180	2525.479445
990.990244	2524.728313
991.286271	2524.861904
991.582262	2527.092614
991.878217	2527.470701
992.174136	2526.470032
992.470019	2525.008097
992.765865	2525.245032
993.061676	2525.474404
993.357450	2527.848788
993.653188	2526.039013
993.948890	2528.788963
994.244556	2525.857532
994.540186	2524.975330
994.835780	2527.836185
995.131337	2526.848118
995.426859	2524.272089
995.722345	2526.901051
996.017795	2527.899199
996.313208	2527.906761
996.608586	2527.473222
996.903928	2525.955834
997.199234	2524.950124
997.494504	2525.918026
997.789738	2528.113448
998.084936	2529.540095
998.380099	2525.794517
998.675225	2524.982892
998.970316	2526.820392
999.265371	2527.011956
999.560390	2527.390042
999.855373	2526.089425
1000.150320	2524.904754
1000.445232	2526.447347
1000.740108	2526.893489
1001.034948	2524.408200
1001.329752	2524.070443
1001.624521	2525.403828
1001.919254	2523.029444
1002.213951	2525.423993
1002.508613	2522.883251
1002.803239	2523.465504
1003.097829	2523.397449
1003.392384	2523.498272
1003.686903	2526.593540
1003.981386	2525.358458
1004.275834	2524.191430
1004.570246	2525.560104
1004.864623	2526.175124
1005.158964	2523.415093
1005.453270	2525.247552
1005.747540	2527.793335
1006.041775	2524.390556
1006.335974	2527.029600
1006.630138	2526.016328
1006.924266	2524.176307
1007.218359	2525.076153
1007.512416	2524.909795
1007.806438	2525.988602
1008.100425	2524.743437
1008.394376	2526.376771
1008.688292	2525.363499
1008.982172	2524.589682
1009.276017	2524.652696
1009.569827	2524.630011
1009.863602	2527.901720
1010.157341	2523.089938
1010.451045	2526.399456
1010.744714	2520.841584
1011.038347	2525.441637
1011.331945	2524.801410
1011.625508	2528.683098
1011.919036	2524.403159
1012.212528	2525.466842
1012.505986	2522.822757
1012.799408	2526.003725
1013.092795	2525.408869
1013.386147	2523.871317
1013.679464	2523.271420
1013.972745	2525.202182
1014.265992	2525.771832
1014.559204	2528.320135
1014.852380	2523.969620
1015.145521	2527.624456
1015.438628	2525.363499
1015.731699	2525.260155
1016.024736	2523.755371
1016.317737	2526.096987
1016.610703	2527.579086
1016.903635	2521.600277
1017.196531	2521.774197
1017.489393	2522.263189
1017.782219	2519.024248
1018.075011	2524.456091
1018.367768	2523.732685
1018.660490	2525.829805
1018.953177	2525.829805
1019.245829	2525.829805
