Dividing Wavelength (nm)	Counts (n)	Blue Motor Position (mm): 0.000000	Red Motor Position (mm): 23.000000	
326.493990	2128.080246
326.888308	2128.080246
327.282561	2128.080246
327.676750	2097.641759
328.070874	2093.054309
328.464933	2095.693353
328.858929	2103.081164
329.252859	2112.777824
329.646726	2123.092025
330.040528	2134.905969
330.434265	2155.564617
330.827938	2170.690599
331.221547	2189.171469
331.615091	2205.575384
332.008571	2230.067830
332.401986	2245.748339
332.795338	2265.118973
333.188625	2286.495985
333.581847	2306.380817
333.975006	2322.724238
334.368100	2342.336847
334.761129	2359.784280
335.154095	2374.960674
335.546996	2393.255021
335.939833	2407.884449
336.332606	2422.728127
336.725315	2434.282452
337.117960	2445.604883
337.510540	2453.932869
337.903056	2463.276648
338.295508	2472.877525
338.687896	2485.692138
339.080220	2490.629949
339.472480	2498.007677
339.864676	2499.008346
340.256807	2503.000940
340.648875	2507.492608
341.040879	2511.558299
341.432818	2512.029647
341.824694	2512.553927
342.216506	2515.538290
342.608253	2512.324554
342.999937	2513.771365
343.391557	2514.151973
343.783113	2514.824967
344.174605	2510.219873
344.566033	2510.673576
344.957397	2508.783144
345.348697	2505.067813
345.739934	2504.775426
346.131106	2504.001609
346.522215	2502.617812
346.913260	2499.267966
347.304241	2497.690085
347.695159	2496.213027
348.086012	2493.647079
348.476802	2493.523571
348.867528	2493.279075
349.258191	2490.730772
349.648789	2489.435195
350.039324	2489.165493
350.429796	2486.720534
350.820203	2488.003507
351.210548	2485.583754
351.600828	2482.740543
351.991045	2483.998311
352.381198	2483.494195
352.771288	2483.436222
353.161314	2481.553351
353.551276	2480.174596
353.941175	2481.109730
354.331010	2480.156952
354.720782	2480.739205
355.110490	2482.128043
355.500135	2482.342292
355.889717	2482.334730
356.279235	2481.969246
356.668689	2485.031747
357.058080	2481.918835
357.447408	2484.774648
357.836672	2481.767600
358.225873	2480.918166
358.615010	2479.632672
359.004084	2485.487972
359.393095	2486.216418
359.782043	2487.413692
360.170927	2490.463591
360.559748	2487.116264
360.948505	2488.920998
361.337199	2487.819505
361.725830	2489.462922
362.114398	2492.051554
362.502903	2492.913591
362.891344	2491.408807
363.279722	2491.852428
363.668037	2494.332676
364.056289	2492.348982
364.444478	2494.753613
364.832603	2493.649600
365.220665	2492.560711
365.608665	2497.168325
365.996601	2496.220588
366.384474	2500.031701
366.772284	2500.132524
367.160031	2499.676299
367.547715	2501.521362
367.935336	2505.599655
368.322893	2508.596621
368.710388	2510.439163
369.097820	2520.876872
369.485189	2518.378980
369.872495	2528.781401
370.259738	2534.276259
370.646918	2541.437218
371.034035	2546.032229
371.421090	2558.930022
371.808081	2569.166084
372.195010	2577.751169
372.581875	2592.622573
372.968678	2603.803852
373.355418	2612.111674
373.742096	2630.932822
374.128710	2646.877992
374.515262	2663.332318
374.901751	2679.171623
375.288177	2690.836853
375.674540	2716.019937
376.060841	2731.405539
376.447079	2749.110071
376.833254	2772.254008
377.219367	2783.503343
377.605417	2820.316369
377.991404	2831.114521
378.377329	2851.062366
378.763191	2868.799666
379.148991	2907.677045
379.534727	2931.541867
379.920402	2960.641928
380.306013	2972.463433
380.691563	3022.126360
381.077049	3043.503373
381.462474	3061.064233
381.847835	3098.610747
382.233134	3123.597226
382.618371	3123.294756
383.003545	3191.017617
383.388657	3195.421065
383.773706	3228.521281
384.158693	3243.072572
384.543618	3274.317643
384.928480	3306.908703
385.313280	3356.133050
385.698017	3354.235055
386.082692	3404.104670
386.467305	3412.231010
386.851856	3444.920372
387.236344	3468.785194
387.620770	3497.257631
388.005133	3525.745191
388.389435	3550.673697
388.773674	3563.810944
389.157851	3604.732510
389.541965	3618.464613
389.926018	3585.850869
390.310008	3656.605983
390.693936	3672.243643
391.077802	3713.281156
391.461606	3703.718087
391.845348	3768.184362
392.229027	3766.934156
392.612645	3779.257257
392.996200	3856.696941
393.379694	3895.675143
393.763125	3960.988332
394.146494	3926.937858
394.529801	3987.726612
394.913047	4036.391391
395.296230	4006.063809
395.679351	4059.245462
396.062410	4082.752362
396.445408	4062.681008
396.828343	4098.684929
397.211217	4122.821973
397.594028	4042.352555
397.976778	4106.637349
398.359466	4132.339672
398.742092	4167.521885
399.124656	4085.603135
399.507158	4163.211698
399.889598	4189.191284
400.271977	4254.408692
400.654294	4221.240420
401.036549	4229.132346
401.418742	4200.561607
401.800874	4303.698573
402.182944	4322.731450
402.564952	4389.466244
402.946898	4373.553842
403.328783	4370.461094
403.710606	4284.007827
404.092367	4477.946056
404.474067	4441.400211
404.855705	4448.979586
405.237282	4375.033421
405.618797	4483.085513
406.000250	4521.983056
406.381642	4601.381229
406.762972	4562.944951
407.144240	4572.903751
407.525447	4573.372578
407.906593	4635.587978
408.287677	4677.613557
408.668700	4604.481538
409.049661	4655.792923
409.430560	4697.705076
409.811399	4622.720433
410.192176	4785.259836
410.572891	4721.937902
410.953545	4824.532945
411.334138	4703.583061
411.714669	4774.491931
412.095139	4667.758101
412.475547	4811.640194
412.855894	4788.496257
413.236180	4801.714162
413.616405	4756.391668
413.996568	4839.638762
414.376670	4780.377478
414.756711	4741.326180
415.136691	4767.159573
415.516609	4845.058003
415.896466	4883.582500
416.276262	4922.475002
416.655997	4896.795365
417.035670	5080.379064
417.415283	5172.657385
417.794834	5112.488694
418.174324	5070.100152
418.553753	4974.600533
418.933121	5155.648532
419.312428	5221.838882
419.691674	5162.933000
420.070859	5288.805570
420.449983	5200.655954
420.829045	5314.076874
421.208047	5219.373758
421.586988	5291.137104
421.965867	5299.545748
422.344686	5433.829484
422.723444	5281.745434
423.102141	5101.982929
423.480777	5398.427981
423.859352	5165.945089
424.237866	5416.003964
424.616319	5398.443104
424.994712	5501.643085
425.373044	5377.171956
425.751314	5516.620353
426.129524	5308.539167
426.507673	5496.798537
426.885762	5570.394342
427.263789	5494.053628
427.641756	5368.571747
428.019662	5476.623839
428.397508	5469.430112
428.775292	5408.981637
429.153016	5492.735367
429.530679	5408.719497
429.908282	5474.393128
430.285824	5334.027241
430.663305	5580.456485
431.040726	5313.572759
431.418086	5294.033247
431.795385	5378.364189
432.172624	5375.533581
432.549802	5345.042162
432.926920	5337.004042
433.303977	5318.525692
433.680974	5329.628834
434.057910	5322.251105
434.434786	5301.607580
434.811601	5251.622019
435.188355	5426.292959
435.565050	5287.686434
435.941683	5239.094752
436.318257	5383.649838
436.694770	5337.162838
437.071222	5332.280481
437.447614	5241.761522
437.823946	5139.486593
438.200218	5222.854675
438.576429	5078.118107
438.952580	5111.281337
439.328670	5105.547025
439.704700	4996.451414
440.080670	4946.100370
440.456580	5089.145631
440.832429	4960.296259
441.208218	4813.709587
441.583947	4871.501375
441.959616	4827.487061
442.335224	4736.030448
442.710773	4772.319194
443.086261	4733.240169
443.461689	4568.654058
443.837057	4600.171352
444.212365	4637.488493
444.587612	4529.496895
444.962800	4561.893871
445.337927	4494.339888
445.712995	4242.695571
446.088002	4477.262980
446.462949	4343.213658
446.837837	4256.525976
447.212664	4292.320689
447.587431	4287.536634
447.962139	4462.378973
448.336786	4787.349394
448.711374	4620.220021
449.085901	4196.931976
449.460369	4097.278447
449.834776	4017.035881
450.209124	4099.582254
450.583412	4088.385852
450.957640	4091.327365
451.331808	3951.122794
451.705917	3757.469390
452.079965	3690.757280
452.453954	3695.785831
452.827883	3618.199953
453.201752	3593.853700
453.575562	3500.925070
453.949311	3499.468177
454.323001	3439.281841
454.696632	3409.133221
455.070202	3397.841036
455.443713	3390.687639
455.817164	3364.216540
456.190556	3333.636901
456.563888	3307.276707
456.937160	3275.537602
457.310373	3188.267668
457.683526	3151.303407
458.056619	3101.877414
458.429653	3065.959193
458.802628	3034.688916
459.175542	3016.656708
459.548398	3023.671474
459.921194	3017.322141
460.293930	2994.762977
460.666607	3015.590504
461.039224	3020.460259
461.411782	3000.860253
461.784280	2970.792291
462.156719	2928.212185
462.529099	2890.401010
462.901419	2837.617609
463.273680	2812.598362
463.645882	2791.884261
464.018024	2767.825355
464.390106	2756.442429
464.762130	2759.144488
465.134094	2769.090684
465.505999	2801.916157
465.877845	2833.657783
466.249631	2834.290447
466.621358	2790.772687
466.993026	2750.703076
467.364634	2730.893862
467.736184	2705.554502
468.107674	2689.742923
468.479105	2678.551561
468.850477	2668.499500
469.221790	2654.447284
469.593043	2640.654687
469.964238	2632.977010
470.335373	2629.087760
470.706449	2624.714559
471.077467	2622.355299
471.448425	2634.441465
471.819324	2644.405306
472.190164	2642.585449
472.560945	2623.227418
472.931667	2610.558999
473.302330	2604.053390
473.672934	2598.586258
474.043479	2600.736310
474.413965	2597.749427
474.784393	2593.121647
475.154761	2593.373705
475.525070	2591.624425
475.895321	2590.691811
476.265513	2591.594178
476.635645	2593.104003
477.005719	2593.222471
477.375734	2595.838829
477.745691	2592.920001
478.115588	2591.730289
478.485427	2597.930908
478.855207	2599.143306
479.224928	2605.606065
479.594591	2609.054214
479.964194	2608.514811
480.333739	2607.839296
480.703226	2604.650766
481.072653	2601.895776
481.442022	2606.853751
481.811333	2607.158740
482.180584	2604.353338
482.549777	2601.308481
482.918912	2598.861001
483.287988	2603.138420
483.657005	2598.931577
484.025964	2594.424786
484.394864	2594.127358
484.763706	2595.778336
485.132489	2593.547625
485.501213	2595.201123
485.869879	2593.403952
486.238487	2592.983016
486.607036	2592.257090
486.975527	2591.720207
487.343959	2591.790783
487.712333	2590.454877
488.080648	2590.543097
488.448905	2592.055443
488.817104	2589.239959
489.185244	2594.460074
489.553326	2593.998808
489.921350	2597.204982
490.289315	2602.518358
490.657222	2606.211003
491.025070	2603.110694
491.392861	2602.556167
491.760593	2600.542226
492.128267	2597.933429
492.495883	2597.043665
492.863440	2592.980495
493.230939	2592.347830
493.598380	2589.338262
493.965763	2585.320462
494.333088	2585.350709
494.700354	2585.975812
495.067563	2585.002869
495.434713	2584.143352
495.801805	2590.238108
496.168839	2586.563106
496.535815	2585.040678
496.902733	2585.149063
497.269593	2589.035792
497.636395	2584.203846
498.003139	2585.426326
498.369825	2587.399938
498.736453	2586.109402
499.103023	2587.883889
499.469535	2584.208887
499.835989	2584.072776
500.202385	2582.048753
500.568723	2584.773497
500.935003	2582.356263
501.301226	2583.087231
501.667390	2586.023703
502.033497	2584.072776
502.399546	2583.122519
502.765537	2583.903898
503.131470	2584.367684
503.497345	2585.383476
503.863163	2579.218145
504.228923	2582.963722
504.594625	2583.545976
504.960269	2583.170410
505.325856	2584.148394
505.691385	2581.448856
506.056856	2582.346181
506.422270	2583.145204
506.787625	2582.910790
507.152924	2581.501788
507.518164	2581.141345
507.883347	2582.799885
508.248472	2584.264340
508.613540	2582.668815
508.978550	2582.661253
509.343503	2583.293918
509.708398	2583.097313
510.073236	2584.032447
510.438016	2585.083528
510.802738	2582.817529
511.167403	2584.415575
511.532010	2582.096644
511.896561	2584.894484
512.261053	2588.277099
512.625488	2581.879874
512.989866	2581.413568
513.354186	2581.529514
513.718449	2579.059349
514.082655	2584.168558
514.446803	2586.540421
514.810894	2585.925400
515.174927	2584.934814
515.538904	2585.267530
515.902822	2584.634865
516.266684	2582.462128
516.630488	2584.942375
516.994235	2583.785431
517.357925	2586.416913
517.721558	2588.451018
518.085133	2585.340627
518.448651	2585.330544
518.812112	2585.312900
519.175516	2588.279619
519.538863	2585.257447
519.902152	2584.639906
520.265385	2587.004207
520.628560	2585.108733
520.991678	2586.502612
521.354739	2587.294074
521.717743	2587.757860
522.080690	2585.408682
522.443580	2588.319948
522.806413	2587.669640
523.169189	2588.566965
523.531908	2588.569486
523.894569	2587.180648
524.257174	2587.581419
524.619722	2588.705597
524.982213	2589.587799
525.344647	2588.060329
525.707025	2586.903384
526.069345	2585.050760
526.431608	2587.949424
526.793815	2589.638210
527.155964	2586.116964
527.518057	2588.367839
527.880093	2588.267016
528.242072	2586.868096
528.603995	2586.794999
528.965860	2585.887592
529.327669	2588.272057
529.689421	2590.832964
530.051117	2587.064701
530.412755	2585.610328
530.774337	2586.190061
531.135862	2588.090576
531.497331	2585.464135
531.858743	2582.527663
532.220098	2586.437077
532.581396	2584.090420
532.942638	2584.360122
533.303824	2586.076635
533.664953	2586.865576
534.026025	2586.162335
534.387040	2586.716862
534.747999	2585.277612
535.108902	2588.105699
535.469748	2584.907087
535.830537	2587.936821
536.191270	2586.948755
536.551947	2588.980340
536.912567	2585.663260
537.273131	2587.924218
537.633638	2586.616038
537.994089	2584.899526
538.354483	2583.203177
538.714821	2587.372212
539.075103	2589.461770
539.435328	2587.437747
539.795497	2587.732654
540.155609	2589.686101
540.515665	2586.432036
540.875665	2586.694176
541.235609	2586.774835
541.595496	2587.536049
541.955328	2586.860534
542.315102	2587.841039
542.674821	2588.309866
543.034483	2589.371029
543.394090	2588.405648
543.753640	2585.171748
544.113134	2586.951275
544.472571	2586.671491
544.831953	2586.772314
545.191278	2588.977819
545.550548	2588.244331
545.909761	2588.493868
546.268918	2588.614856
546.628019	2589.565113
546.987064	2587.226018
547.346053	2587.830957
547.704986	2585.635534
548.063863	2589.330700
548.422684	2588.826584
548.781449	2586.293405
549.140158	2587.833477
549.498811	2586.787438
549.857408	2585.990935
550.215949	2582.651171
550.574434	2581.496747
550.932864	2584.317272
551.291237	2584.090420
551.649555	2588.352716
552.007817	2586.868096
552.366022	2588.088055
552.724173	2588.428333
553.082267	2585.980853
553.440305	2588.057808
553.798288	2585.166707
554.156215	2589.005545
554.514086	2589.575196
554.871902	2588.377922
555.229661	2587.621749
555.587365	2587.359609
555.945014	2587.939341
556.302606	2586.956316
556.660143	2586.951275
557.017625	2585.880030
557.375050	2587.651996
557.732421	2587.805751
558.089735	2588.198961
558.446994	2587.672160
558.804197	2588.390525
559.161345	2588.650144
559.518437	2587.856162
559.875474	2588.143508
560.232455	2588.768611
560.589381	2590.038982
560.946251	2589.166862
561.303065	2591.440423
561.659825	2589.917994
562.016528	2588.844228
562.373177	2589.156780
562.729770	2588.002356
563.086307	2590.278437
563.442789	2588.750967
563.799216	2587.034454
564.155587	2590.230546
564.511904	2588.819023
564.868164	2589.865062
565.224370	2590.331369
565.580520	2588.004876
565.936615	2588.168714
566.292654	2586.268199
566.648638	2584.876840
567.004567	2585.685946
567.360441	2585.973291
567.716260	2585.396079
568.072023	2590.091914
568.427732	2581.695872
568.783385	2583.122519
569.138982	2583.697210
569.494525	2585.320462
569.850013	2581.474062
570.205445	2587.916656
570.560823	2587.291553
570.916145	2586.280802
571.271412	2585.504464
571.626625	2586.515215
571.981782	2584.526480
572.336884	2585.822057
572.691931	2586.038826
573.046923	2585.985894
573.401860	2583.714854
573.756743	2587.465473
574.111570	2583.712334
574.466342	2586.517736
574.821059	2583.936665
575.175722	2585.544793
575.530330	2586.031265
575.884882	2586.122005
576.239380	2583.538414
576.593823	2585.214598
576.948211	2584.082859
577.302544	2583.913980
577.656823	2584.191243
578.011047	2584.629824
578.365216	2584.886923
578.719330	2581.390882
579.073389	2580.619586
579.427394	2582.633527
579.781344	2583.853486
580.135239	2581.388362
580.489080	2582.081521
580.842866	2582.590677
581.196597	2583.969433
581.550273	2579.235789
581.903895	2580.632189
582.257463	2583.460276
582.610975	2582.023547
582.964434	2581.547158
583.317837	2584.279464
583.671186	2583.140163
584.024481	2580.798547
584.377721	2582.184864
584.730906	2582.625965
585.084037	2581.889957
585.437113	2580.511201
585.790135	2580.664956
586.143103	2581.156469
586.496016	2579.465162
586.848874	2577.615058
587.201679	2579.568505
587.554428	2574.524831
587.907124	2581.189236
588.259765	2577.952816
588.612352	2577.363001
588.964884	2577.461303
589.317362	2579.576067
589.669786	2576.299317
590.022155	2581.579926
590.374470	2581.302662
590.726731	2581.169072
591.078937	2579.293762
591.431090	2579.571026
591.783188	2578.174626
592.135232	2580.175964
592.487222	2575.429718
592.839157	2577.937692
593.191038	2577.224369
593.542866	2577.683114
593.894639	2575.593556
594.246358	2575.054152
594.598022	2578.288052
594.949633	2579.331571
595.301190	2574.234965
595.652692	2581.166551
596.004141	2578.628330
596.355535	2576.911817
596.706876	2573.501477
597.058162	2575.863257
597.409395	2576.085068
597.760573	2575.439800
598.111698	2575.311251
598.462768	2573.413257
598.813785	2575.069276
599.164748	2575.966601
599.515657	2574.562640
599.866511	2573.624985
600.217312	2576.642116
600.568060	2575.011302
600.918753	2575.099522
601.269392	2575.470047
601.619978	2573.050293
601.970510	2574.126580
602.320988	2575.409553
602.671412	2576.879050
603.021783	2575.376786
603.372100	2575.888463
603.722363	2572.523493
604.072572	2576.876529
604.422728	2575.633885
604.772830	2570.754048
605.122878	2567.913358
605.472872	2569.937381
605.822813	2569.972669
606.172701	2571.835375
606.522534	2569.725652
606.872314	2573.630026
607.222041	2573.423339
607.571714	2574.963411
607.921333	2573.503997
608.270899	2575.349060
608.620411	2575.129769
608.969870	2575.306210
609.319276	2576.543813
609.668627	2580.208732
610.017926	2581.595049
610.367171	2578.915676
610.716362	2582.295770
611.065500	2580.738053
611.414585	2576.810994
611.763616	2580.891808
612.112594	2577.342836
612.461518	2575.001220
612.810389	2577.446180
613.159207	2574.865109
613.507971	2574.834862
613.856682	2575.838052
614.205340	2574.310582
614.553945	2575.079358
614.902496	2574.426528
615.250994	2576.130438
615.599439	2575.994327
615.947830	2575.893504
616.296169	2572.082392
616.644454	2575.215469
616.992686	2575.142372
617.340864	2574.171950
617.688990	2572.715057
618.037063	2575.729667
618.385082	2572.999882
618.733048	2576.241344
619.080961	2573.264542
619.428821	2574.499625
619.776628	2573.940057
620.124382	2575.923751
620.472083	2574.862588
620.819731	2577.075655
621.167326	2573.020047
621.514868	2573.302351
621.862357	2573.589697
622.209793	2572.210941
622.557176	2571.941240
622.904506	2570.842268
623.251783	2568.833368
623.599007	2570.927968
623.946179	2568.170457
624.293297	2567.588203
624.640363	2567.691547
624.987376	2568.656928
625.334336	2572.480643
625.681243	2569.095508
626.028097	2567.436969
626.374899	2568.132648
626.721647	2569.118193
627.068343	2573.561971
627.414987	2568.697257
627.761577	2567.900755
628.108115	2569.965107
628.454600	2567.323543
628.801032	2568.619119
629.147412	2566.837071
629.493739	2566.065775
629.840014	2569.337484
630.186236	2570.065930
630.532405	2567.121897
630.878521	2567.081567
631.224585	2569.229099
631.570597	2568.276321
631.916556	2566.501835
632.262462	2567.303378
632.608316	2567.562997
632.954117	2563.988819
633.299866	2565.556618
633.645562	2565.791032
633.991206	2568.520817
634.336797	2566.398491
634.682336	2565.453275
635.027823	2563.462019
635.373257	2564.054354
635.718639	2562.199210
636.063968	2565.712894
636.409245	2563.192317
636.754470	2563.182235
637.099642	2559.340876
637.444762	2563.933367
637.789829	2563.041082
638.134845	2564.618964
638.479808	2560.802810
638.824719	2562.791545
639.169577	2562.973027
639.514383	2563.295661
639.859137	2558.627552
640.203839	2562.632749
640.548489	2563.005794
640.893086	2557.863817
641.237632	2557.783159
641.582125	2560.291133
641.926566	2556.409445
642.270955	2560.512944
642.615292	2560.313818
642.959576	2559.988664
643.303809	2562.345403
643.647990	2563.822461
643.992118	2560.916236
644.336195	2560.805331
644.680219	2560.654096
645.024192	2560.956565
645.368112	2561.304405
645.711981	2560.054199
646.055797	2561.959755
646.399562	2561.296843
646.743274	2561.201061
647.086935	2564.210630
647.430544	2562.776422
647.774101	2562.017728
648.117606	2564.336659
648.461059	2561.135526
648.804460	2563.693912
649.147810	2561.437996
649.491108	2560.333983
649.834354	2561.921946
650.177548	2563.162070
650.520690	2559.691236
650.863781	2559.179559
651.206820	2562.393294
651.549807	2559.822306
651.892742	2557.722665
652.235626	2558.055381
652.578458	2559.303067
652.921238	2557.836091
653.263967	2561.919426
653.606644	2559.504713
653.949269	2559.996226
654.291843	2557.682336
654.634365	2559.482028
654.976836	2558.619991
655.319255	2559.524878
655.661622	2559.146791
656.003938	2559.083777
656.346203	2558.045299
656.688416	2559.645865
657.030577	2554.085473
657.372687	2555.862479
657.714746	2557.392470
658.056753	2559.350958
658.398708	2555.199568
658.740612	2556.285936
659.082465	2550.082797
659.424266	2554.241748
659.766016	2553.765359
660.107715	2559.257697
660.449362	2555.554969
660.790958	2556.840463
661.132503	2555.507078
661.473996	2556.785011
661.815438	2555.560010
662.156829	2558.045299
662.498168	2553.878785
662.839456	2556.840463
663.180693	2554.062788
663.521879	2559.877758
663.863013	2555.318035
664.204097	2557.548745
664.545129	2557.722665
664.886110	2558.163766
665.227040	2558.158725
665.567918	2560.339024
665.908746	2554.924825
666.249522	2560.782646
666.590248	2556.517829
666.930922	2558.370453
667.271545	2556.303580
667.612118	2558.224260
667.952639	2559.260217
668.293109	2556.686708
668.633528	2556.293498
668.973896	2557.316852
669.314213	2557.090000
669.654480	2556.548076
669.994695	2555.030689
670.334859	2560.699467
670.674973	2555.683518
671.015035	2558.103272
671.355047	2557.347099
671.695008	2557.339537
672.034918	2555.832233
672.374777	2555.978426
672.714585	2557.503375
673.054342	2558.879610
673.394049	2556.381718
673.733705	2558.085628
674.073310	2557.735268
674.412864	2556.860628
674.752368	2555.953220
675.091820	2555.963302
675.431223	2554.773590
675.770574	2554.463559
676.109875	2552.542880
676.449125	2552.414330
676.788324	2551.438867
677.127473	2554.193858
677.466571	2552.157231
677.805619	2556.081770
678.144616	2554.824002
678.483562	2554.511450
678.822458	2554.776111
679.161303	2555.741492
679.500098	2554.430792
679.838842	2555.086142
680.177535	2554.450956
680.516179	2556.911039
680.854771	2552.613456
681.193314	2556.658982
681.531805	2554.977757
681.870247	2555.552448
682.208638	2557.805844
682.546978	2558.952707
682.885268	2557.659651
683.223508	2557.999929
683.561697	2556.941286
683.899836	2557.856256
684.237925	2554.009855
684.575963	2557.894064
684.913951	2554.317366
685.251889	2554.145967
685.589776	2558.224260
685.927614	2556.263251
686.265401	2556.001111
686.603137	2554.796275
686.940824	2554.992880
687.278460	2559.471946
687.616046	2557.488252
687.953582	2557.387428
688.291068	2558.826678
688.628504	2557.790721
688.965889	2558.715772
689.303224	2557.911708
689.640510	2557.626883
689.977745	2555.403734
690.314930	2553.803168
690.652065	2554.622356
690.989150	2555.910370
691.326185	2552.310987
691.663170	2555.378529
692.000105	2554.448436
692.336990	2553.268806
692.673825	2551.544731
693.010610	2554.138405
693.347345	2548.000800
693.684030	2551.020451
694.020665	2547.511808
694.357251	2545.460058
694.693786	2549.193033
695.030272	2547.284956
695.366707	2549.951727
695.703093	2550.274360
696.039429	2548.383928
696.375716	2548.099103
696.711952	2549.540872
697.048139	2552.973898
697.384276	2551.161603
697.720363	2549.034237
698.056400	2548.767055
698.392388	2550.302087
698.728326	2550.128167
699.064214	2550.344937
699.400053	2550.738147
699.735842	2549.175389
700.071581	2552.489947
700.407270	2547.988197
700.742910	2548.010882
701.078501	2547.894936
701.414042	2548.608259
701.749533	2549.014072
702.084974	2547.610111
702.420366	2549.130018
702.755709	2548.499874
703.091002	2548.099102
703.426246	2550.102961
703.761440	2549.359391
704.096584	2548.416695
704.431679	2547.600028
704.766725	2547.917621
705.101721	2547.070707
705.436668	2549.001469
705.771565	2548.451983
706.106413	2548.575492
706.441212	2546.145655
706.775961	2546.743032
707.110661	2548.136911
707.445311	2549.505584
707.779913	2547.423588
708.114465	2547.773948
708.448967	2550.579350
708.783421	2549.679504
709.117825	2546.801005
709.452180	2548.179761
709.786485	2547.504246
710.120742	2549.845862
710.454949	2550.264278
710.789107	2548.404092
711.123216	2549.319062
711.457275	2549.261088
711.791286	2546.082641
712.125247	2547.259750
712.459159	2549.160265
712.793023	2551.771583
713.126837	2550.702858
713.460602	2549.288815
713.794318	2549.888712
714.127985	2551.408620
714.461602	2548.464586
714.795171	2546.964843
715.128691	2550.037426
715.462162	2548.560368
715.795584	2549.009031
716.128957	2547.544576
716.462281	2547.395862
716.795556	2548.152035
717.128782	2546.082641
717.461960	2545.933927
717.795088	2545.538196
718.128167	2546.596839
718.461198	2548.164637
718.794180	2550.662529
719.127113	2542.810932
719.459997	2547.640357
719.792833	2545.954092
720.125619	2546.536345
720.458357	2546.266643
720.791046	2545.271015
721.123686	2548.124308
721.456278	2546.105326
721.788821	2546.788402
722.121315	2546.206149
722.453761	2545.893598
722.786158	2543.952753
723.118506	2543.652805
723.450805	2541.066693
723.783056	2543.161292
724.115259	2544.361087
724.447412	2544.451828
724.779518	2546.700182
725.111574	2548.451983
725.443582	2545.596170
725.775542	2544.398896
726.107453	2543.183978
726.439315	2545.762528
726.771129	2550.602035
727.102895	2548.893084
727.434612	2547.637837
727.766281	2546.233876
728.097901	2543.688093
728.429473	2541.527958
728.760996	2544.391334
729.092471	2542.137938
729.423897	2544.923176
729.755276	2547.572302
730.086606	2544.706406
730.417887	2551.199412
730.749120	2547.105995
731.080305	2546.448125
731.411442	2548.073897
731.742530	2547.736139
732.073570	2547.733619
732.404562	2544.590459
732.735506	2548.081458
733.066401	2545.240768
733.397249	2549.150183
733.728048	2544.487116
734.058798	2545.361756
734.389501	2548.512477
734.720156	2546.312013
735.050762	2547.050543
735.381320	2544.484595
735.711831	2546.619524
736.042293	2543.219266
736.372707	2542.170706
736.703073	2543.597352
737.033391	2544.214893
737.363661	2545.472661
737.693883	2545.898639
738.024056	2545.699513
738.354182	2544.817311
738.684260	2544.986190
739.014290	2546.634647
739.344272	2546.095244
739.674207	2544.905532
740.004093	2545.770089
740.333931	2543.577187
740.663722	2550.967519
740.993464	2546.634647
741.323159	2548.232693
741.652806	2544.444266
741.982405	2542.853782
742.311956	2544.971067
742.641460	2542.889070
742.970915	2545.132383
743.300323	2544.204811
743.629683	2543.005017
743.958996	2542.972249
744.288260	2540.980993
744.617477	2541.754810
744.946647	2537.351363
745.275768	2539.786240
745.604842	2540.686086
745.933869	2538.105015
746.262847	2538.430169
746.591778	2544.449307
746.920662	2542.233720
747.249498	2542.241282
747.578286	2541.969059
747.907027	2543.970397
748.235720	2544.464431
748.564365	2543.985521
748.892963	2543.599873
749.221514	2540.141641
749.550017	2543.403268
749.878473	2543.925027
750.206881	2542.828576
750.535242	2542.662218
750.863555	2541.558205
751.191821	2542.573998
751.520039	2544.585418
751.848210	2542.959646
752.176334	2539.279604
752.504411	2541.709440
752.832440	2542.183308
753.160421	2543.158772
753.488356	2539.950077
753.816243	2543.057949
754.144082	2541.734646
754.471875	2542.011909
754.799620	2542.395037
755.127318	2538.168029
755.454969	2541.568288
755.782572	2540.953267
756.110129	2543.486447
756.437638	2541.222969
756.765100	2542.831097
757.092515	2540.708771
757.419882	2542.445448
757.747203	2541.084337
758.074477	2542.004348
758.401703	2542.407640
758.728882	2543.869574
759.056014	2540.963349
759.383099	2542.447969
759.710138	2542.316899
760.037129	2541.467465
760.364073	2542.599204
760.690970	2539.894625
761.017820	2542.730274
761.344623	2543.163813
761.671379	2545.162630
761.998088	2539.579552
762.324751	2543.400747
762.651366	2545.933927
762.977935	2550.254196
763.304456	2553.752757
763.630931	2554.944989
763.957359	2556.028837
764.283740	2548.414175
764.610074	2548.986346
764.936362	2548.169679
765.262602	2544.396375
765.588796	2543.909904
765.914943	2541.999306
766.241044	2541.318751
766.567097	2542.349667
766.893104	2543.161292
767.219064	2541.079296
767.544978	2540.827238
767.870845	2541.449821
768.196665	2540.048380
768.522438	2537.459747
768.848165	2540.126518
769.173846	2539.778678
769.499479	2540.948226
769.825066	2542.238761
770.150607	2540.986034
770.476101	2537.905889
770.801548	2541.631302
771.126949	2538.334388
771.452303	2539.627443
771.777611	2535.866743
772.102872	2539.632485
772.428087	2536.844727
772.753256	2540.428987
773.078378	2537.999151
773.403453	2536.333049
773.728482	2537.008564
774.053465	2538.793132
774.378401	2538.536034
774.703291	2535.513862
775.028135	2538.631816
775.352932	2538.536034
775.677683	2538.856147
776.002388	2538.626774
776.327046	2540.310520
776.651658	2538.306661
776.976224	2537.278266
777.300743	2536.711136
777.625216	2541.868236
777.949643	2538.294058
778.274024	2539.390509
778.598359	2534.603934
778.922647	2533.646114
779.246889	2535.859181
779.571086	2533.189890
779.895236	2536.854809
780.219339	2537.646270
780.543397	2537.124511
780.867409	2535.667617
781.191374	2535.758358
781.515294	2535.801208
781.839167	2538.097453
782.162995	2537.933616
782.486776	2537.358924
782.810511	2540.050900
783.134201	2538.200797
783.457844	2537.716846
783.781441	2540.504604
784.104993	2535.022349
784.428498	2536.224665
784.751958	2537.926054
785.075372	2536.585107
785.398739	2535.622247
785.722061	2536.880015
786.045337	2540.388658
786.368568	2537.225334
786.691752	2536.564943
787.014891	2534.891279
787.337983	2537.300951
787.661030	2539.887063
787.984031	2538.460416
788.306987	2539.342618
788.629897	2540.854964
788.952760	2541.820345
789.275579	2537.225334
789.598351	2539.556867
789.921078	2538.904038
790.243759	2538.876312
790.566395	2536.759027
790.888984	2537.318595
791.211529	2536.227185
791.534027	2537.500077
791.856480	2534.165353
792.178888	2535.387833
792.501249	2534.024201
792.823566	2537.492515
793.145836	2536.035621
793.468062	2539.042670
793.790241	2535.924716
794.112375	2537.416898
794.434464	2535.811290
794.756507	2536.874973
795.078505	2536.975797
795.400457	2533.053779
795.722364	2533.300795
796.044226	2537.643749
796.366042	2535.060158
796.687812	2537.563091
797.009538	2535.097967
797.331218	2538.440252
797.652852	2536.718698
797.974442	2538.737680
798.295986	2537.104346
798.617484	2538.488143
798.938938	2536.867412
799.260346	2536.101156
799.581709	2537.502597
799.903026	2536.375899
800.224299	2537.285827
800.545526	2534.644263
800.866708	2537.308513
801.187845	2535.856660
801.508936	2534.848430
801.829983	2534.729963
802.150984	2536.766589
802.471940	2537.520241
802.792851	2534.525796
803.113717	2537.734490
803.434538	2533.814993
803.755314	2534.800539
804.076045	2534.752648
804.396731	2535.113090
804.717372	2536.736342
805.037967	2535.468492
805.358518	2534.707277
805.679024	2537.363965
805.999485	2534.767771
806.319901	2534.293903
806.640272	2537.018646
806.960598	2534.886238
807.280879	2534.722401
807.601115	2537.278266
807.921306	2535.367668
808.241453	2537.462268
808.561554	2533.862884
808.881611	2535.476053
809.201623	2537.729449
809.521590	2537.605941
809.841513	2537.502597
810.161390	2535.256763
810.481223	2534.737524
810.801011	2533.827596
811.120755	2534.331711
811.440453	2538.546116
811.760107	2536.643080
812.079716	2534.102339
812.399281	2529.497245
812.718801	2532.400949
813.038276	2529.978675
813.357707	2535.624767
813.677093	2532.970600
813.996434	2536.277597
814.315731	2532.176618
814.634983	2537.174922
814.954191	2533.021011
815.273354	2533.515044
815.592473	2536.786753
815.911547	2537.386651
816.230577	2537.515200
816.549562	2537.442103
816.868502	2535.241640
817.187399	2538.273894
817.506250	2534.298944
817.825058	2537.066537
818.143821	2538.042001
818.462539	2537.618544
818.781213	2535.415559
819.099843	2537.774819
819.418429	2538.462937
819.736970	2541.132228
820.055466	2544.824873
820.373919	2544.156920
820.692327	2544.895449
821.010691	2551.794268
821.329011	2558.723334
821.647286	2578.605645
821.965517	2596.718511
822.283704	2613.684514
822.601847	2618.183744
822.919945	2605.510283
823.237999	2591.629466
823.556010	2580.843917
823.873976	2570.522155
824.191897	2562.824313
824.509775	2560.606205
824.827609	2552.099258
825.145398	2552.875596
825.463144	2552.978939
825.780845	2552.036244
826.098502	2555.623025
826.416116	2558.206616
826.733685	2567.298337
827.051210	2569.599624
827.368692	2564.508058
827.686129	2559.587892
828.003522	2553.846018
828.320872	2541.278421
828.638177	2543.463762
828.955439	2538.546116
829.272656	2536.448996
829.589830	2536.678368
829.906960	2538.180632
830.224046	2539.203987
830.541088	2536.396064
830.858086	2538.546116
831.175041	2535.927237
831.491952	2537.290869
831.808819	2537.598379
832.125642	2533.867925
832.442421	2537.676517
832.759157	2544.136756
833.075849	2545.535676
833.392497	2550.203784
833.709101	2553.110009
834.025662	2551.542211
834.342179	2549.543393
834.658653	2548.008362
834.975083	2543.483926
835.291469	2547.244627
835.607811	2540.980993
835.924110	2536.325488
836.240366	2536.234747
836.556578	2535.065199
836.872746	2538.929244
837.188871	2535.350024
837.504952	2534.182997
837.820990	2534.225847
838.136984	2533.462112
838.452935	2534.719880
838.768842	2534.198121
839.084706	2532.920188
839.400526	2537.003523
839.716303	2539.632485
840.032037	2541.137269
840.347727	2540.408822
840.663373	2541.013761
840.978977	2537.825231
841.294537	2537.389171
841.610054	2536.683410
841.925527	2533.212575
842.240957	2534.591331
842.556344	2532.005219
842.871687	2533.139478
843.186987	2532.408511
843.502244	2532.300126
843.817458	2533.510003
844.132629	2534.089736
844.447756	2534.303985
844.762840	2528.274765
845.077881	2528.564631
845.392879	2530.424817
845.707833	2530.702081
846.022745	2528.115969
846.337613	2531.460774
846.652438	2531.112935
846.967221	2533.789787
847.281960	2532.653007
847.596656	2533.497400
847.911309	2530.734848
848.225919	2533.845240
848.540485	2532.317770
848.855009	2530.064375
849.169490	2530.860877
849.483928	2533.472195
849.798323	2530.722245
850.112675	2534.924047
850.426984	2530.213089
850.741251	2531.846423
851.055474	2528.947759
851.369654	2529.562780
851.683792	2533.026052
851.997887	2532.232071
852.311938	2529.073788
852.625947	2532.426155
852.939914	2531.848943
853.253837	2534.437576
853.567718	2531.085208
853.881555	2530.873480
854.195350	2532.577390
854.509103	2530.341638
854.822812	2533.043697
855.136479	2532.824406
855.450103	2531.143182
855.763685	2533.709129
856.077224	2531.178470
856.390720	2531.319622
856.704173	2534.276259
857.017584	2531.516227
857.330953	2532.108563
857.644278	2533.764582
857.957561	2535.218954
858.270802	2531.112935
858.584000	2533.104190
858.897155	2531.362472
859.210268	2530.271062
859.523339	2531.949766
859.836367	2531.183511
860.149352	2534.001516
860.462295	2533.628470
860.775195	2526.679240
861.088054	2526.278468
861.400869	2529.981196
861.713642	2527.369878
862.026373	2532.106042
862.339062	2528.768798
862.651708	2533.487318
862.964312	2535.370189
863.276873	2531.894313
863.589392	2529.456916
863.901869	2530.780218
864.214303	2530.712163
864.526696	2529.754344
864.839045	2529.814838
865.151353	2531.745599
865.463619	2532.408511
865.775842	2531.541433
866.088023	2534.525796
866.400162	2533.825075
866.712258	2532.829447
867.024313	2534.586290
867.336325	2532.116124
867.648296	2533.676361
867.960224	2533.870446
868.272110	2531.735517
868.583954	2534.767771
868.895755	2534.500590
869.207515	2530.671834
869.519233	2534.674510
869.830909	2533.595703
870.142542	2533.668800
870.454134	2531.246525
870.765684	2533.494880
871.077191	2530.263500
871.388657	2534.303985
871.700081	2535.380271
872.011463	2532.887421
872.322803	2532.940353
872.634101	2532.637884
872.945357	2530.944056
873.256571	2533.714170
873.567744	2533.061341
873.878874	2534.374561
874.189963	2533.436907
874.501010	2533.608306
874.812015	2531.768285
875.122979	2534.709798
875.433900	2534.477905
875.744780	2533.194931
876.055618	2536.108718
876.366415	2533.797349
876.677169	2534.019160
876.987882	2532.179139
877.298554	2528.965403
877.609183	2531.959848
877.919771	2532.290044
878.230317	2530.591175
878.540822	2537.822710
878.851285	2539.161137
879.161707	2537.472350
879.472087	2536.310364
879.782425	2538.949408
880.092722	2542.004348
880.402977	2547.083310
880.713191	2558.473797
881.023363	2571.769840
881.333494	2578.996334
881.643583	2577.058011
881.953631	2578.048598
882.263637	2577.141190
882.573602	2573.383010
882.883526	2565.299519
883.193408	2563.648542
883.503248	2555.801986
883.813048	2553.765359
884.122806	2547.887374
884.432522	2547.836963
884.742197	2543.478885
885.051831	2542.221117
885.361424	2540.802032
885.670975	2539.783719
885.980485	2536.138965
886.289954	2536.179294
886.599382	2535.503780
886.908768	2536.406146
887.218113	2535.816331
887.527417	2535.997813
887.836680	2535.934798
888.145901	2533.641073
888.455082	2532.900024
888.764221	2533.545291
889.073319	2534.379602
889.382376	2533.477236
889.691392	2534.772812
890.000366	2532.582431
890.309300	2533.293234
890.618193	2533.709129
890.927044	2532.864736
891.235855	2533.946063
891.544625	2533.303316
891.853353	2535.327339
892.162041	2532.658048
892.470687	2533.895652
892.779293	2533.288193
893.087858	2535.392874
893.396381	2533.850281
893.704864	2537.701723
894.013306	2538.478060
894.321707	2543.791437
894.630068	2546.576674
894.938387	2547.957950
895.246665	2546.617003
895.554903	2544.401416
895.863100	2545.341591
896.171256	2542.458051
896.479371	2539.700540
896.787446	2538.858667
897.095480	2536.035621
897.403473	2535.468492
897.711425	2535.281969
898.019336	2534.997144
898.327207	2533.182328
898.635038	2535.859181
898.942827	2536.055786
899.250576	2534.361958
899.558284	2531.548994
899.865952	2534.649304
900.173579	2533.235260
900.481165	2535.712988
900.788711	2535.801208
901.096216	2534.198121
901.403681	2533.308357
901.711105	2533.227699
902.018489	2530.772657
902.325832	2535.445806
902.633135	2533.477236
902.940397	2535.120652
903.247619	2533.262987
903.554800	2534.989582
903.861941	2544.850079
904.169041	2549.913918
904.476101	2554.703014
904.783121	2555.572613
905.090100	2551.002807
905.397039	2546.818649
905.703938	2541.981662
906.010796	2540.323123
906.317614	2538.039480
906.624391	2538.891435
906.931129	2535.954963
907.237826	2530.528161
907.544483	2532.174098
907.851099	2530.896165
908.157675	2528.925074
908.464211	2529.603109
908.770707	2530.540764
909.077163	2530.119827
909.383578	2528.247039
909.689954	2527.566483
909.996289	2527.347193
910.302584	2532.499252
910.608839	2534.898841
910.915054	2532.716022
911.221229	2530.500434
911.527363	2529.973634
911.833458	2531.682585
912.139513	2531.400280
912.445527	2533.129396
912.751502	2533.878008
913.057436	2529.466998
913.363331	2529.822399
913.669186	2531.014632
913.975000	2531.717873
914.280775	2533.308357
914.586510	2537.311033
914.892205	2539.945036
915.197859	2539.703061
915.503475	2545.180274
915.809050	2549.200595
916.114585	2549.124977
916.420081	2554.907181
916.725536	2555.975905
917.030952	2548.154555
917.336328	2546.924514
917.641665	2542.223638
917.946961	2541.348998
918.252218	2538.896476
918.557435	2538.861188
918.862612	2535.728111
919.167750	2535.629808
919.472848	2534.372041
919.777906	2534.780374
920.082925	2533.028573
920.387904	2533.210055
920.692843	2535.244160
920.997743	2531.836340
921.302603	2530.860877
921.607423	2531.329704
921.912204	2533.172246
922.216946	2529.887934
922.521647	2531.032276
922.826310	2531.879190
923.130932	2531.775846
923.435516	2530.185362
923.740059	2530.475229
924.044564	2531.997657
924.349028	2531.964890
924.653454	2526.081863
924.957840	2529.300640
925.262186	2524.927439
925.566493	2528.093283
925.870761	2524.302336
926.174989	2528.383150
926.479178	2528.511699
926.783328	2527.407687
927.087438	2529.179652
927.391509	2532.610157
927.695541	2529.290558
927.999533	2530.089580
928.303486	2528.085722
928.607400	2532.564787
928.911275	2528.708304
929.215110	2526.621267
929.518906	2530.293747
929.822663	2528.967924
930.126381	2525.693694
930.430060	2528.569672
930.733699	2531.057482
931.037299	2530.190403
931.340861	2531.518748
931.644383	2530.150074
931.947866	2527.286699
932.251309	2529.459436
932.554714	2523.891482
932.858080	2532.335414
933.161407	2527.916843
933.464694	2531.455733
933.767943	2527.790814
934.071153	2530.568490
934.374323	2526.744775
934.677455	2530.409694
934.980548	2528.725948
935.283602	2529.451874
935.586617	2528.274765
935.889593	2528.771319
936.192530	2529.648479
936.495428	2528.055475
936.798287	2527.518592
937.101108	2526.444826
937.403890	2529.179652
937.706632	2528.486493
938.009336	2528.239477
938.312002	2528.688140
938.614628	2528.385670
938.917216	2530.455064
939.219765	2530.661751
939.522275	2528.085722
939.824747	2529.514889
940.127179	2524.662778
940.429573	2525.131606
940.731929	2528.365506
941.034246	2527.143026
941.336524	2529.527492
941.638763	2530.681916
941.940964	2528.879703
942.243126	2529.890455
942.545250	2527.221164
942.847335	2529.550177
943.149381	2529.678726
943.451389	2527.798376
943.753359	2529.935825
944.055290	2526.545649
944.357182	2530.901206
944.659036	2528.662934
944.960851	2530.087060
945.262628	2526.419620
945.564367	2529.824920
945.866067	2529.083870
946.167729	2530.424817
946.469352	2529.083870
946.770937	2528.693181
947.072484	2529.207378
947.373992	2526.152439
947.675462	2527.276617
947.976893	2529.469518
948.278286	2526.941380
948.579641	2530.359282
948.880958	2528.965403
949.182236	2529.310722
949.483476	2528.007584
949.784678	2529.313243
950.085841	2528.413397
950.386967	2530.439941
950.688054	2526.926256
950.989103	2528.690660
951.290114	2527.405166
951.591087	2528.443644
951.892021	2529.056144
952.192917	2527.959693
952.493776	2526.480114
952.794596	2530.465146
953.095378	2529.328366
953.396122	2529.769467
953.696828	2530.893644
953.997496	2529.512368
954.298126	2529.736700
954.598718	2527.584127
954.899272	2528.161339
955.199788	2528.841895
955.500266	2528.032790
955.800706	2527.765608
956.101108	2521.910308
956.401472	2526.117151
956.701798	2523.682274
957.002087	2527.450536
957.302337	2528.287368
957.602550	2529.524971
957.902724	2528.557070
958.202861	2527.816020
958.502960	2526.946421
958.803022	2527.715197
959.103045	2527.440454
959.403031	2527.253931
959.702979	2526.341483
960.002889	2525.550021
960.302762	2528.158818
960.602596	2526.522964
960.902393	2528.186545
961.202153	2529.028417
961.501875	2524.942562
961.801559	2526.255783
962.101205	2527.634538
962.400814	2525.434075
962.700385	2525.648324
962.999918	2530.966741
963.299414	2525.663447
963.598873	2528.506658
963.898293	2525.318128
964.197677	2527.649662
964.497022	2523.039527
964.796331	2526.734692
965.095601	2526.593540
965.394835	2528.037831
965.694030	2525.938190
965.993189	2528.375588
966.292309	2527.248890
966.591393	2527.064888
966.890439	2526.260824
967.189447	2524.514064
967.488419	2528.204189
967.787353	2525.706297
968.086249	2523.074815
968.385108	2526.878365
968.683930	2529.991278
968.982714	2527.374919
969.281462	2526.230577
969.580172	2525.804600
969.878844	2528.917512
970.177480	2528.657893
970.476078	2527.359796
970.774639	2526.777542
971.073162	2527.632018
971.371649	2525.945752
971.670098	2524.798889
971.968510	2521.396111
972.266885	2522.381656
972.565223	2525.907943
972.863524	2526.386853
973.161788	2527.228726
973.460014	2523.568848
973.758204	2526.608664
974.056356	2525.633200
974.354471	2525.421472
974.652550	2527.879034
974.950591	2525.996163
975.248595	2525.189579
975.546563	2525.572707
975.844493	2524.461132
976.142386	2525.081194
976.440243	2526.086904
976.738062	2528.529343
977.035845	2526.351565
977.333590	2524.829136
977.631299	2526.280989
977.928971	2527.576565
978.226606	2524.950124
978.524204	2527.458098
978.821765	2527.458098
979.119290	2526.419620
979.416777	2527.266534
979.714228	2526.780063
980.011642	2525.527336
980.309020	2529.368695
980.606360	2527.994981
980.903664	2526.129754
981.200931	2526.495238
981.498162	2524.982892
981.795356	2527.498427
982.092513	2526.356606
982.389633	2527.112779
982.686717	2527.616894
982.983764	2528.441123
983.280775	2529.635877
983.577749	2529.378778
983.874686	2528.519261
984.171587	2527.563962
984.468451	2528.093283
984.765279	2526.228057
985.062070	2527.455578
985.358824	2524.566996
985.655543	2527.984899
985.952224	2526.207892
986.248869	2526.437264
986.545478	2522.064063
986.842050	2527.145547
987.138586	2522.043899
987.435086	2522.621111
987.731549	2518.746984
988.027975	2524.178828
988.324366	2527.208561
988.620719	2527.006915
988.917037	2526.981709
989.213318	2527.505989
989.509563	2524.284692
989.805772	2525.650844
990.101944	2527.974816
990.398080	2525.479445
990.694180	2524.251924
990.990244	2525.199661
991.286271	2523.674712
991.582262	2522.585823
991.878217	2530.087060
992.174136	2528.247039
992.470019	2527.606812
992.765865	2525.855011
993.061676	2525.287881
993.357450	2526.812830
993.653188	2524.350227
993.948890	2525.287881
994.244556	2527.221164
994.540186	2525.958355
994.835780	2524.519105
995.131337	2524.617408
995.426859	2524.735875
995.722345	2527.518592
996.017795	2527.821061
996.313208	2525.058509
996.608586	2524.075484
996.903928	2527.054806
997.199234	2525.590351
997.494504	2526.709487
997.789738	2525.108920
998.084936	2525.318128
998.380099	2523.326873
998.675225	2525.179497
998.970316	2526.762419
999.265371	2528.892306
999.560390	2525.487007
999.855373	2527.853829
1000.150320	2526.321318
1000.445232	2525.189579
1000.740108	2529.756864
1001.034948	2523.510875
1001.329752	2525.328211
1001.624521	2524.935001
1001.919254	2519.747653
1002.213951	2522.643796
1002.508613	2522.096831
1002.803239	2527.261493
1003.097829	2521.348220
1003.392384	2525.078673
1003.686903	2525.429034
1003.981386	2526.316277
1004.275834	2522.981553
1004.570246	2528.047913
1004.864623	2527.095135
1005.158964	2525.048427
1005.453270	2524.466173
1005.747540	2526.888448
1006.041775	2523.324352
1006.335974	2526.643952
1006.630138	2527.261493
1006.924266	2527.357275
1007.218359	2525.030783
1007.512416	2523.251255
1007.806438	2524.446009
1008.100425	2526.669157
1008.394376	2526.452388
1008.688292	2526.079343
1008.982172	2524.786287
1009.276017	2526.255783
1009.569827	2523.364681
1009.863602	2525.459281
1010.157341	2524.713190
1010.451045	2525.353416
1010.744714	2523.092459
1011.038347	2527.516071
1011.331945	2525.988602
1011.625508	2525.446678
1011.919036	2523.639424
1012.212528	2524.509023
1012.505986	2524.014990
1012.799408	2526.132275
1013.092795	2527.306863
1013.386147	2524.292253
1013.679464	2525.043385
1013.972745	2524.773684
1014.265992	2522.288395
1014.559204	2526.792666
1014.852380	2524.110772
1015.145521	2526.959024
1015.438628	2525.000536
1015.731699	2524.700587
1016.024736	2524.566996
1016.317737	2525.509692
1016.610703	2528.854498
1016.903635	2526.502799
1017.196531	2520.508868
1017.489393	2522.926101
1017.782219	2519.392252
1018.075011	2525.426513
1018.367768	2523.667150
1018.660490	2523.871317
1018.953177	2523.871317
1019.245829	2523.871317
