Dividing Wavelength (nm)	Counts (n)	Blue Motor Position (mm): 0.000000	Red Motor Position (mm): 46.700000	
326.493990	2129.590072
326.888308	2129.590072
327.282561	2129.590072
327.676750	2093.933991
328.070874	2099.078488
328.464933	2096.875504
328.858929	2105.105188
329.252859	2115.106837
329.646726	2125.569752
330.040528	2139.876546
330.434265	2156.847591
330.827938	2173.685045
331.221547	2191.578620
331.615091	2210.122505
332.008571	2230.254353
332.401986	2249.556931
332.795338	2269.366145
333.188625	2290.289454
333.581847	2308.576239
333.975006	2322.610812
334.368100	2345.532938
334.761129	2363.880218
335.154095	2376.465458
335.546996	2399.369941
335.939833	2423.575041
336.332606	2440.412495
336.725315	2454.172324
337.117960	2463.163222
337.510540	2467.816207
337.903056	2483.552169
338.295508	2486.569299
338.687896	2497.284272
339.080220	2506.002947
339.472480	2510.870181
339.864676	2516.584329
340.256807	2519.881244
340.648875	2520.992818
341.040879	2524.438447
341.432818	2525.542460
341.824694	2529.454395
342.216506	2528.050434
342.608253	2528.854498
342.999937	2529.124199
343.391557	2530.636546
343.783113	2524.569517
344.174605	2525.645803
344.566033	2524.183869
344.957397	2523.848632
345.348697	2523.863755
345.739934	2520.697911
346.131106	2518.610873
346.522215	2519.634227
346.913260	2514.582991
347.304241	2512.780779
347.695159	2510.209790
348.086012	2510.950840
348.476802	2507.769872
348.867528	2507.293483
349.258191	2506.068482
349.648789	2504.969511
350.039324	2505.060252
350.429796	2503.232833
350.820203	2500.969355
351.210548	2499.615805
351.600828	2500.918944
351.991045	2499.414159
352.381198	2495.053561
352.771288	2498.572287
353.161314	2498.773933
353.551276	2500.427431
353.941175	2498.211844
354.331010	2498.060609
354.720782	2496.878459
355.110490	2498.879797
355.500135	2498.441217
355.889717	2501.453306
356.279235	2498.055568
356.668689	2500.853409
357.058080	2499.167143
357.447408	2496.366782
357.836672	2496.825527
358.225873	2500.697133
358.615010	2497.251504
359.004084	2501.791063
359.393095	2500.545898
359.782043	2503.779798
360.170927	2502.015395
360.559748	2503.192504
360.948505	2502.872391
361.337199	2502.960611
361.725830	2505.851713
362.114398	2505.060252
362.502903	2507.089316
362.891344	2509.055366
363.279722	2510.081241
363.668037	2508.163082
364.056289	2508.652074
364.444478	2509.514111
364.832603	2511.656601
365.220665	2515.109792
365.608665	2511.439832
365.996601	2513.231962
366.384474	2513.831859
366.772284	2515.417302
367.160031	2516.541479
367.547715	2516.634741
367.935336	2518.736902
368.322893	2522.018693
368.710388	2525.580268
369.097820	2533.305837
369.485189	2535.302133
369.872495	2545.034081
370.259738	2550.609597
370.646918	2556.767367
371.034035	2561.077553
371.421090	2574.534913
371.808081	2583.440112
372.195010	2593.078798
372.581875	2607.461210
372.968678	2620.111985
373.355418	2629.259159
373.742096	2648.481078
374.128710	2663.024807
374.515262	2677.636592
374.901751	2695.250383
375.288177	2707.059286
375.674540	2729.515106
376.060841	2748.704258
376.447079	2766.955756
376.833254	2787.745474
377.219367	2801.729635
377.605417	2840.433093
377.991404	2848.856862
378.377329	2869.581045
378.763191	2886.103427
379.148991	2925.588264
379.534727	2947.640792
379.920402	2978.908548
380.306013	2989.449601
380.691563	3040.319885
381.077049	3061.752350
381.462474	3077.329516
381.847835	3116.582460
382.233134	3140.129690
382.618371	3139.804535
383.003545	3208.001264
383.388657	3215.658777
383.773706	3246.644229
384.158693	3262.775922
384.543618	3290.580406
384.928480	3327.879903
385.313280	3372.783981
385.698017	3369.555122
386.082692	3423.384563
386.467305	3428.042589
386.851856	3460.810089
387.236344	3484.745487
387.620770	3515.655322
388.005133	3541.463509
388.389435	3571.846543
388.773674	3579.320054
389.157851	3623.498206
389.541965	3634.795431
389.926018	3601.942232
390.310008	3672.183149
390.693936	3693.424051
391.077802	3733.413003
391.461606	3722.556879
391.845348	3783.882515
392.229027	3783.242289
392.612645	3798.481697
392.996200	3873.189076
393.379694	3912.648708
393.763125	3976.280672
394.146494	3948.771096
394.529801	4009.471629
394.913047	4057.355029
395.296230	4024.847148
395.679351	4080.037701
396.062410	4103.713480
396.445408	4086.288732
396.828343	4118.582363
397.211217	4140.828975
397.594028	4061.002304
397.976778	4129.330103
398.359466	4151.296931
398.742092	4183.777085
399.124656	4104.986371
399.507158	4183.439328
399.889598	4208.912278
400.271977	4271.904016
400.654294	4240.238008
401.036549	4252.556068
401.418742	4224.600349
401.800874	4322.693641
402.182944	4345.961087
402.564952	4409.502310
402.946898	4393.549579
403.328783	4389.955236
403.710606	4304.056495
404.092367	4497.631762
404.474067	4462.192450
404.855705	4469.658399
405.237282	4399.359509
405.618797	4509.496118
406.000250	4544.186818
406.381642	4619.879743
406.762972	4584.649639
407.144240	4595.825877
407.525447	4595.041978
407.906593	4654.436852
408.287677	4697.059808
408.668700	4623.186740
409.049661	4672.559800
409.430560	4720.881781
409.811399	4646.358403
410.192176	4806.067198
410.572891	4746.984875
410.953545	4850.555381
411.334138	4728.130960
411.714669	4793.340805
412.095139	4695.502092
412.475547	4832.513091
412.855894	4810.654648
413.236180	4827.051001
413.616405	4775.968989
413.996568	4867.347464
414.376670	4807.768588
414.756711	4759.660857
415.136691	4793.063542
415.516609	4868.945510
415.896466	4907.517899
416.276262	4944.603147
416.655997	4920.340074
417.035670	5103.891006
417.415283	5192.695972
417.794834	5138.818640
418.174324	5091.013378
418.553753	4998.740098
418.933121	5184.156257
419.312428	5246.011215
419.691674	5189.066341
420.070859	5316.519313
420.449983	5229.322475
420.829045	5347.308160
421.208047	5247.657152
421.586988	5322.278832
421.965867	5332.378783
422.344686	5463.778979
422.723444	5323.423173
423.102141	5137.717148
423.480777	5440.526657
423.859352	5206.375143
424.237866	5460.744204
424.616319	5457.288493
424.994712	5564.894443
425.373044	5442.979178
425.751314	5587.904789
426.129524	5388.690992
426.507673	5582.576290
426.885762	5664.772303
427.263789	5599.202015
427.641756	5480.775229
428.019662	5601.233600
428.397508	5608.613849
428.775292	5555.621240
429.153016	5654.727804
429.530679	5579.801135
429.908282	5662.297097
430.285824	5538.839239
430.663305	5814.091280
431.040726	5547.300816
431.418086	5549.551691
431.795385	5652.628164
432.172624	5668.543086
432.549802	5658.886756
432.926920	5672.961658
433.303977	5676.941649
433.680974	5720.403957
434.057910	5737.579168
434.434786	5742.544704
434.811601	5707.556576
435.188355	5945.844357
435.565050	5817.630170
435.941683	5801.526204
436.318257	6011.384398
436.694770	5999.487275
437.071222	6034.074631
437.447614	5966.429908
437.823946	5877.297267
438.200218	6031.780906
438.576429	5897.088837
438.952580	5998.138766
439.328670	6040.338265
439.704700	5947.497855
440.080670	5931.214928
440.456580	6203.132246
440.832429	6082.714204
441.208218	5931.792140
441.583947	6086.502631
441.959616	6092.723415
442.335224	6015.346745
442.710773	6153.653321
443.086261	6186.501479
443.461689	5976.756712
443.837057	6128.780268
444.212365	6282.222909
444.587612	6171.592267
444.962800	6332.483212
445.337927	6310.491179
445.712995	5921.588845
446.088002	6499.153841
446.462949	6334.164437
446.837837	6258.743735
447.212664	6431.957781
447.587431	6573.450366
447.962139	7114.255269
448.336786	8039.922020
448.711374	7782.089686
449.085901	6856.480908
449.460369	6777.702797
449.834776	6707.590429
450.209124	7105.846624
450.583412	7254.187617
450.957640	7395.521406
451.331808	7162.186559
451.705917	6719.727007
452.079965	6636.931096
452.453954	6851.855649
452.827883	6728.196145
453.201752	6823.332801
453.575562	6617.736903
453.949311	6829.102401
454.323001	6716.651903
454.696632	6788.175794
455.070202	6928.685354
455.443713	7083.015238
455.817164	7181.655496
456.190556	7258.487721
456.563888	7336.797005
456.937160	7379.031792
457.310373	7038.806840
457.683526	7060.388019
458.056619	6956.920857
458.429653	6938.155162
458.802628	6879.027468
459.175542	6983.908674
459.548398	7346.624735
459.921194	7495.452199
460.293930	7501.194073
460.666607	8029.809466
461.039224	8341.803957
461.411782	8468.543605
461.784280	8488.025144
462.156719	8377.664204
462.529099	8258.443437
462.901419	7846.503029
463.273680	7736.497491
463.645882	7753.463494
464.018024	7614.720858
464.390106	7782.003987
464.762130	8169.925816
465.134094	8637.074420
465.505999	9658.344133
465.877845	10877.506862
466.249631	11529.159175
466.621358	11144.292285
466.993026	10524.240444
467.364634	10266.634962
467.736184	9899.046627
468.107674	9567.789887
468.479105	9601.177449
468.850477	9369.793528
469.221790	9142.931523
469.593043	8808.758476
469.964238	8668.112804
470.335373	8684.650309
470.706449	8738.709122
471.077467	8716.442346
471.448425	10027.391883
471.819324	11101.898702
472.190164	11124.233534
472.560945	9882.506601
472.931667	9092.736754
473.302330	8951.599570
473.672934	8598.683513
474.043479	8958.148029
474.413965	8898.972444
474.784393	8784.661760
475.154761	8937.045759
475.525070	9026.279223
475.895321	8846.292387
476.265513	9028.144450
476.635645	9196.032517
477.005719	9198.994195
477.375734	9305.551584
477.745691	9546.170898
478.115588	9678.549078
478.485427	9925.462273
478.855207	10461.732657
479.224928	11275.669795
479.594591	11899.820094
479.964194	11716.576673
480.333739	11654.184832
480.703226	11577.632390
481.072653	11669.837615
481.442022	11900.190619
481.811333	12088.956625
482.180584	11897.208777
482.549777	11609.215219
482.918912	11423.733525
483.287988	11457.776437
483.657005	11463.445214
484.025964	11151.664973
484.394864	11275.967223
484.763706	11247.976217
485.132489	11007.830771
485.501213	10969.502878
485.869879	11047.406349
486.238487	10890.313913
486.607036	10999.207877
486.975527	10776.819896
487.343959	10966.805861
487.712333	11010.333704
488.080648	10943.830802
488.448905	10985.082564
488.817104	10920.603686
489.185244	11191.313648
489.553326	11342.311329
489.921350	11891.905483
490.289315	12948.213736
490.657222	13290.840798
491.025070	13194.259853
491.392861	13066.398547
491.760593	12695.793081
492.128267	12341.568844
492.495883	12011.905109
492.863440	11684.830006
493.230939	11339.974754
493.598380	11271.901533
493.965763	11142.510237
494.333088	11050.221834
494.700354	10964.975922
495.067563	11025.721826
495.434713	10859.903153
495.801805	10990.542134
496.168839	10910.123127
496.535815	10842.299443
496.902733	10840.323311
497.269593	10778.992633
497.636395	10877.799249
498.003139	10856.777637
498.369825	10726.932637
498.736453	10888.431042
499.103023	10810.918261
499.469535	10842.896820
499.835989	10839.730975
500.202385	10797.652464
500.568723	10646.190997
500.935003	10867.679132
501.301226	10674.454226
501.667390	10929.672722
502.033497	11031.962774
502.399546	10888.768799
502.765537	10798.217073
503.131470	10871.333969
503.497345	11047.799559
503.863163	10657.641978
504.228923	10966.470624
504.594625	11027.090499
504.960269	10777.344176
505.325856	11001.194092
505.691385	10793.306990
506.056856	10951.997472
506.422270	10977.566204
506.787625	10866.842301
507.152924	10983.615588
507.518164	10962.485592
507.883347	10880.395443
508.248472	10801.007352
508.613540	11038.055009
508.978550	10920.001268
509.343503	10896.038143
509.708398	11012.216575
510.073236	11121.554161
510.438016	11129.007507
510.802738	11080.554456
511.167403	11130.376180
511.532010	11031.756087
511.896561	11250.607699
512.261053	11329.393372
512.625488	11193.443535
512.989866	11183.840137
513.354186	11170.239104
513.718449	11071.639176
514.082655	11260.120356
514.446803	11163.156283
514.810894	11282.198090
515.174927	11148.879735
515.538904	11173.825885
515.902822	11328.806077
516.266684	11216.514376
516.630488	11159.201497
516.994235	11214.190404
517.357925	11270.915987
517.721558	11362.359997
518.085133	11374.292409
518.448651	11389.854451
518.812112	11270.966399
519.175516	11289.946343
519.538863	11407.014538
519.902152	11323.868267
520.265385	11485.061682
520.628560	11395.021633
520.991678	11370.113292
521.354739	11430.912128
521.717743	11368.739578
522.080690	11344.761329
522.443580	11478.828295
522.806413	11442.390835
523.169189	11460.027312
523.531908	11527.619103
523.894569	11338.903509
524.257174	11352.005468
524.619722	11473.267903
524.982213	11416.731362
525.344647	11465.481841
525.707025	11417.608523
526.069345	11514.227278
526.431608	11425.117322
526.793815	11536.431040
527.155964	11330.293218
527.518057	11380.873635
527.880093	11324.921868
528.242072	11398.721840
528.603995	11306.904785
528.965860	11224.771786
529.327669	11281.479725
529.689421	11225.709440
530.051117	11200.526356
530.412755	11301.989660
530.774337	11193.105778
531.135862	11174.377891
531.497331	11195.018896
531.858743	11049.264014
532.220098	11216.718542
532.581396	11089.875550
532.942638	11062.537373
533.303824	11027.811384
533.664953	11048.369210
534.026025	10955.712802
534.387040	11050.526823
534.747999	11056.765251
535.108902	11116.079467
535.469748	10871.512930
535.830537	10973.591254
536.191270	10953.146855
536.551947	10983.151802
536.912567	10974.649896
537.273131	10903.189020
537.633638	10880.687830
537.994089	10868.175686
538.354483	10818.318674
538.714821	10964.285284
539.075103	10977.672068
539.435328	10932.067270
539.795497	10765.769687
540.155609	10922.904973
540.515665	11013.408808
540.875665	10745.879814
541.235609	10813.900103
541.595496	10809.647890
541.955328	10964.199584
542.315102	10849.914106
542.674821	10798.552310
543.034483	10802.751591
543.394090	10805.428444
543.753640	10730.302649
544.113134	10954.288676
544.472571	10805.781325
544.831953	10957.477206
545.191278	10753.310475
545.550548	10786.740887
545.909761	10926.857237
546.268918	10902.062322
546.628019	10981.699950
546.987064	10846.428148
547.346053	10761.532597
547.704986	10870.950841
548.063863	10853.745383
548.422684	10845.409835
548.781449	10760.642833
549.140158	10859.709068
549.498811	10738.688608
549.857408	10593.619324
550.215949	10817.408746
550.574434	10683.258601
550.932864	10776.262848
551.291237	10834.969606
551.649555	10781.200659
552.007817	10787.625609
552.366022	10751.243602
552.724173	10751.586400
553.082267	10731.051260
553.440305	10867.235511
553.798288	10673.025059
554.156215	10829.782258
554.514086	10799.983998
554.871902	10648.588066
555.229661	10685.791781
555.587365	10666.113637
555.945014	10557.010465
556.302606	10688.372852
556.660143	10583.375699
557.017625	10733.327341
557.375050	10634.450150
557.732421	10768.141550
558.089735	10683.364465
558.446994	10676.269041
558.804197	10713.603827
559.161345	10718.387882
559.518437	10568.665613
559.875474	10658.657770
560.232455	10687.087358
560.589381	10635.108020
560.946251	10632.244645
561.303065	10735.772301
561.659825	10674.986068
562.016528	10603.210119
562.373177	10485.400874
562.729770	10602.310273
563.086307	10505.875521
563.442789	10605.108114
563.799216	10482.776954
564.155587	10531.187154
564.511904	10483.878446
564.868164	10475.626077
565.224370	10494.817750
565.580520	10416.342108
565.936615	10417.347818
566.292654	10291.034147
566.648638	10422.860320
567.004567	10373.693946
567.360441	10361.753973
567.716260	10270.526733
568.072023	10364.829077
568.427732	10316.136572
568.783385	10223.759949
569.138982	10300.435899
569.494525	10312.771602
569.850013	10184.585142
570.205445	10265.384756
570.560823	10164.511268
570.916145	10084.223331
571.271412	10157.466255
571.626625	10103.392318
571.981782	10076.752341
572.336884	10050.427435
572.691931	10057.064114
573.046923	10004.721814
573.401860	9961.294794
573.756743	9895.772397
574.111570	9935.111041
574.466342	9917.431715
574.821059	9953.876736
575.175722	9835.364251
575.530330	9848.493936
575.884882	9840.294499
576.239380	9771.666751
576.593823	9754.103371
576.948211	9761.944886
577.302544	9633.934866
577.656823	9664.209516
578.011047	9658.407148
578.365216	9630.736254
578.719330	9559.416530
579.073389	9564.215709
579.427394	9518.434470
579.781344	9490.798865
580.135239	9446.552657
580.489080	9450.388975
580.842866	9349.664201
581.196597	9355.096044
581.550273	9394.386797
581.903895	9363.532415
582.257463	9429.760574
582.610975	9308.026791
582.964434	9336.426131
583.317837	9259.687167
583.671186	9243.016071
584.024481	9234.907375
584.377721	9155.763780
584.730906	9127.815623
585.084037	9163.464143
585.437113	9098.339997
585.790135	9121.511660
586.143103	9018.339406
586.496016	8987.033840
586.848874	9045.294455
587.201679	9043.119197
587.554428	8923.293491
587.907124	8969.349472
588.259765	8941.580277
588.612352	8942.268394
588.964884	8817.935896
589.317362	8832.908123
589.669786	8838.125717
590.022155	8885.734374
590.374470	8900.454543
590.726731	8833.583638
591.078937	8692.582565
591.431090	8803.034245
591.783188	8670.340994
592.135232	8669.902413
592.487222	8659.139550
592.839157	8718.398313
593.191038	8653.639651
593.542866	8597.781146
593.894639	8496.219540
594.246358	8547.767859
594.598022	8562.611536
594.949633	8459.673695
595.301190	8437.490098
595.652692	8465.685271
596.004141	8579.393537
596.355535	8350.479782
596.706876	8334.955549
597.058162	8265.400229
597.409395	8341.423349
597.760573	8407.172598
598.111698	8313.276067
598.462768	8300.516907
598.813785	8269.796115
599.164748	8225.776760
599.515657	8218.330975
599.866511	8131.360989
600.217312	8260.137264
600.568060	8116.580326
600.918753	8222.772232
601.269392	8189.745113
601.619978	8103.357380
601.970510	8173.114346
602.320988	8164.604878
602.671412	8216.473310
603.021783	8158.973909
603.372100	8127.837223
603.722363	8125.006615
604.072572	8106.155220
604.422728	8117.575954
604.772830	8048.106333
605.122878	8051.516674
605.472872	8049.364101
605.822813	8074.673214
606.172701	8020.896706
606.522534	8102.621371
606.872314	8098.855629
607.222041	8071.320847
607.571714	8127.998540
607.921333	8083.102023
608.270899	8088.329700
608.620411	8175.743308
608.969870	8086.890451
609.319276	8077.919717
609.668627	8094.457222
610.017926	8127.595247
610.367171	8179.173813
610.716362	8151.283629
611.065500	8138.048080
611.414585	8170.626537
611.763616	8154.935945
612.112594	8132.472564
612.461518	8147.858165
612.810389	8211.059111
613.159207	8150.371180
613.507971	8102.903676
613.856682	8218.325934
614.205340	8176.597783
614.553945	8253.104855
614.902496	8146.633165
615.250994	8202.053090
615.599439	8183.955347
615.947830	8202.048048
616.296169	8171.357504
616.644454	8180.696241
616.992686	8184.449380
617.340864	8238.074654
617.688990	8142.307855
618.037063	8238.145231
618.385082	8185.434926
618.733048	8271.351311
619.080961	8206.411167
619.428821	8226.006132
619.776628	8230.827996
620.124382	8186.584309
620.472083	8164.889703
620.819731	8189.044392
621.167326	8086.915656
621.514868	8094.583251
621.862357	7979.604614
622.209793	8004.954057
622.557176	7935.968387
622.904506	7896.425576
623.251783	7835.697316
623.599007	7795.647869
623.946179	7795.514279
624.293297	7754.209585
624.640363	7669.646750
624.987376	7657.101838
625.334336	7601.959177
625.681243	7553.148205
626.028097	7537.548354
626.374899	7518.442381
626.721647	7510.295877
627.068343	7441.796678
627.414987	7413.488079
627.761577	7365.478650
628.108115	7408.749394
628.454600	7297.828886
628.801032	7349.498192
629.147412	7305.466234
629.493739	7299.888197
629.840014	7235.207673
630.186236	7289.780684
630.532405	7172.679721
630.878521	7221.962041
631.224585	7184.037441
631.570597	7103.084072
631.916556	7137.358877
632.262462	7133.018443
632.608316	7096.938905
632.954117	7071.944864
633.299866	7063.339615
633.645562	7048.150618
633.991206	6968.165151
634.336797	6914.494506
634.682336	6868.405757
635.027823	6839.880388
635.373257	6828.590724
635.718639	6759.358038
636.063968	6772.931345
636.409245	6671.311765
636.754470	6665.433780
637.099642	6626.725280
637.444762	6570.884419
637.789829	6577.079997
638.134845	6527.684251
638.479808	6505.682135
638.824719	6514.990626
639.169577	6442.350119
639.514383	6461.440969
639.859137	6387.220061
640.203839	6396.664663
640.548489	6384.434823
640.893086	6362.984714
641.237632	6333.221742
641.582125	6357.603282
641.926566	6323.678837
642.270955	6333.783830
642.615292	6331.752245
642.959576	6345.912846
643.303809	6337.110992
643.647990	6342.217681
643.992118	6327.958777
644.336195	6276.365088
644.680219	6303.330220
645.024192	6293.762110
645.368112	6390.537140
645.711981	6411.921715
646.055797	6489.366441
646.399562	6445.868845
646.743274	6567.108595
647.086935	6623.854343
647.430544	6618.135154
647.774101	6639.575181
648.117606	6646.254710
648.461059	6637.397403
648.804460	6594.116577
649.147810	6509.694894
649.491108	6478.089380
649.834354	6450.426048
650.177548	6370.092741
650.520690	6281.854904
650.863781	6270.262771
651.206820	6278.641169
651.549807	6200.364653
651.892742	6144.612012
652.235626	6153.257590
652.578458	6136.115147
652.921238	6048.280603
653.263967	6082.888124
653.606644	6025.602972
653.949269	6028.786461
654.291843	5966.583663
654.634365	6018.164750
654.976836	5971.115661
655.319255	5969.184899
655.661622	5947.394511
656.003938	5945.758657
656.346203	5904.519498
656.688416	5935.671308
657.030577	5891.004164
657.372687	5857.374627
657.714746	5846.405076
658.056753	5891.231016
658.398708	5831.160627
658.740612	5821.156457
659.082465	5870.196802
659.424266	5864.112129
659.766016	5862.347725
660.107715	5838.286298
660.449362	5850.097722
660.790958	5843.554304
661.132503	5828.632488
661.473996	5870.529518
661.815438	5858.314802
662.156829	5853.291293
662.498168	5844.295353
662.839456	5823.329195
663.180693	5853.538309
663.521879	5861.636923
663.863013	5850.710222
664.204097	5865.788313
664.545129	5905.865486
664.886110	5901.179733
665.227040	5939.363953
665.567918	5903.438170
665.908746	5928.901038
666.249522	5932.669301
666.590248	5917.077012
666.930922	5948.770746
667.271545	5959.924299
667.612118	5965.928313
667.952639	5936.291370
668.293109	5952.665038
668.633528	5913.838071
668.973896	5918.682620
669.314213	5909.860600
669.654480	5893.686058
669.994695	5883.616353
670.334859	5872.878696
670.674973	5870.912646
671.015035	5871.436926
671.355047	5868.087079
671.695008	5854.775912
672.034918	5824.244164
672.374777	5839.337379
672.714585	5820.612013
673.054342	5826.613506
673.394049	5819.523123
673.733705	5854.947312
674.073310	5838.601370
674.412864	5798.630061
674.752368	5788.023474
675.091820	5795.993538
675.431223	5730.241768
675.770574	5732.568261
676.109875	5683.074212
676.449125	5688.977403
676.788324	5655.846940
677.127473	5597.256130
677.466571	5590.664821
677.805619	5579.286937
678.144616	5572.927521
678.483562	5544.543305
678.822458	5511.470815
679.161303	5508.806565
679.500098	5499.009082
679.838842	5482.673223
680.177535	5486.363348
680.516179	5503.276419
680.854771	5511.702708
681.193314	5589.959060
681.531805	5699.810843
681.870247	5855.484194
682.208638	5955.097394
682.546978	5967.138190
682.885268	5943.157422
683.223508	5858.846644
683.561697	5802.627696
683.899836	5776.756495
684.237925	5730.652622
684.575963	5695.992169
684.913951	5652.318133
685.251889	5715.922371
685.589776	5684.621847
685.927614	5656.003216
686.265401	5721.717177
686.603137	5706.497934
686.940824	5783.249501
687.278460	5808.213295
687.616046	5815.424665
687.953582	5882.086363
688.291068	5862.133476
688.628504	5928.306182
688.965889	5889.837137
689.303224	5833.502243
689.640510	5786.188494
689.977745	5713.835333
690.314930	5611.658706
690.652065	5554.570160
690.989150	5464.940965
691.326185	5390.185694
691.663170	5335.106048
692.000105	5256.693420
692.336990	5184.899828
692.673825	5158.048122
693.010610	5091.935909
693.347345	5021.775651
693.684030	5002.485676
694.020665	4959.161999
694.357251	4871.153536
694.693786	4882.433117
695.030272	4846.335935
695.366707	4815.234537
695.703093	4781.005102
696.039429	4803.675171
696.375716	4782.736738
696.711952	4759.219756
697.048139	4744.857508
697.384276	4723.404878
697.720363	4736.146394
698.056400	4746.480760
698.392388	4695.045867
698.728326	4674.077188
699.064214	4652.856451
699.400053	4649.428466
699.735842	4612.706181
700.071581	4588.732974
700.407270	4563.542328
700.742910	4542.908885
701.078501	4497.024303
701.414042	4490.659846
701.749533	4463.591371
702.084974	4393.347933
702.420366	4453.713230
702.755709	4392.838776
703.091002	4334.918439
703.426246	4388.795771
703.761440	4344.252136
704.096584	4307.663441
704.431679	4324.430319
704.766725	4311.353566
705.101721	4297.593736
705.436668	4326.469465
705.771565	4277.487094
706.106413	4304.966424
706.441212	4334.938604
706.775961	4338.860622
707.110661	4324.941996
707.445311	4348.942929
707.779913	4371.849932
708.114465	4387.106984
708.448967	4406.210437
708.783421	4467.110096
709.117825	4506.589892
709.452180	4508.157691
709.786485	4555.312644
710.120742	4642.282630
710.454949	4624.273108
710.789107	4691.522101
711.123216	4765.407772
711.457275	4756.926031
711.791286	4829.712730
712.125247	4842.718907
712.459159	4747.554526
712.793023	4816.890556
713.126837	4780.042242
713.460602	4777.060399
713.794318	4695.910425
714.127985	4701.952248
714.461602	4619.852016
714.795171	4586.325823
715.128691	4524.365001
715.462162	4467.851146
715.795584	4420.103857
716.128957	4400.829005
716.462281	4350.881253
716.795556	4321.236748
717.128782	4280.037918
717.461960	4216.446283
717.795088	4225.094382
718.128167	4186.569884
718.461198	4127.142242
718.794180	4121.627220
719.127113	4098.868931
719.459997	4077.834717
719.792833	4037.792832
720.125619	4032.774363
720.458357	3992.442612
720.791046	3995.764732
721.123686	3971.741113
721.456278	3928.583795
721.788821	3947.288997
722.121315	3918.403185
722.453761	3894.833270
722.786158	3905.205444
723.118506	3929.236625
723.450805	3880.027401
723.783056	3906.148140
724.115259	3918.584667
724.447412	3919.819749
724.779518	3915.280190
725.111574	3915.925458
725.443582	3946.613482
725.775542	3934.489507
726.107453	3983.255109
726.439315	3980.162361
726.771129	3995.789938
727.102895	4033.401987
727.434612	4080.864450
727.766281	4089.620934
728.097901	4088.390893
728.429473	4095.584619
728.760996	4102.443109
729.092471	4097.928756
729.423897	4082.550716
729.755276	4090.850976
730.086606	4085.850151
730.417887	4123.109319
730.749120	4182.998227
731.080305	4244.081888
731.411442	4273.829737
731.742530	4244.553236
732.073570	4250.960543
732.404562	4298.191113
732.735506	4289.422026
733.066401	4257.403137
733.397249	4194.527346
733.728048	4118.421046
734.058798	4035.811658
734.389501	3966.563848
734.720156	3908.577976
735.050762	3861.775904
735.381320	3851.290304
735.711831	3805.496462
736.042293	3773.921195
736.372707	3796.124957
736.703073	3768.204527
737.033391	3758.454935
737.363661	3774.871453
737.693883	3803.452274
738.024056	3808.621978
738.354182	3806.610557
738.684260	3865.087942
739.014290	3883.102505
739.344272	3880.743245
739.674207	3920.422167
740.004093	3926.446346
740.333931	3920.338988
740.663722	3919.318154
740.993464	3916.134666
741.323159	3889.746746
741.652806	3860.684494
741.982405	3835.692974
742.311956	3808.158192
742.641460	3798.779125
742.970915	3775.194087
743.300323	3737.221595
743.629683	3703.120710
743.958996	3689.985984
744.288260	3666.017818
744.617477	3633.169659
744.946647	3619.397227
745.275768	3592.797579
745.604842	3590.395469
745.933869	3547.528017
746.262847	3533.432951
746.591778	3569.063826
746.920662	3544.155485
747.249498	3516.315713
747.578286	3556.203843
747.907027	3571.077767
748.235720	3574.936771
748.564365	3596.860749
748.892963	3595.446705
749.221514	3579.703182
749.550017	3556.329872
749.878473	3554.346178
750.206881	3526.080428
750.535242	3524.137063
750.863555	3521.621527
751.191821	3515.884694
751.520039	3499.374916
751.848210	3482.056032
752.176334	3510.833458
752.504411	3511.614837
752.832440	3478.023108
753.160421	3460.200109
753.488356	3467.532467
753.816243	3478.065958
754.144082	3438.077005
754.471875	3423.213163
754.799620	3441.409208
755.127318	3435.453085
755.454969	3431.657096
755.782572	3437.698919
756.110129	3415.094385
756.437638	3406.582397
756.765100	3413.955084
757.092515	3426.593257
757.419882	3434.402004
757.747203	3410.995927
758.074477	3409.571801
758.401703	3423.455139
758.728882	3443.360135
759.056014	3450.556382
759.383099	3453.084520
759.710138	3452.449335
760.037129	3472.387098
760.364073	3495.183196
760.690970	3482.446721
761.017820	3460.926035
761.344623	3477.229127
761.671379	3523.718648
761.998088	3571.544074
762.324751	3690.999256
762.651366	3928.404834
762.977935	4387.013723
763.304456	4809.333866
763.630931	4897.314603
763.957359	4556.220052
764.283740	4223.337540
764.610074	4037.029097
764.936362	3844.444417
765.262602	3693.615614
765.588796	3586.007144
765.914943	3503.284330
766.241044	3417.599838
766.567097	3389.840725
766.893104	3345.476050
767.219064	3317.661484
767.544978	3289.947741
767.870845	3235.732652
768.196665	3222.560117
768.522438	3226.557752
768.848165	3223.056670
769.173846	3186.437729
769.499479	3172.967766
769.825066	3152.931700
770.150607	3138.282107
770.476101	3152.969508
770.801548	3145.095226
771.126949	3106.500152
771.452303	3087.416864
771.777611	3093.773759
772.102872	3098.076384
772.428087	3073.321798
772.753256	3058.946948
773.078378	3054.006617
773.403453	3023.616021
773.728482	3015.199815
774.053465	3034.467105
774.378401	3019.567975
774.703291	2992.491937
775.028135	2992.219715
775.352932	2988.285095
775.677683	2974.031232
776.002388	2974.595841
776.327046	2975.483084
776.651658	2964.256435
776.976224	2952.127419
777.300743	2955.777214
777.625216	2943.645677
777.949643	2938.102929
778.274024	2939.690892
778.598359	2929.553132
778.922647	2937.739966
779.246889	2934.415325
779.571086	2919.770773
779.895236	2915.054773
780.219339	2926.435178
780.543397	2934.581683
780.867409	2938.483536
781.191374	2933.921292
781.515294	2928.834767
781.839167	2929.593461
782.162995	2920.272368
782.486776	2928.060950
782.810511	2926.389808
783.134201	2914.442273
783.457844	2918.870927
783.781441	2910.116963
784.104993	2892.125085
784.428498	2892.886299
784.751958	2906.373906
785.075372	2900.256466
785.398739	2889.186092
785.722061	2900.390057
786.045337	2908.196283
786.368568	2897.768657
786.691752	2889.667523
787.014891	2934.173349
787.337983	2964.203503
787.661030	2990.911536
787.984031	3051.493602
788.306987	3096.513627
788.629897	3091.648913
788.952760	3073.972107
789.275579	3059.327555
789.598351	3005.180522
789.921078	2961.050261
790.243759	2952.187913
790.566395	2934.808535
790.888984	2912.894639
791.211529	2894.323028
791.534027	2884.671739
791.856480	2876.540358
792.178888	2865.386805
792.501249	2856.458922
792.823566	2852.874661
793.145836	2848.241841
793.468062	2846.535410
793.790241	2846.719412
794.112375	2846.028774
794.434464	2860.524612
794.756507	2865.485108
795.078505	2868.464429
795.400457	2885.112840
795.722364	2921.792275
796.044226	2939.491767
796.366042	2941.893876
796.687812	2934.685026
797.009538	2948.762448
797.331218	2940.288269
797.652852	2923.186154
797.974442	2908.062693
798.295986	2905.355593
798.617484	2899.018863
798.938938	2886.078221
799.260346	2870.841333
799.581709	2864.991074
799.903026	2861.673995
800.224299	2854.477748
800.545526	2845.436439
800.866708	2830.255004
801.187845	2824.205619
801.508936	2821.755618
801.829983	2829.229129
802.150984	2818.950216
802.471940	2806.725418
802.792851	2807.012764
803.113717	2804.456899
803.434538	2809.230872
803.755314	2804.194759
804.076045	2799.745941
804.396731	2797.893317
804.717372	2799.498924
805.037967	2793.104221
805.358518	2801.190231
805.679024	2809.117446
805.999485	2807.262301
806.319901	2809.861016
806.640272	2803.864563
806.960598	2806.601910
807.280879	2818.544403
807.601115	2820.611277
807.921306	2810.556695
808.241453	2805.422280
808.561554	2813.924186
808.881611	2817.422747
809.201623	2806.463278
809.521590	2806.594348
809.841513	2806.480922
810.161390	2808.366314
810.481223	2803.269707
810.801011	2796.630508
811.120755	2789.953499
811.440453	2791.881741
811.760107	2792.363171
812.079716	2793.447019
812.399281	2778.769700
812.718801	2776.249123
813.038276	2769.556991
813.357707	2774.252826
813.677093	2782.243055
813.996434	2776.158382
814.315731	2772.833741
814.634983	2767.593462
814.954191	2770.580345
815.273354	2782.253137
815.592473	2789.645989
815.911547	2791.458284
816.230577	2798.135292
816.549562	2805.961683
816.868502	2803.836837
817.187399	2813.798157
817.506250	2829.849191
817.825058	2822.521874
818.143821	2832.621826
818.462539	2847.510873
818.781213	2871.358052
819.099843	2906.900707
819.418429	2960.825930
819.736970	3020.036802
820.055466	3086.885023
820.373919	3182.072090
820.692327	3306.250832
821.010691	3465.629432
821.329011	3886.863206
821.647286	4736.607660
821.965517	6042.062339
822.283704	6775.212467
822.601847	6753.016266
822.919945	6111.090859
823.237999	5607.464466
823.556010	5062.384666
823.873976	4544.592631
824.191897	4161.215401
824.509775	3880.763410
824.827609	3638.430103
825.145398	3521.331661
825.463144	3512.663397
825.780845	3594.879575
826.098502	3695.969833
826.416116	3959.357519
826.733685	4254.557406
827.051210	4315.731808
827.368692	4200.793500
827.686129	3948.571970
828.003522	3652.061383
828.320872	3409.445772
828.638177	3229.887434
828.955439	3111.183384
829.272656	3035.384595
829.589830	2971.414873
829.906960	2927.695467
830.224046	2887.315824
830.541088	2855.259127
830.858086	2841.884946
831.175041	2826.627894
831.491952	2823.237718
831.808819	2838.668690
832.125642	2856.363140
832.442421	2900.775705
832.759157	2974.260605
833.075849	3136.195069
833.392497	3399.897827
833.709101	3590.125767
834.025662	3537.289434
834.342179	3388.930797
834.658653	3226.204871
834.975083	3090.421392
835.291469	3000.214985
835.607811	2921.764549
835.924110	2867.199100
836.240366	2822.161431
836.556578	2785.008127
836.872746	2764.795621
837.188871	2745.482961
837.504952	2730.079715
837.820990	2721.955896
838.136984	2708.876622
838.452935	2703.671631
838.768842	2699.376568
839.084706	2720.037737
839.400526	2792.476597
839.716303	2914.412026
840.032037	2990.500682
840.347727	2977.197077
840.663373	2915.145514
840.978977	2844.556757
841.294537	2778.883126
841.610054	2734.437793
841.925527	2716.955071
842.240957	2697.100487
842.556344	2675.390758
842.871687	2663.705363
843.186987	2655.735299
843.502244	2653.199598
843.817458	2648.861686
844.132629	2635.013636
844.447756	2627.852677
844.762840	2621.384877
845.077881	2626.166411
845.392879	2619.093672
845.707833	2619.433950
846.022745	2609.996910
846.337613	2615.043105
846.652438	2614.009668
846.967221	2612.431787
847.281960	2612.656119
847.596656	2610.876591
847.911309	2607.403236
848.225919	2609.306272
848.540485	2604.519696
848.855009	2607.083123
849.169490	2604.991044
849.483928	2605.646394
849.798323	2605.636312
850.112675	2597.336052
850.426984	2603.120776
850.741251	2603.340066
851.055474	2601.343769
851.369654	2605.853082
851.683792	2606.309306
851.997887	2603.917278
852.311938	2602.352000
852.625947	2603.871908
852.939914	2606.228647
853.253837	2606.369800
853.567718	2603.695468
853.881555	2600.479212
854.195350	2605.835437
854.509103	2604.706219
854.822812	2602.039449
855.136479	2599.372678
855.450103	2602.480550
855.763685	2606.082454
856.077224	2602.157916
856.390720	2598.147678
856.704173	2602.878801
857.017584	2606.233689
857.330953	2607.052876
857.644278	2610.286776
857.957561	2609.235696
858.270802	2603.887032
858.584000	2605.802670
858.897155	2607.766199
859.210268	2609.873402
859.523339	2605.321240
859.836367	2598.697164
860.149352	2600.796804
860.462295	2602.651949
860.775195	2599.619695
861.088054	2597.368820
861.400869	2594.578541
861.713642	2595.163315
862.026373	2598.956783
862.339062	2597.598192
862.651708	2607.274687
862.964312	2606.904162
863.276873	2602.830910
863.589392	2606.707557
863.901869	2609.223093
864.214303	2614.460852
864.526696	2616.331120
864.839045	2617.757766
865.151353	2617.462859
865.463619	2621.165586
865.775842	2620.227932
866.088023	2615.242231
866.400162	2620.873199
866.712258	2618.763477
867.024313	2619.512088
867.336325	2611.869699
867.648296	2618.370267
867.960224	2622.423354
868.272110	2619.381018
868.583954	2612.517487
868.895755	2615.653085
869.207515	2620.144753
869.519233	2623.716410
869.830909	2624.603653
870.142542	2617.805657
870.454134	2617.077211
870.765684	2625.513582
871.077191	2626.597430
871.388657	2630.201855
871.700081	2627.328397
872.011463	2624.472583
872.322803	2627.676237
872.634101	2634.088584
872.945357	2638.602937
873.256571	2641.302475
873.567744	2638.769296
873.878874	2637.728297
874.189963	2636.931795
874.501010	2645.854637
874.812015	2647.752632
875.122979	2646.015954
875.433900	2640.697537
875.744780	2637.597227
876.055618	2643.139976
876.366415	2647.243475
876.677169	2648.629792
876.987882	2642.446817
877.298554	2640.697537
877.609183	2648.085348
877.919771	2653.844866
878.230317	2659.589261
878.540822	2670.268945
878.851285	2677.873526
879.161707	2697.627287
879.472087	2732.159191
879.782425	2773.168978
880.092722	2876.074051
880.402977	3043.952036
880.713191	3287.706948
881.023363	3568.658013
881.333494	3752.324892
881.643583	3913.253646
881.953631	3902.649579
882.263637	3732.792942
882.573602	3524.600849
882.883526	3399.333218
883.193408	3291.124850
883.503248	3196.451981
883.813048	3091.162442
884.122806	2989.406751
884.432522	2916.806574
884.742197	2857.497399
885.051831	2823.487255
885.361424	2794.409879
885.670975	2763.058944
885.980485	2733.996692
886.289954	2723.301884
886.599382	2709.330326
886.908768	2698.595189
887.218113	2685.515915
887.527417	2673.084430
887.836680	2667.123265
888.145901	2661.124292
888.455082	2653.053405
888.764221	2642.986221
889.073319	2636.621764
889.382376	2638.383647
889.691392	2634.403656
890.000366	2633.692854
890.309300	2636.256280
890.618193	2638.872639
890.927044	2638.953298
891.235855	2641.093267
891.544625	2639.550674
891.853353	2639.674183
892.162041	2647.490492
892.470687	2661.131854
892.779293	2675.239523
893.087858	2680.973836
893.396381	2700.833461
893.704864	2740.025912
894.013306	2802.828606
894.321707	2885.788355
894.630068	2930.034562
894.938387	2946.148610
895.246665	2934.629574
895.554903	2895.941238
895.863100	2855.090248
896.171256	2804.429173
896.479371	2753.309352
896.787446	2719.571430
897.095480	2701.292206
897.403473	2697.342462
897.711425	2684.734536
898.019336	2668.824655
898.327207	2656.735968
898.635038	2657.797131
898.942827	2654.444763
899.250576	2648.985194
899.558284	2637.430869
899.865952	2634.733852
900.173579	2630.950466
900.481165	2627.663634
900.788711	2620.532922
901.096216	2616.706686
901.403681	2614.213835
901.711105	2613.061932
902.018489	2611.027826
902.325832	2616.071500
902.633135	2616.429422
902.940397	2632.230919
903.247619	2663.213851
903.554800	2723.269116
903.861941	2836.889162
904.169041	2953.183540
904.476101	3006.274452
904.783121	3000.144409
905.090100	2949.069959
905.397039	2872.618340
905.703938	2808.731797
906.010796	2754.327665
906.317614	2711.243444
906.624391	2682.539114
906.931129	2656.272182
907.237826	2638.078657
907.544483	2620.472428
907.851099	2613.865996
908.157675	2603.171188
908.464211	2595.720362
908.770707	2590.611153
909.077163	2583.256109
909.383578	2579.835687
909.689954	2581.877354
909.996289	2578.310737
910.302584	2578.950964
910.608839	2576.647157
910.915054	2578.129256
911.221229	2579.689493
911.527363	2581.365677
911.833458	2580.924576
912.139513	2579.039184
912.445527	2579.941551
912.751502	2586.961358
913.057436	2590.056626
913.363331	2598.263624
913.669186	2604.280242
913.975000	2617.223404
914.280775	2631.603295
914.586510	2651.072232
914.892205	2682.294618
915.197859	2740.582959
915.503475	2813.120122
915.809050	2876.192518
916.114585	2889.614590
916.420081	2900.047258
916.725536	2903.316447
917.030952	2878.340050
917.336328	2837.859584
917.641665	2796.408697
917.946961	2751.282808
918.252218	2720.655278
918.557435	2700.251208
918.862612	2681.480472
919.167750	2665.477329
919.472848	2652.118271
919.777906	2637.196456
920.082925	2625.989971
920.387904	2618.624845
920.692843	2611.801643
920.997743	2608.683689
921.302603	2603.892073
921.607423	2596.567276
921.912204	2593.461925
922.216946	2591.390011
922.521647	2588.077973
922.826310	2585.627972
923.130932	2581.486664
923.435516	2578.658577
923.740059	2575.089440
924.044564	2575.102043
924.349028	2572.662125
924.653454	2564.616443
924.957840	2564.825651
925.262186	2561.952193
925.566493	2564.281206
925.870761	2559.552604
926.174989	2561.652245
926.479178	2559.522357
926.783328	2557.639486
927.087438	2555.350802
927.391509	2556.442212
927.695541	2555.285267
927.999533	2555.302911
928.303486	2552.522715
928.607400	2555.222253
928.911275	2549.437529
929.215110	2550.723023
929.518906	2551.932900
929.822663	2553.346944
930.126381	2551.723692
930.430060	2553.336861
930.733699	2550.367622
931.037299	2555.312994
931.340861	2550.377704
931.644383	2554.960113
931.947866	2549.500543
932.251309	2552.005997
932.554714	2553.551110
932.858080	2554.032541
933.161407	2555.552448
933.464694	2551.632951
933.767943	2548.545245
934.071153	2551.680842
934.374323	2550.702858
934.677455	2550.997766
934.980548	2549.329144
935.283602	2552.268137
935.586617	2549.460214
935.889593	2551.776624
936.192530	2550.791079
936.495428	2549.349309
936.798287	2549.641696
937.101108	2552.913404
937.403890	2553.999773
937.706632	2556.006152
938.009336	2556.359033
938.312002	2562.534447
938.614628	2561.677450
938.917216	2568.755230
939.219765	2569.282031
939.522275	2567.651218
939.824747	2568.263718
940.127179	2562.239539
940.429573	2560.565876
940.731929	2561.208623
941.034246	2557.904147
941.336524	2561.241391
941.638763	2558.488921
941.940964	2560.298695
942.243126	2558.914898
942.545250	2555.156718
942.847335	2558.950186
943.149381	2554.271995
943.451389	2555.282747
943.753359	2555.754095
944.055290	2554.410627
944.357182	2552.464742
944.659036	2552.379042
944.960851	2551.343085
945.262628	2550.425595
945.564367	2552.527756
945.866067	2551.990873
946.167729	2552.885678
946.469352	2550.145811
946.770937	2551.574978
947.072484	2550.523897
947.373992	2551.940462
947.675462	2551.484237
947.976893	2551.096068
948.278286	2548.492313
948.579641	2551.338044
948.880958	2549.853424
949.182236	2549.911397
949.483476	2548.532642
949.784678	2547.390820
950.085841	2549.840821
950.386967	2550.531459
950.688054	2550.206305
950.989103	2551.378373
951.290114	2550.332334
951.591087	2553.548590
951.892021	2552.898281
952.192917	2553.785524
952.493776	2554.723179
952.794596	2557.210988
953.095378	2555.560010
953.396122	2557.294167
953.696828	2556.290977
953.997496	2553.651933
954.298126	2552.391645
954.598718	2551.380894
954.899272	2550.637323
955.199788	2550.773435
955.500266	2547.947868
955.800706	2547.902497
956.101108	2542.573998
956.401472	2543.481406
956.701798	2541.906045
957.002087	2540.804553
957.302337	2544.187167
957.602550	2544.925696
957.902724	2539.977804
958.202861	2540.766744
958.502960	2539.166178
958.803022	2541.442259
959.103045	2538.810777
959.403031	2538.087371
959.702979	2539.914789
960.002889	2541.099460
960.302762	2538.107536
960.602596	2538.626774
960.902393	2535.899510
961.202153	2538.392361
961.501875	2537.363965
961.801559	2540.953267
962.101205	2535.115611
962.400814	2538.208359
962.700385	2538.389840
962.999918	2536.411187
963.299414	2535.556712
963.598873	2536.567463
963.898293	2536.481763
964.197677	2536.068389
964.497022	2536.385982
964.796331	2535.385312
965.095601	2538.546116
965.394835	2539.060314
965.694030	2533.048738
965.993189	2537.641229
966.292309	2536.088553
966.591393	2539.259439
966.890439	2536.159130
967.189447	2534.976979
967.488419	2536.307844
967.787353	2536.781712
968.086249	2535.370189
968.385108	2535.002185
968.683930	2534.586290
968.982714	2537.502597
969.281462	2535.087884
969.580172	2539.451003
969.878844	2536.244829
970.177480	2533.933460
970.476078	2535.271887
970.774639	2537.855478
971.073162	2537.978986
971.371649	2533.681402
971.670098	2534.125024
971.968510	2534.997144
972.266885	2533.061341
972.565223	2537.200128
972.863524	2538.248688
973.161788	2538.019315
973.460014	2536.572504
973.758204	2537.648791
974.056356	2538.485622
974.354471	2537.094264
974.652550	2537.711805
974.950591	2536.416228
975.248595	2534.654345
975.546563	2535.715508
975.844493	2536.915303
976.142386	2536.174253
976.440243	2537.709284
976.738062	2534.021680
977.035845	2535.937319
977.333590	2535.980169
977.631299	2534.301464
977.928971	2534.230888
978.226606	2533.240302
978.524204	2534.281300
978.821765	2536.038142
979.119290	2536.597710
979.416777	2536.325488
979.714228	2535.188707
980.011642	2533.681403
980.309020	2539.183822
980.606360	2535.712987
980.903664	2536.937988
981.200931	2535.546629
981.498162	2536.196938
981.795356	2536.859850
982.092513	2542.097609
982.389633	2542.057280
982.686717	2544.161961
982.983764	2546.652291
983.280775	2548.257899
983.577749	2547.894936
983.874686	2548.958619
984.171587	2543.960315
984.468451	2540.426466
984.765279	2541.293545
985.062070	2538.659542
985.358824	2541.288504
985.655543	2534.964376
985.952224	2535.566794
986.248869	2533.444468
986.545478	2531.992616
986.842050	2531.985054
987.138586	2531.773326
987.435086	2531.022194
987.731549	2529.663603
988.027975	2531.460774
988.324366	2533.363810
988.620719	2532.436237
988.917037	2531.130579
989.213318	2532.632842
989.509563	2533.893131
989.805772	2533.477236
990.101944	2536.448996
990.398080	2531.896834
990.694180	2532.169056
990.990244	2530.702081
991.286271	2530.989426
991.582262	2529.013294
991.878217	2533.230219
992.174136	2533.933460
992.470019	2533.368851
992.765865	2532.837009
993.061676	2532.607637
993.357450	2532.647966
993.653188	2532.945394
993.948890	2534.608975
994.244556	2532.032945
994.540186	2533.825075
994.835780	2533.822555
995.131337	2534.515713
995.426859	2533.283151
995.722345	2534.172915
996.017795	2538.488143
996.313208	2536.207021
996.608586	2535.292051
996.903928	2537.737011
997.199234	2535.859181
997.494504	2533.038655
997.789738	2532.161495
998.084936	2535.765920
998.380099	2532.219468
998.675225	2534.697195
998.970316	2533.492359
999.265371	2531.092770
999.560390	2531.591844
999.855373	2535.418080
1000.150320	2532.658048
1000.445232	2533.068902
1000.740108	2532.090918
1001.034948	2531.760723
1001.329752	2530.412214
1001.624521	2532.799201
1001.919254	2527.117820
1002.213951	2530.480270
1002.508613	2527.513551
1002.803239	2529.267872
1003.097829	2524.866945
1003.392384	2529.499765
1003.686903	2532.716022
1003.981386	2532.922709
1004.275834	2529.877852
1004.570246	2528.075639
1004.864623	2531.680064
1005.158964	2531.455733
1005.453270	2530.760054
1005.747540	2531.145702
1006.041775	2533.068902
1006.335974	2530.361803
1006.630138	2529.219981
1006.924266	2530.810465
1007.218359	2530.760054
1007.512416	2531.622091
1007.806438	2529.439272
1008.100425	2531.402801
1008.394376	2531.097811
1008.688292	2529.290557
1008.982172	2530.223171
1009.276017	2530.046731
1009.569827	2532.960518
1009.863602	2531.233922
1010.157341	2529.116638
1010.451045	2530.795342
1010.744714	2531.783408
1011.038347	2530.838192
1011.331945	2531.075126
1011.625508	2532.373223
1011.919036	2530.455064
1012.212528	2530.250897
1012.505986	2528.758716
1012.799408	2532.852133
1013.092795	2529.847605
1013.386147	2533.250384
1013.679464	2528.758716
1013.972745	2530.939015
1014.265992	2529.338448
1014.559204	2531.740558
1014.852380	2531.591844
1015.145521	2531.796011
1015.438628	2529.056144
1015.731699	2532.486649
1016.024736	2530.563449
1016.317737	2530.308871
1016.610703	2526.739734
1016.903635	2527.284178
1017.196531	2523.425175
1017.489393	2526.830474
1017.782219	2526.381812
1018.075011	2527.659744
1018.367768	2531.697708
1018.660490	2531.715353
1018.953177	2531.715353
1019.245829	2531.715353
