Dividing Wavelength (nm)	Counts (n)	Blue Motor Position (mm): 0.000000	Red Motor Position (mm): 31.400000	
326.493990	2127.644187
326.888308	2127.644187
327.282561	2127.644187
327.676750	2095.038003
328.070874	2094.342324
328.464933	2098.692840
328.858929	2100.326174
329.252859	2112.926538
329.646726	2123.938938
330.040528	2137.938223
330.434265	2154.049750
330.827938	2173.047339
331.221547	2189.557118
331.615091	2208.282483
332.008571	2228.109342
332.401986	2248.263875
332.795338	2267.906731
333.188625	2284.184616
333.581847	2303.310754
333.975006	2322.920843
334.368100	2343.224090
334.761129	2361.841071
335.154095	2376.110057
335.546996	2391.173024
335.939833	2411.314955
336.332606	2426.856832
336.725315	2439.747062
337.117960	2447.442384
337.510540	2457.849846
337.903056	2470.057000
338.295508	2475.589666
338.687896	2484.865389
339.080220	2492.848056
339.472480	2497.375012
339.864676	2504.775426
340.256807	2510.751714
340.648875	2509.922444
341.040879	2513.350429
341.432818	2513.456293
341.824694	2517.262364
342.216506	2516.329751
342.608253	2518.101717
342.999937	2514.852693
343.391557	2518.623476
343.783113	2514.542662
344.174605	2516.289422
344.566033	2513.468896
344.957397	2511.097033
345.348697	2510.023268
345.739934	2510.300531
346.131106	2507.832886
346.522215	2506.504542
346.913260	2504.251146
347.304241	2503.084119
347.695159	2499.686382
348.086012	2499.063799
348.476802	2496.976761
348.867528	2496.225629
349.258191	2495.149343
349.648789	2492.991729
350.039324	2493.115238
350.429796	2492.406955
350.820203	2486.090390
351.210548	2490.992912
351.600828	2488.328662
351.991045	2490.269506
352.381198	2487.375884
352.771288	2487.466625
353.161314	2485.755153
353.551276	2486.380256
353.941175	2484.477220
354.331010	2484.439412
354.720782	2487.842191
355.110490	2484.457056
355.500135	2485.283805
355.889717	2485.828250
356.279235	2485.800523
356.668689	2487.461583
357.058080	2489.455360
357.447408	2486.239104
357.836672	2485.573671
358.225873	2485.760194
358.615010	2485.309011
359.004084	2488.958806
359.393095	2490.219095
359.782043	2488.943683
360.170927	2488.449650
360.559748	2491.640700
360.948505	2494.143633
361.337199	2495.134220
361.725830	2495.262769
362.114398	2494.360403
362.502903	2495.981133
362.891344	2494.771257
363.279722	2496.369302
363.668037	2499.106649
364.056289	2497.657317
364.444478	2497.874087
364.832603	2498.564725
365.220665	2501.133193
365.608665	2498.327791
365.996601	2500.508090
366.384474	2498.952894
366.772284	2503.376506
367.160031	2503.827689
367.547715	2508.289111
367.935336	2509.251971
368.322893	2512.914369
368.710388	2515.737415
369.097820	2520.894516
369.485189	2526.255783
369.872495	2530.815507
370.259738	2536.635519
370.646918	2544.245140
371.034035	2552.860472
371.421090	2560.339024
371.808081	2573.380489
372.195010	2582.376428
372.581875	2597.356217
372.968678	2608.174533
373.355418	2616.734412
373.742096	2635.295941
374.128710	2650.986532
374.515262	2664.383398
374.901751	2683.685976
375.288177	2691.771987
375.674540	2718.590926
376.060841	2734.120200
376.447079	2751.111409
376.833254	2776.670059
377.219367	2786.323869
377.605417	2826.249807
377.991404	2834.214830
378.377329	2856.579909
378.763191	2872.840151
379.148991	2910.381624
379.534727	2938.685182
379.920402	2964.425313
380.306013	2976.461068
380.691563	3028.720190
381.077049	3046.777603
381.462474	3064.658575
381.847835	3103.488063
382.233134	3128.096455
382.618371	3129.505458
383.003545	3193.797813
383.388657	3203.028166
383.773706	3235.198289
384.158693	3251.045157
384.543618	3275.658590
384.928480	3314.921617
385.313280	3357.201774
385.698017	3356.599356
386.082692	3408.863519
386.467305	3416.883995
386.851856	3446.599076
387.236344	3469.896768
387.620770	3504.584948
388.005133	3526.871889
388.389435	3557.670819
388.773674	3567.115420
389.157851	3605.579424
389.541965	3623.152887
389.926018	3587.776589
390.310008	3660.918691
390.693936	3677.214220
391.077802	3717.172926
391.461606	3707.856874
391.845348	3769.003550
392.229027	3770.747789
392.612645	3785.195736
392.996200	3858.874720
393.379694	3901.573293
393.763125	3967.856904
394.146494	3931.918518
394.529801	3996.364629
394.913047	4043.418759
395.296230	4008.085312
395.679351	4064.692428
396.062410	4086.747477
396.445408	4068.122934
396.828343	4103.380764
397.211217	4121.460862
397.594028	4045.162998
397.976778	4110.125828
398.359466	4138.089108
398.742092	4164.787059
399.124656	4089.036160
399.507158	4167.597502
399.889598	4194.320658
400.271977	4258.670987
400.654294	4227.720823
401.036549	4233.916401
401.418742	4203.407338
401.800874	4304.976506
402.182944	4326.504753
402.564952	4390.862644
402.946898	4378.547105
403.328783	4380.581211
403.710606	4293.459990
404.092367	4483.884535
404.474067	4445.450778
404.855705	4454.986121
405.237282	4380.901324
405.618797	4493.281246
406.000250	4529.408675
406.381642	4610.563690
406.762972	4573.276796
407.144240	4584.488322
407.525447	4582.224844
407.906593	4639.895644
408.287677	4682.195966
408.668700	4609.142085
409.049661	4662.343902
409.430560	4702.194223
409.811399	4628.306031
410.192176	4788.284528
410.572891	4731.770673
410.953545	4831.724151
411.334138	4707.666396
411.714669	4779.396974
412.095139	4674.971992
412.475547	4818.624712
412.855894	4798.089572
413.236180	4809.797652
413.616405	4756.542903
413.996568	4848.823745
414.376670	4791.601607
414.756711	4745.457406
415.136691	4772.508237
415.516609	4855.407492
415.896466	4892.296135
416.276262	4927.874078
416.655997	4905.057816
417.035670	5088.507925
417.415283	5177.930432
417.794834	5125.915807
418.174324	5079.806893
418.553753	4985.481864
418.933121	5167.490203
419.312428	5239.072067
419.691674	5176.438251
420.070859	5299.162621
420.449983	5214.672882
420.829045	5323.682793
421.208047	5233.811623
421.586988	5306.288292
421.965867	5316.511752
422.344686	5450.682061
422.723444	5307.798117
423.102141	5124.650477
423.480777	5425.841776
423.859352	5190.760169
424.237866	5446.805414
424.616319	5439.150422
424.994712	5554.786929
425.373044	5424.488226
425.751314	5565.680863
426.129524	5374.031317
426.507673	5567.409978
426.885762	5652.078678
427.263789	5576.388273
427.641756	5466.269309
428.019662	5587.672896
428.397508	5590.707671
428.775292	5537.682294
429.153016	5638.381863
429.530679	5564.528959
429.908282	5645.505013
430.285824	5517.585734
430.663305	5790.244102
431.040726	5525.071848
431.418086	5526.521180
431.795385	5638.003776
432.172624	5648.716228
432.549802	5641.288088
432.926920	5654.833668
433.303977	5657.581097
433.680974	5700.083065
434.057910	5716.479418
434.434786	5726.680193
434.811601	5693.146438
435.188355	5931.348519
435.565050	5804.853366
435.941683	5790.047497
436.318257	5996.991903
436.694770	5980.777032
437.071222	6015.114852
437.447614	5949.105983
437.823946	5858.713053
438.200218	6011.986816
438.576429	5879.825406
438.952580	5972.806968
439.328670	6019.641808
439.704700	5928.520431
440.080670	5915.186579
440.456580	6189.755544
440.832429	6067.245423
441.208218	5914.440489
441.583947	6072.894036
441.959616	6076.158183
442.335224	6001.415516
442.710773	6139.681763
443.086261	6168.073542
443.461689	5961.567715
443.837057	6109.974243
444.212365	6263.205156
444.587612	6154.313712
444.962800	6309.611497
445.337927	6292.842099
445.712995	5900.075721
446.088002	6479.478217
446.462949	6308.189892
446.837837	6241.956692
447.212664	6410.691673
447.587431	6556.426390
447.962139	7093.636949
448.336786	8020.667333
448.711374	7760.836182
449.085901	6839.835018
449.460369	6756.250167
449.834776	6695.113573
450.209124	7082.483397
450.583412	7234.257415
450.957640	7381.713686
451.331808	7144.232490
451.705917	6700.316044
452.079965	6617.930987
452.453954	6832.946281
452.827883	6708.487754
453.201752	6799.394882
453.575562	6600.539007
453.949311	6805.802188
454.323001	6695.005188
454.696632	6766.904645
455.070202	6905.750625
455.443713	7057.413738
455.817164	7160.293606
456.190556	7237.088023
456.563888	7315.916546
456.937160	7363.111828
457.310373	7014.130392
457.683526	7042.587705
458.056619	6929.844820
458.429653	6918.814775
458.802628	6852.586617
459.175542	6967.222455
459.548398	7315.571227
459.921194	7479.053326
460.293930	7479.350754
460.666607	8012.198195
461.039224	8324.275865
461.411782	8449.641799
461.784280	8462.852143
462.156719	8358.490176
462.529099	8232.564673
462.901419	7815.631003
463.273680	7712.241979
463.645882	7729.671768
464.018024	7598.145544
464.390106	7759.422138
464.762130	8147.590984
465.134094	8617.023230
465.505999	9635.573241
465.877845	10850.748417
466.249631	11501.432829
466.621358	11119.114242
466.993026	10487.313992
467.364634	10224.077541
467.736184	9872.567966
468.107674	9545.407164
468.479105	9564.538342
468.850477	9330.535543
469.221790	9097.298998
469.593043	8773.568701
469.964238	8636.807238
470.335373	8648.200246
470.706449	8705.366931
471.077467	8683.309362
471.448425	9984.043001
471.819324	11054.486650
472.190164	11070.555328
472.560945	9834.776956
472.931667	9045.763283
473.302330	8906.090553
473.672934	8551.687356
474.043479	8900.802383
474.413965	8838.410542
474.784393	8721.589364
475.154761	8865.763843
475.525070	8950.722409
475.895321	8778.176316
476.265513	8950.828273
476.635645	9103.174463
477.005719	9100.812683
477.375734	9204.889824
477.745691	9434.779043
478.115588	9554.151045
478.485427	9790.069483
478.855207	10306.099635
479.224928	11093.232958
479.594591	11690.271932
479.964194	11503.093889
480.333739	11437.891606
480.703226	11343.712769
481.072653	11413.066443
481.442022	11623.327929
481.811333	11794.318827
482.180584	11582.698750
482.549777	11291.662856
482.918912	11097.056673
483.287988	11107.035638
483.657005	11099.325193
484.025964	10776.903075
484.394864	10880.634898
484.763706	10832.806951
485.132489	10582.831255
485.501213	10528.548110
485.869879	10573.802548
486.238487	10393.898891
486.607036	10477.077929
486.975527	10247.896993
487.343959	10402.216795
487.712333	10421.451317
488.080648	10321.815432
488.448905	10327.257358
488.817104	10242.787784
489.185244	10459.998500
489.553326	10554.777234
489.921350	11000.228711
490.289315	11878.604398
490.657222	12145.014256
491.025070	12017.057168
491.392861	11865.998993
491.760593	11505.170845
492.128267	11162.793320
492.495883	10840.686274
492.863440	10495.740281
493.230939	10160.826184
493.598380	10049.809894
493.965763	9883.923165
494.333088	9768.516030
494.700354	9641.892328
495.067563	9651.082351
495.434713	9454.542886
495.801805	9507.457358
496.168839	9393.625583
496.535815	9281.361608
496.902733	9232.379236
497.269593	9123.323955
497.636395	9150.810846
498.003139	9074.255884
498.369825	8927.449922
498.736453	8984.707348
499.103023	8876.617447
499.469535	8833.248401
499.835989	8772.752034
500.202385	8678.235441
500.568723	8505.512907
500.935003	8617.701265
501.301226	8376.182105
501.667390	8524.737347
502.033497	8522.909929
502.399546	8366.054427
502.765537	8231.017039
503.131470	8210.895273
503.497345	8262.173890
503.863163	7939.018285
504.228923	8068.487718
504.594625	8052.706386
504.960269	7811.835014
505.325856	7887.238073
505.691385	7678.332658
506.056856	7708.708130
506.422270	7644.461145
506.787625	7520.894903
507.152924	7506.101637
507.518164	7436.400123
507.883347	7317.375960
508.248472	7202.682148
508.613540	7258.696929
508.978550	7118.643593
509.343503	7035.406581
509.708398	7021.861001
510.073236	7006.041860
510.438016	6943.458456
510.802738	6837.153124
511.167403	6793.370703
511.532010	6662.245250
511.896561	6717.110648
512.261053	6676.630183
512.625488	6532.904366
512.989866	6456.094825
513.354186	6380.356530
513.718449	6260.329178
514.082655	6280.627383
514.446803	6164.756462
514.810894	6143.087063
515.174927	6018.358834
515.538904	5961.681141
515.902822	5948.438030
516.266684	5835.858983
516.630488	5740.656792
516.994235	5713.427000
517.357925	5649.782432
517.721558	5619.260766
518.085133	5553.836672
518.448651	5497.738712
518.812112	5392.411364
519.175516	5319.475950
519.538863	5297.226817
519.902152	5218.801587
520.265385	5191.302093
520.628560	5110.711687
520.991678	5030.612793
521.354739	4997.769676
521.717743	4917.690947
522.080690	4854.051421
522.443580	4815.289989
522.806413	4756.071555
523.169189	4705.410479
523.531908	4665.020755
523.894569	4566.504006
524.257174	4510.370758
524.619722	4480.053258
524.982213	4431.433850
525.344647	4373.677351
525.707025	4318.524607
526.069345	4289.515287
526.431608	4216.736149
526.793815	4193.042726
527.155964	4110.004840
527.518057	4074.905806
527.880093	4017.227444
528.242072	3987.151921
528.603995	3924.767642
528.965860	3872.984909
529.327669	3839.854446
529.689421	3794.138743
530.051117	3753.547372
530.412755	3722.710634
530.774337	3675.202800
531.135862	3631.443064
531.497331	3601.554063
531.858743	3545.262018
532.220098	3533.054864
532.581396	3486.797237
532.942638	3456.061322
533.303824	3424.725509
533.664953	3393.180489
534.026025	3356.057432
534.387040	3337.909278
534.747999	3314.092347
535.108902	3288.072432
535.469748	3243.102819
535.830537	3230.764595
536.191270	3199.398535
536.551947	3179.019671
536.912567	3154.754077
537.273131	3134.372692
537.633638	3108.947633
537.994089	3086.408634
538.354483	3064.656055
538.714821	3057.162380
539.075103	3036.798639
539.435328	3017.012110
539.795497	2991.773573
540.155609	2982.286122
540.515665	2972.682723
540.875665	2941.031839
541.235609	2928.093718
541.595496	2917.403951
541.955328	2904.947260
542.315102	2893.750857
542.674821	2876.157230
543.034483	2864.998636
543.394090	2852.952799
543.753640	2838.867815
544.113134	2835.255828
544.472571	2821.070022
544.831953	2813.427632
545.191278	2798.561270
545.550548	2792.103552
545.909761	2786.197840
546.268918	2778.343722
546.628019	2772.067486
546.987064	2760.636669
547.346053	2753.982346
547.704986	2749.450349
548.063863	2740.726632
548.422684	2738.926940
548.781449	2725.870352
549.140158	2724.526884
549.498811	2716.967674
549.857408	2707.104657
550.215949	2706.078782
550.574434	2700.803214
550.932864	2696.777853
551.291237	2693.937163
551.649555	2691.855166
552.007817	2690.252079
552.366022	2687.189578
552.724173	2682.067766
553.082267	2678.203722
553.440305	2675.007630
553.798288	2673.472599
554.156215	2670.831034
554.514086	2668.980931
554.871902	2664.660662
555.229661	2665.174859
555.587365	2662.356854
555.945014	2657.834939
556.302606	2656.317552
556.660143	2656.811585
557.017625	2655.389980
557.375050	2655.624393
557.732421	2652.849238
558.089735	2651.639361
558.446994	2648.609628
558.804197	2648.014772
559.161345	2647.233393
559.518437	2644.226345
559.875474	2644.370017
560.232455	2641.758700
560.589381	2640.594193
560.946251	2643.540748
561.303065	2639.908596
561.659825	2639.669142
562.016528	2637.877011
562.373177	2634.207051
562.729770	2637.274593
563.086307	2636.775519
563.442789	2632.319139
563.799216	2631.099180
564.155587	2632.672020
564.511904	2631.668830
564.868164	2630.494242
565.224370	2628.959210
565.580520	2625.705145
565.936615	2627.409055
566.292654	2621.997377
566.648638	2629.420476
567.004567	2625.659775
567.360441	2623.393776
567.716260	2622.256996
568.072023	2622.443519
568.427732	2623.202212
568.783385	2620.691718
569.138982	2617.049484
569.494525	2617.838425
569.850013	2615.751387
570.205445	2619.287757
570.560823	2618.743312
570.916145	2619.471759
571.271412	2619.834722
571.626625	2620.134670
571.981782	2616.827673
572.336884	2616.706686
572.691931	2618.471090
573.046923	2614.758280
573.401860	2614.392796
573.756743	2615.053187
574.111570	2611.579832
574.466342	2615.542179
574.821059	2615.824484
575.175722	2615.048146
575.530330	2613.455142
575.884882	2613.450100
576.239380	2612.804833
576.593823	2614.158382
576.948211	2611.685697
577.302544	2612.164606
577.656823	2611.287445
578.011047	2613.555965
578.365216	2609.671756
578.719330	2610.874071
579.073389	2608.759307
579.427394	2607.874584
579.781344	2607.120932
580.135239	2604.993565
580.489080	2604.053390
580.842866	2602.543564
581.196597	2609.245778
581.550273	2605.601024
581.903895	2607.292331
582.257463	2605.026332
582.610975	2605.273349
582.964434	2606.705037
583.317837	2604.940633
583.671186	2605.832917
584.024481	2607.007506
584.377721	2604.489449
584.730906	2603.952567
585.084037	2604.406270
585.437113	2603.335025
585.790135	2604.814604
586.143103	2603.062803
586.496016	2604.723863
586.848874	2597.840167
587.201679	2603.042638
587.554428	2598.394694
587.907124	2599.617174
588.259765	2595.861515
588.612352	2601.668924
588.964884	2602.246136
589.317362	2601.366455
589.669786	2601.139603
590.022155	2600.902668
590.374470	2601.895776
590.726731	2599.987699
591.078937	2600.035590
591.431090	2600.746393
591.783188	2599.193717
592.135232	2599.201279
592.487222	2599.037442
592.839157	2602.848554
593.191038	2600.948039
593.542866	2597.046186
593.894639	2596.857142
594.246358	2598.379571
594.598022	2600.330497
594.949633	2597.585589
595.301190	2593.051071
595.652692	2595.062492
596.004141	2597.951073
596.355535	2598.979468
596.706876	2596.474015
597.058162	2594.661720
597.409395	2596.743717
597.760573	2593.187182
598.111698	2595.387646
598.462768	2596.605085
598.813785	2593.678695
599.164748	2595.750609
599.515657	2595.657348
599.866511	2592.108376
600.217312	2595.997626
600.568060	2592.831781
600.918753	2594.830599
601.269392	2596.103490
601.619978	2593.560228
601.970510	2594.825557
602.320988	2594.497882
602.671412	2593.671133
603.021783	2594.691967
603.372100	2594.782708
603.722363	2594.482759
604.072572	2595.801021
604.422728	2595.508634
604.772830	2589.028231
605.122878	2586.961357
605.472872	2588.360278
605.822813	2589.842377
606.172701	2590.853128
606.522534	2591.604260
606.872314	2593.477049
607.222041	2591.924373
607.571714	2594.119796
607.921333	2592.599888
608.270899	2593.222471
608.620411	2592.735999
608.969870	2595.276741
609.319276	2592.985536
609.668627	2599.294540
610.017926	2598.046855
610.367171	2601.563060
610.716362	2602.730087
611.065500	2599.186156
611.414585	2596.083325
611.763616	2597.641042
612.112594	2597.530137
612.461518	2594.656679
612.810389	2596.499221
613.159207	2596.874787
613.507971	2595.334714
613.856682	2595.387646
614.205340	2595.319591
614.553945	2595.569128
614.902496	2596.579879
615.250994	2593.487131
615.599439	2592.730958
615.947830	2596.821854
616.296169	2594.351689
616.644454	2594.535691
616.992686	2592.257090
617.340864	2595.327152
617.688990	2594.472677
618.037063	2593.288006
618.385082	2594.215578
618.733048	2593.925712
619.080961	2594.439909
619.428821	2594.649117
619.776628	2591.513519
620.124382	2595.957297
620.472083	2592.163828
620.819731	2594.278592
621.167326	2593.756833
621.514868	2594.195413
621.862357	2591.558890
622.209793	2593.620722
622.557176	2588.715679
622.904506	2589.602922
623.251783	2583.515729
623.599007	2587.084866
623.946179	2587.888930
624.293297	2586.394228
624.640363	2589.582757
624.987376	2588.146029
625.334336	2589.365988
625.681243	2587.904053
626.028097	2587.500761
626.374899	2588.085535
626.721647	2588.856831
627.068343	2586.469845
627.414987	2587.873806
627.761577	2587.226018
628.108115	2586.222828
628.454600	2583.745101
628.801032	2584.400451
629.147412	2586.242993
629.493739	2585.569999
629.840014	2589.928077
630.186236	2587.488158
630.532405	2585.764083
630.878521	2585.247365
631.224585	2585.161666
631.570597	2581.710996
631.916556	2582.860379
632.262462	2586.134608
632.608316	2583.727457
632.954117	2583.810636
633.299866	2586.358940
633.645562	2585.350709
633.991206	2583.833322
634.336797	2580.813670
634.682336	2581.884916
635.027823	2579.371900
635.373257	2578.860223
635.718639	2580.848958
636.063968	2580.889288
636.409245	2578.260326
636.754470	2577.506673
637.099642	2579.886098
637.444762	2578.295614
637.789829	2576.790830
638.134845	2579.606314
638.479808	2576.148082
638.824719	2579.409709
639.169577	2576.624472
639.514383	2576.858885
639.859137	2574.799574
640.203839	2577.254616
640.548489	2575.805284
640.893086	2574.136662
641.237632	2572.762948
641.582125	2572.730180
641.926566	2571.633729
642.270955	2577.317630
642.615292	2575.787640
642.959576	2577.514235
643.303809	2576.233782
643.647990	2579.140007
643.992118	2576.362332
644.336195	2575.686817
644.680219	2575.686817
645.024192	2577.148752
645.368112	2577.486509
645.711981	2576.153124
646.055797	2577.209245
646.399562	2577.342836
646.743274	2577.090778
647.086935	2577.915007
647.430544	2578.976170
647.774101	2579.795357
648.117606	2577.163875
648.461059	2579.127404
648.804460	2582.870461
649.147810	2579.825604
649.491108	2576.768144
649.834354	2577.978021
650.177548	2580.498598
650.520690	2573.637588
650.863781	2574.391240
651.206820	2575.500294
651.549807	2573.219172
651.892742	2573.440983
652.235626	2574.764286
652.578458	2571.694223
652.921238	2572.742783
653.263967	2576.032136
653.606644	2572.641960
653.949269	2573.390571
654.291843	2573.352763
654.634365	2573.367886
654.976836	2573.786302
655.319255	2576.168247
655.661622	2571.704305
656.003938	2572.263873
656.346203	2572.203380
656.688416	2573.609862
657.030577	2572.944429
657.372687	2572.205900
657.714746	2572.115159
658.056753	2572.142886
658.398708	2565.420507
658.740612	2567.991496
659.082465	2565.423028
659.424266	2569.352607
659.766016	2570.570046
660.107715	2570.335632
660.449362	2569.801270
660.790958	2571.747155
661.132503	2571.159861
661.473996	2573.677917
661.815438	2573.803946
662.156829	2573.589697
662.498168	2574.000551
662.839456	2572.120201
663.180693	2572.904100
663.521879	2572.813359
663.863013	2574.197156
664.204097	2571.704305
664.545129	2572.657083
664.886110	2572.493246
665.227040	2573.335119
665.567918	2572.964594
665.908746	2571.744635
666.249522	2573.801425
666.590248	2572.495767
666.930922	2572.944429
667.271545	2571.802608
667.612118	2573.935016
667.952639	2573.851837
668.293109	2575.679255
668.633528	2569.428224
668.973896	2571.709347
669.314213	2572.374779
669.654480	2572.178174
669.994695	2570.378482
670.334859	2570.484346
670.674973	2570.741445
671.015035	2570.890159
671.355047	2572.636919
671.695008	2570.222206
672.034918	2571.583318
672.374777	2572.873853
672.714585	2572.251271
673.054342	2575.212948
673.394049	2570.416291
673.733705	2570.295303
674.073310	2571.709347
674.412864	2570.050807
674.752368	2571.111970
675.091820	2573.224213
675.431223	2569.309757
675.770574	2570.065930
676.109875	2565.801114
676.449125	2569.889490
676.788324	2566.887483
677.127473	2567.300857
677.466571	2561.611915
677.805619	2573.004923
678.144616	2570.005437
678.483562	2572.805798
678.822458	2569.118193
679.161303	2570.892680
679.500098	2570.592731
679.838842	2571.316137
680.177535	2568.752710
680.516179	2568.724983
680.854771	2568.772874
681.193314	2569.375292
681.531805	2569.264387
681.870247	2573.345201
682.208638	2575.273442
682.546978	2572.951991
682.885268	2570.575087
683.223508	2570.083574
683.561697	2572.851168
683.899836	2570.660787
684.237925	2571.797567
684.575963	2572.029460
684.913951	2571.235478
685.251889	2572.629357
685.589776	2571.313616
685.927614	2570.038204
686.265401	2572.480643
686.603137	2571.981569
686.940824	2570.655745
687.278460	2571.563153
687.616046	2572.362176
687.953582	2572.195818
688.291068	2573.138514
688.628504	2573.556929
688.965889	2572.057186
689.303224	2575.177660
689.640510	2571.512742
689.977745	2571.535427
690.314930	2567.845302
690.652065	2569.992834
690.989150	2567.126938
691.326185	2569.314798
691.663170	2565.755744
692.000105	2567.560477
692.336990	2569.183728
692.673825	2567.288255
693.010610	2564.928995
693.347345	2562.824313
693.684030	2560.364230
694.020665	2563.862791
694.357251	2559.103941
694.693786	2562.962945
695.030272	2562.783984
695.366707	2561.891699
695.703093	2564.135013
696.039429	2559.519837
696.375716	2563.842626
696.711952	2561.296843
697.048139	2561.064950
697.384276	2562.778943
697.720363	2562.380691
698.056400	2559.809703
698.392388	2561.538819
698.728326	2561.059909
699.064214	2560.777604
699.400053	2561.193500
699.735842	2561.117882
700.071581	2560.573438
700.407270	2560.311298
700.742910	2558.897254
701.078501	2559.562686
701.414042	2560.273489
701.749533	2558.123437
702.084974	2555.761656
702.420366	2559.237532
702.755709	2560.119734
703.091002	2556.079249
703.426246	2558.917419
703.761440	2555.461708
704.096584	2558.521688
704.431679	2555.439023
704.766725	2559.489590
705.101721	2558.118396
705.436668	2554.438353
705.771565	2556.777449
706.106413	2557.397511
706.441212	2558.078067
706.775961	2558.665361
707.110661	2558.231822
707.445311	2558.181410
707.779913	2555.809547
708.114465	2558.897254
708.448967	2560.288613
708.783421	2559.199723
709.117825	2560.011349
709.452180	2558.859445
709.786485	2559.779456
710.120742	2563.154508
710.454949	2561.536298
710.789107	2561.059909
711.123216	2557.594116
711.457275	2560.732234
711.791286	2559.817265
712.125247	2561.294323
712.459159	2560.361709
712.793023	2564.780281
713.126837	2562.967986
713.460602	2562.499158
713.794318	2561.737944
714.127985	2565.465877
714.461602	2564.412276
714.795171	2561.503531
715.128691	2558.589744
715.462162	2562.060578
715.795584	2561.092677
716.128957	2557.405072
716.462281	2558.773746
716.795556	2559.053530
717.128782	2558.466235
717.461960	2555.509599
717.795088	2555.849877
718.128167	2555.789383
718.461198	2555.809547
718.794180	2558.438509
719.127113	2555.030689
719.459997	2556.691749
719.792833	2555.801986
720.125619	2557.203426
720.458357	2555.280226
720.791046	2555.386090
721.123686	2554.874413
721.456278	2553.412479
721.788821	2552.721841
722.121315	2553.876265
722.453761	2553.914073
722.786158	2554.148487
723.118506	2553.760318
723.450805	2554.745864
723.783056	2555.602860
724.115259	2553.760318
724.447412	2552.671429
724.779518	2554.541697
725.111574	2554.864331
725.443582	2553.611604
725.775542	2554.224104
726.107453	2554.511450
726.439315	2558.020093
726.771129	2557.750392
727.102895	2557.735268
727.434612	2557.039589
727.766281	2557.246276
728.097901	2553.830894
728.429473	2554.277037
728.760996	2553.659495
729.092471	2552.182437
729.423897	2555.991029
729.755276	2555.741492
730.086606	2556.500185
730.417887	2557.810885
730.749120	2556.585885
731.080305	2557.929353
731.411442	2559.237532
731.742530	2557.112686
732.073570	2560.838098
732.404562	2559.514795
732.735506	2559.597974
733.066401	2559.187120
733.397249	2561.485887
733.728048	2558.362892
734.058798	2556.472459
734.389501	2556.003632
734.720156	2557.344579
735.050762	2553.142777
735.381320	2553.825853
735.711831	2550.828887
736.042293	2553.815771
736.372707	2553.636810
736.703073	2553.334341
737.033391	2549.422405
737.363661	2555.040771
737.693883	2552.900802
738.024056	2553.104968
738.354182	2553.997253
738.684260	2553.258723
739.014290	2554.501368
739.344272	2555.028168
739.674207	2558.264589
740.004093	2558.365412
740.333931	2557.455484
740.663722	2556.802655
740.993464	2553.036913
741.323159	2555.726368
741.652806	2554.203940
741.982405	2555.159238
742.311956	2551.910215
742.641460	2556.595967
742.970915	2552.938610
743.300323	2553.805689
743.629683	2552.656306
743.958996	2552.830225
744.288260	2549.913918
744.617477	2551.743857
744.946647	2547.784030
745.275768	2549.969371
745.604842	2546.070038
745.933869	2546.584236
746.262847	2547.723537
746.591778	2549.293856
746.920662	2551.761501
747.249498	2550.009700
747.578286	2552.545400
747.907027	2550.334854
748.235720	2551.222097
748.564365	2551.706048
748.892963	2550.171017
749.221514	2550.526418
749.550017	2551.085986
749.878473	2553.846018
750.206881	2547.544576
750.535242	2550.581871
750.863555	2548.356201
751.191821	2550.286963
751.520039	2549.669422
751.848210	2551.937941
752.176334	2553.082283
752.504411	2550.551624
752.832440	2548.658671
753.160421	2551.075904
753.488356	2549.621531
753.816243	2552.827705
754.144082	2550.934752
754.471875	2549.198074
754.799620	2551.126315
755.127318	2547.773948
755.454969	2549.555996
755.782572	2550.609597
756.110129	2550.196223
756.437638	2549.245965
756.765100	2551.509443
757.092515	2549.997097
757.419882	2549.797971
757.747203	2550.153373
758.074477	2548.792261
758.401703	2550.581871
758.728882	2550.324772
759.056014	2548.825029
759.383099	2550.065152
759.710138	2550.798640
760.037129	2552.515153
760.364073	2548.514998
760.690970	2550.740667
761.017820	2549.392158
761.344623	2552.699155
761.671379	2552.008517
761.998088	2548.260419
762.324751	2552.124464
762.651366	2558.315001
762.977935	2565.601989
763.304456	2570.683472
763.630931	2574.015674
763.957359	2570.622978
764.283740	2564.997050
764.610074	2561.443037
764.936362	2556.202757
765.262602	2553.520863
765.588796	2553.689742
765.914943	2552.744526
766.241044	2550.271840
766.567097	2549.545914
766.893104	2551.872406
767.219064	2545.888557
767.544978	2547.932744
767.870845	2546.153217
768.196665	2547.216901
768.522438	2548.857796
768.848165	2545.795295
769.173846	2547.040460
769.499479	2546.246478
769.825066	2545.449976
770.150607	2545.016437
770.476101	2544.474513
770.801548	2545.553320
771.126949	2544.351005
771.452303	2547.547096
771.777611	2542.561395
772.102872	2546.445604
772.428087	2544.973587
772.753256	2544.361087
773.078378	2545.283618
773.403453	2543.798998
773.728482	2543.025181
774.053465	2542.818494
774.378401	2542.684903
774.703291	2542.445448
775.028135	2543.108360
775.352932	2543.919986
775.677683	2543.118442
776.002388	2542.526107
776.327046	2543.680531
776.651658	2543.030222
776.976224	2541.051569
777.300743	2542.447969
777.625216	2542.059800
777.949643	2544.852599
778.274024	2541.321271
778.598359	2538.233564
778.922647	2538.263811
779.246889	2541.469985
779.571086	2538.626774
779.895236	2538.024357
780.219339	2541.974101
780.543397	2541.129707
780.867409	2544.290511
781.191374	2542.848741
781.515294	2541.396888
781.839167	2543.367980
782.162995	2539.216589
782.486776	2542.863864
782.810511	2543.360418
783.134201	2541.328833
783.457844	2541.585932
783.781441	2541.616179
784.104993	2543.365459
784.428498	2541.117104
784.751958	2542.871426
785.075372	2543.388144
785.398739	2540.396219
785.722061	2541.422094
786.045337	2539.209028
786.368568	2543.068031
786.691752	2540.973432
787.014891	2541.807742
787.337983	2537.742052
787.661030	2545.376879
787.984031	2544.240099
788.306987	2544.217414
788.629897	2545.041643
788.952760	2548.212528
789.275579	2545.301262
789.598351	2545.959133
789.921078	2545.835624
790.243759	2541.512835
790.566395	2543.073072
790.888984	2543.337733
791.211529	2538.941847
791.534027	2544.613145
791.856480	2541.719522
792.178888	2539.322454
792.501249	2541.739687
792.823566	2539.997968
793.145836	2540.953267
793.468062	2541.417053
793.790241	2542.087527
794.112375	2541.399409
794.434464	2538.641898
794.756507	2541.374203
795.078505	2540.446631
795.400457	2539.231713
795.722364	2539.710623
796.044226	2541.013761
796.366042	2538.725077
796.687812	2539.723225
797.009538	2542.589121
797.331218	2541.283463
797.652852	2544.419060
797.974442	2545.109698
798.295986	2542.667259
798.617484	2543.158772
798.938938	2541.074255
799.260346	2542.488298
799.581709	2540.655839
799.903026	2542.654656
800.224299	2541.016281
800.545526	2540.086188
800.866708	2539.413194
801.187845	2540.582742
801.508936	2539.367824
801.829983	2540.234902
802.150984	2541.593493
802.471940	2538.599048
802.792851	2542.551313
803.113717	2540.492001
803.434538	2541.228010
803.755314	2540.194573
804.076045	2539.120807
804.396731	2540.507125
804.717372	2538.914120
805.037967	2543.564585
805.358518	2538.097453
805.679024	2540.968390
805.999485	2539.876981
806.319901	2537.311033
806.640272	2542.397558
806.960598	2539.418236
807.280879	2539.198945
807.601115	2542.576518
807.921306	2541.139790
808.241453	2538.972093
808.561554	2538.218441
808.881611	2540.277752
809.201623	2541.762372
809.521590	2541.006199
809.841513	2540.381096
810.161390	2542.644574
810.481223	2538.026877
810.801011	2542.856303
811.120755	2540.146682
811.440453	2540.086188
811.760107	2537.061496
812.079716	2538.788091
812.399281	2538.019315
812.718801	2539.060314
813.038276	2534.321629
813.357707	2541.210366
813.677093	2539.115766
813.996434	2538.452855
814.315731	2540.658359
814.634983	2538.893956
814.954191	2539.488812
815.273354	2539.950077
815.592473	2538.490663
815.911547	2541.966539
816.230577	2542.528627
816.549562	2541.487629
816.868502	2542.276570
817.187399	2544.532486
817.506250	2538.326826
817.825058	2541.401930
818.143821	2543.264636
818.462539	2541.580891
818.781213	2542.195911
819.099843	2543.879657
819.418429	2548.005841
819.736970	2549.797971
820.055466	2549.215718
820.373919	2552.739485
820.692327	2557.014383
821.010691	2563.983778
821.329011	2579.828125
821.647286	2610.299379
821.965517	2645.509318
822.283704	2666.167967
822.601847	2672.426559
822.919945	2656.574651
823.237999	2639.212917
823.556010	2616.300873
823.873976	2602.115066
824.191897	2586.961357
824.509775	2580.440625
824.827609	2574.343349
825.145398	2568.742627
825.463144	2567.709191
825.780845	2569.730694
826.098502	2571.845458
826.416116	2579.208063
826.733685	2593.265320
827.051210	2595.082656
827.368692	2592.856987
827.686129	2578.961046
828.003522	2572.311764
828.320872	2555.640669
828.638177	2555.184444
828.955439	2549.457693
829.272656	2547.471479
829.589830	2544.028371
829.906960	2545.933927
830.224046	2545.369318
830.541088	2545.689431
830.858086	2545.016437
831.175041	2546.221273
831.491952	2544.857641
831.808819	2543.176416
832.125642	2544.078782
832.442421	2542.947043
832.759157	2549.089689
833.075849	2556.905998
833.392497	2560.749878
833.709101	2567.784808
834.025662	2569.876887
834.342179	2566.544684
834.658653	2560.228119
834.975083	2553.520863
835.291469	2558.493962
835.607811	2545.134904
835.924110	2545.507949
836.240366	2541.056611
836.556578	2543.705737
836.872746	2542.742877
837.188871	2538.684748
837.504952	2542.276570
837.820990	2539.017464
838.136984	2538.921682
838.452935	2537.792463
838.768842	2539.723225
839.084706	2540.081147
839.400526	2542.475695
839.716303	2545.112219
840.032037	2551.839639
840.347727	2552.605894
840.663373	2549.460214
840.978977	2544.693803
841.294537	2540.739018
841.610054	2542.914276
841.925527	2539.539223
842.240957	2536.310364
842.556344	2537.968904
842.871687	2536.474202
843.186987	2536.653163
843.502244	2535.798687
843.817458	2535.960004
844.132629	2535.869263
844.447756	2534.674510
844.762840	2530.553367
845.077881	2533.487318
845.392879	2530.792821
845.707833	2535.191228
846.022745	2530.175280
846.337613	2536.012936
846.652438	2535.251722
846.967221	2537.144675
847.281960	2538.485622
847.596656	2535.556712
847.911309	2534.341794
848.225919	2537.671476
848.540485	2533.661238
848.855009	2535.249201
849.169490	2531.180990
849.483928	2533.638553
849.798323	2533.315919
850.112675	2536.632998
850.426984	2534.477905
850.741251	2535.498738
851.055474	2534.054448
851.369654	2534.062010
851.683792	2535.168543
851.997887	2535.622247
852.311938	2533.764582
852.625947	2536.794315
852.939914	2532.584952
853.253837	2533.288192
853.567718	2536.275076
853.881555	2534.956814
854.195350	2533.857843
854.509103	2536.474202
854.822812	2534.586290
855.136479	2531.977493
855.450103	2534.530837
855.763685	2534.782895
856.077224	2534.311547
856.390720	2532.784077
856.704173	2535.990251
857.017584	2534.513193
857.330953	2532.552184
857.644278	2538.407484
857.957561	2537.023687
858.270802	2535.632329
858.584000	2530.974303
858.897155	2534.737524
859.210268	2531.954807
859.523339	2534.760209
859.836367	2536.746424
860.149352	2534.876156
860.462295	2534.944212
860.775195	2533.222657
861.088054	2529.434230
861.400869	2532.486649
861.713642	2528.030269
862.026373	2530.971782
862.339062	2535.491177
862.651708	2535.544109
862.964312	2532.826927
863.276873	2534.855991
863.589392	2537.144675
863.901869	2534.097298
864.214303	2535.357586
864.526696	2535.067720
864.839045	2538.377237
865.151353	2535.992772
865.463619	2536.353214
865.775842	2536.857329
866.088023	2533.918337
866.400162	2536.169212
866.712258	2536.438914
867.024313	2535.223996
867.336325	2534.674510
867.648296	2535.902031
867.960224	2536.111239
868.272110	2534.291382
868.583954	2537.011085
868.895755	2534.566125
869.207515	2534.762730
869.519233	2538.747762
869.830909	2535.871784
870.142542	2535.574356
870.454134	2535.042514
870.765684	2536.627957
871.077191	2535.506300
871.388657	2538.830941
871.700081	2535.418080
872.011463	2536.854809
872.322803	2536.864891
872.634101	2537.295910
872.945357	2534.180477
873.256571	2539.050231
873.567744	2536.789274
873.878874	2538.684748
874.189963	2536.559901
874.501010	2537.926054
874.812015	2537.036290
875.122979	2536.340611
875.433900	2539.456044
875.744780	2540.270191
876.055618	2536.690971
876.366415	2537.366486
876.677169	2538.094933
876.987882	2536.199459
877.298554	2534.863553
877.609183	2535.544109
877.919771	2534.150230
878.230317	2535.602082
878.540822	2542.122815
878.851285	2540.592824
879.161707	2540.988555
879.472087	2545.054246
879.782425	2548.895605
880.092722	2553.896429
880.402977	2564.417318
880.713191	2582.545307
881.023363	2597.323449
881.333494	2613.472786
881.643583	2613.702158
881.953631	2613.936572
882.263637	2607.131014
882.573602	2601.313523
882.883526	2591.987388
883.193408	2584.097982
883.503248	2574.761765
883.813048	2569.987792
884.122806	2565.324725
884.432522	2559.328273
884.742197	2554.461039
885.051831	2552.363919
885.361424	2543.549461
885.670975	2548.086500
885.980485	2546.929555
886.289954	2545.608772
886.599382	2542.279090
886.908768	2544.177085
887.218113	2542.253885
887.527417	2541.936292
887.836680	2543.289842
888.145901	2542.213555
888.455082	2536.877494
888.764221	2535.677699
889.073319	2537.545447
889.382376	2538.767927
889.691392	2540.106353
890.000366	2537.903369
890.309300	2537.626105
890.618193	2536.335570
890.927044	2538.669624
891.235855	2539.231713
891.544625	2537.661393
891.853353	2537.454706
892.162041	2541.225489
892.470687	2541.832948
892.779293	2540.277752
893.087858	2539.498894
893.396381	2542.208514
893.704864	2545.313865
894.013306	2546.692621
894.321707	2557.609239
894.630068	2561.269117
894.938387	2564.571073
895.246665	2562.395815
895.554903	2557.997408
895.863100	2554.120761
896.171256	2553.762839
896.479371	2549.717313
896.787446	2547.930224
897.095480	2547.287477
897.403473	2543.680531
897.711425	2541.452341
898.019336	2541.374203
898.327207	2537.878163
898.635038	2539.143493
898.942827	2540.431507
899.250576	2539.367824
899.558284	2540.413863
899.865952	2538.430169
900.173579	2538.369676
900.481165	2538.210879
900.788711	2535.695343
901.096216	2537.873122
901.403681	2535.281969
901.711105	2540.013092
902.018489	2536.489325
902.325832	2539.214069
902.633135	2539.773637
902.940397	2539.579552
903.247619	2537.311033
903.554800	2546.977446
903.861941	2555.353323
904.169041	2568.737586
904.476101	2572.647001
904.783121	2574.013154
905.090100	2567.832699
905.397039	2562.700805
905.703938	2553.984650
906.010796	2551.083466
906.317614	2545.787733
906.624391	2542.894111
906.931129	2540.711292
907.237826	2538.967052
907.544483	2538.410005
907.851099	2537.870601
908.157675	2536.839685
908.464211	2535.259284
908.770707	2528.640249
909.077163	2533.371372
909.383578	2533.076464
909.689954	2531.682585
909.996289	2530.051772
910.302584	2533.860363
910.608839	2532.998326
910.915054	2531.092770
911.221229	2533.522606
911.527363	2533.262987
911.833458	2534.205682
912.139513	2535.463450
912.445527	2534.046886
912.751502	2536.927906
913.057436	2534.364479
913.363331	2534.031763
913.669186	2535.980169
913.975000	2538.720036
914.280775	2541.051569
914.586510	2544.010727
914.892205	2547.990718
915.197859	2553.157900
915.503475	2557.639486
915.809050	2565.473439
916.114585	2568.987123
916.420081	2572.493246
916.725536	2570.915365
917.030952	2565.319684
917.336328	2564.122410
917.641665	2558.125957
917.946961	2553.314176
918.252218	2549.283774
918.557435	2548.749411
918.862612	2544.391334
919.167750	2544.242620
919.472848	2541.270860
919.777906	2539.768596
920.082925	2539.294727
920.387904	2537.570653
920.692843	2537.106867
920.997743	2537.825231
921.302603	2537.177443
921.607423	2538.120138
921.912204	2536.746424
922.216946	2539.332536
922.521647	2534.278779
922.826310	2530.996988
923.130932	2532.088398
923.435516	2536.317926
923.740059	2532.824406
924.044564	2532.905065
924.349028	2532.746268
924.653454	2528.499096
924.957840	2533.303316
925.262186	2527.574045
925.566493	2531.475898
925.870761	2526.999353
926.174989	2534.210724
926.479178	2530.886083
926.783328	2529.018335
927.087438	2530.649148
927.391509	2532.206865
927.695541	2530.233253
927.999533	2531.697708
928.303486	2529.766947
928.607400	2533.779705
928.911275	2531.407842
929.215110	2530.392050
929.518906	2527.778211
929.822663	2531.364992
930.126381	2527.490866
930.430060	2532.456402
930.733699	2530.709642
931.037299	2533.454551
931.340861	2527.967255
931.644383	2530.931453
931.947866	2530.165198
932.251309	2530.797862
932.554714	2533.000847
932.858080	2531.473377
933.161407	2531.581762
933.464694	2529.159487
933.767943	2531.659900
934.071153	2531.591844
934.374323	2528.914992
934.677455	2531.259128
934.980548	2529.565300
935.283602	2530.823068
935.586617	2530.782739
935.889593	2528.723428
936.192530	2529.421627
936.495428	2527.647141
936.798287	2529.265352
937.101108	2533.320960
937.403890	2532.569828
937.706632	2535.120652
938.009336	2527.390042
938.312002	2534.576207
938.614628	2535.103008
938.917216	2535.415559
939.219765	2532.884900
939.522275	2533.630991
939.824747	2535.012267
940.127179	2527.871473
940.429573	2528.950280
940.731929	2527.805938
941.034246	2527.571524
941.336524	2532.229550
941.638763	2530.684437
941.940964	2531.937163
942.243126	2529.593027
942.545250	2531.990095
942.847335	2530.573531
943.149381	2532.443799
943.451389	2532.300126
943.753359	2531.725435
944.055290	2531.009591
944.357182	2529.537574
944.659036	2528.806607
944.960851	2529.857687
945.262628	2532.632843
945.564367	2530.613860
945.866067	2530.248377
946.167729	2531.793490
946.469352	2532.529499
946.770937	2528.408356
947.072484	2530.823068
947.373992	2529.860208
947.675462	2528.736031
947.976893	2529.835002
948.278286	2528.930115
948.579641	2531.702750
948.880958	2531.359951
949.182236	2529.666123
949.483476	2528.463808
949.784678	2531.014632
950.085841	2528.357944
950.386967	2531.049920
950.688054	2528.584796
950.989103	2528.405835
951.290114	2530.013963
951.591087	2532.285003
951.892021	2528.950280
952.192917	2533.625950
952.493776	2529.875331
952.794596	2532.375744
953.095378	2532.564787
953.396122	2530.427338
953.696828	2528.741072
953.997496	2533.247863
954.298126	2528.294930
954.598718	2534.656866
954.899272	2528.907430
955.199788	2531.654859
955.500266	2531.261649
955.800706	2525.466842
956.101108	2525.544980
956.401472	2525.958355
956.701798	2523.155473
957.002087	2526.762419
957.302337	2527.644621
957.602550	2529.396422
957.902724	2529.144364
958.202861	2529.852646
958.502960	2528.345341
958.803022	2530.591175
959.103045	2527.569003
959.403031	2527.858870
959.702979	2526.054137
960.002889	2526.023890
960.302762	2528.521782
960.602596	2527.964734
960.902393	2526.646472
961.202153	2528.675537
961.501875	2524.090607
961.801559	2527.294261
962.101205	2526.260824
962.400814	2527.430372
962.700385	2528.350382
962.999918	2527.856349
963.299414	2526.916174
963.598873	2526.104548
963.898293	2526.890968
964.197677	2525.204702
964.497022	2526.442306
964.796331	2525.154291
965.095601	2529.779549
965.394835	2527.967255
965.694030	2527.155629
965.993189	2529.340969
966.292309	2528.420958
966.591393	2526.018849
966.890439	2526.946421
967.189447	2526.560773
967.488419	2526.286030
967.787353	2529.250228
968.086249	2526.225536
968.385108	2526.603623
968.683930	2528.526823
968.982714	2528.080681
969.281462	2530.208047
969.580172	2527.989940
969.878844	2525.739065
970.177480	2526.427182
970.476078	2529.366175
970.774639	2529.769467
971.073162	2525.739065
971.371649	2523.457942
971.670098	2523.543642
971.968510	2526.306194
972.266885	2522.568179
972.565223	2527.730320
972.863524	2526.601102
973.161788	2528.761236
973.460014	2527.901720
973.758204	2528.597399
974.056356	2526.641431
974.354471	2528.093283
974.652550	2524.168745
974.950591	2526.671678
975.248595	2529.945908
975.546563	2526.873324
975.844493	2527.800897
976.142386	2524.602284
976.440243	2526.734693
976.738062	2528.799045
977.035845	2527.901720
977.333590	2529.225023
977.631299	2526.180166
977.928971	2524.947603
978.226606	2527.347193
978.524204	2528.615043
978.821765	2526.729651
979.119290	2529.749303
979.416777	2526.109589
979.714228	2528.378109
980.011642	2529.227543
980.309020	2529.151926
980.606360	2528.126051
980.903664	2527.674868
981.200931	2526.744775
981.498162	2525.658406
981.795356	2528.559590
982.092513	2530.913809
982.389633	2527.861390
982.686717	2529.101514
982.983764	2530.127389
983.280775	2528.355423
983.577749	2531.044879
983.874686	2528.420958
984.171587	2525.358458
984.468451	2526.207892
984.765279	2529.961031
985.062070	2527.019518
985.358824	2526.911133
985.655543	2525.459281
985.952224	2529.530012
986.248869	2526.838036
986.545478	2522.908457
986.842050	2522.646317
987.138586	2525.386184
987.435086	2524.695546
987.731549	2521.970802
988.027975	2527.909281
988.324366	2525.544980
988.620719	2527.377440
988.917037	2528.249559
989.213318	2527.440454
989.509563	2526.601102
989.805772	2527.982378
990.101944	2526.633869
990.398080	2528.836854
990.694180	2525.716379
990.990244	2525.187058
991.286271	2526.981709
991.582262	2527.248890
991.878217	2528.332738
992.174136	2527.730320
992.470019	2525.698735
992.765865	2527.309384
993.061676	2527.498427
993.357450	2526.104548
993.653188	2526.167563
993.948890	2526.230577
994.244556	2525.819723
994.540186	2528.534384
994.835780	2526.124713
995.131337	2525.882737
995.426859	2525.050947
995.722345	2525.552542
996.017795	2526.369209
996.313208	2525.678571
996.608586	2526.439785
996.903928	2525.061029
997.199234	2524.330062
997.494504	2528.799045
997.789738	2526.999353
998.084936	2526.278468
998.380099	2524.786287
998.675225	2526.462470
998.970316	2526.815351
999.265371	2526.212933
999.560390	2522.986595
999.855373	2524.410721
1000.150320	2524.027593
1000.445232	2527.637059
1000.740108	2528.418438
1001.034948	2526.195289
1001.329752	2524.282171
1001.624521	2528.297450
1001.919254	2522.658920
1002.213951	2526.452388
1002.508613	2524.375433
1002.803239	2522.968951
1003.097829	2520.733199
1003.392384	2527.143026
1003.686903	2525.842408
1003.981386	2522.986595
1004.275834	2530.112266
1004.570246	2527.425331
1004.864623	2525.587830
1005.158964	2525.126564
1005.453270	2524.325021
1005.747540	2525.849970
1006.041775	2527.319466
1006.335974	2526.848118
1006.630138	2524.612367
1006.924266	2524.138498
1007.218359	2525.451719
1007.512416	2527.594209
1007.806438	2522.903416
1008.100425	2524.277130
1008.394376	2526.139836
1008.688292	2526.563293
1008.982172	2525.597912
1009.276017	2526.815351
1009.569827	2524.874507
1009.863602	2529.162008
1010.157341	2521.882582
1010.451045	2527.402645
1010.744714	2523.087418
1011.038347	2526.717048
1011.331945	2526.777542
1011.625508	2524.619928
1011.919036	2527.206040
1012.212528	2523.152953
1012.505986	2525.713859
1012.799408	2524.577079
1013.092795	2524.864424
1013.386147	2524.171266
1013.679464	2526.333921
1013.972745	2524.314939
1014.265992	2526.056657
1014.559204	2526.344003
1014.852380	2525.101359
1015.145521	2529.524971
1015.438628	2523.173117
1015.731699	2526.923736
1016.024736	2526.923736
1016.317737	2525.169414
1016.610703	2524.995494
1016.903635	2524.617408
1017.196531	2523.773015
1017.489393	2521.817047
1017.782219	2519.417458
1018.075011	2522.235463
1018.367768	2525.865093
1018.660490	2525.431554
1018.953177	2525.431554
1019.245829	2525.431554
