Dividing Wavelength (nm)	Counts (n)	Blue Motor Position (mm): 0.000000	Red Motor Position (mm): 41.100000	
326.493990	2126.285596
326.888308	2126.285596
327.282561	2126.285596
327.676750	2095.224526
328.070874	2094.581779
328.464933	2098.450865
328.858929	2103.613006
329.252859	2112.974429
329.646726	2124.385081
330.040528	2137.827317
330.434265	2154.737868
330.827938	2173.921979
331.221547	2189.027796
331.615091	2209.315920
332.008571	2227.605226
332.401986	2249.370408
332.795338	2265.250043
333.188625	2285.873403
333.581847	2304.969294
333.975006	2323.556028
334.368100	2343.135869
334.761129	2359.345700
335.154095	2373.826414
335.546996	2395.193345
335.939833	2418.740574
336.332606	2428.956473
336.725315	2441.309820
337.117960	2453.572427
337.510540	2461.776905
337.903056	2472.496918
338.295508	2480.991263
338.687896	2487.290184
339.080220	2500.934067
339.472480	2506.267608
339.864676	2510.068638
340.256807	2513.446211
340.648875	2514.698938
341.040879	2520.345030
341.432818	2521.315452
341.824694	2521.683456
342.216506	2521.514578
342.608253	2522.830319
342.999937	2522.865607
343.391557	2521.365864
343.783113	2522.497603
344.174605	2521.592716
344.566033	2520.687828
344.957397	2517.002745
345.348697	2516.700276
345.739934	2516.092817
346.131106	2510.577794
346.522215	2511.439832
346.913260	2508.664677
347.304241	2506.819614
347.695159	2506.411281
348.086012	2503.442041
348.476802	2500.475322
348.867528	2501.748213
349.258191	2501.322236
349.648789	2497.858963
350.039324	2495.759323
350.429796	2495.101452
350.820203	2493.243787
351.210548	2494.400732
351.600828	2494.088180
351.991045	2494.471308
352.381198	2492.986688
352.771288	2492.182624
353.161314	2491.728920
353.551276	2492.361585
353.941175	2490.977788
354.331010	2490.871924
354.720782	2491.391163
355.110490	2493.211019
355.500135	2489.924187
355.889717	2491.295381
356.279235	2491.265134
356.668689	2491.519712
357.058080	2490.982829
357.447408	2488.686584
357.836672	2491.002994
358.225873	2489.972078
358.615010	2489.669609
359.004084	2494.181442
359.393095	2494.728407
359.782043	2496.361741
360.170927	2498.128665
360.559748	2498.035404
360.948505	2498.166474
361.337199	2497.342245
361.725830	2497.402739
362.114398	2500.810559
362.502903	2497.629591
362.891344	2501.183604
363.279722	2501.060096
363.668037	2501.355003
364.056289	2502.534633
364.444478	2503.890704
364.832603	2505.559326
365.220665	2505.929851
365.608665	2505.544202
365.996601	2506.333143
366.384474	2507.376662
366.772284	2508.208452
367.160031	2508.372290
367.547715	2508.677279
367.935336	2515.382014
368.322893	2519.430061
368.710388	2518.792355
369.097820	2529.308202
369.485189	2531.314581
369.872495	2538.266332
370.259738	2541.464944
370.646918	2550.332334
371.034035	2555.033210
371.421090	2563.774570
371.808081	2578.698906
372.195010	2585.668302
372.581875	2601.139603
372.968678	2614.415481
373.355418	2624.606174
373.742096	2642.434214
374.128710	2657.792090
374.515262	2671.567042
374.901751	2687.217305
375.288177	2698.264993
375.674540	2721.207284
376.060841	2742.836355
376.447079	2758.237080
376.833254	2783.520987
377.219367	2792.897533
377.605417	2831.835406
377.991404	2839.578618
378.377329	2860.880013
378.763191	2876.762169
379.148991	2918.054260
379.534727	2940.308433
379.920402	2967.770119
380.306013	2981.247644
380.691563	3031.533153
381.077049	3051.067625
381.462474	3074.740883
381.847835	3109.570215
382.233134	3132.782208
382.618371	3128.214922
383.003545	3202.778629
383.388657	3205.087477
383.773706	3240.919999
384.158693	3255.718306
384.543618	3285.566978
384.928480	3320.671053
385.313280	3365.721324
385.698017	3364.962631
386.082692	3418.101433
386.467305	3423.896240
386.851856	3451.650312
387.236344	3477.297182
387.620770	3509.303468
388.005133	3536.485370
388.389435	3562.270872
388.773674	3576.817121
389.157851	3614.073768
389.541965	3631.755616
389.926018	3597.372426
390.310008	3667.741892
390.693936	3686.724357
391.077802	3728.374370
391.461606	3717.208214
391.845348	3776.388840
392.229027	3775.184004
392.612645	3791.842497
392.996200	3868.473077
393.379694	3907.448758
393.763125	3972.565342
394.146494	3937.365485
394.529801	4004.440558
394.913047	4051.817322
395.296230	4017.275335
395.679351	4067.654106
396.062410	4095.317438
396.445408	4075.029314
396.828343	4111.459213
397.211217	4134.827481
397.594028	4056.979463
397.976778	4116.916262
398.359466	4146.754851
398.742092	4176.994213
399.124656	4096.658385
399.507158	4179.139224
399.889598	4203.104869
400.271977	4265.358078
400.654294	4235.544694
401.036549	4245.024584
401.418742	4215.460737
401.800874	4319.835307
402.182944	4337.290302
402.564952	4403.412597
402.946898	4389.751070
403.328783	4385.370307
403.710606	4298.922080
404.092367	4495.421216
404.474067	4457.544507
404.855705	4465.975836
405.237282	4393.574785
405.618797	4501.616794
406.000250	4534.666599
406.381642	4616.610554
406.762972	4578.315429
407.144240	4590.857820
407.525447	4594.051391
407.906593	4647.575842
408.287677	4694.657698
408.668700	4621.228251
409.049661	4670.936549
409.430560	4711.908527
409.811399	4639.192403
410.192176	4797.834994
410.572891	4737.452053
410.953545	4843.114638
411.334138	4719.855906
411.714669	4792.536741
412.095139	4685.679403
412.475547	4831.474614
412.855894	4809.870749
413.236180	4819.040608
413.616405	4773.246766
413.996568	4861.978636
414.376670	4802.167866
414.756711	4755.209518
415.136691	4788.226555
415.516609	4866.228328
415.896466	4905.219133
416.276262	4937.099390
416.655997	4918.525258
417.035670	5101.466211
417.415283	5193.094223
417.794834	5137.591119
418.174324	5090.398358
418.553753	4997.268081
418.933121	5179.896482
419.312428	5249.623202
419.691674	5187.763203
420.070859	5313.189631
420.449983	5228.699893
420.829045	5340.051419
421.208047	5247.062296
421.586988	5319.554088
421.965867	5329.429708
422.344686	5460.600531
422.723444	5319.818748
423.102141	5137.570955
423.480777	5435.457777
423.859352	5199.776273
424.237866	5462.831242
424.616319	5457.006189
424.994712	5563.311520
425.373044	5441.038334
425.751314	5583.430765
426.129524	5387.544130
426.507673	5585.787505
426.885762	5661.626623
427.263789	5598.206387
427.641756	5475.781966
428.019662	5600.888281
428.397508	5608.359271
428.775292	5555.893462
429.153016	5652.187063
429.530679	5577.262914
429.908282	5662.337426
430.285824	5535.413775
430.663305	5810.237318
431.040726	5541.939549
431.418086	5543.265372
431.795385	5651.725797
432.172624	5662.604607
432.549802	5654.208565
432.926920	5671.411503
433.303977	5677.390311
433.680974	5719.194080
434.057910	5732.253189
434.434786	5739.638479
434.811601	5711.604622
435.188355	5947.767557
435.565050	5819.606303
435.941683	5799.633251
436.318257	6011.749881
436.694770	6001.725547
437.071222	6033.386514
437.447614	5963.548889
437.823946	5876.379777
438.200218	6030.697058
438.576429	5892.145986
438.952580	5993.657180
439.328670	6036.191916
439.704700	5945.398214
440.080670	5933.470844
440.456580	6204.314397
440.832429	6084.730666
441.208218	5932.112253
441.583947	6089.673517
441.959616	6096.065700
442.335224	6020.791191
442.710773	6149.648124
443.086261	6180.452095
443.461689	5976.973482
443.837057	6126.892356
444.212365	6281.469256
444.587612	6177.016548
444.962800	6330.002965
445.337927	6304.260313
445.712995	5921.099853
446.088002	6498.644684
446.462949	6326.348128
446.837837	6257.286841
447.212664	6432.199756
447.587431	6574.289718
447.962139	7108.437777
448.336786	8043.317237
448.711374	7788.703680
449.085901	6857.698347
449.460369	6778.993332
449.834776	6712.195523
450.209124	7106.809484
450.583412	7254.628718
450.957640	7401.230513
451.331808	7170.938002
451.705917	6717.367747
452.079965	6641.800851
452.453954	6847.351378
452.827883	6727.324026
453.201752	6822.332132
453.575562	6621.127079
453.949311	6824.393964
454.323001	6712.165276
454.696632	6787.477594
455.070202	6927.667041
455.443713	7080.766884
455.817164	7185.517019
456.190556	7267.188753
456.563888	7339.279773
456.937160	7384.740899
457.310373	7041.269443
457.683526	7061.791981
458.056619	6955.481608
458.429653	6944.171779
458.802628	6882.256328
459.175542	6985.068140
459.548398	7341.518046
459.921194	7495.721901
460.293930	7506.172213
460.666607	8037.570322
461.039224	8345.690686
461.411782	8466.978327
461.784280	8490.787697
462.156719	8383.325420
462.529099	8263.698839
462.901419	7848.711055
463.273680	7740.076710
463.645882	7757.123372
464.018024	7623.273175
464.390106	7786.707383
464.762130	8175.110643
465.134094	8642.788567
465.505999	9662.011573
465.877845	10889.766948
466.249631	11537.572861
466.621358	11158.926755
466.993026	10530.496516
467.364634	10269.304253
467.736184	9913.754193
468.107674	9573.965300
468.479105	9606.770609
468.850477	9369.508703
469.221790	9142.440010
469.593043	8816.552099
469.964238	8678.631171
470.335373	8689.031072
470.706449	8748.287315
471.077467	8723.752019
471.448425	10036.642400
471.819324	11113.420259
472.190164	11138.588219
472.560945	9892.382221
472.931667	9097.886293
473.302330	8961.550808
473.672934	8609.141386
474.043479	8962.561559
474.413965	8908.129700
474.784393	8786.292573
475.154761	8945.409033
475.525070	9033.500676
475.895321	8860.400056
476.265513	9027.892392
476.635645	9204.345380
477.005719	9204.887304
477.375734	9318.454418
477.745691	9549.132576
478.115588	9690.728506
478.485427	9932.870248
478.855207	10465.221136
479.224928	11281.273038
479.594591	11909.630180
479.964194	11730.023950
480.333739	11671.977584
480.703226	11585.844430
481.072653	11680.091322
481.442022	11913.879872
481.811333	12100.337030
482.180584	11912.700242
482.549777	11614.904161
482.918912	11439.033427
483.287988	11466.076697
483.657005	11476.043058
484.025964	11157.900880
484.394864	11288.524738
484.763706	11260.435428
485.132489	11016.735969
485.501213	10974.566717
485.869879	11053.518748
486.238487	10892.330375
486.607036	11007.172900
486.975527	10778.445668
487.343959	10970.241407
487.712333	11018.921309
488.080648	10950.154930
488.448905	10995.946251
488.817104	10936.090111
489.185244	11191.603514
489.553326	11352.988493
489.921350	11894.463868
490.289315	12950.900671
490.657222	13299.526707
491.025070	13211.578737
491.392861	13084.655086
491.760593	12708.590050
492.128267	12352.735000
492.495883	12024.732325
492.863440	11688.376458
493.230939	11352.217196
493.598380	11285.253029
493.965763	11150.666824
494.333088	11052.114787
494.700354	10974.440688
495.067563	11037.175327
495.434713	10868.500840
495.801805	10987.464509
496.168839	10916.913561
496.535815	10853.826042
496.902733	10851.638181
497.269593	10781.886256
497.636395	10881.423838
498.003139	10870.199709
498.369825	10733.287012
498.736453	10898.120140
499.103023	10823.672380
499.469535	10846.614671
499.835989	10843.675678
500.202385	10802.398711
500.568723	10655.980918
500.935003	10878.356296
501.301226	10679.311378
501.667390	10934.572723
502.033497	11040.016018
502.399546	10899.657692
502.765537	10802.340737
503.131470	10879.651873
503.497345	11052.795343
503.863163	10672.815851
504.228923	10970.075049
504.594625	11040.268075
504.960269	10784.033787
505.325856	11007.293888
505.691385	10802.005501
506.056856	10951.624426
506.422270	10988.840744
506.787625	10866.963288
507.152924	10985.543830
507.518164	10967.884668
507.883347	10888.952802
508.248472	10804.447940
508.613540	11041.641790
508.978550	10924.505539
509.343503	10899.758515
509.708398	11012.715649
510.073236	11132.697631
510.438016	11135.654268
510.802738	11080.347769
511.167403	11132.778290
511.532010	11030.823474
511.896561	11268.251737
512.261053	11340.715803
512.625488	11200.783455
512.989866	11186.310302
513.354186	11180.971720
513.718449	11075.573796
514.082655	11272.445977
514.446803	11169.994608
514.810894	11284.217072
515.174927	11157.558081
515.538904	11180.477687
515.902822	11335.871255
516.266684	11213.499766
516.630488	11164.189719
516.994235	11212.688140
517.357925	11275.652151
517.721558	11361.873526
518.085133	11377.659899
518.448651	11391.777651
518.812112	11274.323807
519.175516	11285.742021
519.538863	11413.681464
519.902152	11325.980511
520.265385	11487.705767
520.628560	11395.445090
520.991678	11369.185720
521.354739	11433.735174
521.717743	11367.028106
522.080690	11353.870694
522.443580	11481.336269
522.806413	11438.166348
523.169189	11460.458331
523.531908	11512.253666
523.894569	11337.970895
524.257174	11345.787204
524.619722	11463.230965
524.982213	11406.298694
525.344647	11465.262550
525.707025	11417.517782
526.069345	11510.007832
526.431608	11425.888618
526.793815	11537.391380
527.155964	11321.163688
527.518057	11370.216636
527.880093	11331.671973
528.242072	11395.941644
528.603995	11299.219546
528.965860	11215.475898
529.327669	11275.216092
529.689421	11226.226158
530.051117	11192.889008
530.412755	11295.806684
530.774337	11184.850888
531.135862	11167.075780
531.497331	11192.127794
531.858743	11035.920080
532.220098	11208.783766
532.581396	11080.740979
532.942638	11064.122815
533.303824	11026.041939
533.664953	11037.263548
534.026025	10951.647111
534.387040	11047.454240
534.747999	11050.909951
535.108902	11106.576893
535.469748	10871.386901
535.830537	10964.060953
536.191270	10945.582603
536.551947	10971.272323
536.912567	10967.239400
537.273131	10890.651670
537.633638	10869.214164
537.994089	10855.114056
538.354483	10809.980606
538.714821	10953.557709
539.075103	10959.254212
539.435328	10927.192474
539.795497	10747.160267
540.155609	10908.565411
540.515665	11000.132929
540.875665	10732.240973
541.235609	10808.531274
541.595496	10800.457866
541.955328	10954.248347
542.315102	10835.695532
542.674821	10788.225507
543.034483	10791.451845
543.394090	10791.376228
543.753640	10718.198838
544.113134	10940.796028
544.472571	10803.611108
544.831953	10942.542788
545.191278	10749.017932
545.550548	10768.141550
545.909761	10908.169680
546.268918	10888.914993
546.628019	10968.386263
546.987064	10832.754018
547.346053	10755.210990
547.704986	10857.841321
548.063863	10839.741058
548.422684	10834.735192
548.781449	10747.712274
549.140158	10846.745741
549.498811	10726.249561
549.857408	10580.051058
550.215949	10806.315687
550.574434	10662.300004
550.932864	10760.748698
551.291237	10822.911166
551.649555	10772.466860
552.007817	10781.813159
552.366022	10743.772612
552.724173	10740.296736
553.082267	10722.284694
553.440305	10858.221928
553.798288	10661.125415
554.156215	10808.344752
554.514086	10790.736001
554.871902	10639.405604
555.229661	10674.560090
555.587365	10645.603702
555.945014	10543.593434
556.302606	10673.161170
556.660143	10570.230891
557.017625	10722.723274
557.375050	10617.209403
557.732421	10755.828531
558.089735	10668.891313
558.446994	10664.452577
558.804197	10700.471621
559.161345	10706.291633
559.518437	10557.479292
559.875474	10642.256376
560.232455	10675.059164
560.589381	10627.793306
560.946251	10623.901535
561.303065	10718.314785
561.659825	10662.282360
562.016528	10595.671074
562.373177	10465.894130
562.729770	10581.444937
563.086307	10501.724131
563.442789	10591.658315
563.799216	10468.843205
564.155587	10517.749959
564.511904	10471.557866
564.868164	10457.190578
565.224370	10478.315533
565.580520	10400.260827
565.936615	10405.110417
566.292654	10280.296489
566.648638	10402.844418
567.004567	10357.463952
567.360441	10341.811169
567.716260	10251.287169
568.072023	10343.189924
568.427732	10300.579572
568.783385	10206.708246
569.138982	10280.362024
569.494525	10299.528491
569.850013	10174.873359
570.205445	10252.355894
570.560823	10148.808073
570.916145	10069.019211
571.271412	10135.081011
571.626625	10085.783568
571.981782	10056.935565
572.336884	10032.531339
572.691931	10034.383963
573.046923	9980.131066
573.401860	9941.321743
573.756743	9869.918840
574.111570	9914.737218
574.466342	9899.155011
574.821059	9927.889588
575.175722	9820.281118
575.530330	9828.667078
575.884882	9815.345829
576.239380	9742.493594
576.593823	9728.322910
576.948211	9735.617460
577.302544	9617.808215
577.656823	9630.363209
578.011047	9626.998239
578.365216	9601.336245
578.719330	9529.993836
579.073389	9530.601295
579.427394	9486.302155
579.781344	9457.587743
580.135239	9405.081605
580.489080	9418.065097
580.842866	9311.885794
581.196597	9323.745108
581.550273	9357.538483
581.903895	9321.365684
582.257463	9390.114419
582.610975	9264.040203
582.964434	9288.063822
583.317837	9213.749652
583.671186	9193.879944
584.024481	9182.459210
584.377721	9106.168908
584.730906	9075.158251
585.084037	9108.016491
585.437113	9044.253457
585.790135	9059.228204
586.143103	8952.723747
586.496016	8927.379346
586.848874	8989.587185
587.201679	8970.481212
587.554428	8852.866051
587.907124	8894.763081
588.259765	8878.192808
588.612352	8867.745017
588.964884	8747.654650
589.317362	8758.351978
589.669786	8755.856607
590.022155	8803.929050
590.374470	8815.233838
590.726731	8751.059949
591.078937	8603.444882
591.431090	8708.152168
591.783188	8583.600380
592.135232	8567.589676
592.487222	8572.504801
592.839157	8618.114640
593.191038	8546.363897
593.542866	8483.450297
593.894639	8387.149135
594.246358	8434.752751
594.598022	8445.860934
594.949633	8340.682300
595.301190	8316.381418
595.652692	8342.877722
596.004141	8446.735574
596.355535	8229.182059
596.706876	8197.921864
597.058162	8129.654559
597.409395	8203.696506
597.760573	8259.532326
598.111698	8164.357862
598.462768	8147.958988
598.813785	8114.092517
599.164748	8070.869664
599.515657	8057.298877
599.866511	7968.897204
600.217312	8086.565296
600.568060	7944.412319
600.918753	8044.610293
601.269392	8006.277359
601.619978	7909.983759
601.970510	7972.534396
602.320988	7960.423024
602.671412	8009.710385
603.021783	7946.128832
603.372100	7912.728667
603.722363	7909.567864
604.072572	7874.960343
604.422728	7881.145839
604.772830	7806.158675
605.122878	7807.056001
605.472872	7798.546533
605.822813	7815.396590
606.172701	7759.195286
606.522534	7823.177611
606.872314	7814.206877
607.222041	7774.260774
607.571714	7824.879000
607.921333	7777.363604
608.270899	7770.066534
608.620411	7852.691046
608.969870	7749.168431
609.319276	7737.800629
609.668627	7743.915549
610.017926	7772.662728
610.367171	7797.886142
610.716362	7774.139787
611.065500	7750.693380
611.414585	7764.687623
611.763616	7744.540652
612.112594	7719.639872
612.461518	7722.871252
612.810389	7768.402953
613.159207	7694.262704
613.507971	7638.938561
613.856682	7734.234013
614.205340	7686.030500
614.553945	7743.378666
614.902496	7636.846482
615.250994	7677.962133
615.599439	7645.325703
615.947830	7642.772358
616.296169	7605.119980
616.644454	7605.845907
616.992686	7589.142043
617.340864	7624.253680
617.688990	7528.522168
618.037063	7600.295596
618.385082	7529.232971
618.733048	7593.636232
619.080961	7524.484204
619.428821	7531.451079
619.776628	7514.742174
620.124382	7459.990202
620.472083	7428.808145
620.819731	7445.839683
621.167326	7336.786923
621.514868	7332.489339
621.862357	7228.253401
622.209793	7234.189360
622.557176	7161.334604
622.904506	7124.221630
623.251783	7058.716877
623.599007	7008.678384
623.946179	6997.844944
624.293297	6950.080011
624.640363	6872.471448
624.987376	6843.641089
625.334336	6791.213089
625.681243	6730.890642
626.028097	6713.425565
626.374899	6676.501633
626.721647	6654.754096
627.068343	6591.454847
627.414987	6551.574279
627.761577	6500.983780
628.108115	6514.058012
628.454600	6415.846253
628.801032	6442.329955
629.147412	6398.179529
629.493739	6370.198605
629.840014	6309.729965
630.186236	6336.112843
630.532405	6228.111163
630.878521	6257.967397
631.224585	6207.213060
631.570597	6135.951309
631.916556	6141.471373
632.262462	6128.621472
632.608316	6079.051806
632.954117	6046.667433
633.299866	6027.753024
633.645562	6005.186299
633.991206	5933.347336
634.336797	5874.017997
634.682336	5830.391851
635.027823	5790.503721
635.373257	5770.119816
635.718639	5709.510023
636.063968	5703.939548
636.409245	5620.402588
636.754470	5600.159834
637.099642	5560.347322
637.444762	5504.035113
637.789829	5501.854814
638.134845	5445.482111
638.479808	5420.097381
638.824719	5406.211522
639.169577	5345.395043
639.514383	5342.922357
639.859137	5281.737872
640.203839	5279.585300
640.548489	5254.051855
640.893086	5225.902052
641.237632	5192.547258
641.582125	5197.268298
641.926566	5160.926620
642.270955	5160.238503
642.615292	5146.350124
642.959576	5144.240401
643.303809	5122.996979
643.647990	5113.113797
643.992118	5098.643165
644.336195	5051.737749
644.680219	5052.199014
645.024192	5037.345254
645.368112	5083.451648
645.711981	5088.134879
646.055797	5128.358246
646.399562	5081.878808
646.743274	5142.990195
647.086935	5169.773845
647.430544	5150.025125
647.774101	5143.370802
648.117606	5141.785359
648.461059	5118.626298
648.804460	5079.262449
649.147810	5020.233058
649.491108	4986.396833
649.834354	4954.284683
650.177548	4891.615579
650.520690	4827.161907
650.863781	4802.866066
651.206820	4798.170231
651.549807	4742.929267
651.892742	4692.827759
652.235626	4687.731153
652.578458	4664.304911
652.921238	4601.439202
653.263967	4613.268269
653.606644	4569.034665
653.949269	4556.976225
654.291843	4516.397457
654.634365	4531.964540
654.976836	4485.427128
655.319255	4484.491994
655.661622	4455.008806
656.003938	4438.708235
656.346203	4410.324018
656.688416	4414.402312
657.030577	4378.872260
657.372687	4350.175491
657.714746	4332.102955
658.056753	4343.175849
658.398708	4297.828150
658.740612	4291.768683
659.082465	4293.298673
659.424266	4287.778610
659.766016	4276.025159
660.107715	4247.633381
660.449362	4245.042228
660.790958	4235.038058
661.132503	4214.165161
661.473996	4223.392993
661.815438	4211.828586
662.156829	4197.438612
662.498168	4182.221889
662.839456	4162.843694
663.180693	4166.793438
663.521879	4158.374711
663.863013	4147.400119
664.204097	4134.542656
664.545129	4150.389523
664.886110	4137.015342
665.227040	4134.545177
665.567918	4124.082262
665.908746	4118.663022
666.249522	4112.669090
666.590248	4101.875979
666.930922	4099.443623
667.271545	4092.212087
667.612118	4089.008434
667.952639	4069.776432
668.293109	4061.871903
668.633528	4037.833161
668.973896	4029.916029
669.314213	4012.995396
669.654480	3992.724916
669.994695	3982.158658
670.334859	3973.341680
670.674973	3949.421405
671.015035	3950.477526
671.355047	3934.814661
671.695008	3922.005089
672.034918	3907.221906
672.374777	3899.327459
672.714585	3884.574522
673.054342	3880.002196
673.394049	3868.810834
673.733705	3871.679251
674.073310	3852.132177
674.412864	3833.058971
674.752368	3815.180519
675.091820	3809.572235
675.431223	3775.057975
675.770574	3764.897530
676.109875	3736.450299
676.449125	3721.546127
676.788324	3704.696071
677.127473	3677.768747
677.466571	3660.601098
677.805619	3650.748163
678.144616	3636.406080
678.483562	3620.715489
678.822458	3596.880913
679.161303	3592.464862
679.500098	3577.658994
679.838842	3566.674319
680.177535	3560.637538
680.516179	3562.792631
680.854771	3554.691497
681.193314	3576.260073
681.531805	3611.001185
681.870247	3650.118018
682.208638	3682.429294
682.546978	3678.971062
682.885268	3656.704286
683.223508	3620.932258
683.561697	3592.916046
683.899836	3575.760999
684.237925	3559.074780
684.575963	3540.006616
684.913951	3519.610107
685.251889	3528.366591
685.589776	3521.503060
685.927614	3508.693488
686.265401	3516.136752
686.603137	3512.164323
686.940824	3529.619318
687.278460	3530.935059
687.616046	3530.035213
687.953582	3549.456258
688.291068	3540.493087
688.628504	3548.669838
688.965889	3533.758105
689.303224	3511.690454
689.640510	3486.414109
689.977745	3455.489151
690.314930	3419.447421
690.652065	3394.218967
690.989150	3358.499871
691.326185	3325.530725
691.663170	3302.038948
692.000105	3272.517951
692.336990	3243.914444
692.673825	3229.385839
693.010610	3206.539330
693.347345	3182.457738
693.684030	3163.228257
694.020665	3151.192502
694.357251	3122.757873
694.693786	3124.020682
695.030272	3108.814042
695.366707	3094.290478
695.703093	3083.935948
696.039429	3084.316555
696.375716	3074.115780
696.711952	3064.283009
697.048139	3060.371074
697.384276	3053.512584
697.720363	3051.032337
698.056400	3045.091337
698.392388	3032.241436
698.728326	3029.597350
699.064214	3016.845752
699.400053	3011.015657
699.735842	2997.520488
700.071581	2987.392810
700.407270	2976.584577
700.742910	2968.347331
701.078501	2953.695218
701.414042	2946.655246
701.749533	2938.496139
702.084974	2921.668767
702.420366	2923.372677
702.755709	2911.125194
703.091002	2896.639438
703.426246	2897.496434
703.761440	2890.038047
704.096584	2882.458672
704.431679	2876.860471
704.766725	2872.580532
705.101721	2868.499717
705.436668	2866.974768
705.771565	2857.096627
706.106413	2860.965713
706.441212	2862.357072
706.775961	2860.706094
707.110661	2854.785258
707.445311	2858.372039
707.779913	2855.798530
708.114465	2861.016125
708.448967	2864.693646
708.783421	2872.419215
709.117825	2879.126470
709.452180	2875.333002
709.786485	2882.100751
710.120742	2898.761764
710.454949	2899.313770
710.789107	2911.467992
711.123216	2916.176430
711.457275	2924.564910
711.791286	2934.120417
712.125247	2931.541867
712.459159	2921.464600
712.793023	2933.553287
713.126837	2914.142324
713.460602	2911.863723
713.794318	2894.565003
714.127985	2889.176010
714.461602	2867.428472
714.795171	2856.894981
715.128691	2840.627178
715.462162	2828.672082
715.795584	2812.787406
716.128957	2805.800367
716.462281	2796.411217
716.795556	2788.592388
717.128782	2779.719957
717.461960	2766.862494
717.795088	2768.389964
718.128167	2758.486617
718.461198	2750.017479
718.794180	2745.997158
719.127113	2742.556571
719.459997	2737.638925
719.792833	2727.566700
720.125619	2727.533932
720.458357	2722.260886
720.791046	2716.705534
721.123686	2714.353836
721.456278	2708.866540
721.788821	2708.448124
722.121315	2707.596169
722.453761	2702.131558
722.786158	2699.028728
723.118506	2703.270859
723.450805	2700.599047
723.783056	2699.706763
724.115259	2697.730631
724.447412	2696.641742
724.779518	2697.508820
725.111574	2697.912112
725.443582	2698.055785
725.775542	2696.677030
726.107453	2702.053420
726.439315	2703.107022
726.771129	2702.963349
727.102895	2704.503421
727.434612	2711.142621
727.766281	2716.483723
728.097901	2713.297714
728.429473	2707.490305
728.760996	2705.617516
729.092471	2704.563915
729.423897	2703.956456
729.755276	2701.871939
730.086606	2698.234746
730.417887	2701.599717
730.749120	2708.314533
731.080305	2712.430636
731.411442	2714.696634
731.742530	2708.692620
732.073570	2707.931406
732.404562	2709.670604
732.735506	2709.133721
733.066401	2706.640870
733.397249	2695.567976
733.728048	2685.372242
734.058798	2672.618123
734.389501	2665.273162
734.720156	2661.346103
735.050762	2652.755977
735.381320	2651.518374
735.711831	2647.893784
736.042293	2644.964874
736.372707	2645.095944
736.703073	2642.991262
737.033391	2641.609986
737.363661	2642.156951
737.693883	2643.865902
738.024056	2645.763897
738.354182	2646.802374
738.684260	2649.539721
739.014290	2653.522232
739.344272	2652.894609
739.674207	2658.059271
740.004093	2654.401914
740.333931	2655.689928
740.663722	2653.489465
740.993464	2652.481234
741.323159	2648.970070
741.652806	2647.429998
741.982405	2642.915645
742.311956	2638.434059
742.641460	2636.415077
742.970915	2634.217134
743.300323	2629.266721
743.629683	2626.521812
743.958996	2621.730196
744.288260	2619.355812
744.617477	2616.631068
744.946647	2611.577312
745.275768	2612.709051
745.604842	2608.845006
745.933869	2605.946343
746.262847	2603.745879
746.591778	2610.281735
746.920662	2603.302258
747.249498	2607.221755
747.578286	2606.188318
747.907027	2610.523711
748.235720	2610.758124
748.564365	2612.336005
748.892963	2607.430963
749.221514	2607.720829
749.550017	2609.270984
749.878473	2605.081785
750.206881	2599.685230
750.535242	2600.184304
750.863555	2600.325456
751.191821	2600.136413
751.520039	2599.355034
751.848210	2601.386619
752.176334	2597.545260
752.504411	2598.979468
752.832440	2596.438727
753.160421	2599.017277
753.488356	2598.029211
753.816243	2595.579210
754.144082	2595.007039
754.471875	2596.232039
754.799620	2589.797007
755.127318	2591.034610
755.454969	2591.221132
755.782572	2592.678026
756.110129	2588.730802
756.437638	2589.996132
756.765100	2589.923035
757.092515	2590.054105
757.419882	2590.769949
757.747203	2590.722058
758.074477	2590.868252
758.401703	2589.179465
758.728882	2593.454364
759.056014	2591.034610
759.383099	2591.611822
759.710138	2595.853953
760.037129	2593.257759
760.364073	2591.768098
760.690970	2593.000660
761.017820	2593.988726
761.344623	2592.607450
761.671379	2596.539550
761.998088	2591.279106
762.324751	2598.901330
762.651366	2615.083434
762.977935	2642.852630
763.304456	2662.636638
763.630931	2667.602175
763.957359	2651.024341
764.283740	2633.783594
764.610074	2621.795731
764.936362	2609.187805
765.262602	2602.311671
765.588796	2593.272882
765.914943	2592.120978
766.241044	2586.510174
766.567097	2581.411047
766.893104	2582.144535
767.219064	2579.442477
767.544978	2577.426015
767.870845	2576.926941
768.196665	2572.979717
768.522438	2571.863102
768.848165	2572.500808
769.173846	2573.098184
769.499479	2573.219172
769.825066	2570.935529
770.150607	2569.690364
770.476101	2563.703994
770.801548	2569.057700
771.126949	2564.228274
771.452303	2566.116186
771.777611	2564.573593
772.102872	2565.377657
772.428087	2563.048644
772.753256	2560.422203
773.078378	2563.877914
773.403453	2557.536142
773.728482	2559.146791
774.053465	2560.644014
774.378401	2559.252655
774.703291	2558.468756
775.028135	2558.546894
775.352932	2558.158725
775.677683	2558.468756
776.002388	2557.286605
776.327046	2557.359702
776.651658	2557.352140
776.976224	2558.902295
777.300743	2558.410783
777.625216	2556.472459
777.949643	2555.363405
778.274024	2557.768036
778.598359	2551.648075
778.922647	2553.452808
779.246889	2553.273847
779.571086	2550.589433
779.895236	2555.393652
780.219339	2555.000442
780.543397	2555.978426
780.867409	2555.809547
781.191374	2553.795606
781.515294	2554.692932
781.839167	2553.840977
782.162995	2555.118909
782.486776	2553.651933
782.810511	2557.130330
783.134201	2555.749053
783.457844	2557.168138
783.781441	2552.515153
784.104993	2552.152190
784.428498	2554.985319
784.751958	2555.580175
785.075372	2551.010369
785.398739	2552.096738
785.722061	2552.290822
786.045337	2551.821995
786.368568	2553.130174
786.691752	2554.695452
787.014891	2557.241235
787.337983	2555.857438
787.661030	2557.720145
787.984031	2563.298181
788.306987	2563.905640
788.629897	2562.136195
788.952760	2562.284909
789.275579	2560.954045
789.598351	2559.199723
789.921078	2556.548076
790.243759	2554.650082
790.566395	2552.121943
790.888984	2555.151677
791.211529	2551.254865
791.534027	2554.246790
791.856480	2550.586912
792.178888	2550.770914
792.501249	2553.697304
792.823566	2554.582026
793.145836	2549.694628
793.468062	2551.847200
793.790241	2550.032385
794.112375	2552.401727
794.434464	2551.373332
794.756507	2551.912735
795.078505	2552.817622
795.400457	2550.760832
795.722364	2550.753270
796.044226	2554.307283
796.366042	2551.491799
796.687812	2551.900132
797.009538	2553.092365
797.331218	2554.440874
797.652852	2556.505227
797.974442	2553.873744
798.295986	2552.933569
798.617484	2554.864331
798.938938	2552.227807
799.260346	2551.842159
799.581709	2551.806871
799.903026	2552.328631
800.224299	2549.218239
800.545526	2551.438867
800.866708	2550.276881
801.187845	2548.520039
801.508936	2549.684545
801.829983	2549.840821
802.150984	2546.405275
802.471940	2548.270502
802.792851	2549.351829
803.113717	2549.465255
803.434538	2550.919628
803.755314	2549.878630
804.076045	2547.642878
804.396731	2548.298228
804.717372	2546.072559
805.037967	2551.191850
805.358518	2550.269319
805.679024	2547.942827
805.999485	2550.281922
806.319901	2549.152704
806.640272	2547.373176
806.960598	2547.950388
807.280879	2551.547252
807.601115	2549.750080
807.921306	2546.932075
808.241453	2549.989535
808.561554	2549.432488
808.881611	2548.905687
809.201623	2549.596325
809.521590	2549.737477
809.841513	2549.598846
810.161390	2548.877961
810.481223	2550.372663
810.801011	2549.455173
811.120755	2550.292004
811.440453	2549.019113
811.760107	2549.200595
812.079716	2545.006355
812.399281	2542.914276
812.718801	2544.895449
813.038276	2542.347146
813.357707	2545.770089
813.677093	2549.034237
813.996434	2548.809905
814.315731	2546.246478
814.634983	2548.487271
814.954191	2550.733105
815.273354	2549.175389
815.592473	2549.498023
815.911547	2549.883671
816.230577	2553.909032
816.549562	2550.886861
816.868502	2546.833773
817.187399	2550.896943
817.506250	2551.776624
817.825058	2549.334185
818.143821	2552.353836
818.462539	2552.701676
818.781213	2553.518343
819.099843	2553.815771
819.418429	2558.012532
819.736970	2563.870352
820.055466	2564.518141
820.373919	2571.026270
820.692327	2573.756055
821.010691	2586.580750
821.329011	2608.945829
821.647286	2661.162101
821.965517	2724.000084
822.283704	2757.460742
822.601847	2769.163781
822.919945	2738.513566
823.237999	2703.863195
823.556010	2672.585356
823.873976	2644.634678
824.191897	2624.452419
824.509775	2609.686879
824.827609	2598.220775
825.145398	2589.610484
825.463144	2588.579568
825.780845	2592.947728
826.098502	2596.002667
826.416116	2614.859103
826.733685	2628.233284
827.051210	2632.692185
827.368692	2626.060547
827.686129	2609.144955
828.003522	2597.502410
828.320872	2580.082703
828.638177	2575.215469
828.955439	2564.921433
829.272656	2558.761143
829.589830	2556.595967
829.906960	2557.357182
830.224046	2553.798127
830.541088	2557.498334
830.858086	2552.429454
831.175041	2552.328631
831.491952	2552.568085
831.808819	2553.167983
832.125642	2556.265772
832.442421	2556.505227
832.759157	2562.216854
833.075849	2571.926116
833.392497	2583.626634
833.709101	2589.819692
834.025662	2589.580237
834.342179	2587.044537
834.658653	2574.676066
834.975083	2569.781105
835.291469	2568.299006
835.607811	2557.808365
835.924110	2556.424568
836.240366	2550.957437
836.556578	2549.853424
836.872746	2548.809905
837.188871	2547.030378
837.504952	2549.926521
837.820990	2548.593136
838.136984	2545.558361
838.452935	2545.213042
838.768842	2544.313196
839.084706	2546.619524
839.400526	2550.758311
839.716303	2555.643189
840.032037	2561.372461
840.347727	2561.783315
840.663373	2559.713921
840.978977	2553.732592
841.294537	2550.803682
841.610054	2547.506767
841.925527	2547.539534
842.240957	2546.405275
842.556344	2546.750594
842.871687	2547.378217
843.186987	2544.855120
843.502244	2541.401930
843.817458	2541.621220
844.132629	2541.265818
844.447756	2544.640871
844.762840	2535.634850
845.077881	2539.350180
845.392879	2536.411187
845.707833	2539.259439
846.022745	2537.134593
846.337613	2542.798329
846.652438	2539.342618
846.967221	2541.616179
847.281960	2541.215407
847.596656	2544.131714
847.911309	2540.234902
848.225919	2538.941847
848.540485	2540.199614
848.855009	2539.377906
849.169490	2537.845396
849.483928	2540.701209
849.798323	2541.991745
850.112675	2540.003009
850.426984	2542.818494
850.741251	2541.659028
851.055474	2538.382278
851.369654	2538.435211
851.683792	2538.808256
851.997887	2541.028884
852.311938	2540.466796
852.625947	2542.168185
852.939914	2539.256919
853.253837	2539.077958
853.567718	2539.191384
853.881555	2538.538554
854.195350	2542.168185
854.509103	2540.781868
854.822812	2536.149047
855.136479	2539.607279
855.450103	2537.384130
855.763685	2544.663556
856.077224	2539.589635
856.390720	2542.881508
856.704173	2539.151054
857.017584	2539.662732
857.330953	2541.180119
857.644278	2542.127856
857.957561	2540.910417
858.270802	2542.175747
858.584000	2539.050231
858.897155	2542.868905
859.210268	2538.094933
859.523339	2539.226672
859.836367	2538.561239
860.149352	2538.641898
860.462295	2541.212886
860.775195	2535.612164
861.088054	2533.749458
861.400869	2536.842206
861.713642	2533.623429
862.026373	2539.219110
862.339062	2538.291538
862.651708	2539.214069
862.964312	2540.194573
863.276873	2538.283976
863.589392	2541.661549
863.901869	2541.525438
864.214303	2539.105684
864.526696	2541.777496
864.839045	2540.476878
865.151353	2541.454862
865.463619	2540.537372
865.775842	2541.525438
866.088023	2542.019471
866.400162	2542.999975
866.712258	2540.759183
867.024313	2540.728936
867.336325	2541.961498
867.648296	2540.827238
867.960224	2539.902186
868.272110	2543.589790
868.583954	2542.594163
868.895755	2541.593493
869.207515	2541.666590
869.519233	2541.699358
869.830909	2541.016281
870.142542	2541.051569
870.454134	2542.962167
870.765684	2541.507794
871.077191	2543.766231
871.388657	2544.098947
871.700081	2541.916127
872.011463	2543.367980
872.322803	2542.082485
872.634101	2543.110881
872.945357	2543.544420
873.256571	2543.753628
873.567744	2542.657177
873.878874	2544.497198
874.189963	2545.102137
874.501010	2543.536858
874.812015	2543.090716
875.122979	2545.923845
875.433900	2541.631302
875.744780	2545.185316
876.055618	2544.237579
876.366415	2540.123997
876.677169	2545.981818
876.987882	2543.287321
877.298554	2539.887063
877.609183	2543.869574
877.919771	2543.279759
878.230317	2543.395706
878.540822	2546.680018
878.851285	2550.213867
879.161707	2552.865513
879.472087	2553.777962
879.782425	2560.044117
880.092722	2564.820610
880.402977	2582.406675
880.713191	2602.662031
881.023363	2630.048099
881.333494	2645.640388
881.643583	2653.542397
881.953631	2647.800523
882.263637	2640.843730
882.573602	2630.839561
882.883526	2619.224742
883.193408	2609.291148
883.503248	2597.751947
883.813048	2589.592840
884.122806	2582.068918
884.432522	2574.799574
884.742197	2565.138202
885.051831	2563.421690
885.361424	2560.828016
885.670975	2557.480690
885.980485	2557.500854
886.289954	2554.866852
886.599382	2550.849052
886.908768	2551.325441
887.218113	2546.009544
887.527417	2553.031872
887.836680	2546.478372
888.145901	2545.467620
888.455082	2546.654812
888.764221	2546.748073
889.073319	2545.397044
889.382376	2544.716488
889.691392	2544.867723
890.000366	2546.422919
890.309300	2547.075748
890.618193	2544.925696
890.927044	2544.976108
891.235855	2543.977959
891.544625	2544.018288
891.853353	2546.518701
892.162041	2550.443239
892.470687	2547.174051
892.779293	2550.539021
893.087858	2548.073897
893.396381	2550.720502
893.704864	2555.265103
894.013306	2558.718293
894.321707	2569.909655
894.630068	2577.993145
894.938387	2581.012796
895.246665	2579.901222
895.554903	2574.272773
895.863100	2570.620457
896.171256	2563.283058
896.479371	2560.669220
896.787446	2560.449929
897.095480	2558.032696
897.403473	2552.318548
897.711425	2553.596481
898.019336	2549.641696
898.327207	2551.287632
898.635038	2548.368804
898.942827	2547.105995
899.250576	2548.207487
899.558284	2550.130687
899.865952	2547.763866
900.173579	2546.460727
900.481165	2544.610624
900.788711	2544.560213
901.096216	2545.230686
901.403681	2542.382434
901.711105	2539.100643
902.018489	2543.776313
902.325832	2546.443083
902.633135	2547.781510
902.940397	2544.550130
903.247619	2549.621531
903.554800	2558.604867
903.861941	2570.401167
904.169041	2584.133270
904.476101	2590.616194
904.783121	2592.834302
905.090100	2584.934814
905.397039	2574.880232
905.703938	2568.200703
906.010796	2561.838767
906.317614	2556.885834
906.624391	2554.526574
906.931129	2548.885522
907.237826	2548.076417
907.544483	2543.355377
907.851099	2546.564071
908.157675	2542.994934
908.464211	2542.828576
908.770707	2536.196938
909.077163	2540.733977
909.383578	2536.451517
909.689954	2538.304141
909.996289	2536.569984
910.302584	2541.578370
910.608839	2540.343287
910.915054	2539.244316
911.221229	2540.791950
911.527363	2542.475695
911.833458	2539.430838
912.139513	2542.286652
912.445527	2540.492001
912.751502	2539.750952
913.057436	2542.024512
913.363331	2541.893442
913.669186	2546.092723
913.975000	2545.654143
914.280775	2550.486089
914.586510	2551.895091
914.892205	2557.377346
915.197859	2563.535116
915.503475	2569.135837
915.809050	2578.814853
916.114585	2585.108733
916.420081	2586.369022
916.725536	2588.158632
917.030952	2584.256778
917.336328	2571.913513
917.641665	2569.639953
917.946961	2567.696588
918.252218	2560.034034
918.557435	2559.489590
918.862612	2554.541697
919.167750	2551.446429
919.472848	2552.812581
919.777906	2547.647919
920.082925	2548.343598
920.387904	2544.416540
920.692843	2545.550799
920.997743	2545.623896
921.302603	2543.110881
921.607423	2543.274718
921.912204	2544.005686
922.216946	2542.163144
922.521647	2541.943854
922.826310	2540.169368
923.130932	2542.044677
923.435516	2540.310520
923.740059	2539.395550
924.044564	2540.532331
924.349028	2539.433359
924.653454	2537.242978
924.957840	2536.690971
925.262186	2534.477905
925.566493	2534.230888
925.870761	2532.748789
926.174989	2536.448996
926.479178	2536.317926
926.783328	2538.157947
927.087438	2535.445806
927.391509	2537.797505
927.695541	2533.837678
927.999533	2536.239788
928.303486	2536.438914
928.607400	2538.805735
928.911275	2535.196269
929.215110	2534.344314
929.518906	2535.488656
929.822663	2535.622247
930.126381	2537.222813
930.430060	2535.410518
930.733699	2535.150899
931.037299	2535.992772
931.340861	2535.488656
931.644383	2536.753986
931.947866	2533.961187
932.251309	2536.222144
932.554714	2535.987730
932.858080	2536.965714
933.161407	2534.838347
933.464694	2534.586290
933.767943	2535.095446
934.071153	2533.131917
934.374323	2536.491846
934.677455	2535.763399
934.980548	2533.772143
935.283602	2535.859181
935.586617	2533.804911
935.889593	2536.741383
936.192530	2535.776002
936.495428	2538.168029
936.798287	2535.196269
937.101108	2535.939839
937.403890	2537.699202
937.706632	2537.676517
938.009336	2537.326157
938.312002	2537.127031
938.614628	2534.435055
938.917216	2541.167516
939.219765	2537.686599
939.522275	2540.076106
939.824747	2541.792619
940.127179	2536.138965
940.429573	2536.285158
940.731929	2536.282638
941.034246	2535.786084
941.336524	2533.963707
941.638763	2536.980838
941.940964	2536.146527
942.243126	2537.190046
942.545250	2537.479912
942.847335	2538.042001
943.149381	2534.397246
943.451389	2538.596528
943.753359	2537.401774
944.055290	2538.513348
944.357182	2539.360262
944.659036	2536.698533
944.960851	2533.197452
945.262628	2538.150385
945.564367	2534.193080
945.866067	2538.291538
946.167729	2535.806249
946.469352	2535.584438
946.770937	2536.950591
947.072484	2536.955632
947.373992	2536.718698
947.675462	2536.844727
947.976893	2538.011754
948.278286	2531.357431
948.579641	2536.615354
948.880958	2537.363965
949.182236	2536.627957
949.483476	2534.525796
949.784678	2533.073943
950.085841	2537.053934
950.386967	2533.956145
950.688054	2534.210724
950.989103	2534.941691
951.290114	2538.566281
951.591087	2536.252391
951.892021	2535.397915
952.192917	2536.955632
952.493776	2535.526465
952.794596	2538.578883
953.095378	2533.653676
953.396122	2539.093081
953.696828	2535.402957
953.997496	2539.289686
954.298126	2533.915816
954.598718	2536.070909
954.899272	2534.014119
955.199788	2534.603934
955.500266	2534.573687
955.800706	2531.317101
956.101108	2529.623274
956.401472	2531.133099
956.701798	2527.924405
957.002087	2530.286185
957.302337	2530.535723
957.602550	2532.499252
957.902724	2533.288193
958.202861	2532.630322
958.502960	2532.668131
958.803022	2532.582431
959.103045	2533.245343
959.403031	2534.893800
959.702979	2534.450178
960.002889	2531.720394
960.302762	2532.892462
960.602596	2533.280631
960.902393	2531.652338
961.202153	2529.961031
961.501875	2533.681403
961.801559	2531.039838
962.101205	2531.143182
962.400814	2529.983716
962.700385	2531.717873
962.999918	2534.215765
963.299414	2531.929602
963.598873	2532.642925
963.898293	2531.095291
964.197677	2531.488501
964.497022	2529.638397
964.796331	2534.356917
965.095601	2529.915661
965.394835	2533.512524
965.694030	2529.494724
965.993189	2531.760723
966.292309	2531.417924
966.591393	2530.505476
966.890439	2530.462626
967.189447	2531.279293
967.488419	2531.186031
967.787353	2529.199817
968.086249	2529.063706
968.385108	2533.096629
968.683930	2533.630991
968.982714	2532.889941
969.281462	2529.870290
969.580172	2531.075126
969.878844	2530.165198
970.177480	2530.843233
970.476078	2532.065713
970.774639	2532.819365
971.073162	2530.366844
971.371649	2528.743592
971.670098	2526.989271
971.968510	2528.922553
972.266885	2524.839219
972.565223	2530.996988
972.863524	2529.961031
973.161788	2532.068233
973.460014	2531.448171
973.758204	2533.116793
974.056356	2531.501103
974.354471	2533.610826
974.652550	2527.561442
974.950591	2529.585465
975.248595	2533.290713
975.546563	2532.635363
975.844493	2529.625794
976.142386	2532.600075
976.440243	2528.851977
976.738062	2529.570342
977.035845	2530.893644
977.333590	2529.814838
977.631299	2531.135620
977.928971	2531.445651
978.226606	2534.402288
978.524204	2529.618233
978.821765	2531.065044
979.119290	2530.089580
979.416777	2530.019004
979.714228	2529.091432
980.011642	2528.428520
980.309020	2533.406660
980.606360	2529.774508
980.903664	2528.904909
981.200931	2527.246370
981.498162	2528.521782
981.795356	2531.236443
982.092513	2530.928933
982.389633	2530.145033
982.686717	2534.818183
982.983764	2533.338604
983.280775	2533.290713
983.577749	2530.288706
983.874686	2534.349355
984.171587	2528.756195
984.468451	2530.313912
984.765279	2533.714170
985.062070	2531.238963
985.358824	2531.987575
985.655543	2529.295599
985.952224	2529.154446
986.248869	2525.761750
986.545478	2523.871317
986.842050	2526.923736
987.138586	2527.097656
987.435086	2526.044054
987.731549	2526.444826
988.027975	2530.848274
988.324366	2525.731503
988.620719	2528.604961
988.917037	2528.063037
989.213318	2529.764426
989.509563	2531.203675
989.805772	2529.560259
990.101944	2529.915661
990.398080	2529.477080
990.694180	2527.163191
990.990244	2528.400794
991.286271	2527.412728
991.582262	2529.477080
991.878217	2529.756864
992.174136	2528.857018
992.470019	2528.660413
992.765865	2532.524458
993.061676	2529.086391
993.357450	2529.870290
993.653188	2529.983716
993.948890	2530.649148
994.244556	2528.426000
994.540186	2529.580424
994.835780	2530.180321
995.131337	2527.077491
995.426859	2529.633356
995.722345	2527.468180
996.017795	2529.940866
996.313208	2528.829292
996.608586	2530.155115
996.903928	2527.601771
997.199234	2528.171421
997.494504	2528.867101
997.789738	2528.443644
998.084936	2529.998840
998.380099	2530.437420
998.675225	2530.076977
998.970316	2529.298119
999.265371	2527.730320
999.560390	2530.087060
999.855373	2529.782070
1000.150320	2530.049251
1000.445232	2528.647810
1000.740108	2528.121010
1001.034948	2529.262831
1001.329752	2524.887110
1001.624521	2528.428520
1001.919254	2527.369878
1002.213951	2528.068078
1002.508613	2522.820237
1002.803239	2528.146216
1003.097829	2522.553055
1003.392384	2530.820548
1003.686903	2527.536236
1003.981386	2528.025228
1004.275834	2526.424662
1004.570246	2530.606299
1004.864623	2528.146216
1005.158964	2530.528161
1005.453270	2528.894827
1005.747540	2527.800897
1006.041775	2528.229395
1006.335974	2530.881042
1006.630138	2528.955321
1006.924266	2526.946421
1007.218359	2530.127389
1007.512416	2525.824764
1007.806438	2528.103366
1008.100425	2526.303674
1008.394376	2527.042203
1008.688292	2526.888448
1008.982172	2527.465660
1009.276017	2527.664785
1009.569827	2525.794517
1009.863602	2527.180835
1010.157341	2527.639580
1010.451045	2527.546318
1010.744714	2527.679909
1011.038347	2527.695032
1011.331945	2525.900382
1011.625508	2527.332069
1011.919036	2527.879034
1012.212528	2528.000022
1012.505986	2525.784435
1012.799408	2525.708818
1013.092795	2527.498427
1013.386147	2524.400638
1013.679464	2527.042203
1013.972745	2525.925587
1014.265992	2528.065557
1014.559204	2527.198479
1014.852380	2526.618746
1015.145521	2528.637728
1015.438628	2525.187058
1015.731699	2526.991791
1016.024736	2524.488858
1016.317737	2528.867101
1016.610703	2526.596061
1016.903635	2522.711852
1017.196531	2524.942562
1017.489393	2524.730834
1017.782219	2524.072963
1018.075011	2524.166225
1018.367768	2524.183869
1018.660490	2527.586648
1018.953177	2527.586648
1019.245829	2527.586648
