Dividing Wavelength (nm)	Counts (n)	Blue Motor Position (mm): 0.000000	Red Motor Position (mm): 9.500000	
326.493990	2130.109311
326.888308	2130.109311
327.282561	2130.109311
327.676750	2095.975658
328.070874	2097.883735
328.464933	2097.283838
328.858929	2105.369848
329.252859	2115.754625
329.646726	2126.666203
330.040528	2140.431073
330.434265	2157.011428
330.827938	2172.449962
331.221547	2193.995853
331.615091	2209.467155
332.008571	2230.216544
332.401986	2251.344020
332.795338	2269.915630
333.188625	2288.530091
333.581847	2306.426187
333.975006	2325.406131
334.368100	2343.463544
334.761129	2361.462984
335.154095	2377.957640
335.546996	2395.344579
335.939833	2409.479975
336.332606	2425.339445
336.725315	2437.314706
337.117960	2446.035902
337.510540	2455.301542
337.903056	2465.915692
338.295508	2470.021712
338.687896	2480.741725
339.080220	2489.125164
339.472480	2499.298213
339.864676	2501.105466
340.256807	2506.786847
340.648875	2506.098729
341.040879	2511.074348
341.432818	2510.303052
341.824694	2515.961747
342.216506	2514.479648
342.608253	2512.574091
342.999937	2515.490399
343.391557	2513.647857
343.783113	2512.690038
344.174605	2512.664832
344.566033	2511.492764
344.957397	2509.188957
345.348697	2509.065448
345.739934	2505.153513
346.131106	2505.702999
346.522215	2506.131497
346.913260	2498.612616
347.304241	2499.411639
347.695159	2497.543891
348.086012	2497.299395
348.476802	2497.173366
348.867528	2491.391163
349.258191	2488.590802
349.648789	2488.542911
350.039324	2486.995277
350.429796	2488.396718
350.820203	2485.230873
351.210548	2485.548466
351.600828	2485.997128
351.991045	2482.828763
352.381198	2483.877323
352.771288	2486.092910
353.161314	2481.515543
353.551276	2481.586119
353.941175	2480.862713
354.331010	2482.594349
354.720782	2481.681901
355.110490	2481.911273
355.500135	2482.427991
355.889717	2481.639051
356.279235	2479.700727
356.668689	2485.780359
357.058080	2484.487303
357.447408	2480.154431
357.836672	2479.947744
358.225873	2481.785244
358.615010	2480.277939
359.004084	2482.826243
359.393095	2483.484113
359.782043	2484.991418
360.170927	2487.975781
360.559748	2486.854124
360.948505	2487.776656
361.337199	2486.443270
361.725830	2487.973261
362.114398	2491.451657
362.502903	2491.204640
362.891344	2490.496358
363.279722	2491.872593
363.668037	2490.103148
364.056289	2491.338231
364.444478	2493.090032
364.832603	2492.757316
365.220665	2494.574652
365.608665	2493.798314
365.996601	2496.303767
366.384474	2494.579693
366.772284	2496.243273
367.160031	2499.850219
367.547715	2502.408605
367.935336	2503.477329
368.322893	2504.636795
368.710388	2508.631909
369.097820	2516.173475
369.485189	2517.791686
369.872495	2523.883920
370.259738	2528.753675
370.646918	2536.743903
371.034035	2543.189019
371.421090	2554.269475
371.808081	2562.642831
372.195010	2570.743966
372.581875	2584.488672
372.968678	2598.440065
373.355418	2610.891715
373.742096	2625.644652
374.128710	2645.534524
374.515262	2656.272182
374.901751	2671.781292
375.288177	2682.534073
375.674540	2705.942671
376.060841	2725.686350
376.447079	2746.108064
376.833254	2763.704211
377.219367	2772.042280
377.605417	2808.096612
377.991404	2816.873261
378.377329	2836.861436
378.763191	2851.884074
379.148991	2886.179044
379.534727	2905.849626
379.920402	2926.861156
380.306013	2930.934408
380.691563	2975.268835
381.077049	2984.461379
381.462474	2992.640652
381.847835	3018.143849
382.233134	3029.632638
382.618371	3017.090248
383.003545	3063.902402
383.388657	3058.518450
383.773706	3069.026735
384.158693	3069.921540
384.543618	3072.553022
384.928480	3085.009713
385.313280	3102.709205
385.698017	3080.828076
386.082692	3100.165942
386.467305	3085.846545
386.851856	3086.481730
387.236344	3081.460741
387.620770	3076.439752
388.005133	3068.676375
388.389435	3060.842422
388.773674	3041.297868
389.157851	3040.917261
389.541965	3024.778007
389.926018	2983.977429
390.310008	2985.608242
390.693936	2971.848413
391.077802	2959.958851
391.461606	2933.155036
391.845348	2927.559355
392.229027	2904.725449
392.612645	2881.846172
392.996200	2883.696276
393.379694	2867.204141
393.763125	2857.139477
394.146494	2827.419355
394.529801	2816.308652
394.913047	2800.355920
395.296230	2773.116046
395.679351	2761.874272
396.062410	2739.791498
396.445408	2719.359702
396.828343	2703.535520
397.211217	2686.425843
397.594028	2662.331649
397.976778	2652.700524
398.359466	2639.585962
398.742092	2625.627007
399.124656	2611.138731
399.507158	2603.077926
399.889598	2595.770774
400.271977	2588.025041
400.654294	2581.597570
401.036549	2571.053997
401.418742	2562.655434
401.800874	2558.254507
402.182944	2555.572613
402.564952	2547.645399
402.946898	2541.301107
403.328783	2539.299768
403.710606	2534.671989
404.092367	2537.293389
404.474067	2533.053779
404.855705	2532.995806
405.237282	2527.853829
405.618797	2528.395753
406.000250	2528.025228
406.381642	2522.396780
406.762972	2524.758560
407.144240	2521.776718
407.525447	2523.614218
407.906593	2523.137829
408.287677	2520.791172
408.668700	2519.362005
409.049661	2523.183200
409.430560	2522.104393
409.811399	2521.920391
410.192176	2522.535411
410.572891	2523.334434
410.953545	2522.802593
411.334138	2521.549866
411.714669	2520.521470
412.095139	2525.207223
412.475547	2520.642458
412.855894	2523.843591
413.236180	2523.634383
413.616405	2522.444671
413.996568	2520.738240
414.376670	2522.316121
414.756711	2519.893847
415.136691	2521.925432
415.516609	2522.918539
415.896466	2523.447860
416.276262	2524.057840
416.655997	2520.211439
417.035670	2519.959382
417.415283	2521.932993
417.794834	2518.714217
418.174324	2521.980884
418.553753	2523.271420
418.933121	2522.764784
419.312428	2524.418282
419.691674	2526.356606
420.070859	2524.776204
420.449983	2522.764784
420.829045	2522.512726
421.208047	2523.284023
421.586988	2524.161183
421.965867	2524.768642
422.344686	2524.604805
422.723444	2527.566483
423.102141	2523.853673
423.480777	2526.890968
423.859352	2524.309898
424.237866	2524.337624
424.616319	2525.376102
424.994712	2525.673530
425.373044	2527.195958
425.751314	2525.111441
426.129524	2524.115813
426.507673	2529.066226
426.885762	2526.669158
427.263789	2526.790145
427.641756	2525.025741
428.019662	2527.352234
428.397508	2528.526823
428.775292	2528.673016
429.153016	2528.887265
429.530679	2524.912315
429.908282	2527.765608
430.285824	2526.175124
430.663305	2529.106555
431.040726	2526.432223
431.418086	2527.692512
431.795385	2526.573376
432.172624	2527.972296
432.549802	2529.046062
432.926920	2527.480783
433.303977	2526.205371
433.680974	2528.546987
434.057910	2529.850126
434.434786	2525.986081
434.811601	2528.279806
435.188355	2527.105217
435.565050	2530.021525
435.941683	2529.154446
436.318257	2524.768643
436.694770	2524.496420
437.071222	2525.812161
437.447614	2525.418951
437.823946	2524.982892
438.200218	2526.419620
438.576429	2529.010773
438.952580	2529.439272
439.328670	2529.209899
439.704700	2528.390712
440.080670	2527.853829
440.456580	2531.770805
440.832429	2530.601258
441.208218	2528.315094
441.583947	2531.710311
441.959616	2531.763243
442.335224	2529.862728
442.710773	2531.175949
443.086261	2528.834333
443.461689	2532.814324
443.837057	2530.908768
444.212365	2532.375744
444.587612	2528.867101
444.962800	2531.198634
445.337927	2534.162833
445.712995	2530.180321
446.088002	2531.080167
446.462949	2530.288706
446.837837	2532.703419
447.212664	2531.864067
447.587431	2530.369364
447.962139	2531.727955
448.336786	2537.119469
448.711374	2531.299457
449.085901	2534.704757
449.460369	2532.627801
449.834776	2533.608306
450.209124	2529.764426
450.583412	2536.567463
450.957640	2533.935981
451.331808	2531.385157
451.705917	2534.669469
452.079965	2532.227030
452.453954	2535.758358
452.827883	2533.089067
453.201752	2534.220806
453.575562	2533.993954
453.949311	2534.462781
454.323001	2531.816176
454.696632	2533.056299
455.070202	2533.928419
455.443713	2534.130065
455.817164	2533.018491
456.190556	2533.636032
456.563888	2535.163502
456.937160	2530.419776
457.310373	2535.425642
457.683526	2533.134437
458.056619	2535.342463
458.429653	2534.369520
458.802628	2537.951260
459.175542	2534.581248
459.548398	2537.936136
459.921194	2535.990251
460.293930	2538.241126
460.666607	2535.642411
461.039224	2536.746424
461.411782	2535.758358
461.784280	2538.044521
462.156719	2539.655170
462.529099	2536.436393
462.901419	2539.259439
463.273680	2533.467153
463.645882	2537.091743
464.018024	2536.993441
464.390106	2537.399253
464.762130	2537.338760
465.134094	2540.144162
465.505999	2540.000489
465.877845	2543.657846
466.249631	2543.264636
466.621358	2541.263298
466.993026	2545.341591
467.364634	2545.107178
467.736184	2542.281611
468.107674	2539.561908
468.479105	2540.812115
468.850477	2538.341949
469.221790	2541.306148
469.593043	2537.956301
469.964238	2538.747762
470.335373	2539.289686
470.706449	2540.229861
471.077467	2539.844213
471.448425	2541.464944
471.819324	2545.167672
472.190164	2541.888401
472.560945	2544.048535
472.931667	2540.252547
473.302330	2540.116435
473.672934	2539.405633
474.043479	2539.060314
474.413965	2541.104502
474.784393	2538.067206
475.154761	2538.508307
475.525070	2537.673996
475.895321	2537.600900
476.265513	2533.525127
476.635645	2541.059131
477.005719	2540.078627
477.375734	2540.484440
477.745691	2540.492001
478.115588	2542.105171
478.485427	2541.931251
478.855207	2542.889070
479.224928	2543.919986
479.594591	2547.221942
479.964194	2544.066179
480.333739	2542.195911
480.703226	2542.876467
481.072653	2542.561395
481.442022	2545.230686
481.811333	2545.873433
482.180584	2541.722043
482.549777	2543.327650
482.918912	2544.333361
483.287988	2543.476364
483.657005	2542.468134
484.025964	2543.068031
484.394864	2540.930582
484.763706	2544.323278
485.132489	2541.646426
485.501213	2544.212373
485.869879	2542.805891
486.238487	2541.820345
486.607036	2543.186498
486.975527	2544.711447
487.343959	2543.075593
487.712333	2542.291693
488.080648	2541.792619
488.448905	2546.180943
488.817104	2543.952753
489.185244	2545.306303
489.553326	2541.331353
489.921350	2543.798998
490.289315	2544.983669
490.657222	2547.307641
491.025070	2543.708257
491.392861	2549.130018
491.760593	2540.930582
492.128267	2542.505942
492.495883	2545.409647
492.863440	2545.192877
493.230939	2544.068700
493.598380	2544.628268
493.965763	2540.751621
494.333088	2543.123484
494.700354	2541.585932
495.067563	2540.101312
495.434713	2538.709953
495.801805	2544.398896
496.168839	2543.478885
496.535815	2545.656663
496.902733	2542.740356
497.269593	2545.429812
497.636395	2542.889070
498.003139	2546.864020
498.369825	2544.391334
498.736453	2544.535007
499.103023	2540.958308
499.469535	2546.193546
499.835989	2546.261602
500.202385	2544.560213
500.568723	2545.228165
500.935003	2545.744884
501.301226	2545.187836
501.667390	2544.098947
502.033497	2543.796478
502.399546	2543.425953
502.765537	2545.306303
503.131470	2543.821683
503.497345	2544.862682
503.863163	2544.315717
504.228923	2543.181457
504.594625	2545.223124
504.960269	2543.529297
505.325856	2545.157589
505.691385	2544.890408
506.056856	2545.258412
506.422270	2545.308824
506.787625	2546.324616
507.152924	2545.865871
507.518164	2545.875954
507.883347	2544.943340
508.248472	2544.247661
508.613540	2544.398896
508.978550	2545.860830
509.343503	2545.089534
509.708398	2545.923845
510.073236	2542.926879
510.438016	2545.916283
510.802738	2546.208670
511.167403	2546.639688
511.532010	2547.905018
511.896561	2547.973074
512.261053	2547.219421
512.625488	2543.441076
512.989866	2543.589790
513.354186	2544.260264
513.718449	2542.727753
514.082655	2546.014585
514.446803	2547.088351
514.810894	2544.978628
515.174927	2547.927703
515.538904	2545.064328
515.902822	2547.960471
516.266684	2547.889895
516.630488	2546.029709
516.994235	2544.335881
517.357925	2548.157076
517.721558	2548.366284
518.085133	2545.177754
518.448651	2548.101623
518.812112	2548.613300
519.175516	2548.714123
519.538863	2544.943340
519.902152	2548.540203
520.265385	2545.434853
520.628560	2545.986859
520.991678	2547.166489
521.354739	2547.960471
521.717743	2547.786551
522.080690	2550.617159
522.443580	2547.340409
522.806413	2547.655481
523.169189	2547.978115
523.531908	2548.900646
523.894569	2547.998279
524.257174	2547.710934
524.619722	2550.186140
524.982213	2548.167158
525.344647	2546.317055
525.707025	2547.368135
526.069345	2545.938968
526.431608	2548.232693
526.793815	2545.061807
527.155964	2546.269164
527.518057	2547.796633
527.880093	2548.951057
528.242072	2547.045501
528.603995	2548.278063
528.965860	2546.193546
529.327669	2549.422405
529.689421	2547.088351
530.051117	2549.223280
530.412755	2544.487116
530.774337	2547.738660
531.135862	2549.450132
531.497331	2548.336037
531.858743	2542.833617
532.220098	2543.614996
532.581396	2542.697506
532.942638	2545.825542
533.303824	2543.824204
533.664953	2545.404606
534.026025	2547.869730
534.387040	2548.646068
534.747999	2545.840666
535.108902	2548.280584
535.469748	2546.778320
535.830537	2548.235214
536.191270	2545.787733
536.551947	2547.287477
536.912567	2547.547096
537.273131	2548.336037
537.633638	2545.510470
537.994089	2548.479710
538.354483	2546.216232
538.714821	2547.048022
539.075103	2547.708413
539.435328	2549.515667
539.795497	2550.571788
540.155609	2550.624721
540.515665	2548.930893
540.875665	2547.221942
541.235609	2546.939637
541.595496	2547.688248
541.955328	2546.334699
542.315102	2547.065666
542.674821	2549.485420
543.034483	2546.985007
543.394090	2544.509801
543.753640	2549.377035
544.113134	2548.401572
544.472571	2549.644216
544.831953	2548.280584
545.191278	2547.055584
545.550548	2549.273691
545.909761	2549.049360
546.268918	2547.443752
546.628019	2548.767055
546.987064	2550.768393
547.346053	2548.814946
547.704986	2547.572302
548.063863	2550.221428
548.422684	2547.809236
548.781449	2548.678835
549.140158	2547.416026
549.498811	2552.227808
549.857408	2548.585574
550.215949	2544.582898
550.574434	2545.548279
550.932864	2546.458207
551.291237	2542.299255
551.649555	2550.317210
552.007817	2548.852755
552.366022	2550.256716
552.724173	2548.724206
553.082267	2549.745039
553.440305	2548.517518
553.798288	2548.235214
554.156215	2548.131870
554.514086	2547.403423
554.871902	2549.538352
555.229661	2548.746891
555.587365	2547.456355
555.945014	2548.119267
556.302606	2549.949206
556.660143	2551.350647
557.017625	2548.300749
557.375050	2549.046839
557.732421	2547.146324
558.089735	2547.940306
558.446994	2549.190512
558.804197	2547.456355
559.161345	2548.056253
559.518437	2546.508618
559.875474	2550.344937
560.232455	2549.671942
560.589381	2547.733619
560.946251	2549.770245
561.303065	2549.482899
561.659825	2547.718495
562.016528	2549.835780
562.373177	2547.617672
562.729770	2549.803012
563.086307	2549.165307
563.442789	2547.715975
563.799216	2546.894267
564.155587	2549.051881
564.511904	2548.467107
564.868164	2547.763866
565.224370	2548.267981
565.580520	2549.780327
565.936615	2549.964329
566.292654	2547.529452
566.648638	2548.996428
567.004567	2547.673125
567.360441	2548.807385
567.716260	2548.877961
568.072023	2550.498692
568.427732	2543.851930
568.783385	2544.361087
569.138982	2546.329658
569.494525	2546.785882
569.850013	2543.796478
570.205445	2549.992056
570.560823	2550.670091
570.916145	2549.069525
571.271412	2547.968033
571.626625	2548.888043
571.981782	2549.117416
572.336884	2548.661191
572.691931	2549.021634
573.046923	2551.093548
573.401860	2547.594987
573.756743	2549.162786
574.111570	2548.366284
574.466342	2548.396531
574.821059	2547.257230
575.175722	2552.368960
575.530330	2546.843855
575.884882	2548.255378
576.239380	2547.436191
576.593823	2549.326623
576.948211	2548.192364
577.302544	2549.679504
577.656823	2549.266130
578.011047	2548.411654
578.365216	2549.924000
578.719330	2549.866027
579.073389	2549.329144
579.427394	2546.133052
579.781344	2548.663712
580.135239	2546.556509
580.489080	2547.519370
580.842866	2549.084648
581.196597	2553.851059
581.550273	2548.368804
581.903895	2549.805533
582.257463	2550.360060
582.610975	2547.985677
582.964434	2547.007693
583.317837	2546.932075
583.671186	2548.046170
584.024481	2545.578526
584.377721	2548.451983
584.730906	2547.131201
585.084037	2549.467776
585.437113	2547.809236
585.790135	2549.949206
586.143103	2546.490974
586.496016	2548.484751
586.848874	2543.841848
587.201679	2545.208001
587.554428	2545.326468
587.907124	2545.802857
588.259765	2544.759338
588.612352	2547.731098
588.964884	2545.767569
589.317362	2548.527601
589.669786	2546.992569
590.022155	2549.041798
590.374470	2546.221273
590.726731	2550.042467
591.078937	2547.410985
591.431090	2548.298228
591.783188	2546.143135
592.135232	2547.721016
592.487222	2548.189843
592.839157	2547.847045
593.191038	2546.410316
593.542866	2550.657488
593.894639	2549.303938
594.246358	2547.668084
594.598022	2546.400234
594.949633	2544.691282
595.301190	2550.332334
595.652692	2547.784030
596.004141	2547.910059
596.355535	2546.145655
596.706876	2548.651109
597.058162	2544.484595
597.409395	2545.654143
597.760573	2548.048691
598.111698	2547.322765
598.462768	2548.106664
598.813785	2547.680687
599.164748	2546.387631
599.515657	2544.671118
599.866511	2547.423588
600.217312	2548.850234
600.568060	2546.387631
600.918753	2550.596994
601.269392	2547.509287
601.619978	2547.542055
601.970510	2548.537683
602.320988	2544.711447
602.671412	2548.358722
603.021783	2545.830583
603.372100	2548.381407
603.722363	2547.060625
604.072572	2546.627086
604.422728	2548.908208
604.772830	2544.822352
605.122878	2543.234389
605.472872	2544.897970
605.822813	2543.463762
606.172701	2543.990562
606.522534	2546.170861
606.872314	2550.473486
607.222041	2545.820501
607.571714	2545.949050
607.921333	2546.959802
608.270899	2546.526263
608.620411	2548.613300
608.969870	2549.301418
609.319276	2552.472303
609.668627	2551.219577
610.017926	2552.593291
610.367171	2555.184444
610.716362	2554.826522
611.065500	2551.181768
611.414585	2552.958775
611.763616	2552.552962
612.112594	2547.534493
612.461518	2549.538352
612.810389	2549.306459
613.159207	2548.346119
613.507971	2550.418033
613.856682	2549.608928
614.205340	2550.468445
614.553945	2547.216901
614.902496	2546.871582
615.250994	2548.807385
615.599439	2545.374359
615.947830	2549.034237
616.296169	2547.257230
616.644454	2547.816798
616.992686	2547.968032
617.340864	2544.285470
617.688990	2548.041129
618.037063	2544.855120
618.385082	2544.756817
618.733048	2548.540203
619.080961	2545.049204
619.428821	2548.555327
619.776628	2547.252189
620.124382	2551.360729
620.472083	2546.458207
620.819731	2548.671273
621.167326	2546.420398
621.514868	2545.812939
621.862357	2547.264792
622.209793	2547.224462
622.557176	2547.148845
622.904506	2545.427291
623.251783	2542.286652
623.599007	2544.875285
623.946179	2543.153731
624.293297	2541.913607
624.640363	2546.470810
624.987376	2546.299411
625.334336	2544.489636
625.681243	2545.180274
626.028097	2547.100954
626.374899	2548.217570
626.721647	2545.119781
627.068343	2545.563402
627.414987	2545.134904
627.761577	2548.146993
628.108115	2544.245140
628.454600	2544.691282
628.801032	2544.356046
629.147412	2546.569112
629.493739	2545.187836
629.840014	2543.093237
630.186236	2545.470141
630.532405	2547.887374
630.878521	2544.681200
631.224585	2544.169523
631.570597	2545.828063
631.916556	2542.707588
632.262462	2542.014430
632.608316	2545.268495
632.954117	2542.299255
633.299866	2546.412837
633.645562	2543.307486
633.991206	2545.462579
634.336797	2544.532486
634.682336	2544.134235
635.027823	2541.525438
635.373257	2544.454348
635.718639	2542.594162
636.063968	2543.988042
636.409245	2541.527958
636.754470	2544.497198
637.099642	2547.337888
637.444762	2544.192208
637.789829	2544.557692
638.134845	2545.190357
638.479808	2542.833617
638.824719	2544.335881
639.169577	2542.831097
639.514383	2545.497867
639.859137	2544.222455
640.203839	2543.529297
640.548489	2543.816642
640.893086	2541.202804
641.237632	2539.692978
641.582125	2543.350336
641.926566	2540.267670
642.270955	2539.632485
642.615292	2540.585263
642.959576	2541.369162
643.303809	2541.364121
643.647990	2543.919986
643.992118	2540.663401
644.336195	2542.195911
644.680219	2542.785726
645.024192	2541.308668
645.368112	2542.369831
645.711981	2541.543082
646.055797	2543.370500
646.399562	2543.872095
646.743274	2543.796478
647.086935	2544.197249
647.430544	2544.146838
647.774101	2543.521735
648.117606	2542.790768
648.461059	2543.312527
648.804460	2545.535676
649.147810	2543.365459
649.491108	2541.596014
649.834354	2541.396888
650.177548	2540.239944
650.520690	2542.236241
650.863781	2544.403937
651.206820	2542.730274
651.549807	2542.228679
651.892742	2540.539892
652.235626	2543.494008
652.578458	2542.712630
652.921238	2541.958977
653.263967	2544.570295
653.606644	2541.855633
653.949269	2541.094419
654.291843	2543.428473
654.634365	2541.911086
654.976836	2545.245809
655.319255	2544.257743
655.661622	2543.035263
656.003938	2542.780685
656.346203	2544.817311
656.688416	2541.285983
657.030577	2545.003834
657.372687	2540.630633
657.714746	2544.008206
658.056753	2542.531148
658.398708	2538.606610
658.740612	2543.095757
659.082465	2539.393030
659.424266	2541.449821
659.766016	2537.860519
660.107715	2541.764893
660.449362	2541.384286
660.790958	2544.212373
661.132503	2541.754810
661.473996	2540.996117
661.815438	2540.421425
662.156829	2542.132897
662.498168	2544.751776
662.839456	2541.248174
663.180693	2543.151210
663.521879	2542.672300
663.863013	2540.741538
664.204097	2542.904193
664.545129	2540.232382
664.886110	2542.624409
665.227040	2541.659028
665.567918	2540.129038
665.908746	2541.313709
666.249522	2542.979811
666.590248	2541.318751
666.930922	2542.067362
667.271545	2543.299924
667.612118	2543.017619
667.952639	2543.342774
668.293109	2542.203473
668.633528	2541.724563
668.973896	2543.166333
669.314213	2542.763041
669.654480	2541.432177
669.994695	2543.040305
670.334859	2539.113246
670.674973	2541.865716
671.015035	2541.298586
671.355047	2542.977290
671.695008	2541.916127
672.034918	2541.255736
672.374777	2539.478729
672.714585	2541.769934
673.054342	2540.623071
673.394049	2543.877136
673.733705	2542.510983
674.073310	2541.986703
674.412864	2541.359080
674.752368	2543.990562
675.091820	2542.274049
675.431223	2542.606765
675.770574	2542.619368
676.109875	2537.396733
676.449125	2539.435880
676.788324	2537.474871
677.127473	2539.118287
677.466571	2533.865405
677.805619	2540.575180
678.144616	2541.936292
678.483562	2541.868236
678.822458	2543.047866
679.161303	2544.013247
679.500098	2540.068544
679.838842	2541.578370
680.177535	2538.946888
680.516179	2539.473688
680.854771	2544.086344
681.193314	2542.021992
681.531805	2541.848072
681.870247	2540.441590
682.208638	2540.905376
682.546978	2541.991745
682.885268	2541.399409
683.223508	2539.622402
683.561697	2543.909904
683.899836	2540.232382
684.237925	2539.231713
684.575963	2542.493339
684.913951	2541.810263
685.251889	2544.734132
685.589776	2540.307999
685.927614	2539.544264
686.265401	2541.530479
686.603137	2541.311189
686.940824	2541.190201
687.278460	2544.126673
687.616046	2540.307999
687.953582	2542.435366
688.291068	2543.118442
688.628504	2540.570139
688.965889	2540.489481
689.303224	2541.452341
689.640510	2540.829759
689.977745	2539.342618
690.314930	2541.553164
690.652065	2542.195911
690.989150	2541.273380
691.326185	2540.587783
691.663170	2540.502084
692.000105	2543.246992
692.336990	2537.152237
692.673825	2540.723894
693.010610	2541.424615
693.347345	2536.343132
693.684030	2537.714326
694.020665	2536.007895
694.357251	2537.260622
694.693786	2538.417567
695.030272	2540.096271
695.366707	2538.220962
695.703093	2543.932589
696.039429	2539.496373
696.375716	2541.008720
696.711952	2538.581404
697.048139	2539.478729
697.384276	2539.393030
697.720363	2538.523431
698.056400	2541.880839
698.392388	2539.904707
698.728326	2540.234902
699.064214	2539.410674
699.400053	2542.468134
699.735842	2539.614841
700.071581	2538.231044
700.407270	2541.666590
700.742910	2539.004861
701.078501	2540.368493
701.414042	2542.155582
701.749533	2537.444624
702.084974	2536.706095
702.420366	2539.269522
702.755709	2538.475540
703.091002	2537.933616
703.426246	2537.585776
703.761440	2539.269522
704.096584	2540.280273
704.431679	2539.892104
704.766725	2541.233051
705.101721	2540.078627
705.436668	2538.677186
705.771565	2538.672145
706.106413	2539.151054
706.441212	2540.696168
706.775961	2540.970911
707.110661	2539.950077
707.445311	2539.859337
707.779913	2539.314892
708.114465	2539.541744
708.448967	2541.986703
708.783421	2541.270860
709.117825	2541.485109
709.452180	2539.519059
709.786485	2538.692309
710.120742	2542.185829
710.454949	2538.001671
710.789107	2540.181970
711.123216	2537.164840
711.457275	2539.655170
711.791286	2537.048893
712.125247	2539.125849
712.459159	2539.582073
712.793023	2537.984027
713.126837	2539.723225
713.460602	2539.486291
713.794318	2539.851775
714.127985	2540.353370
714.461602	2540.648277
714.795171	2541.195242
715.128691	2537.830272
715.462162	2539.763555
715.795584	2540.842362
716.128957	2540.877650
716.462281	2537.754655
716.795556	2539.670293
717.128782	2539.216589
717.461960	2537.580735
717.795088	2538.704912
718.128167	2537.663914
718.461198	2537.283307
718.794180	2541.558205
719.127113	2537.255581
719.459997	2541.870757
719.792833	2539.292207
720.125619	2540.572660
720.458357	2538.042001
720.791046	2539.708102
721.123686	2538.520910
721.456278	2538.467978
721.788821	2539.740869
722.121315	2539.856816
722.453761	2537.991589
722.786158	2538.772968
723.118506	2536.481763
723.450805	2537.966383
723.783056	2541.081816
724.115259	2537.694161
724.447412	2539.161137
724.779518	2541.081816
725.111574	2539.609799
725.443582	2538.357073
725.775542	2538.140303
726.107453	2540.670962
726.439315	2537.520241
726.771129	2541.815304
727.102895	2538.359593
727.434612	2540.650798
727.766281	2537.668955
728.097901	2534.926568
728.429473	2536.391023
728.760996	2534.679551
729.092471	2534.573687
729.423897	2539.350180
729.755276	2539.957639
730.086606	2536.355735
730.417887	2540.189532
730.749120	2537.671476
731.080305	2537.358924
731.411442	2535.929757
731.742530	2538.604089
732.073570	2538.200797
732.404562	2538.906558
732.735506	2539.050231
733.066401	2536.701054
733.397249	2541.827907
733.728048	2538.457896
734.058798	2538.977135
734.389501	2539.448482
734.720156	2539.980324
735.050762	2537.774819
735.381320	2539.022505
735.711831	2539.219110
736.042293	2539.163657
736.372707	2537.348842
736.703073	2538.437731
737.033391	2536.582587
737.363661	2541.691796
737.693883	2539.332536
738.024056	2539.594676
738.354182	2538.664583
738.684260	2537.787422
739.014290	2538.271373
739.344272	2538.462937
739.674207	2539.221631
740.004093	2540.517207
740.333931	2536.448996
740.663722	2537.295910
740.993464	2536.000333
741.323159	2538.989738
741.652806	2535.962525
741.982405	2538.301620
742.311956	2538.465458
742.641460	2536.564942
742.970915	2541.064172
743.300323	2538.984696
743.629683	2538.800694
743.958996	2537.852957
744.288260	2536.885056
744.617477	2536.559901
744.946647	2531.291896
745.275768	2534.659386
745.604842	2534.563604
745.933869	2534.568646
746.262847	2532.133768
746.591778	2535.982689
746.920662	2539.362783
747.249498	2538.304141
747.578286	2535.592000
747.907027	2538.548637
748.235720	2536.113759
748.564365	2538.286497
748.892963	2536.196938
749.221514	2537.921013
749.550017	2540.620551
749.878473	2538.404964
750.206881	2537.207690
750.535242	2539.052752
750.863555	2538.667104
751.191821	2540.035777
751.520039	2538.767927
751.848210	2539.251877
752.176334	2540.552495
752.504411	2537.311033
752.832440	2538.135262
753.160421	2539.859337
753.488356	2537.545447
753.816243	2542.337064
754.144082	2539.209028
754.471875	2539.249357
754.799620	2537.905889
755.127318	2536.378420
755.454969	2535.576876
755.782572	2538.102494
756.110129	2538.117618
756.437638	2537.764737
756.765100	2534.878677
757.092515	2537.958822
757.419882	2537.628626
757.747203	2539.067875
758.074477	2538.110056
758.401703	2536.083512
758.728882	2536.403626
759.056014	2537.792463
759.383099	2535.798687
759.710138	2540.973432
760.037129	2539.433359
760.364073	2537.779861
760.690970	2535.833975
761.017820	2538.984696
761.344623	2537.651311
761.671379	2535.594520
761.998088	2535.317257
762.324751	2534.624098
762.651366	2537.653832
762.977935	2538.311702
763.304456	2537.495035
763.630931	2538.946888
763.957359	2538.964532
764.283740	2539.670293
764.610074	2539.380427
764.936362	2539.894625
765.262602	2539.445962
765.588796	2536.877494
765.914943	2536.201979
766.241044	2538.311702
766.567097	2538.278935
766.893104	2537.230375
767.219064	2535.269366
767.544978	2535.821372
767.870845	2536.620395
768.196665	2537.036290
768.522438	2536.484284
768.848165	2535.254242
769.173846	2536.307844
769.499479	2537.452186
769.825066	2536.262473
770.150607	2534.404808
770.476101	2536.655683
770.801548	2538.616692
771.126949	2533.928419
771.452303	2536.025539
771.777611	2536.058307
772.102872	2537.452186
772.428087	2535.072761
772.753256	2536.307844
773.078378	2536.569984
773.403453	2537.525282
773.728482	2538.019315
774.053465	2536.864891
774.378401	2535.652494
774.703291	2536.025539
775.028135	2533.764582
775.352932	2535.491177
775.677683	2535.965045
776.002388	2536.154088
776.327046	2535.803728
776.651658	2533.749458
776.976224	2534.702236
777.300743	2537.285827
777.625216	2537.505118
777.949643	2537.006043
778.274024	2535.763399
778.598359	2534.949253
778.922647	2532.370703
779.246889	2532.620240
779.571086	2533.613347
779.895236	2534.946732
780.219339	2536.063348
780.543397	2536.796836
780.867409	2534.392205
781.191374	2534.361958
781.515294	2534.992102
781.839167	2535.027391
782.162995	2533.144520
782.486776	2536.164171
782.810511	2535.962525
783.134201	2534.611495
783.457844	2536.401105
783.781441	2536.539737
784.104993	2535.231557
784.428498	2536.532175
784.751958	2533.290713
785.075372	2535.624767
785.398739	2533.946063
785.722061	2536.078471
786.045337	2535.017308
786.368568	2533.948584
786.691752	2536.164171
787.014891	2533.855322
787.337983	2536.577545
787.661030	2535.350024
787.984031	2537.429500
788.306987	2537.386651
788.629897	2536.456558
788.952760	2535.776002
789.275579	2535.284489
789.598351	2533.666279
789.921078	2535.934798
790.243759	2535.750796
790.566395	2532.731145
790.888984	2535.269366
791.211529	2536.073430
791.534027	2534.046886
791.856480	2535.425642
792.178888	2535.160981
792.501249	2534.435055
792.823566	2537.197607
793.145836	2536.428831
793.468062	2537.366486
793.790241	2534.535878
794.112375	2536.217103
794.434464	2535.264325
794.756507	2536.448996
795.078505	2535.720549
795.400457	2533.091587
795.722364	2530.883562
796.044226	2535.685261
796.366042	2532.544622
796.687812	2532.184180
797.009538	2533.963707
797.331218	2535.672658
797.652852	2534.271217
797.974442	2537.182484
798.295986	2537.263142
798.617484	2535.594520
798.938938	2534.440096
799.260346	2535.665097
799.581709	2534.314067
799.903026	2537.462268
800.224299	2535.864222
800.545526	2534.336753
800.866708	2533.890610
801.187845	2533.658717
801.508936	2534.833306
801.829983	2534.805580
802.150984	2534.215765
802.471940	2534.576207
802.792851	2535.947401
803.113717	2533.552853
803.434538	2533.273069
803.755314	2535.402957
804.076045	2531.790970
804.396731	2533.605785
804.717372	2532.383305
805.037967	2535.642411
805.358518	2531.927081
805.679024	2536.121321
805.999485	2535.135775
806.319901	2535.029911
806.640272	2535.171063
806.960598	2534.815662
807.280879	2534.568646
807.601115	2535.370189
807.921306	2534.810621
808.241453	2534.780374
808.561554	2537.573173
808.881611	2534.392205
809.201623	2536.237267
809.521590	2534.369520
809.841513	2533.474715
810.161390	2534.336752
810.481223	2533.923378
810.801011	2533.991433
811.120755	2533.308357
811.440453	2534.651825
811.760107	2535.191228
812.079716	2531.929602
812.399281	2528.839374
812.718801	2531.629653
813.038276	2530.379447
813.357707	2534.130065
813.677093	2534.896321
813.996434	2533.641073
814.315731	2535.697864
814.634983	2531.927081
814.954191	2534.414890
815.273354	2534.011598
815.592473	2535.609644
815.911547	2535.367668
816.230577	2538.110056
816.549562	2531.231402
816.868502	2533.331042
817.187399	2534.616537
817.506250	2535.092926
817.825058	2534.225847
818.143821	2536.239788
818.462539	2534.351876
818.781213	2535.448327
819.099843	2531.211237
819.418429	2533.391536
819.736970	2535.339942
820.055466	2534.493028
820.373919	2534.397246
820.692327	2537.852957
821.010691	2533.517565
821.329011	2540.287835
821.647286	2543.327650
821.965517	2546.380069
822.283704	2549.258568
822.601847	2548.396531
822.919945	2545.576005
823.237999	2543.796478
823.556010	2542.831097
823.873976	2540.555016
824.191897	2540.378575
824.509775	2538.452855
824.827609	2536.665766
825.145398	2536.144006
825.463144	2536.033101
825.780845	2540.789429
826.098502	2538.173071
826.416116	2539.327495
826.733685	2540.376055
827.051210	2539.612320
827.368692	2540.618030
827.686129	2538.097453
828.003522	2539.892104
828.320872	2533.202493
828.638177	2535.715508
828.955439	2533.237781
829.272656	2532.330373
829.589830	2529.431710
829.906960	2532.779036
830.224046	2533.273069
830.541088	2535.090405
830.858086	2532.957997
831.175041	2531.768285
831.491952	2536.630478
831.808819	2537.053934
832.125642	2531.702750
832.442421	2536.305323
832.759157	2535.060158
833.075849	2537.018646
833.392497	2535.511341
833.709101	2537.459747
834.025662	2536.963194
834.342179	2538.029398
834.658653	2536.723739
834.975083	2530.873480
835.291469	2542.773123
835.607811	2534.795498
835.924110	2533.935981
836.240366	2535.544109
836.556578	2534.316588
836.872746	2533.361289
837.188871	2532.433717
837.504952	2534.039324
837.820990	2533.283151
838.136984	2531.790970
838.452935	2532.607637
838.768842	2533.812473
839.084706	2534.888759
839.400526	2532.572349
839.716303	2533.646114
840.032037	2534.467822
840.347727	2536.040662
840.663373	2534.919006
840.978977	2534.334232
841.294537	2535.128214
841.610054	2531.485980
841.925527	2533.754499
842.240957	2533.441948
842.556344	2533.671320
842.871687	2531.750641
843.186987	2534.349355
843.502244	2533.497400
843.817458	2532.348017
844.132629	2532.726104
844.447756	2533.215096
844.762840	2531.317101
845.077881	2530.213089
845.392879	2529.071267
845.707833	2529.877852
846.022745	2525.237470
846.337613	2534.324150
846.652438	2533.124355
846.967221	2530.626463
847.281960	2535.579397
847.596656	2534.926567
847.911309	2536.575025
848.225919	2533.583100
848.540485	2533.346166
848.855009	2533.073943
849.169490	2532.269879
849.483928	2535.788605
849.798323	2531.170908
850.112675	2531.652338
850.426984	2532.617719
850.741251	2532.864736
851.055474	2531.813655
851.369654	2536.375899
851.683792	2532.930271
851.997887	2531.170908
852.311938	2531.178470
852.625947	2532.426155
852.939914	2531.778367
853.253837	2533.078985
853.567718	2533.431865
853.881555	2535.100487
854.195350	2531.768285
854.509103	2531.402801
854.822812	2532.534540
855.136479	2533.804911
855.450103	2533.595703
855.763685	2531.836340
856.077224	2530.354241
856.390720	2534.301464
856.704173	2528.766277
857.017584	2531.987575
857.330953	2532.453882
857.644278	2533.104190
857.957561	2536.864891
858.270802	2532.416073
858.584000	2534.530837
858.897155	2533.721732
859.210268	2532.469005
859.523339	2533.285672
859.836367	2532.340456
860.149352	2532.645445
860.462295	2533.883049
860.775195	2528.945238
861.088054	2529.605630
861.400869	2528.539426
861.713642	2528.854498
862.026373	2532.227030
862.339062	2533.139478
862.651708	2533.973789
862.964312	2531.443130
863.276873	2531.637215
863.589392	2532.700898
863.901869	2531.874149
864.214303	2533.348686
864.526696	2531.543953
864.839045	2532.305168
865.151353	2531.911958
865.463619	2534.863553
865.775842	2532.027904
866.088023	2532.768954
866.400162	2531.440610
866.712258	2533.119314
867.024313	2532.882380
867.336325	2532.930271
867.648296	2530.409694
867.960224	2535.115611
868.272110	2533.633512
868.583954	2530.956659
868.895755	2534.152750
869.207515	2532.627801
869.519233	2534.982020
869.830909	2531.846423
870.142542	2532.902544
870.454134	2531.352389
870.765684	2530.359282
871.077191	2531.085208
871.388657	2535.002185
871.700081	2530.732327
872.011463	2533.704088
872.322803	2530.691998
872.634101	2531.480939
872.945357	2530.502955
873.256571	2535.367668
873.567744	2531.307019
873.878874	2532.718542
874.189963	2530.152595
874.501010	2532.748789
874.812015	2532.534540
875.122979	2535.198790
875.433900	2530.359282
875.744780	2534.213244
876.055618	2530.369364
876.366415	2533.993954
876.677169	2531.624612
876.987882	2529.381298
877.298554	2528.612522
877.609183	2529.378778
877.919771	2528.544467
878.230317	2532.479087
878.540822	2535.554191
878.851285	2529.744261
879.161707	2530.639066
879.472087	2534.629139
879.782425	2533.446989
880.092722	2534.861033
880.402977	2533.998995
880.713191	2536.872453
881.023363	2538.042001
881.333494	2542.263967
881.643583	2543.017619
881.953631	2539.526620
882.263637	2541.306148
882.573602	2538.094933
882.883526	2538.034439
883.193408	2537.248019
883.503248	2533.893131
883.813048	2536.391023
884.122806	2536.368337
884.432522	2536.922864
884.742197	2533.976310
885.051831	2533.598223
885.361424	2533.346166
885.670975	2532.872297
885.980485	2532.574869
886.289954	2534.190559
886.599382	2533.499921
886.908768	2534.750127
887.218113	2533.119314
887.527417	2534.493028
887.836680	2531.899355
888.145901	2532.279962
888.455082	2534.490508
888.764221	2530.409694
889.073319	2532.932791
889.382376	2532.295085
889.691392	2530.165198
890.000366	2532.645445
890.309300	2533.872966
890.618193	2528.869621
890.927044	2535.471012
891.235855	2534.117462
891.544625	2533.159643
891.853353	2534.427493
892.162041	2531.054961
892.470687	2532.786598
892.779293	2531.410363
893.087858	2532.027904
893.396381	2529.335928
893.704864	2530.051772
894.013306	2527.626977
894.321707	2532.131248
894.630068	2532.083357
894.938387	2536.358255
895.246665	2535.077802
895.554903	2535.536547
895.863100	2531.564118
896.171256	2534.301464
896.479371	2530.772657
896.787446	2532.237112
897.095480	2533.779705
897.403473	2529.403983
897.711425	2534.024201
898.019336	2531.922040
898.327207	2533.472195
898.635038	2533.567977
898.942827	2531.816176
899.250576	2532.171577
899.558284	2533.313398
899.865952	2530.644107
900.173579	2532.642925
900.481165	2530.550846
900.788711	2532.942873
901.096216	2533.182328
901.403681	2531.057482
901.711105	2533.063861
902.018489	2533.686444
902.325832	2533.930940
902.633135	2532.227030
902.940397	2532.499252
903.247619	2532.912627
903.554800	2530.959179
903.861941	2536.464119
904.169041	2533.404139
904.476101	2535.874304
904.783121	2533.550332
905.090100	2535.861702
905.397039	2533.419263
905.703938	2531.617050
906.010796	2533.663758
906.317614	2531.296937
906.624391	2532.254756
906.931129	2530.112266
907.237826	2530.523120
907.544483	2532.348017
907.851099	2529.071267
908.157675	2531.821217
908.464211	2533.174767
908.770707	2525.754188
909.077163	2528.052954
909.383578	2525.678571
909.689954	2527.621936
909.996289	2528.899868
910.302584	2533.031094
910.608839	2530.419776
910.915054	2532.506814
911.221229	2532.932791
911.527363	2529.862728
911.833458	2532.264838
912.139513	2529.449354
912.445527	2531.891793
912.751502	2530.926412
913.057436	2532.479087
913.363331	2531.785929
913.669186	2528.690660
913.975000	2533.394057
914.280775	2529.497245
914.586510	2531.730476
914.892205	2530.651669
915.197859	2532.252235
915.503475	2532.171577
915.809050	2535.975127
916.114585	2532.786598
916.420081	2534.341794
916.725536	2534.979500
917.030952	2535.798687
917.336328	2532.378264
917.641665	2533.812472
917.946961	2531.785929
918.252218	2532.244674
918.557435	2532.070754
918.862612	2533.391536
919.167750	2532.632842
919.472848	2530.903727
919.777906	2531.213758
920.082925	2531.637215
920.387904	2532.148892
920.692843	2531.690147
920.997743	2533.920857
921.302603	2531.465815
921.607423	2529.998840
921.912204	2532.587472
922.216946	2530.565969
922.521647	2531.576721
922.826310	2532.973120
923.130932	2531.075126
923.435516	2533.111752
923.740059	2528.115969
924.044564	2533.091588
924.349028	2527.914322
924.653454	2525.431554
924.957840	2527.566483
925.262186	2527.969775
925.566493	2529.265352
925.870761	2526.016328
926.174989	2531.246525
926.479178	2531.178470
926.783328	2531.735517
927.087438	2530.497914
927.391509	2530.359282
927.695541	2530.240815
927.999533	2530.076978
928.303486	2530.949097
928.607400	2531.538912
928.911275	2531.231402
929.215110	2529.509848
929.518906	2527.269055
929.822663	2529.610671
930.126381	2529.905578
930.430060	2531.624612
930.733699	2529.651000
931.037299	2529.217461
931.340861	2529.340969
931.644383	2530.805424
931.947866	2529.066226
932.251309	2530.888603
932.554714	2529.860208
932.858080	2534.430014
933.161407	2531.584283
933.464694	2532.123686
933.767943	2529.219981
934.071153	2529.421627
934.374323	2528.720907
934.677455	2531.669982
934.980548	2527.342152
935.283602	2531.886752
935.586617	2529.121679
935.889593	2530.339118
936.192530	2529.590506
936.495428	2529.154446
936.798287	2532.587472
937.101108	2531.092770
937.403890	2531.657379
937.706632	2529.073788
938.009336	2529.993798
938.312002	2531.143182
938.614628	2527.014477
938.917216	2531.783408
939.219765	2531.775846
939.522275	2529.625794
939.824747	2531.097811
940.127179	2527.891637
940.429573	2526.775022
940.731929	2528.239477
941.034246	2525.340813
941.336524	2529.852646
941.638763	2530.873480
941.940964	2529.842564
942.243126	2527.717718
942.545250	2529.356093
942.847335	2530.848274
943.149381	2530.016484
943.451389	2529.187214
943.753359	2530.306350
944.055290	2528.554549
944.357182	2529.051103
944.659036	2531.546474
944.960851	2530.281144
945.262628	2530.460105
945.564367	2531.425486
945.866067	2527.984899
946.167729	2529.025897
946.469352	2530.623943
946.770937	2529.950949
947.072484	2531.044879
947.373992	2531.128058
947.675462	2529.595547
947.976893	2528.428520
948.278286	2531.967410
948.579641	2529.288037
948.880958	2529.784591
949.182236	2530.376926
949.483476	2529.426669
949.784678	2529.852646
950.085841	2531.483459
950.386967	2531.972451
950.688054	2531.228881
950.989103	2532.907585
951.290114	2527.579086
951.591087	2526.956503
951.892021	2526.502799
952.192917	2531.581762
952.493776	2529.396422
952.794596	2530.112266
953.095378	2528.607481
953.396122	2531.879190
953.696828	2529.305681
953.997496	2530.381967
954.298126	2531.155784
954.598718	2530.155115
954.899272	2528.857018
955.199788	2531.586803
955.500266	2529.635877
955.800706	2526.860721
956.101108	2527.132944
956.401472	2528.882224
956.701798	2528.630166
957.002087	2524.680422
957.302337	2532.710980
957.602550	2528.045393
957.902724	2530.061854
958.202861	2529.078829
958.502960	2528.816689
958.803022	2530.029087
959.103045	2528.390712
959.403031	2527.992460
959.702979	2529.061185
960.002889	2533.993954
960.302762	2527.528674
960.602596	2528.310053
960.902393	2526.769981
961.202153	2530.344159
961.501875	2530.767616
961.801559	2529.739220
962.101205	2529.267872
962.400814	2530.634025
962.700385	2528.090763
962.999918	2530.465146
963.299414	2530.094622
963.598873	2529.340969
963.898293	2530.923891
964.197677	2529.787111
964.497022	2528.675537
964.796331	2527.884076
965.095601	2527.236287
965.394835	2529.209899
965.694030	2526.543129
965.993189	2529.260311
966.292309	2528.990609
966.591393	2528.090763
966.890439	2529.096473
967.189447	2528.204189
967.488419	2530.755013
967.787353	2528.090763
968.086249	2531.796011
968.385108	2529.524971
968.683930	2530.137471
968.982714	2526.951462
969.281462	2531.425486
969.580172	2529.900537
969.878844	2530.765095
970.177480	2526.414579
970.476078	2529.282996
970.774639	2529.293078
971.073162	2529.172090
971.371649	2527.584127
971.670098	2523.773015
971.968510	2525.734023
972.266885	2525.068591
972.565223	2529.411545
972.863524	2529.129241
973.161788	2528.441123
973.460014	2528.534384
973.758204	2530.442461
974.056356	2526.659075
974.354471	2530.661751
974.652550	2530.399611
974.950591	2529.706453
975.248595	2532.595034
975.546563	2530.366844
975.844493	2530.961700
976.142386	2528.814168
976.440243	2527.450536
976.738062	2531.400280
977.035845	2531.065044
977.333590	2526.712007
977.631299	2528.385670
977.928971	2529.393901
978.226606	2526.096987
978.524204	2527.841226
978.821765	2528.481452
979.119290	2528.816689
979.416777	2527.899199
979.714228	2528.844415
980.011642	2531.874149
980.309020	2531.977492
980.606360	2530.323994
980.903664	2529.519930
981.200931	2529.134282
981.498162	2531.145702
981.795356	2527.092614
982.092513	2531.911958
982.389633	2529.822399
982.686717	2529.540095
982.983764	2528.599919
983.280775	2527.957172
983.577749	2530.374406
983.874686	2530.001360
984.171587	2528.914992
984.468451	2529.164529
984.765279	2526.172604
985.062070	2529.666123
985.358824	2526.848118
985.655543	2530.192924
985.952224	2527.702594
986.248869	2529.514889
986.545478	2524.178827
986.842050	2527.684950
987.138586	2526.331400
987.435086	2526.827954
987.731549	2524.196472
988.027975	2528.592358
988.324366	2529.048582
988.620719	2530.886083
988.917037	2528.877183
989.213318	2530.515558
989.509563	2530.255938
989.805772	2526.585978
990.101944	2528.730989
990.398080	2527.906761
990.694180	2527.785773
990.990244	2525.663447
991.286271	2526.573376
991.582262	2527.211082
991.878217	2528.005063
992.174136	2528.504138
992.470019	2527.914322
992.765865	2530.744930
993.061676	2527.064888
993.357450	2530.838192
993.653188	2527.611853
993.948890	2532.617719
994.244556	2527.498427
994.540186	2526.744775
994.835780	2528.579755
995.131337	2528.289888
995.426859	2527.586648
995.722345	2530.155115
996.017795	2526.651513
996.313208	2528.715866
996.608586	2529.242667
996.903928	2527.553880
997.199234	2528.637728
997.494504	2525.227388
997.789738	2527.188396
998.084936	2528.698222
998.380099	2526.659075
998.675225	2526.691843
998.970316	2527.455578
999.265371	2533.242822
999.560390	2527.758047
999.855373	2527.019518
1000.150320	2525.862573
1000.445232	2529.114117
1000.740108	2526.664116
1001.034948	2527.528674
1001.329752	2527.584127
1001.624521	2530.003881
1001.919254	2523.556245
1002.213951	2524.561955
1002.508613	2521.852335
1002.803239	2525.396266
1003.097829	2522.321162
1003.392384	2530.795342
1003.686903	2527.601771
1003.981386	2527.198479
1004.275834	2529.456916
1004.570246	2528.148736
1004.864623	2529.000691
1005.158964	2530.283665
1005.453270	2527.606812
1005.747540	2530.739889
1006.041775	2527.475742
1006.335974	2530.772657
1006.630138	2527.866432
1006.924266	2528.849457
1007.218359	2526.704446
1007.512416	2530.460105
1007.806438	2526.275947
1008.100425	2527.163191
1008.394376	2528.163860
1008.688292	2528.020187
1008.982172	2528.501617
1009.276017	2526.354085
1009.569827	2527.606812
1009.863602	2528.173942
1010.157341	2528.181504
1010.451045	2527.687471
1010.744714	2526.946421
1011.038347	2529.729138
1011.331945	2528.070598
1011.625508	2528.879703
1011.919036	2524.814013
1012.212528	2528.360465
1012.505986	2527.604292
1012.799408	2528.733510
1013.092795	2527.332069
1013.386147	2524.788807
1013.679464	2528.128572
1013.972745	2529.572862
1014.265992	2528.342821
1014.559204	2527.468180
1014.852380	2528.327697
1015.145521	2530.462626
1015.438628	2529.613191
1015.731699	2528.199148
1016.024736	2526.147398
1016.317737	2529.640918
1016.610703	2527.213602
1016.903635	2525.562624
1017.196531	2524.551873
1017.489393	2524.932480
1017.782219	2520.813857
1018.075011	2525.101359
1018.367768	2527.095135
1018.660490	2529.663603
1018.953177	2529.663603
1019.245829	2529.663603
