Dividing Wavelength (nm)	Counts (n)	Blue Motor Position (mm): 0.000000	Red Motor Position (mm): 30.700000	
326.493990	2126.028497
326.888308	2126.028497
327.282561	2126.028497
327.676750	2093.714701
328.070874	2093.855853
328.464933	2096.620926
328.858929	2104.061669
329.252859	2111.003338
329.646726	2122.910543
330.040528	2135.906638
330.434265	2153.573361
330.827938	2171.076248
331.221547	2187.086952
331.615091	2208.879860
332.008571	2228.721842
332.401986	2250.340830
332.795338	2266.795156
333.188625	2285.795265
333.581847	2305.962401
333.975006	2322.600729
334.368100	2339.256702
334.761129	2358.032479
335.154095	2375.958822
335.546996	2397.252656
335.939833	2409.895870
336.332606	2426.680392
336.725315	2438.887546
337.117960	2451.702159
337.510540	2459.541153
337.903056	2468.952987
338.295508	2475.740901
338.687896	2484.124340
339.080220	2494.309991
339.472480	2499.835096
339.864676	2503.565549
340.256807	2509.219203
340.648875	2510.449245
341.040879	2512.266581
341.432818	2513.572240
341.824694	2519.228414
342.216506	2519.319155
342.608253	2518.646161
342.999937	2518.893178
343.391557	2519.125071
343.783113	2514.731705
344.174605	2514.877899
344.566033	2512.369925
344.957397	2510.769358
345.348697	2510.771879
345.739934	2507.238030
346.131106	2508.944461
346.522215	2505.730725
346.913260	2504.104953
347.304241	2500.707215
347.695159	2499.278048
348.086012	2501.927174
348.476802	2496.417193
348.867528	2495.655979
349.258191	2492.172542
349.648789	2492.185145
350.039324	2491.809579
350.429796	2493.715135
350.820203	2489.553662
351.210548	2486.481079
351.600828	2483.955461
351.991045	2485.971923
352.381198	2486.415544
352.771288	2482.493526
353.161314	2485.142653
353.551276	2487.053250
353.941175	2484.479741
354.331010	2487.915287
354.720782	2487.093579
355.110490	2484.457056
355.500135	2487.539721
355.889717	2483.635348
356.279235	2487.955617
356.668689	2483.267343
357.058080	2488.106851
357.447408	2485.608959
357.836672	2482.440594
358.225873	2485.886223
358.615010	2482.077631
359.004084	2488.434526
359.393095	2486.014772
359.782043	2489.467963
360.170927	2490.884527
360.559748	2492.248159
360.948505	2492.643890
361.337199	2493.677326
361.725830	2494.380567
362.114398	2494.183962
362.502903	2493.601709
362.891344	2497.967348
363.279722	2495.749240
363.668037	2497.702688
364.056289	2498.226967
364.444478	2497.780825
364.832603	2497.685043
365.220665	2498.594972
365.608665	2501.370127
365.996601	2499.033552
366.384474	2501.622185
366.772284	2502.269973
367.160031	2503.570591
367.547715	2507.308606
367.935336	2507.447238
368.322893	2512.621982
368.710388	2513.978053
369.097820	2521.779238
369.485189	2525.446678
369.872495	2530.291227
370.259738	2535.337422
370.646918	2543.189019
371.034035	2554.382901
371.421090	2563.111659
371.808081	2573.909810
372.195010	2582.656212
372.581875	2593.656010
372.968678	2609.759976
373.355418	2617.394803
373.742096	2632.838378
374.128710	2654.061636
374.515262	2663.919612
374.901751	2681.024247
375.288177	2691.570341
375.674540	2716.380380
376.060841	2735.319995
376.447079	2753.977305
376.833254	2774.668721
377.219367	2786.815381
377.605417	2822.768890
377.991404	2835.255828
378.377329	2857.119313
378.763191	2873.399719
379.148991	2911.878846
379.534727	2940.026129
379.920402	2964.760550
380.306013	2977.754124
380.691563	3023.948738
381.077049	3045.945812
381.462474	3064.877866
381.847835	3106.348918
382.233134	3125.694346
382.618371	3126.599233
383.003545	3195.194213
383.388657	3200.454657
383.773706	3236.161150
384.158693	3252.363418
384.543618	3279.530196
384.928480	3313.497491
385.313280	3357.456353
385.698017	3357.907536
386.082692	3412.271339
386.467305	3416.211001
386.851856	3447.564457
387.236344	3472.177891
387.620770	3502.313908
388.005133	3526.639996
388.389435	3553.590005
388.773674	3563.942014
389.157851	3605.103035
389.541965	3622.989049
389.926018	3585.694593
390.310008	3661.654699
390.693936	3679.495343
391.077802	3721.059656
391.461606	3707.677913
391.845348	3771.277110
392.229027	3770.044548
392.612645	3780.656177
392.996200	3860.087117
393.379694	3899.710587
393.763125	3963.188796
394.146494	3931.336265
394.529801	3994.794310
394.913047	4043.423800
395.296230	4009.300230
395.679351	4063.908529
396.062410	4086.611365
396.445408	4068.170825
396.828343	4098.218622
397.211217	4128.916728
397.594028	4044.520251
397.976778	4111.285293
398.359466	4137.184221
398.742092	4166.755629
399.124656	4088.940378
399.507158	4166.654806
399.889598	4194.050957
400.271977	4254.312910
400.654294	4226.528590
401.036549	4236.220209
401.418742	4202.215105
401.800874	4308.580931
402.182944	4326.340916
402.564952	4388.493302
402.946898	4379.983834
403.328783	4373.216085
403.710606	4289.333806
404.092367	4482.528465
404.474067	4445.234009
404.855705	4457.186585
405.237282	4380.092219
405.618797	4494.657481
406.000250	4524.619579
406.381642	4607.322228
406.762972	4566.700611
407.144240	4583.031429
407.525447	4577.637394
407.906593	4640.049399
408.287677	4682.321995
408.668700	4608.519503
409.049661	4662.825332
409.430560	4705.256724
409.811399	4631.507164
410.192176	4792.042708
410.572891	4727.513418
410.953545	4831.822453
411.334138	4715.026480
411.714669	4777.584679
412.095139	4676.859905
412.475547	4816.451975
412.855894	4796.254592
413.236180	4803.097959
413.616405	4761.536166
413.996568	4847.770143
414.376670	4791.316782
414.756711	4746.639556
415.136691	4775.636273
415.516609	4851.535885
415.896466	4893.818563
416.276262	4924.919962
416.655997	4904.911622
417.035670	5087.275363
417.415283	5179.795659
417.794834	5124.174088
418.174324	5072.192230
418.553753	4984.907172
418.933121	5167.686808
419.312428	5235.137446
419.691674	5171.979350
420.070859	5298.900481
420.449983	5209.329259
420.829045	5328.446683
421.208047	5237.519391
421.586988	5308.009846
421.965867	5317.966124
422.344686	5447.788439
422.723444	5303.374505
423.102141	5123.410353
423.480777	5419.305920
423.859352	5189.018450
424.237866	5447.599396
424.616319	5435.961892
424.994712	5550.113780
425.373044	5427.964101
425.751314	5574.583540
426.129524	5374.669023
426.507673	5566.240431
426.885762	5652.890304
427.263789	5582.263738
427.641756	5462.019616
428.019662	5583.007308
428.397508	5591.725984
428.775292	5539.227408
429.153016	5637.240042
429.530679	5566.104320
429.908282	5646.697246
430.285824	5519.125807
430.663305	5793.009175
431.040726	5533.934196
431.418086	5528.071334
431.795385	5634.946317
432.172624	5649.784953
432.549802	5642.157687
432.926920	5653.739738
433.303977	5664.525287
433.680974	5700.209094
434.057910	5721.059307
434.434786	5722.831272
434.811601	5691.278690
435.188355	5930.007572
435.565050	5802.368077
435.941683	5781.296054
436.318257	5997.690103
436.694770	5977.583461
437.071222	6014.522516
437.447614	5947.376867
437.823946	5854.244071
438.200218	6010.479511
438.576429	5877.330035
438.952580	5977.107072
439.328670	6019.815727
439.704700	5927.335760
440.080670	5912.736579
440.456580	6187.476943
440.832429	6069.957564
441.208218	5916.182207
441.583947	6071.076700
441.959616	6075.086938
442.335224	6000.540876
442.710773	6137.614890
443.086261	6164.058263
443.461689	5961.580318
443.837057	6111.282423
444.212365	6262.229692
444.587612	6155.586603
444.962800	6306.871630
445.337927	6288.262211
445.712995	5901.545217
446.088002	6477.144163
446.462949	6306.407844
446.837837	6236.234983
447.212664	6411.097486
447.587431	6552.164094
447.962139	7092.537978
448.336786	8020.768156
448.711374	7760.329546
449.085901	6837.475758
449.460369	6759.201762
449.834776	6689.631318
450.209124	7079.925011
450.583412	7228.747434
450.957640	7379.624128
451.331808	7145.548231
451.705917	6697.498039
452.079965	6616.138857
452.453954	6826.382699
452.827883	6704.616148
453.201752	6799.208359
453.575562	6600.518842
453.949311	6801.975953
454.323001	6688.917995
454.696632	6768.573267
455.070202	6902.617548
455.443713	7058.268214
455.817164	7156.971486
456.190556	7239.810246
456.563888	7311.810526
456.937160	7358.247115
457.310373	7012.950762
457.683526	7039.706686
458.056619	6926.915909
458.429653	6922.855260
458.802628	6858.850250
459.175542	6960.366486
459.548398	7314.505023
459.921194	7476.356308
460.293930	7477.485527
460.666607	8003.396340
461.039224	8315.312693
461.411782	8448.046274
461.784280	8459.822409
462.156719	8354.089248
462.529099	8227.415135
462.901419	7821.226684
463.273680	7712.889767
463.645882	7716.897485
464.018024	7584.257165
464.390106	7750.612722
464.762130	8142.065879
465.134094	8608.266746
465.505999	9625.702662
465.877845	10840.262817
466.249631	11486.077475
466.621358	11095.423340
466.993026	10462.803902
467.364634	10214.378361
467.736184	9850.598617
468.107674	9511.548254
468.479105	9537.764774
468.850477	9302.973034
469.221790	9069.522241
469.593043	8739.256087
469.964238	8603.016384
470.335373	8601.236857
470.706449	8652.192840
471.077467	8632.439079
471.448425	9924.307848
471.819324	10976.401697
472.190164	10985.682462
472.560945	9749.319316
472.931667	8967.474163
473.302330	8824.529725
473.672934	8467.290879
474.043479	8810.681676
474.413965	8742.074092
474.784393	8616.655226
475.154761	8762.354654
475.525070	8836.328546
475.895321	8661.324890
476.265513	8817.724168
476.635645	8967.678330
477.005719	8958.846228
477.375734	9049.090444
477.745691	9262.535418
478.115588	9371.840237
478.485427	9596.726110
478.855207	10084.382127
479.224928	10818.953860
479.594591	11398.013558
479.964194	11202.613394
480.333739	11129.922476
480.703226	11009.890082
481.072653	11077.675957
481.442022	11247.227605
481.811333	11400.632438
482.180584	11184.366937
482.549777	10883.112625
482.918912	10694.989366
483.287988	10672.780563
483.657005	10649.765175
484.025964	10323.869702
484.394864	10407.540253
484.763706	10339.046096
485.132489	10087.905894
485.501213	10015.005768
485.869879	10046.581035
486.238487	9855.317137
486.607036	9928.602912
486.975527	9677.026649
487.343959	9803.299992
487.712333	9793.421851
488.080648	9686.720788
488.448905	9664.532150
488.817104	9566.017921
489.185244	9736.603006
489.553326	9801.724631
489.921350	10176.342856
490.289315	10928.349419
490.657222	11139.883796
491.025070	11001.151242
491.392861	10831.090438
491.760593	10484.306944
492.128267	10162.174693
492.495883	9835.039096
492.863440	9507.623716
493.230939	9184.722688
493.598380	9069.650790
493.965763	8890.430209
494.333088	8766.364892
494.700354	8625.270558
495.067563	8615.833518
495.434713	8409.262157
495.801805	8436.837268
496.168839	8314.395203
496.535815	8190.765946
496.902733	8131.847461
497.269593	8004.828028
497.636395	8011.867999
498.003139	7914.392248
498.369825	7773.885208
498.736453	7789.797610
499.103023	7683.051178
499.469535	7615.343440
499.835989	7537.059362
500.202385	7435.195287
500.568723	7273.341481
500.935003	7343.791606
501.301226	7127.493339
501.667390	7221.906588
502.033497	7192.798966
502.399546	7050.353602
502.765537	6925.070847
503.131470	6882.137860
503.497345	6896.250571
503.863163	6635.741384
504.228923	6703.965839
504.594625	6669.847310
504.960269	6472.947403
505.325856	6498.243913
505.691385	6323.323436
506.056856	6325.004661
506.422270	6256.422283
506.787625	6147.356920
507.152924	6118.299709
507.518164	6049.326642
507.883347	5936.135094
508.248472	5836.993242
508.613540	5857.069637
508.978550	5740.755095
509.343503	5658.513711
509.708398	5635.228621
510.073236	5604.059167
510.438016	5542.012645
510.802738	5447.836330
511.167403	5404.837808
511.532010	5293.609790
511.896561	5315.627029
512.261053	5271.582468
512.625488	5154.902442
512.989866	5080.535340
513.354186	5017.987224
513.718449	4919.445269
514.082655	4921.038273
514.446803	4829.957226
514.810894	4800.438750
515.174927	4705.128175
515.538904	4658.036236
515.902822	4626.713027
516.266684	4553.054207
516.630488	4477.530161
516.994235	4439.592958
517.357925	4391.502871
517.721558	4358.284187
518.085133	4310.539419
518.448651	4262.759363
518.812112	4190.436449
519.175516	4143.541116
519.538863	4113.631950
519.902152	4055.709092
520.265385	4027.828991
520.628560	3974.662462
520.991678	3915.254984
521.354739	3888.075603
521.717743	3833.268179
522.080690	3790.373001
522.443580	3759.798403
522.806413	3714.060014
523.169189	3678.910569
523.531908	3647.484016
523.894569	3587.937906
524.257174	3548.011968
524.619722	3523.365767
524.982213	3491.742609
525.344647	3457.215746
525.707025	3421.544541
526.069345	3401.009401
526.431608	3356.493492
526.793815	3339.192252
527.155964	3292.700211
527.518057	3270.372940
527.880093	3235.006726
528.242072	3218.265054
528.603995	3183.725588
528.965860	3152.946823
529.327669	3133.487969
529.689421	3106.167436
530.051117	3083.888057
530.412755	3065.203020
530.774337	3040.521531
531.135862	3017.899353
531.497331	3003.133813
531.858743	2972.695326
532.220098	2966.532516
532.581396	2942.702982
532.942638	2925.341248
533.303824	2910.580749
533.664953	2897.695560
534.026025	2880.699310
534.387040	2871.486601
534.747999	2860.683408
535.108902	2848.040195
535.469748	2829.738286
535.830537	2820.137408
536.191270	2809.452682
536.551947	2799.221661
536.912567	2789.668674
537.273131	2780.085441
537.633638	2771.152516
537.994089	2764.568769
538.354483	2753.561410
538.714821	2751.406317
539.075103	2743.577405
539.435328	2736.159347
539.795497	2725.653582
540.155609	2723.344734
540.515665	2721.398848
540.875665	2710.293186
541.235609	2709.428628
541.595496	2704.412680
541.955328	2700.679706
542.315102	2693.216278
542.674821	2690.342820
543.034483	2686.009948
543.394090	2679.012827
543.753640	2676.635923
544.113134	2679.794206
544.472571	2673.452434
544.831953	2669.069151
545.191278	2668.769202
545.550548	2664.627894
545.909761	2662.641680
546.268918	2661.020949
546.628019	2660.988181
546.987064	2656.078097
547.346053	2653.098775
547.704986	2652.390493
548.063863	2654.961482
548.422684	2649.509474
548.781449	2644.261633
549.140158	2646.386479
549.498811	2644.914462
549.857408	2640.374903
550.215949	2641.988072
550.574434	2636.246198
550.932864	2638.328195
551.291237	2636.929274
551.649555	2637.037659
552.007817	2636.246198
552.366022	2636.452885
552.724173	2633.619757
553.082267	2634.819552
553.440305	2635.134624
553.798288	2631.593213
554.156215	2629.874180
554.514086	2633.861732
554.871902	2629.511217
555.229661	2629.518778
555.587365	2627.971144
555.945014	2625.672378
556.302606	2628.049282
556.660143	2625.707666
557.017625	2628.422327
557.375050	2626.816720
557.732421	2624.540639
558.089735	2627.184724
558.446994	2622.486369
558.804197	2622.942593
559.161345	2622.541821
559.518437	2622.403190
559.875474	2621.949486
560.232455	2620.737088
560.589381	2621.848663
560.946251	2623.285392
561.303065	2621.720113
561.659825	2620.684156
562.016528	2618.365225
562.373177	2619.169289
562.729770	2616.505040
563.086307	2619.622993
563.442789	2616.860441
563.799216	2616.356326
564.155587	2616.028651
564.511904	2615.708537
564.868164	2616.426902
565.224370	2616.633589
565.580520	2618.120729
565.936615	2615.978239
566.292654	2613.818105
566.648638	2615.305245
567.004567	2614.352467
567.360441	2615.060749
567.716260	2611.962960
568.072023	2612.865327
568.427732	2608.575305
568.783385	2611.499174
569.138982	2607.158740
569.494525	2609.518000
569.850013	2605.948863
570.205445	2609.649070
570.560823	2612.512446
570.916145	2610.604369
571.271412	2609.563371
571.626625	2609.596138
571.981782	2610.289297
572.336884	2610.291817
572.691931	2610.289297
573.046923	2607.320057
573.401860	2609.248299
573.756743	2610.324585
574.111570	2606.158071
574.466342	2609.187805
574.821059	2607.735953
575.175722	2607.922475
575.530330	2605.601024
575.884882	2604.381065
576.239380	2605.593462
576.593823	2608.015737
576.948211	2605.096908
577.302544	2605.399378
577.656823	2605.157402
578.011047	2605.883328
578.365216	2602.566249
578.719330	2606.364759
579.073389	2604.875098
579.427394	2604.917947
579.781344	2603.672782
580.135239	2604.000457
580.489080	2604.832248
580.842866	2600.741352
581.196597	2603.922320
581.550273	2603.120776
581.903895	2600.930395
582.257463	2602.384768
582.610975	2600.638008
582.964434	2605.157402
583.317837	2602.185642
583.671186	2602.573811
584.024481	2601.689088
584.377721	2601.724377
584.730906	2601.588265
585.084037	2603.088009
585.437113	2600.237236
585.790135	2598.225816
586.143103	2603.206476
586.496016	2598.671958
586.848874	2595.246494
587.201679	2597.925867
587.554428	2595.301947
587.907124	2598.021649
588.259765	2594.838160
588.612352	2599.140785
588.964884	2598.732452
589.317362	2597.850250
589.669786	2596.806731
590.022155	2599.087853
590.374470	2599.574324
590.726731	2596.544591
591.078937	2597.688933
591.431090	2598.069540
591.783188	2594.530650
592.135232	2595.243973
592.487222	2597.749427
592.839157	2596.121134
593.191038	2595.604416
593.542866	2595.674992
593.894639	2594.119796
594.246358	2593.625763
594.598022	2595.730445
594.949633	2595.879159
595.301190	2595.294385
595.652692	2594.886051
596.004141	2597.658686
596.355535	2593.338417
596.706876	2593.068715
597.058162	2593.711462
597.409395	2593.940835
597.760573	2594.462594
598.111698	2595.059971
598.462768	2595.770774
598.813785	2593.963520
599.164748	2595.158274
599.515657	2591.659713
599.866511	2590.396904
600.217312	2593.696339
600.568060	2594.845722
600.918753	2589.673498
601.269392	2594.331524
601.619978	2590.422110
601.970510	2593.348499
602.320988	2591.737851
602.671412	2593.124168
603.021783	2592.569641
603.372100	2594.029055
603.722363	2588.405648
604.072572	2590.774990
604.422728	2592.012594
604.772830	2587.583940
605.122878	2586.684094
605.472872	2588.947572
605.822813	2586.931111
606.172701	2587.195771
606.522534	2588.783735
606.872314	2589.870103
607.222041	2590.893457
607.571714	2593.918150
607.921333	2591.158118
608.270899	2590.815320
608.620411	2592.667944
608.969870	2594.112234
609.319276	2594.598706
609.668627	2594.329004
610.017926	2598.283789
610.367171	2598.200610
610.716362	2597.522575
611.065500	2597.325970
611.414585	2597.530137
611.763616	2594.969230
612.112594	2594.177769
612.461518	2591.873962
612.810389	2595.924529
613.159207	2594.868407
613.507971	2591.281626
613.856682	2593.706421
614.205340	2591.800865
614.553945	2594.359251
614.902496	2593.403952
615.250994	2592.476380
615.599439	2593.792121
615.947830	2595.843871
616.296169	2590.659044
616.644454	2593.270362
616.992686	2591.296750
617.340864	2595.133068
617.688990	2589.497058
618.037063	2594.230701
618.385082	2595.546442
618.733048	2592.509147
619.080961	2594.828078
619.428821	2593.650969
619.776628	2592.778849
620.124382	2593.961000
620.472083	2593.040989
620.819731	2590.810278
621.167326	2592.617532
621.514868	2593.875300
621.862357	2590.081832
622.209793	2591.417737
622.557176	2590.618715
622.904506	2586.852973
623.251783	2586.074114
623.599007	2586.353898
623.946179	2583.911459
624.293297	2585.277612
624.640363	2587.392376
624.987376	2588.312387
625.334336	2584.390369
625.681243	2585.204515
626.028097	2587.357088
626.374899	2586.875658
626.721647	2586.300966
627.068343	2583.475400
627.414987	2585.892633
627.761577	2583.152766
628.108115	2584.735688
628.454600	2584.279464
628.801032	2583.125039
629.147412	2584.380287
629.493739	2583.891295
629.840014	2584.760894
630.186236	2584.236614
630.532405	2583.689649
630.878521	2583.863568
631.224585	2583.621593
631.570597	2579.122363
631.916556	2583.888774
632.262462	2582.532704
632.608316	2582.910790
632.954117	2582.194947
633.299866	2581.821901
633.645562	2577.892322
633.991206	2580.491037
634.336797	2578.739236
634.682336	2581.499267
635.027823	2577.143710
635.373257	2580.851479
635.718639	2576.911817
636.063968	2579.865933
636.409245	2579.001376
636.754470	2577.998186
637.099642	2579.311407
637.444762	2578.199832
637.789829	2577.539441
638.134845	2576.261508
638.479808	2576.755542
638.824719	2577.990624
639.169577	2573.100705
639.514383	2576.654718
639.859137	2575.122208
640.203839	2574.524831
640.548489	2577.279822
640.893086	2572.959553
641.237632	2570.260015
641.582125	2574.179512
641.926566	2568.757751
642.270955	2574.439131
642.615292	2576.962229
642.959576	2577.229410
643.303809	2576.226220
643.647990	2577.078175
643.992118	2575.515418
644.336195	2573.788822
644.680219	2574.789492
645.024192	2573.166240
645.368112	2573.992989
645.711981	2576.740418
646.055797	2575.679255
646.399562	2575.255798
646.743274	2575.344018
647.086935	2578.020871
647.430544	2579.124884
647.774101	2578.920717
648.117606	2576.306879
648.461059	2579.301324
648.804460	2579.628999
649.147810	2575.807805
649.491108	2574.449214
649.834354	2577.854513
650.177548	2575.349060
650.520690	2575.643967
650.863781	2574.514749
651.206820	2579.482806
651.549807	2570.958215
651.892742	2573.516600
652.235626	2574.819738
652.578458	2573.302351
652.921238	2570.839747
653.263967	2573.549368
653.606644	2571.268246
653.949269	2574.499625
654.291843	2571.190108
654.634365	2575.522979
654.976836	2573.531724
655.319255	2572.594069
655.661622	2569.551733
656.003938	2569.990313
656.346203	2569.871846
656.688416	2569.340004
657.030577	2567.699109
657.372687	2571.159861
657.714746	2568.029304
658.056753	2571.326219
658.398708	2564.719787
658.740612	2566.612740
659.082465	2567.936043
659.424266	2567.736917
659.766016	2568.911506
660.107715	2571.512742
660.449362	2571.260684
660.790958	2570.791857
661.132503	2571.389233
661.473996	2568.472926
661.815438	2571.311095
662.156829	2571.825293
662.498168	2570.867474
662.839456	2572.442834
663.180693	2570.779254
663.521879	2570.466702
663.863013	2571.784964
664.204097	2568.659448
664.545129	2571.409398
664.886110	2569.705488
665.227040	2572.208421
665.567918	2571.787484
665.908746	2570.320509
666.249522	2572.596590
666.590248	2572.704974
666.930922	2571.419480
667.271545	2572.198338
667.612118	2573.556929
667.952639	2571.250602
668.293109	2571.225396
668.633528	2570.693554
668.973896	2572.899059
669.314213	2569.309757
669.654480	2569.125755
669.994695	2573.503997
670.334859	2570.517114
670.674973	2572.231106
671.015035	2571.106929
671.355047	2569.730694
671.695008	2570.007957
672.034918	2568.266238
672.374777	2572.382341
672.714585	2571.366548
673.054342	2568.901424
673.394049	2568.780436
673.733705	2572.369738
674.073310	2571.023750
674.412864	2571.910993
674.752368	2571.729511
675.091820	2571.119532
675.431223	2569.579459
675.770574	2571.916034
676.109875	2567.409242
676.449125	2568.946794
676.788324	2568.644325
677.127473	2566.935374
677.466571	2565.407904
677.805619	2570.466702
678.144616	2567.484860
678.483562	2568.898903
678.822458	2566.007802
679.161303	2568.760272
679.500098	2567.678944
679.838842	2566.763975
680.177535	2565.037379
680.516179	2569.939902
680.854771	2570.078533
681.193314	2567.893193
681.531805	2570.368400
681.870247	2569.894531
682.208638	2572.122721
682.546978	2572.536096
682.885268	2571.757237
683.223508	2570.161712
683.561697	2569.072823
683.899836	2571.817731
684.237925	2572.747824
684.575963	2569.576938
684.913951	2568.477967
685.251889	2571.036352
685.589776	2570.837227
685.927614	2569.448389
686.265401	2570.144068
686.603137	2568.326732
686.940824	2573.135993
687.278460	2571.512742
687.616046	2571.429562
687.953582	2572.442834
688.291068	2572.861250
688.628504	2573.637588
688.965889	2572.576425
689.303224	2573.309913
689.640510	2569.919737
689.977745	2569.914696
690.314930	2567.174829
690.652065	2570.217165
690.989150	2567.348748
691.326185	2566.345559
691.663170	2563.507389
692.000105	2563.850188
692.336990	2564.845816
692.673825	2565.712894
693.010610	2565.760785
693.347345	2562.783984
693.684030	2561.143088
694.020665	2561.591751
694.357251	2554.491286
694.693786	2560.636452
695.030272	2563.575445
695.366707	2562.652914
695.703093	2561.145609
696.039429	2560.286092
696.375716	2562.415979
696.711952	2562.872204
697.048139	2560.379353
697.384276	2560.190310
697.720363	2560.744837
698.056400	2562.978068
698.392388	2560.270968
698.728326	2560.631411
699.064214	2561.551422
699.400053	2561.349775
699.735842	2557.243756
700.071581	2558.040258
700.407270	2559.086297
700.742910	2558.667882
701.078501	2558.710731
701.414042	2559.792059
701.749533	2559.509754
702.084974	2557.032027
702.420366	2558.549414
702.755709	2559.902964
703.091002	2555.996070
703.426246	2557.364743
703.761440	2558.814075
704.096584	2559.683674
704.431679	2556.336348
704.766725	2555.595298
705.101721	2554.745864
705.436668	2556.719476
705.771565	2553.989691
706.106413	2557.087480
706.441212	2558.531770
706.775961	2562.363047
707.110661	2557.397511
707.445311	2557.788200
707.779913	2559.444219
708.114465	2556.522871
708.448967	2557.377346
708.783421	2557.644527
709.117825	2556.505227
709.452180	2560.301215
709.786485	2558.231822
710.120742	2561.042265
710.454949	2561.569066
710.789107	2559.363561
711.123216	2557.710062
711.457275	2561.125444
711.791286	2560.739796
712.125247	2562.995712
712.459159	2560.822975
712.793023	2563.698953
713.126837	2561.528736
713.460602	2562.405897
713.794318	2559.708880
714.127985	2563.078891
714.461602	2559.971020
714.795171	2561.337172
715.128691	2561.354817
715.462162	2559.547563
715.795584	2557.768036
716.128957	2558.042778
716.462281	2557.914229
716.795556	2555.123950
717.128782	2556.462377
717.461960	2553.788045
717.795088	2559.633263
718.128167	2556.124619
718.461198	2556.656461
718.794180	2557.321893
719.127113	2554.816440
719.459997	2556.119578
719.792833	2556.273333
720.125619	2554.715617
720.458357	2552.926007
720.791046	2554.715617
721.123686	2552.878116
721.456278	2554.854249
721.788821	2554.423230
722.121315	2553.208312
722.453761	2552.507592
722.786158	2555.723848
723.118506	2553.576316
723.450805	2553.339382
723.783056	2554.035061
724.115259	2553.039433
724.447412	2552.802499
724.779518	2554.647561
725.111574	2552.671429
725.443582	2554.937428
725.775542	2550.349978
726.107453	2556.049002
726.439315	2554.773590
726.771129	2556.482541
727.102895	2557.226112
727.434612	2552.789896
727.766281	2557.798282
728.097901	2554.609753
728.429473	2550.539021
728.760996	2552.031203
729.092471	2548.167158
729.423897	2556.790052
729.755276	2554.884496
730.086606	2555.239897
730.417887	2553.354505
730.749120	2559.534960
731.080305	2559.877758
731.411442	2557.415155
731.742530	2558.312480
732.073570	2557.889023
732.404562	2560.210475
732.735506	2557.974723
733.066401	2558.040258
733.397249	2559.429096
733.728048	2555.418858
734.058798	2554.319886
734.389501	2554.294681
734.720156	2551.698486
735.050762	2552.744526
735.381320	2552.356357
735.711831	2551.910215
736.042293	2552.346275
736.372707	2553.294012
736.703073	2551.564896
737.033391	2551.917777
737.363661	2552.946172
737.693883	2552.807540
738.024056	2555.272664
738.354182	2554.256872
738.684260	2554.198899
739.014290	2554.289639
739.344272	2553.830894
739.674207	2557.213509
740.004093	2556.500185
740.333931	2556.066646
740.663722	2555.678477
740.993464	2554.382901
741.323159	2555.900288
741.652806	2555.812068
741.982405	2552.951213
742.311956	2554.188816
742.641460	2553.049516
742.970915	2552.734443
743.300323	2550.612118
743.629683	2551.267468
743.958996	2555.580175
744.288260	2551.166645
744.617477	2552.956254
744.946647	2542.790767
745.275768	2549.445091
745.604842	2548.504915
745.933869	2547.219421
746.262847	2546.690100
746.591778	2547.912580
746.920662	2549.704710
747.249498	2551.063301
747.578286	2549.429967
747.907027	2550.917107
748.235720	2551.484237
748.564365	2551.161603
748.892963	2548.850234
749.221514	2551.161603
749.550017	2551.401058
749.878473	2549.997097
750.206881	2550.924669
750.535242	2549.097251
750.863555	2552.021120
751.191821	2552.288301
751.520039	2551.549772
751.848210	2553.626728
752.176334	2548.530121
752.504411	2549.903836
752.832440	2548.419216
753.160421	2547.836963
753.488356	2550.700338
753.816243	2551.683363
754.144082	2550.692776
754.471875	2548.578012
754.799620	2550.904505
755.127318	2547.973074
755.454969	2549.702189
755.782572	2549.697148
756.110129	2547.103475
756.437638	2551.181768
756.765100	2549.540872
757.092515	2552.348795
757.419882	2547.899977
757.747203	2551.227138
758.074477	2548.915769
758.401703	2550.523897
758.728882	2549.808054
759.056014	2550.241593
759.383099	2549.999617
759.710138	2552.621018
760.037129	2549.800492
760.364073	2549.162786
760.690970	2550.254196
761.017820	2552.222766
761.344623	2550.997766
761.671379	2551.937941
761.998088	2548.991387
762.324751	2551.249824
762.651366	2558.420865
762.977935	2566.766495
763.304456	2569.372772
763.630931	2573.274625
763.957359	2568.997206
764.283740	2564.427400
764.610074	2558.793910
764.936362	2558.015052
765.262602	2554.166131
765.588796	2554.682849
765.914943	2552.000956
766.241044	2550.319731
766.567097	2547.330327
766.893104	2550.082797
767.219064	2547.105995
767.544978	2547.441232
767.870845	2542.407640
768.196665	2547.771428
768.522438	2545.792775
768.848165	2545.949050
769.173846	2547.118598
769.499479	2546.402754
769.825066	2543.831766
770.150607	2546.382590
770.476101	2546.765717
770.801548	2543.940151
771.126949	2544.676159
771.452303	2544.582898
771.777611	2541.485109
772.102872	2544.373690
772.428087	2540.612989
772.753256	2545.659184
773.078378	2542.904193
773.403453	2543.105840
773.728482	2540.527289
774.053465	2543.143648
774.378401	2545.699513
774.703291	2544.361087
775.028135	2544.282949
775.352932	2542.011909
775.677683	2540.781868
776.002388	2542.478216
776.327046	2541.843031
776.651658	2542.137938
776.976224	2542.526107
777.300743	2542.848741
777.625216	2543.282280
777.949643	2541.550644
778.274024	2545.008875
778.598359	2538.825900
778.922647	2537.832793
779.246889	2539.672814
779.571086	2539.040149
779.895236	2541.931251
780.219339	2541.323792
780.543397	2542.064841
780.867409	2541.830428
781.191374	2543.471323
781.515294	2541.217927
781.839167	2542.765562
782.162995	2542.193391
782.486776	2543.189019
782.810511	2542.037115
783.134201	2542.495860
783.457844	2541.938813
783.781441	2544.658515
784.104993	2540.920499
784.428498	2538.798174
784.751958	2539.259439
785.075372	2540.068544
785.398739	2545.840666
785.722061	2541.306148
786.045337	2543.284801
786.368568	2542.624409
786.691752	2540.466796
787.014891	2543.725902
787.337983	2540.955788
787.661030	2544.567774
787.984031	2547.002652
788.306987	2545.137425
788.629897	2544.235058
788.952760	2547.317724
789.275579	2542.720191
789.598351	2545.258412
789.921078	2541.469985
790.243759	2542.425284
790.566395	2543.831766
790.888984	2542.122815
791.211529	2543.526776
791.534027	2544.351005
791.856480	2538.619213
792.178888	2541.558205
792.501249	2543.645243
792.823566	2541.633823
793.145836	2543.005017
793.468062	2541.936292
793.790241	2542.705068
794.112375	2538.097453
794.434464	2540.297917
794.756507	2539.962680
795.078505	2544.456869
795.400457	2540.179450
795.722364	2537.605941
796.044226	2538.551157
796.366042	2537.986548
796.687812	2538.634336
797.009538	2542.077444
797.331218	2543.279759
797.652852	2541.749769
797.974442	2541.832948
798.295986	2542.014430
798.617484	2543.262115
798.938938	2540.439069
799.260346	2545.754966
799.581709	2539.965201
799.903026	2541.936292
800.224299	2541.185160
800.545526	2539.173740
800.866708	2539.347659
801.187845	2538.263811
801.508936	2540.151723
801.829983	2543.786395
802.150984	2541.313709
802.471940	2538.954449
802.792851	2536.751465
803.113717	2541.202804
803.434538	2538.226003
803.755314	2539.819007
804.076045	2539.246836
804.396731	2537.525282
804.717372	2541.381765
805.037967	2540.955788
805.358518	2537.621064
805.679024	2540.549975
805.999485	2539.246836
806.319901	2541.578370
806.640272	2542.541230
806.960598	2538.891435
807.280879	2539.387989
807.601115	2541.225489
807.921306	2539.841693
808.241453	2539.811446
808.561554	2538.170550
808.881611	2540.713812
809.201623	2540.202135
809.521590	2541.611137
809.841513	2541.888401
810.161390	2539.209028
810.481223	2539.211548
810.801011	2537.225334
811.120755	2541.033925
811.440453	2539.340098
811.760107	2541.028884
812.079716	2536.214582
812.399281	2534.288862
812.718801	2538.478060
813.038276	2534.097298
813.357707	2540.998637
813.677093	2538.498225
813.996434	2541.414533
814.315731	2541.132228
814.634983	2538.876312
814.954191	2539.272042
815.273354	2539.889583
815.592473	2537.162319
815.911547	2542.662218
816.230577	2538.505787
816.549562	2539.569470
816.868502	2539.667773
817.187399	2540.237423
817.506250	2542.581560
817.825058	2539.753472
818.143821	2540.217258
818.462539	2544.156920
818.781213	2540.779347
819.099843	2544.068700
819.418429	2544.376210
819.736970	2549.634134
820.055466	2550.264278
820.373919	2551.479196
820.692327	2556.243087
821.010691	2564.981927
821.329011	2580.322158
821.647286	2608.101436
821.965517	2642.466982
822.283704	2661.444406
822.601847	2668.600323
822.919945	2652.783703
823.237999	2631.757051
823.556010	2617.162910
823.873976	2599.556680
824.191897	2587.168045
824.509775	2579.989442
824.827609	2571.669017
825.145398	2566.849674
825.463144	2564.719787
825.780845	2567.396639
826.098502	2571.129614
826.416116	2581.325348
826.733685	2589.376070
827.051210	2591.359764
827.368692	2588.667788
827.686129	2580.859041
828.003522	2570.108780
828.320872	2560.591082
828.638177	2554.140925
828.955439	2550.211346
829.272656	2546.574153
829.589830	2544.557692
829.906960	2546.279246
830.224046	2542.662218
830.541088	2543.688093
830.858086	2542.876467
831.175041	2541.235572
831.491952	2543.126004
831.808819	2544.396375
832.125642	2543.990562
832.442421	2544.628268
832.759157	2550.276881
833.075849	2557.745350
833.392497	2562.524364
833.709101	2569.163564
834.025662	2567.691547
834.342179	2562.728531
834.658653	2559.083777
834.975083	2550.317210
835.291469	2554.939948
835.607811	2546.664894
835.924110	2543.473844
836.240366	2541.631302
836.556578	2540.610468
836.872746	2543.559543
837.188871	2542.107691
837.504952	2540.844882
837.820990	2537.883204
838.136984	2537.031249
838.452935	2538.178112
838.768842	2539.241795
839.084706	2537.290869
839.400526	2543.206663
839.716303	2545.780172
840.032037	2549.631613
840.347727	2549.356870
840.663373	2547.383259
840.978977	2543.962836
841.294537	2540.703730
841.610054	2538.833462
841.925527	2539.377906
842.240957	2539.577032
842.556344	2537.099305
842.871687	2535.919675
843.186987	2535.952442
843.502244	2537.449665
843.817458	2534.556043
844.132629	2534.286341
844.447756	2536.454037
844.762840	2528.713345
845.077881	2532.211906
845.392879	2530.679395
845.707833	2533.036135
846.022745	2533.026053
846.337613	2535.027391
846.652438	2535.438245
846.967221	2534.596372
847.281960	2535.549150
847.596656	2536.789274
847.911309	2534.926568
848.225919	2533.777184
848.540485	2533.809952
848.855009	2532.380785
849.169490	2534.608975
849.483928	2534.757689
849.798323	2534.767771
850.112675	2534.182997
850.426984	2535.082843
850.741251	2531.443130
851.055474	2536.766589
851.369654	2535.148378
851.683792	2534.384643
851.997887	2535.309695
852.311938	2531.024714
852.625947	2535.143337
852.939914	2532.819365
853.253837	2534.861033
853.567718	2532.537061
853.881555	2534.916485
854.195350	2534.926568
854.509103	2534.873635
854.822812	2533.187369
855.136479	2535.622247
855.450103	2533.895652
855.763685	2533.986392
856.077224	2535.670138
856.390720	2535.463450
856.704173	2536.176774
857.017584	2532.607637
857.330953	2535.496218
857.644278	2534.175436
857.957561	2538.137782
858.270802	2533.295754
858.584000	2534.664428
858.897155	2536.552340
859.210268	2535.957483
859.523339	2536.262473
859.836367	2532.721063
860.149352	2535.287010
860.462295	2533.930940
860.775195	2529.020856
861.088054	2530.008922
861.400869	2533.883049
861.713642	2530.205527
862.026373	2534.903882
862.339062	2532.524458
862.651708	2534.392205
862.964312	2534.578728
863.276873	2534.697195
863.589392	2533.066382
863.901869	2532.658048
864.214303	2531.922040
864.526696	2537.610982
864.839045	2533.573018
865.151353	2538.556198
865.463619	2533.699047
865.775842	2536.922864
866.088023	2535.907072
866.400162	2534.303985
866.712258	2537.121990
867.024313	2537.384130
867.336325	2535.632329
867.648296	2536.189377
867.960224	2535.579397
868.272110	2534.251053
868.583954	2534.077133
868.895755	2534.193080
869.207515	2536.141486
869.519233	2538.168029
869.830909	2534.992103
870.142542	2534.747607
870.454134	2536.748945
870.765684	2537.525282
871.077191	2535.702905
871.388657	2535.682741
871.700081	2534.800539
872.011463	2537.101825
872.322803	2535.009747
872.634101	2537.694161
872.945357	2536.338091
873.256571	2537.671476
873.567744	2535.435724
873.878874	2535.337422
874.189963	2536.615354
874.501010	2536.648122
874.812015	2536.799356
875.122979	2535.755837
875.433900	2538.725077
875.744780	2535.050076
876.055618	2538.150385
876.366415	2538.455375
876.677169	2540.184491
876.987882	2535.103008
877.298554	2534.487987
877.609183	2536.438914
877.919771	2535.123173
878.230317	2537.200128
878.540822	2541.469985
878.851285	2541.318751
879.161707	2541.661549
879.472087	2543.912424
879.782425	2547.635316
880.092722	2554.085473
880.402977	2562.579817
880.713191	2578.477096
881.023363	2595.985023
881.333494	2611.093361
881.643583	2611.998248
881.953631	2608.098916
882.263637	2604.688575
882.573602	2598.190528
882.883526	2589.822212
883.193408	2580.932138
883.503248	2575.200346
883.813048	2566.887483
884.122806	2561.077553
884.432522	2559.514795
884.742197	2555.083621
885.051831	2551.806871
885.361424	2546.831252
885.670975	2544.673638
885.980485	2544.577857
886.289954	2543.904862
886.599382	2542.717671
886.908768	2543.985521
887.218113	2539.677855
887.527417	2541.129707
887.836680	2541.283463
888.145901	2538.944367
888.455082	2537.764737
888.764221	2538.886394
889.073319	2539.887063
889.382376	2539.188863
889.691392	2535.934798
890.000366	2537.588297
890.309300	2535.849099
890.618193	2537.285828
890.927044	2537.623585
891.235855	2537.104346
891.544625	2535.778523
891.853353	2537.837834
892.162041	2540.383617
892.470687	2539.264480
892.779293	2539.546785
893.087858	2539.277083
893.396381	2540.640715
893.704864	2545.603731
894.013306	2547.892415
894.321707	2555.512119
894.630068	2558.562017
894.938387	2561.311967
895.246665	2562.995712
895.554903	2558.403221
895.863100	2555.552448
896.171256	2552.862993
896.479371	2552.560524
896.787446	2545.873433
897.095480	2541.782537
897.403473	2543.120963
897.711425	2541.573329
898.019336	2541.659028
898.327207	2541.386806
898.635038	2539.125849
898.942827	2539.972763
899.250576	2541.757331
899.558284	2537.157278
899.865952	2536.252391
900.173579	2537.036290
900.481165	2539.408153
900.788711	2533.326001
901.096216	2533.210055
901.403681	2536.685930
901.711105	2537.399253
902.018489	2536.605272
902.325832	2539.589635
902.633135	2538.329346
902.940397	2539.198945
903.247619	2538.518390
903.554800	2544.724050
903.861941	2554.292160
904.169041	2567.920919
904.476101	2572.263873
904.783121	2572.427711
905.090100	2563.618295
905.397039	2560.817934
905.703938	2555.383570
906.010796	2551.154042
906.317614	2547.342929
906.624391	2545.112219
906.931129	2541.268339
907.237826	2542.417722
907.544483	2537.305992
907.851099	2536.965714
908.157675	2534.732483
908.464211	2534.949253
908.770707	2533.706608
909.077163	2534.147709
909.383578	2532.486649
909.689954	2530.646628
909.996289	2526.916174
910.302584	2534.170394
910.608839	2535.770961
910.915054	2533.817514
911.221229	2535.428162
911.527363	2534.679551
911.833458	2532.274921
912.139513	2531.281813
912.445527	2534.984541
912.751502	2535.662576
913.057436	2537.237937
913.363331	2535.299613
913.669186	2535.211393
913.975000	2538.987217
914.280775	2539.907227
914.586510	2542.664739
914.892205	2543.874616
915.197859	2549.308979
915.503475	2554.597150
915.809050	2562.025290
916.114585	2565.924622
916.420081	2570.015519
916.725536	2566.020404
917.030952	2564.313974
917.336328	2558.322563
917.641665	2556.343910
917.946961	2549.772766
918.252218	2549.717313
918.557435	2547.511808
918.862612	2546.117929
919.167750	2544.484595
919.472848	2541.810263
919.777906	2539.882022
920.082925	2540.154244
920.387904	2536.146527
920.692843	2537.822710
920.997743	2536.829603
921.302603	2536.232226
921.607423	2536.499407
921.912204	2534.843388
922.216946	2537.016126
922.521647	2535.612164
922.826310	2533.462112
923.130932	2533.494880
923.435516	2533.283151
923.740059	2532.809283
924.044564	2532.814324
924.349028	2533.812473
924.653454	2526.522964
924.957840	2530.049251
925.262186	2526.732172
925.566493	2531.370033
925.870761	2525.446678
926.174989	2530.543284
926.479178	2530.573531
926.783328	2530.639066
927.087438	2531.281813
927.391509	2528.327697
927.695541	2532.889941
927.999533	2530.477749
928.303486	2530.974303
928.607400	2528.607481
928.911275	2530.954138
929.215110	2531.622091
929.518906	2527.957172
929.822663	2532.935312
930.126381	2531.163346
930.430060	2526.704446
930.733699	2528.385670
931.037299	2531.964890
931.340861	2532.963038
931.644383	2531.322142
931.947866	2526.901051
932.251309	2533.192411
932.554714	2530.139992
932.858080	2530.749972
933.161407	2530.457585
933.464694	2528.385670
933.767943	2530.233253
934.071153	2527.309384
934.374323	2529.305681
934.677455	2533.167205
934.980548	2528.632687
935.283602	2528.181504
935.586617	2528.574714
935.889593	2532.017822
936.192530	2530.392050
936.495428	2529.640918
936.798287	2530.361803
937.101108	2528.428520
937.403890	2531.150743
937.706632	2532.030425
938.009336	2528.085722
938.312002	2535.425642
938.614628	2531.992616
938.917216	2533.822555
939.219765	2530.868439
939.522275	2533.399098
939.824747	2534.326670
940.127179	2528.612522
940.429573	2529.809796
940.731929	2530.359282
941.034246	2528.791483
941.336524	2530.109745
941.638763	2531.735517
941.940964	2531.415404
942.243126	2531.546474
942.545250	2530.273582
942.847335	2530.046731
943.149381	2531.296937
943.451389	2530.782739
943.753359	2531.312060
944.055290	2531.372554
944.357182	2530.467667
944.659036	2529.540095
944.960851	2531.848943
945.262628	2531.735517
945.564367	2532.710980
945.866067	2532.166536
946.167729	2531.032276
946.469352	2529.887934
946.770937	2530.565969
947.072484	2530.215609
947.373992	2531.445651
947.675462	2530.097142
947.976893	2527.984899
948.278286	2529.550177
948.579641	2530.717204
948.880958	2529.247708
949.182236	2533.351207
949.483476	2531.690147
949.784678	2529.184693
950.085841	2530.346679
950.386967	2528.955321
950.688054	2530.694519
950.989103	2529.784591
951.290114	2530.782739
951.591087	2527.768129
951.892021	2530.757533
952.192917	2530.361803
952.493776	2531.455733
952.794596	2530.414735
953.095378	2530.639066
953.396122	2532.002698
953.696828	2529.822399
953.997496	2528.234436
954.298126	2528.773839
954.598718	2532.164015
954.899272	2528.395753
955.199788	2530.513037
955.500266	2530.102183
955.800706	2528.678057
956.101108	2526.717048
956.401472	2526.074301
956.701798	2525.366019
957.002087	2525.882738
957.302337	2528.680578
957.602550	2529.426669
957.902724	2527.072450
958.202861	2527.450536
958.502960	2528.829292
958.803022	2530.520599
959.103045	2526.800228
959.403031	2528.415917
959.702979	2527.044723
960.002889	2527.158149
960.302762	2528.015146
960.602596	2529.131761
960.902393	2526.885927
961.202153	2525.061029
961.501875	2528.562111
961.801559	2528.083201
962.101205	2525.739065
962.400814	2525.638242
962.700385	2528.234436
962.999918	2530.074457
963.299414	2527.715197
963.598873	2527.022038
963.898293	2528.269724
964.197677	2528.176462
964.497022	2525.078673
964.796331	2528.995650
965.095601	2526.104548
965.394835	2528.022707
965.694030	2525.441637
965.993189	2529.257790
966.292309	2525.928108
966.591393	2527.074970
966.890439	2527.243849
967.189447	2528.083201
967.488419	2527.639580
967.787353	2526.767460
968.086249	2527.543798
968.385108	2526.543129
968.683930	2528.055475
968.982714	2526.404497
969.281462	2527.342152
969.580172	2526.167563
969.878844	2528.667975
970.177480	2530.565969
970.476078	2526.616225
970.774639	2527.274096
971.073162	2528.115969
971.371649	2523.848632
971.670098	2523.808303
971.968510	2523.384846
972.266885	2521.202026
972.565223	2527.001874
972.863524	2529.154446
973.161788	2524.236801
973.460014	2527.783252
973.758204	2529.497245
974.056356	2527.614374
974.354471	2528.599919
974.652550	2527.397604
974.950591	2529.587986
975.248595	2524.924918
975.546563	2527.493386
975.844493	2528.645290
976.142386	2529.260311
976.440243	2526.253262
976.738062	2528.322656
977.035845	2529.328366
977.333590	2527.465660
977.631299	2527.871473
977.928971	2526.903571
978.226606	2526.785104
978.524204	2527.879034
978.821765	2526.802748
979.119290	2528.640249
979.416777	2527.657224
979.714228	2530.124868
980.011642	2525.502130
980.309020	2530.069416
980.606360	2525.643283
980.903664	2528.168901
981.200931	2526.356606
981.498162	2525.061029
981.795356	2528.360465
982.092513	2528.299971
982.389633	2528.012625
982.686717	2528.057995
982.983764	2525.204702
983.280775	2529.373737
983.577749	2528.176463
983.874686	2531.019673
984.171587	2529.204858
984.468451	2528.602440
984.765279	2528.990609
985.062070	2528.736031
985.358824	2524.277130
985.655543	2528.476411
985.952224	2526.228057
986.248869	2525.834847
986.545478	2524.133457
986.842050	2524.829136
987.138586	2519.906450
987.435086	2523.888961
987.731549	2522.086749
988.027975	2527.264014
988.324366	2527.669827
988.620719	2527.889117
988.917037	2527.364837
989.213318	2527.725279
989.509563	2524.851822
989.805772	2527.679909
990.101944	2525.519774
990.398080	2526.185207
990.694180	2526.396935
990.990244	2527.470701
991.286271	2529.013294
991.582262	2527.120341
991.878217	2526.086904
992.174136	2526.727131
992.470019	2528.816689
992.765865	2525.078673
993.061676	2524.909795
993.357450	2528.095804
993.653188	2525.945752
993.948890	2526.316277
994.244556	2525.260155
994.540186	2526.578417
994.835780	2529.101514
995.131337	2529.857687
995.426859	2527.266534
995.722345	2522.618590
996.017795	2528.791483
996.313208	2526.648993
996.608586	2527.793335
996.903928	2528.695701
997.199234	2525.998684
997.494504	2527.090094
997.789738	2526.661596
998.084936	2525.751668
998.380099	2527.959693
998.675225	2525.872655
998.970316	2526.613705
999.265371	2524.871986
999.560390	2526.749816
999.855373	2527.367357
1000.150320	2528.037831
1000.445232	2526.580937
1000.740108	2528.110928
1001.034948	2525.237470
1001.329752	2525.318128
1001.624521	2523.843591
1001.919254	2521.698580
1002.213951	2522.169928
1002.508613	2521.814526
1002.803239	2524.516585
1003.097829	2523.382325
1003.392384	2524.640093
1003.686903	2523.747809
1003.981386	2526.371729
1004.275834	2527.460619
1004.570246	2527.594209
1004.864623	2525.600433
1005.158964	2526.538088
1005.453270	2523.697397
1005.747540	2526.694363
1006.041775	2524.836698
1006.335974	2526.250742
1006.630138	2522.492562
1006.924266	2530.707122
1007.218359	2523.725124
1007.512416	2526.633869
1007.806438	2524.330062
1008.100425	2523.604136
1008.394376	2524.095648
1008.688292	2526.830474
1008.982172	2527.158149
1009.276017	2524.675381
1009.569827	2526.835516
1009.863602	2530.233253
1010.157341	2525.469363
1010.451045	2524.781245
1010.744714	2524.420803
1011.038347	2525.577748
1011.331945	2527.952131
1011.625508	2527.800897
1011.919036	2526.394415
1012.212528	2527.377440
1012.505986	2522.817716
1012.799408	2526.422141
1013.092795	2524.803931
1013.386147	2529.754344
1013.679464	2524.630011
1013.972745	2526.044054
1014.265992	2522.885772
1014.559204	2525.522295
1014.852380	2524.874507
1015.145521	2524.821575
1015.438628	2526.212933
1015.731699	2524.100690
1016.024736	2525.895340
1016.317737	2524.856863
1016.610703	2526.724610
1016.903635	2524.854342
1017.196531	2522.280833
1017.489393	2521.985926
1017.782219	2521.151615
1018.075011	2525.393746
1018.367768	2526.152439
1018.660490	2525.219826
1018.953177	2525.219826
1019.245829	2525.219826
