Dividing Wavelength (nm)	Counts (n)	Blue Motor Position (mm): 0.000000	Red Motor Position (mm): 0.700000	
326.493990	2129.385905
326.888308	2129.385905
327.282561	2129.385905
327.676750	2095.910123
328.070874	2096.895669
328.464933	2098.718046
328.858929	2103.484457
329.252859	2114.201950
329.646726	2125.663013
330.040528	2138.200363
330.434265	2156.020842
330.827938	2173.347287
331.221547	2191.780266
331.615091	2208.748790
332.008571	2228.961297
332.401986	2250.335789
332.795338	2265.547471
333.188625	2287.814247
333.581847	2306.532051
333.975006	2325.053251
334.368100	2343.695438
334.761129	2358.881913
335.154095	2379.021323
335.546996	2392.234187
335.939833	2409.492578
336.332606	2422.599577
336.725315	2434.975610
337.117960	2444.619337
337.510540	2455.730041
337.903056	2464.801597
338.295508	2472.993472
338.687896	2481.167703
339.080220	2488.951244
339.472480	2498.461381
339.864676	2499.290651
340.256807	2502.164109
340.648875	2505.518997
341.040879	2509.882115
341.432818	2511.694410
341.824694	2513.814215
342.216506	2511.097033
342.608253	2514.663650
342.999937	2514.608197
343.391557	2513.899915
343.783113	2512.311951
344.174605	2509.740963
344.566033	2509.141066
344.957397	2506.126456
345.348697	2505.733246
345.739934	2505.201404
346.131106	2503.991527
346.522215	2500.157729
346.913260	2496.694457
347.304241	2497.337204
347.695159	2496.074395
348.086012	2493.657162
348.476802	2491.302943
348.867528	2490.864362
349.258191	2485.621562
349.648789	2485.868579
350.039324	2484.651140
350.429796	2485.750112
350.820203	2484.230204
351.210548	2482.218783
351.600828	2483.915132
351.991045	2479.546972
352.381198	2481.838176
352.771288	2482.206181
353.161314	2477.984214
353.551276	2481.623927
353.941175	2482.329689
354.331010	2478.561426
354.720782	2478.107722
355.110490	2479.753659
355.500135	2479.247023
355.889717	2479.642754
356.279235	2480.106540
356.668689	2479.574698
357.058080	2481.553351
357.447408	2479.851962
357.836672	2478.579070
358.225873	2477.253247
358.615010	2476.625623
359.004084	2480.673670
359.393095	2483.141315
359.782043	2484.061325
360.170927	2482.516212
360.559748	2484.381438
360.948505	2483.693321
361.337199	2484.588126
361.725830	2486.428147
362.114398	2487.943014
362.502903	2486.985194
362.891344	2486.844042
363.279722	2484.767087
363.668037	2488.560555
364.056289	2489.639362
364.444478	2489.752788
364.832603	2489.694815
365.220665	2492.376708
365.608665	2490.980309
365.996601	2489.631800
366.384474	2490.897130
366.772284	2491.640700
367.160031	2490.088025
367.547715	2493.700011
367.935336	2491.565083
368.322893	2493.586585
368.710388	2492.061636
369.097820	2495.300578
369.485189	2496.253356
369.872495	2493.566421
370.259738	2493.379898
370.646918	2493.415186
371.034035	2493.815958
371.421090	2493.740341
371.808081	2495.940804
372.195010	2494.214209
372.581875	2495.166987
372.968678	2496.696977
373.355418	2494.241935
373.742096	2495.920640
374.128710	2496.654128
374.515262	2497.193531
374.901751	2496.865856
375.288177	2498.128665
375.674540	2497.168325
376.060841	2498.244612
376.447079	2497.942142
376.833254	2498.536998
377.219367	2491.524753
377.605417	2494.373005
377.991404	2493.294198
378.377329	2497.299395
378.763191	2493.601709
379.148991	2497.579179
379.534727	2498.675630
379.920402	2500.520693
380.306013	2498.809221
380.691563	2496.676813
381.077049	2500.437513
381.462474	2496.903665
381.847835	2500.344252
382.233134	2500.177894
382.618371	2503.187463
383.003545	2498.968017
383.388657	2500.858450
383.773706	2501.256701
384.158693	2500.533295
384.543618	2503.983965
384.928480	2500.997082
385.313280	2499.149499
385.698017	2500.205620
386.082692	2503.865498
386.467305	2501.042452
386.851856	2503.066475
387.236344	2502.665703
387.620770	2503.280724
388.005133	2505.720643
388.389435	2503.318533
388.773674	2502.574963
389.157851	2505.057731
389.541965	2502.748882
389.926018	2502.106135
390.310008	2503.600838
390.693936	2505.425735
391.077802	2504.876249
391.461606	2506.683503
391.845348	2504.777947
392.229027	2503.925992
392.612645	2504.598986
392.996200	2505.826507
393.379694	2506.786847
393.763125	2506.439007
394.146494	2506.595283
394.529801	2507.399347
394.913047	2507.623678
395.296230	2508.757938
395.679351	2508.851199
396.062410	2510.610562
396.445408	2503.358862
396.828343	2507.911024
397.211217	2502.746362
397.594028	2505.823986
397.976778	2503.341218
398.359466	2507.510252
398.742092	2503.910868
399.124656	2508.609224
399.507158	2507.149810
399.889598	2510.204749
400.271977	2510.361025
400.654294	2513.108454
401.036549	2508.556292
401.418742	2510.595438
401.800874	2511.530572
402.182944	2512.480830
402.564952	2506.136538
402.946898	2509.327588
403.328783	2509.657784
403.710606	2511.210459
404.092367	2511.018895
404.474067	2511.928824
404.855705	2509.809018
405.237282	2511.505367
405.618797	2512.168278
406.000250	2512.405213
406.381642	2512.942096
406.762972	2511.603669
407.144240	2510.184584
407.525447	2512.450583
407.906593	2511.807836
408.287677	2514.162055
408.668700	2510.482013
409.049661	2513.242044
409.430560	2511.437311
409.811399	2514.474606
410.192176	2515.061901
410.572891	2513.814215
410.953545	2511.187774
411.334138	2514.875378
411.714669	2515.505522
412.095139	2516.601973
412.475547	2515.755059
412.855894	2514.030985
413.236180	2511.502846
413.616405	2514.061232
413.996568	2514.398989
414.376670	2516.876716
414.756711	2514.789678
415.136691	2517.516943
415.516609	2513.310100
415.896466	2517.489216
416.276262	2518.220184
416.655997	2514.305728
417.035670	2512.004441
417.415283	2515.956706
417.794834	2514.257837
418.174324	2517.774042
418.553753	2515.939062
418.933121	2516.329751
419.312428	2517.789165
419.691674	2517.209432
420.070859	2517.025430
420.449983	2517.032992
420.829045	2515.250944
421.208047	2515.926459
421.586988	2516.239010
421.965867	2520.345030
422.344686	2519.392252
422.723444	2519.150277
423.102141	2517.428722
423.480777	2517.726151
423.859352	2519.258661
424.237866	2520.564320
424.616319	2517.398476
424.994712	2519.460307
425.373044	2516.836387
425.751314	2519.931655
426.129524	2519.571213
426.507673	2520.836543
426.885762	2519.500637
427.263789	2518.404186
427.641756	2518.726820
428.019662	2521.726306
428.397508	2520.854187
428.775292	2520.859228
429.153016	2519.525842
429.530679	2522.149763
429.908282	2520.720596
430.285824	2520.070287
430.663305	2519.097344
431.040726	2520.050123
431.418086	2518.315966
431.795385	2521.517098
432.172624	2524.703107
432.549802	2524.302336
432.926920	2522.300998
433.303977	2523.571368
433.680974	2520.549197
434.057910	2521.738909
434.434786	2519.629186
434.811601	2524.072963
435.188355	2520.518950
435.565050	2523.533560
435.941683	2523.392408
436.318257	2519.435102
436.694770	2516.972498
437.071222	2520.052643
437.447614	2517.867303
437.823946	2521.323014
438.200218	2522.127078
438.576429	2522.180010
438.952580	2520.967613
439.328670	2523.672192
439.704700	2522.018693
440.080670	2523.919208
440.456580	2524.030113
440.832429	2524.415762
441.208218	2522.419465
441.583947	2522.253107
441.959616	2523.599095
442.335224	2526.533046
442.710773	2522.749660
443.086261	2526.167563
443.461689	2523.813344
443.837057	2525.000536
444.212365	2527.256452
444.587612	2527.952131
444.962800	2524.985412
445.337927	2525.358458
445.712995	2523.052130
446.088002	2525.441637
446.462949	2522.212777
446.837837	2524.188910
447.212664	2527.858870
447.587431	2527.838705
447.962139	2526.691843
448.336786	2525.978519
448.711374	2523.369722
449.085901	2526.845598
449.460369	2525.887779
449.834776	2526.512882
450.209124	2523.551204
450.583412	2524.040196
450.957640	2527.415248
451.331808	2525.550021
451.705917	2525.015659
452.079965	2525.887779
452.453954	2526.530526
452.827883	2528.743592
453.201752	2528.244518
453.575562	2526.996833
453.949311	2527.367357
454.323001	2525.388704
454.696632	2525.572707
455.070202	2525.968437
455.443713	2525.605474
455.817164	2525.199661
456.190556	2522.061543
456.563888	2529.293078
456.937160	2521.733868
457.310373	2527.692512
457.683526	2524.912315
458.056619	2527.233767
458.429653	2526.608664
458.802628	2528.705784
459.175542	2526.459950
459.548398	2525.791997
459.921194	2525.267717
460.293930	2528.370547
460.666607	2526.734692
461.039224	2529.461957
461.411782	2527.233767
461.784280	2527.067409
462.156719	2528.799045
462.529099	2527.047244
462.901419	2526.911133
463.273680	2528.902389
463.645882	2529.681247
464.018024	2530.684437
464.390106	2526.555732
464.762130	2529.653521
465.134094	2528.715866
465.505999	2529.474560
465.877845	2530.356762
466.249631	2527.720238
466.621358	2528.244518
466.993026	2531.095291
467.364634	2533.832637
467.736184	2528.446164
468.107674	2530.714683
468.479105	2530.286185
468.850477	2527.992460
469.221790	2529.419107
469.593043	2530.722245
469.964238	2530.361803
470.335373	2527.657224
470.706449	2531.702750
471.077467	2532.050589
471.448425	2531.851464
471.819324	2529.028417
472.190164	2529.426669
472.560945	2526.855680
472.931667	2529.784591
473.302330	2529.209899
473.672934	2532.242153
474.043479	2530.888603
474.413965	2531.175949
474.784393	2525.537418
475.154761	2527.642100
475.525070	2527.591689
475.895321	2527.483304
476.265513	2526.084384
476.635645	2531.049920
477.005719	2530.855836
477.375734	2533.134437
477.745691	2531.695188
478.115588	2533.356248
478.485427	2530.923891
478.855207	2534.069571
479.224928	2532.831968
479.594591	2531.692667
479.964194	2529.023376
480.333739	2530.273583
480.703226	2530.064375
481.072653	2530.301309
481.442022	2529.464477
481.811333	2529.991278
482.180584	2530.634025
482.549777	2533.557894
482.918912	2531.460774
483.287988	2531.743079
483.657005	2531.753161
484.025964	2534.838347
484.394864	2530.734848
484.763706	2534.082174
485.132489	2534.107380
485.501213	2533.031094
485.869879	2531.007070
486.238487	2531.702750
486.607036	2532.622760
486.975527	2535.604603
487.343959	2534.359438
487.712333	2531.548994
488.080648	2529.005732
488.448905	2533.449509
488.817104	2530.215609
489.185244	2530.268541
489.553326	2532.859694
489.921350	2530.959179
490.289315	2531.566638
490.657222	2532.070754
491.025070	2531.952287
491.392861	2534.046886
491.760593	2533.078985
492.128267	2532.146371
492.495883	2532.030425
492.863440	2534.112421
493.230939	2533.331042
493.598380	2532.698378
493.965763	2526.263345
494.333088	2530.119827
494.700354	2529.288037
495.067563	2533.179808
495.434713	2530.175280
495.801805	2536.895138
496.168839	2531.259128
496.535815	2533.973789
496.902733	2533.288192
497.269593	2534.256094
497.636395	2534.016639
498.003139	2532.088398
498.369825	2534.109901
498.736453	2534.220806
499.103023	2532.574869
499.469535	2532.645445
499.835989	2532.579910
500.202385	2531.922040
500.568723	2535.629808
500.935003	2532.892462
501.301226	2533.114273
501.667390	2531.790970
502.033497	2534.989582
502.399546	2533.951104
502.765537	2536.035621
503.131470	2531.354910
503.497345	2531.581762
503.863163	2537.495035
504.228923	2535.181146
504.594625	2535.410518
504.960269	2533.167205
505.325856	2538.379758
505.691385	2536.080992
506.056856	2534.193080
506.422270	2533.598223
506.787625	2534.689633
507.152924	2533.141999
507.518164	2533.162164
507.883347	2536.307844
508.248472	2533.293234
508.613540	2534.838347
508.978550	2530.749972
509.343503	2535.360107
509.708398	2535.748276
510.073236	2533.416742
510.438016	2534.258615
510.802738	2536.300282
511.167403	2536.547298
511.532010	2532.423635
511.896561	2535.899510
512.261053	2539.274563
512.625488	2533.232740
512.989866	2532.259797
513.354186	2533.328522
513.718449	2530.225692
514.082655	2533.328522
514.446803	2534.976979
514.810894	2534.258615
515.174927	2536.857329
515.538904	2534.457740
515.902822	2534.596372
516.266684	2534.798018
516.630488	2535.229037
516.994235	2536.943029
517.357925	2535.811290
517.721558	2537.497556
518.085133	2536.340611
518.448651	2538.011754
518.812112	2535.002185
519.175516	2532.670651
519.538863	2534.253573
519.902152	2537.694161
520.265385	2536.532175
520.628560	2535.476053
520.991678	2534.581248
521.354739	2535.954963
521.717743	2534.886238
522.080690	2536.370858
522.443580	2536.229706
522.806413	2537.343801
523.169189	2534.424973
523.531908	2535.362627
523.894569	2534.561084
524.257174	2536.660724
524.619722	2532.640404
524.982213	2537.179963
525.344647	2534.077133
525.707025	2537.510159
526.069345	2534.805580
526.431608	2533.520086
526.793815	2535.261804
527.155964	2534.777853
527.518057	2534.225847
527.880093	2534.571166
528.242072	2535.004705
528.603995	2539.997968
528.965860	2535.753317
529.327669	2537.744572
529.689421	2536.436393
530.051117	2538.336908
530.412755	2535.869263
530.774337	2536.665766
531.135862	2537.505118
531.497331	2532.826927
531.858743	2531.738038
532.220098	2535.481094
532.581396	2534.651825
532.942638	2532.552184
533.303824	2535.455889
533.664953	2536.506969
534.026025	2536.895138
534.387040	2536.423790
534.747999	2535.488656
535.108902	2536.958153
535.469748	2538.226003
535.830537	2535.080323
536.191270	2535.443286
536.551947	2538.503266
536.912567	2537.164840
537.273131	2539.030067
537.633638	2536.499408
537.994089	2534.387164
538.354483	2536.335570
538.714821	2537.941177
539.075103	2537.101825
539.435328	2538.283976
539.795497	2534.437576
540.155609	2536.383461
540.515665	2535.433203
540.875665	2537.240457
541.235609	2537.560570
541.595496	2536.451517
541.955328	2537.381609
542.315102	2536.159130
542.674821	2537.530323
543.034483	2537.149716
543.394090	2533.101670
543.753640	2537.842875
544.113134	2535.324819
544.472571	2538.296579
544.831953	2537.210210
545.191278	2533.757020
545.550548	2534.387164
545.909761	2535.387833
546.268918	2536.227185
546.628019	2536.370858
546.987064	2537.689120
547.346053	2534.835827
547.704986	2535.292051
548.063863	2535.410518
548.422684	2535.697864
548.781449	2537.464788
549.140158	2537.351362
549.498811	2539.652649
549.857408	2536.053265
550.215949	2533.663758
550.574434	2534.944212
550.932864	2533.401618
551.291237	2533.247863
551.649555	2535.861702
552.007817	2536.315405
552.366022	2537.784902
552.724173	2535.733152
553.082267	2537.636188
553.440305	2538.611651
553.798288	2538.344470
554.156215	2537.671476
554.514086	2535.183666
554.871902	2535.687782
555.229661	2538.175591
555.587365	2536.869932
555.945014	2537.626105
556.302606	2539.032587
556.660143	2537.182484
557.017625	2535.836496
557.375050	2536.131403
557.732421	2540.116435
558.089735	2534.412370
558.446994	2534.858512
558.804197	2538.094933
559.161345	2536.519572
559.518437	2534.258615
559.875474	2537.590817
560.232455	2534.954294
560.589381	2534.835827
560.946251	2539.098122
561.303065	2535.397915
561.659825	2536.900179
562.016528	2536.572504
562.373177	2536.330529
562.729770	2536.940508
563.086307	2538.538554
563.442789	2536.025539
563.799216	2539.761034
564.155587	2537.782381
564.511904	2539.451003
564.868164	2536.244829
565.224370	2536.474202
565.580520	2538.084850
565.936615	2537.275745
566.292654	2538.042001
566.648638	2538.321785
567.004567	2536.764068
567.360441	2535.534027
567.716260	2536.446475
568.072023	2536.383461
568.427732	2531.528830
568.783385	2534.742565
569.138982	2533.502442
569.494525	2534.745086
569.850013	2532.085877
570.205445	2537.772299
570.560823	2537.444624
570.916145	2537.404295
571.271412	2536.423790
571.626625	2538.692309
571.981782	2536.703574
572.336884	2536.091074
572.691931	2537.406815
573.046923	2537.386651
573.401860	2536.527134
573.756743	2538.067206
574.111570	2536.950591
574.466342	2535.276928
574.821059	2537.668955
575.175722	2537.326157
575.530330	2536.340611
575.884882	2537.779861
576.239380	2536.897659
576.593823	2538.029398
576.948211	2536.569984
577.302544	2538.210879
577.656823	2538.669624
578.011047	2537.172402
578.365216	2535.360107
578.719330	2539.037628
579.073389	2538.036959
579.427394	2538.455375
579.781344	2537.716846
580.135239	2537.500077
580.489080	2536.476722
580.842866	2537.704243
581.196597	2539.221631
581.550273	2538.775488
581.903895	2538.808256
582.257463	2538.462937
582.610975	2537.268183
582.964434	2539.680376
583.317837	2538.614172
583.671186	2537.469830
584.024481	2535.730632
584.377721	2541.185160
584.730906	2536.118800
585.084037	2538.793132
585.437113	2538.916641
585.790135	2536.696012
586.143103	2538.016795
586.496016	2540.403781
586.848874	2531.730476
587.201679	2537.253060
587.554428	2533.613347
587.907124	2534.523275
588.259765	2533.938501
588.612352	2536.887576
588.964884	2537.648791
589.317362	2537.031249
589.669786	2537.268183
590.022155	2538.772968
590.374470	2539.501415
590.726731	2540.358411
591.078937	2535.811290
591.431090	2538.548637
591.783188	2538.450334
592.135232	2537.011085
592.487222	2538.533513
592.839157	2539.191384
593.191038	2536.491846
593.542866	2538.263811
593.894639	2536.627957
594.246358	2536.144006
594.598022	2538.059645
594.949633	2537.794984
595.301190	2538.422608
595.652692	2535.549150
596.004141	2535.138296
596.355535	2538.737680
596.706876	2537.656352
597.058162	2538.258770
597.409395	2538.657021
597.760573	2537.943698
598.111698	2537.031249
598.462768	2537.197607
598.813785	2537.487474
599.164748	2539.622402
599.515657	2535.859181
599.866511	2536.517052
600.217312	2538.765406
600.568060	2537.056455
600.918753	2540.025695
601.269392	2536.363296
601.619978	2539.418236
601.970510	2538.105015
602.320988	2536.746424
602.671412	2536.544778
603.021783	2536.859850
603.372100	2538.180632
603.722363	2538.291538
604.072572	2537.769778
604.422728	2538.069727
604.772830	2534.833306
605.122878	2536.370858
605.472872	2534.303985
605.822813	2532.068233
606.172701	2533.751979
606.522534	2538.374717
606.872314	2538.427649
607.222041	2534.644263
607.571714	2536.832124
607.921333	2537.822710
608.270899	2538.329346
608.620411	2538.604089
608.969870	2538.062165
609.319276	2540.234903
609.668627	2543.700696
610.017926	2543.020140
610.367171	2546.044832
610.716362	2543.564585
611.065500	2542.281611
611.414585	2542.125335
611.763616	2541.590973
612.112594	2538.084850
612.461518	2539.173740
612.810389	2538.536034
613.159207	2539.067875
613.507971	2539.861857
613.856682	2538.798174
614.205340	2541.374203
614.553945	2539.387989
614.902496	2538.185673
615.250994	2537.817669
615.599439	2539.385468
615.947830	2539.577032
616.296169	2538.505787
616.644454	2538.813297
616.992686	2537.585776
617.340864	2540.121477
617.688990	2538.006712
618.037063	2537.326157
618.385082	2537.842875
618.733048	2540.703730
619.080961	2534.891279
619.428821	2540.754141
619.776628	2539.594676
620.124382	2537.936136
620.472083	2538.644418
620.819731	2538.014274
621.167326	2538.460416
621.514868	2537.308513
621.862357	2535.697864
622.209793	2539.995448
622.557176	2541.555685
622.904506	2536.655683
623.251783	2532.526978
623.599007	2536.960673
623.946179	2534.029242
624.293297	2534.422452
624.640363	2537.132072
624.987376	2536.716177
625.334336	2536.053265
625.681243	2539.423277
626.028097	2536.759027
626.374899	2536.471681
626.721647	2538.326826
627.068343	2538.374717
627.414987	2537.474871
627.761577	2537.631147
628.108115	2537.104346
628.454600	2538.762886
628.801032	2539.768596
629.147412	2539.677855
629.493739	2537.527803
629.840014	2538.319264
630.186236	2536.433872
630.532405	2536.799356
630.878521	2536.983358
631.224585	2538.142824
631.570597	2537.706764
631.916556	2537.293389
632.262462	2537.318595
632.608316	2537.681558
632.954117	2535.682741
633.299866	2538.606610
633.645562	2535.360107
633.991206	2539.209028
634.336797	2536.998482
634.682336	2538.793132
635.027823	2536.829603
635.373257	2537.565612
635.718639	2536.224665
636.063968	2539.503935
636.409245	2536.012936
636.754470	2539.322454
637.099642	2537.127031
637.444762	2539.050231
637.789829	2536.373379
638.134845	2537.986548
638.479808	2534.107380
638.824719	2535.307175
639.169577	2537.227854
639.514383	2535.234078
639.859137	2536.585107
640.203839	2537.313554
640.548489	2536.539737
640.893086	2534.780374
641.237632	2532.501773
641.582125	2536.423790
641.926566	2532.529499
642.270955	2536.093595
642.615292	2534.671989
642.959576	2537.240457
643.303809	2539.085519
643.647990	2536.746424
643.992118	2537.011085
644.336195	2536.635519
644.680219	2537.739531
645.024192	2537.663914
645.368112	2538.573842
645.711981	2538.929244
646.055797	2537.159799
646.399562	2538.122659
646.743274	2537.915972
647.086935	2538.561239
647.430544	2538.319264
647.774101	2535.256763
648.117606	2535.776002
648.461059	2537.142155
648.804460	2538.571322
649.147810	2538.009233
649.491108	2539.483771
649.834354	2537.089223
650.177548	2539.892104
650.520690	2538.193235
650.863781	2537.905889
651.206820	2539.604758
651.549807	2535.395395
651.892742	2536.814480
652.235626	2534.349355
652.578458	2537.346321
652.921238	2537.820190
653.263967	2538.417567
653.606644	2538.619213
653.949269	2534.568646
654.291843	2535.836496
654.634365	2539.193904
654.976836	2535.841537
655.319255	2535.576876
655.661622	2537.406815
656.003938	2534.679551
656.346203	2534.906403
656.688416	2537.021167
657.030577	2535.965045
657.372687	2537.389171
657.714746	2537.976466
658.056753	2535.564273
658.398708	2533.089067
658.740612	2534.677030
659.082465	2532.428676
659.424266	2533.923378
659.766016	2532.789118
660.107715	2538.321785
660.449362	2534.538399
660.790958	2537.666435
661.132503	2537.840354
661.473996	2535.675179
661.815438	2534.742565
662.156829	2539.551826
662.498168	2537.396733
662.839456	2538.924202
663.180693	2538.893956
663.521879	2537.411856
663.863013	2537.308513
664.204097	2536.388502
664.545129	2536.955632
664.886110	2536.055786
665.227040	2537.457227
665.567918	2536.645601
665.908746	2534.929088
666.249522	2536.806918
666.590248	2537.283307
666.930922	2538.036959
667.271545	2536.867412
667.612118	2537.913451
667.952639	2536.683410
668.293109	2539.236754
668.633528	2536.882535
668.973896	2535.375230
669.314213	2535.917154
669.654480	2535.229037
669.994695	2536.746424
670.334859	2536.378420
670.674973	2536.620395
671.015035	2537.933616
671.355047	2538.258770
671.695008	2537.812628
672.034918	2536.080992
672.374777	2535.203831
672.714585	2537.903369
673.054342	2535.324819
673.394049	2535.173584
673.733705	2537.394212
674.073310	2537.684079
674.412864	2537.517721
674.752368	2538.921682
675.091820	2534.924047
675.431223	2535.924716
675.770574	2537.510159
676.109875	2533.908254
676.449125	2533.787267
676.788324	2531.937163
677.127473	2535.700385
677.466571	2529.751823
677.805619	2536.388502
678.144616	2533.119314
678.483562	2536.171733
678.822458	2536.562422
679.161303	2538.132741
679.500098	2537.210210
679.838842	2535.544109
680.177535	2536.658204
680.516179	2536.254912
680.854771	2536.038142
681.193314	2536.592669
681.531805	2536.486805
681.870247	2536.471681
682.208638	2536.506969
682.546978	2537.421939
682.885268	2534.999664
683.223508	2535.791125
683.561697	2535.047555
683.899836	2535.614685
684.237925	2534.765251
684.575963	2535.178625
684.913951	2535.304654
685.251889	2537.031249
685.589776	2537.404295
685.927614	2539.050231
686.265401	2536.454037
686.603137	2536.554860
686.940824	2535.851619
687.278460	2535.554191
687.616046	2534.125024
687.953582	2535.839016
688.291068	2535.710467
688.628504	2536.970755
688.965889	2534.979500
689.303224	2536.552340
689.640510	2533.850281
689.977745	2533.888090
690.314930	2534.566125
690.652065	2537.676517
690.989150	2534.077133
691.326185	2538.266332
691.663170	2537.104346
692.000105	2536.970755
692.336990	2536.625436
692.673825	2536.685930
693.010610	2535.299613
693.347345	2532.126207
693.684030	2530.762574
694.020665	2534.336752
694.357251	2531.256607
694.693786	2535.314736
695.030272	2535.649973
695.366707	2536.842206
695.703093	2536.491846
696.039429	2536.569984
696.375716	2536.721218
696.711952	2534.621578
697.048139	2538.488143
697.384276	2535.455889
697.720363	2535.725590
698.056400	2536.038142
698.392388	2534.583769
698.728326	2537.071578
699.064214	2534.583769
699.400053	2538.004192
699.735842	2535.218954
700.071581	2534.394726
700.407270	2533.590662
700.742910	2536.670807
701.078501	2535.937319
701.414042	2537.232895
701.749533	2534.745086
702.084974	2535.770961
702.420366	2534.114942
702.755709	2536.648122
703.091002	2537.542926
703.426246	2534.543440
703.761440	2536.149047
704.096584	2535.886907
704.431679	2535.778522
704.766725	2535.579397
705.101721	2534.823224
705.436668	2535.967566
705.771565	2535.796167
706.106413	2536.012936
706.441212	2535.415559
706.775961	2535.980169
707.110661	2535.289531
707.445311	2537.190046
707.779913	2536.670807
708.114465	2536.083512
708.448967	2533.346166
708.783421	2536.817000
709.117825	2534.863553
709.452180	2536.441434
709.786485	2537.134593
710.120742	2537.593338
710.454949	2535.027391
710.789107	2536.461599
711.123216	2532.101001
711.457275	2534.493028
711.791286	2533.013450
712.125247	2531.546474
712.459159	2535.216434
712.793023	2537.477391
713.126837	2536.829603
713.460602	2537.137113
713.794318	2534.477905
714.127985	2535.269366
714.461602	2534.326670
714.795171	2534.757689
715.128691	2535.912113
715.462162	2536.670807
715.795584	2534.810621
716.128957	2531.990095
716.462281	2534.833306
716.795556	2535.105528
717.128782	2536.743903
717.461960	2533.323481
717.795088	2535.097967
718.128167	2536.272556
718.461198	2534.558563
718.794180	2536.194418
719.127113	2534.949253
719.459997	2533.704088
719.792833	2536.932947
720.125619	2535.370189
720.458357	2536.622916
720.791046	2533.744417
721.123686	2534.087215
721.456278	2534.583769
721.788821	2537.174922
722.121315	2535.324819
722.453761	2533.888090
722.786158	2534.540919
723.118506	2533.903213
723.450805	2536.869932
723.783056	2534.150230
724.115259	2533.651156
724.447412	2533.502442
724.779518	2535.324819
725.111574	2532.647966
725.443582	2536.252391
725.775542	2535.090405
726.107453	2536.217103
726.439315	2534.745086
726.771129	2539.453524
727.102895	2533.918337
727.434612	2535.087884
727.766281	2534.288862
728.097901	2534.281300
728.429473	2529.920702
728.760996	2531.246525
729.092471	2529.189734
729.423897	2535.254243
729.755276	2534.571166
730.086606	2533.535209
730.417887	2533.643594
730.749120	2531.332225
731.080305	2534.901362
731.411442	2534.742565
731.742530	2536.678368
732.073570	2533.835158
732.404562	2534.233409
732.735506	2536.363296
733.066401	2534.689633
733.397249	2534.903882
733.728048	2534.248532
734.058798	2534.498069
734.389501	2535.584438
734.720156	2534.929088
735.050762	2536.398584
735.381320	2533.951104
735.711831	2532.635363
736.042293	2534.861033
736.372707	2535.781043
736.703073	2534.903882
737.033391	2535.697864
737.363661	2536.607792
737.693883	2536.448996
738.024056	2538.485622
738.354182	2534.596372
738.684260	2534.898841
739.014290	2533.515044
739.344272	2530.944056
739.674207	2533.008408
740.004093	2534.840868
740.333931	2532.663089
740.663722	2532.670651
740.993464	2537.295910
741.323159	2536.960673
741.652806	2536.023018
741.982405	2535.574356
742.311956	2533.250384
742.641460	2536.920344
742.970915	2536.199459
743.300323	2535.851619
743.629683	2533.799870
743.958996	2535.307175
744.288260	2534.989582
744.617477	2530.825589
744.946647	2527.707635
745.275768	2534.661907
745.604842	2531.269210
745.933869	2529.492204
746.262847	2528.375588
746.591778	2534.316588
746.920662	2533.633512
747.249498	2537.111908
747.578286	2532.423635
747.907027	2534.818183
748.235720	2532.534540
748.564365	2534.054448
748.892963	2533.971269
749.221514	2533.157122
749.550017	2535.478574
749.878473	2535.221475
750.206881	2532.907585
750.535242	2534.505631
750.863555	2533.804911
751.191821	2535.085364
751.520039	2532.993285
751.848210	2533.739376
752.176334	2535.586959
752.504411	2536.900179
752.832440	2534.656866
753.160421	2532.756351
753.488356	2533.935981
753.816243	2534.654345
754.144082	2533.136958
754.471875	2535.322298
754.799620	2532.784077
755.127318	2532.665610
755.454969	2534.056968
755.782572	2533.746938
756.110129	2534.097298
756.437638	2534.240971
756.765100	2532.622760
757.092515	2533.210055
757.419882	2533.767102
757.747203	2534.177956
758.074477	2534.339273
758.401703	2533.139478
758.728882	2533.361289
759.056014	2532.983203
759.383099	2530.001360
759.710138	2535.150899
760.037129	2531.380116
760.364073	2535.566794
760.690970	2534.051927
761.017820	2533.968748
761.344623	2536.166691
761.671379	2534.455220
761.998088	2531.027235
762.324751	2533.459592
762.651366	2532.126207
762.977935	2532.569828
763.304456	2528.299971
763.630931	2535.491177
763.957359	2529.847605
764.283740	2535.176105
764.610074	2534.994623
764.936362	2535.647453
765.262602	2532.993285
765.588796	2535.168543
765.914943	2532.610157
766.241044	2534.772812
766.567097	2531.927081
766.893104	2535.186187
767.219064	2532.705939
767.544978	2532.973120
767.870845	2532.968079
768.196665	2534.382123
768.522438	2529.625794
768.848165	2535.660055
769.173846	2533.167205
769.499479	2533.749458
769.825066	2534.177956
770.150607	2533.961187
770.476101	2535.198790
770.801548	2537.386651
771.126949	2531.415404
771.452303	2535.907072
771.777611	2534.220806
772.102872	2531.816176
772.428087	2534.288862
772.753256	2534.235929
773.078378	2533.237781
773.403453	2533.063861
773.728482	2531.823737
774.053465	2534.213244
774.378401	2533.144520
774.703291	2533.998995
775.028135	2535.150899
775.352932	2532.032945
775.677683	2536.385982
776.002388	2532.831968
776.327046	2530.734848
776.651658	2532.978162
776.976224	2536.249870
777.300743	2534.906403
777.625216	2533.807431
777.949643	2534.815662
778.274024	2536.053265
778.598359	2530.197965
778.922647	2529.454395
779.246889	2534.528316
779.571086	2529.242667
779.895236	2530.840712
780.219339	2534.193080
780.543397	2533.033614
780.867409	2535.168543
781.191374	2533.192411
781.515294	2533.220137
781.839167	2534.089736
782.162995	2533.542771
782.486776	2531.488501
782.810511	2533.676361
783.134201	2532.469005
783.457844	2529.149405
783.781441	2533.462112
784.104993	2533.583100
784.428498	2532.148892
784.751958	2534.830786
785.075372	2535.062679
785.398739	2532.360620
785.722061	2532.600075
786.045337	2530.969262
786.368568	2532.965559
786.691752	2532.516896
787.014891	2533.230219
787.337983	2531.186031
787.661030	2532.151412
787.984031	2531.226361
788.306987	2532.153933
788.629897	2535.508821
788.952760	2535.251722
789.275579	2532.375744
789.598351	2532.098480
789.921078	2532.635363
790.243759	2531.123017
790.566395	2534.283820
790.888984	2533.197452
791.211529	2533.527647
791.534027	2534.344314
791.856480	2531.301978
792.178888	2532.340456
792.501249	2530.840712
792.823566	2535.168543
793.145836	2534.631660
793.468062	2533.699047
793.790241	2533.106711
794.112375	2532.930271
794.434464	2534.233409
794.756507	2533.454551
795.078505	2533.358769
795.400457	2531.571680
795.722364	2530.417255
796.044226	2527.410207
796.366042	2528.002543
796.687812	2530.949097
797.009538	2532.862215
797.331218	2532.935312
797.652852	2529.789632
797.974442	2536.201979
798.295986	2530.795342
798.617484	2532.141330
798.938938	2533.129396
799.260346	2531.019673
799.581709	2534.460261
799.903026	2535.902031
800.224299	2533.580579
800.545526	2532.151412
800.866708	2533.406660
801.187845	2532.269879
801.508936	2531.022194
801.829983	2532.897503
802.150984	2533.482277
802.471940	2533.109232
802.792851	2532.451361
803.113717	2532.166536
803.434538	2532.771474
803.755314	2533.404139
804.076045	2533.600744
804.396731	2534.477905
804.717372	2533.502442
805.037967	2531.554036
805.358518	2533.101670
805.679024	2530.117307
805.999485	2533.998995
806.319901	2533.293234
806.640272	2534.379602
806.960598	2534.964376
807.280879	2530.820548
807.601115	2534.656866
807.921306	2532.242153
808.241453	2533.341125
808.561554	2532.388347
808.881611	2534.046886
809.201623	2530.853315
809.521590	2534.435055
809.841513	2531.937163
810.161390	2532.726104
810.481223	2530.785260
810.801011	2532.620240
811.120755	2532.743748
811.440453	2533.817514
811.760107	2534.684592
812.079716	2530.442461
812.399281	2526.379291
812.718801	2530.354241
813.038276	2526.434744
813.357707	2534.984541
813.677093	2531.755682
813.996434	2533.333563
814.315731	2531.911957
814.634983	2533.809952
814.954191	2529.872811
815.273354	2537.237937
815.592473	2532.821886
815.911547	2531.818696
816.230577	2532.910106
816.549562	2533.895652
816.868502	2531.649818
817.187399	2531.634694
817.506250	2529.701412
817.825058	2532.264838
818.143821	2533.056299
818.462539	2532.516896
818.781213	2534.145189
819.099843	2529.507327
819.418429	2530.162677
819.736970	2533.028573
820.055466	2532.705939
820.373919	2532.509334
820.692327	2533.300795
821.010691	2530.913809
821.329011	2529.497245
821.647286	2530.228212
821.965517	2531.957328
822.283704	2530.646628
822.601847	2532.463964
822.919945	2533.210055
823.237999	2530.797863
823.556010	2532.327853
823.873976	2529.124199
824.191897	2530.689478
824.509775	2533.446989
824.827609	2531.541433
825.145398	2527.357275
825.463144	2530.681916
825.780845	2531.294416
826.098502	2531.385157
826.416116	2533.633512
826.733685	2531.564118
827.051210	2532.053110
827.368692	2532.713501
827.686129	2531.823737
828.003522	2534.598893
828.320872	2528.771319
828.638177	2531.725435
828.955439	2529.177132
829.272656	2530.961700
829.589830	2528.892306
829.906960	2532.854653
830.224046	2530.124868
830.541088	2530.059333
830.858086	2532.058151
831.175041	2533.600744
831.491952	2531.012112
831.808819	2532.219468
832.125642	2528.662934
832.442421	2533.096629
832.759157	2532.675692
833.075849	2533.401618
833.392497	2532.627801
833.709101	2533.711649
834.025662	2532.461443
834.342179	2529.754344
834.658653	2531.639735
834.975083	2534.571166
835.291469	2535.569315
835.607811	2530.550846
835.924110	2530.157636
836.240366	2533.993954
836.556578	2530.543284
836.872746	2531.528830
837.188871	2531.112935
837.504952	2532.158974
837.820990	2531.556556
838.136984	2529.915661
838.452935	2534.087215
838.768842	2533.144520
839.084706	2533.081505
839.400526	2531.715352
839.716303	2530.974303
840.032037	2531.667462
840.347727	2531.586803
840.663373	2531.680064
840.978977	2530.157636
841.294537	2531.969931
841.610054	2531.828778
841.925527	2533.157122
842.240957	2531.997657
842.556344	2533.996475
842.871687	2531.100332
843.186987	2532.612678
843.502244	2532.688295
843.817458	2531.107893
844.132629	2531.785929
844.447756	2532.602596
844.762840	2527.279137
845.077881	2525.892820
845.392879	2527.364837
845.707833	2530.709642
846.022745	2527.977337
846.337613	2531.871628
846.652438	2531.932122
846.967221	2531.851464
847.281960	2530.439941
847.596656	2533.880528
847.911309	2530.535723
848.225919	2532.746268
848.540485	2530.843233
848.855009	2534.072092
849.169490	2530.545805
849.483928	2532.191742
849.798323	2532.983203
850.112675	2530.462626
850.426984	2532.259797
850.741251	2532.773995
851.055474	2529.499765
851.369654	2531.238963
851.683792	2529.159487
851.997887	2529.434230
852.311938	2530.956659
852.625947	2530.208047
852.939914	2530.873480
853.253837	2533.406660
853.567718	2533.671320
853.881555	2530.364323
854.195350	2533.280631
854.509103	2531.090249
854.822812	2530.679395
855.136479	2535.471012
855.450103	2531.044879
855.763685	2533.731814
856.077224	2530.268541
856.390720	2531.463295
856.704173	2531.269210
857.017584	2531.609488
857.330953	2529.250228
857.644278	2531.911958
857.957561	2535.342463
858.270802	2532.481608
858.584000	2531.460774
858.897155	2533.633512
859.210268	2531.148223
859.523339	2531.218799
859.836367	2530.107224
860.149352	2533.073943
860.462295	2530.376926
860.775195	2527.347193
861.088054	2525.411390
861.400869	2528.224353
861.713642	2524.894671
862.026373	2528.231915
862.339062	2529.867770
862.651708	2530.233253
862.964312	2528.864580
863.276873	2532.710980
863.589392	2527.964734
863.901869	2531.899355
864.214303	2530.734848
864.526696	2530.041689
864.839045	2529.724097
865.151353	2532.579910
865.463619	2531.785929
865.775842	2527.775691
866.088023	2530.782739
866.400162	2531.848943
866.712258	2529.260311
867.024313	2532.927750
867.336325	2531.440610
867.648296	2531.049920
867.960224	2532.453882
868.272110	2530.623943
868.583954	2530.591175
868.895755	2530.293747
869.207515	2531.460774
869.519233	2530.008922
869.830909	2530.429858
870.142542	2531.415404
870.454134	2529.565300
870.765684	2529.777029
871.077191	2531.017153
871.388657	2531.309540
871.700081	2529.245187
872.011463	2529.101514
872.322803	2527.715197
872.634101	2529.567821
872.945357	2530.848274
873.256571	2529.910619
873.567744	2530.545805
873.878874	2532.259797
874.189963	2529.943387
874.501010	2530.059333
874.812015	2530.361803
875.122979	2531.279293
875.433900	2530.336597
875.744780	2530.571011
876.055618	2528.451205
876.366415	2530.702081
876.677169	2529.585465
876.987882	2528.451205
877.298554	2525.219826
877.609183	2529.436751
877.919771	2522.225380
878.230317	2528.037831
878.540822	2532.048069
878.851285	2531.828778
879.161707	2528.521782
879.472087	2530.603778
879.782425	2531.564118
880.092722	2529.436751
880.402977	2529.797193
880.713191	2530.734848
881.023363	2531.967410
881.333494	2531.937163
881.643583	2531.594365
881.953631	2530.134951
882.263637	2531.722914
882.573602	2529.855167
882.883526	2528.985568
883.193408	2530.535722
883.503248	2530.621422
883.813048	2531.793490
884.122806	2532.148892
884.432522	2528.347862
884.742197	2530.008922
885.051831	2530.760054
885.361424	2531.213758
885.670975	2531.143182
885.980485	2530.215609
886.289954	2530.626463
886.599382	2528.978006
886.908768	2532.411032
887.218113	2529.429189
887.527417	2531.745599
887.836680	2529.903058
888.145901	2531.307019
888.455082	2530.697039
888.764221	2532.128727
889.073319	2529.109076
889.382376	2529.086391
889.691392	2532.383305
890.000366	2532.486649
890.309300	2530.356762
890.618193	2532.237112
890.927044	2530.225692
891.235855	2531.954807
891.544625	2529.545136
891.853353	2529.562780
892.162041	2528.362985
892.470687	2532.408511
892.779293	2532.514375
893.087858	2527.687471
893.396381	2526.160001
893.704864	2528.519261
894.013306	2529.093952
894.321707	2527.538757
894.630068	2529.492204
894.938387	2529.270393
895.246665	2531.370033
895.554903	2530.767616
895.863100	2528.118489
896.171256	2531.649818
896.479371	2528.050434
896.787446	2532.242153
897.095480	2531.606968
897.403473	2533.552853
897.711425	2529.159488
898.019336	2526.832995
898.327207	2531.657379
898.635038	2533.499921
898.942827	2529.840043
899.250576	2527.866432
899.558284	2531.508665
899.865952	2528.980527
900.173579	2530.626463
900.481165	2528.494055
900.788711	2531.732997
901.096216	2527.611853
901.403681	2531.027235
901.711105	2532.363141
902.018489	2528.541946
902.325832	2533.487318
902.633135	2530.646628
902.940397	2531.175949
903.247619	2529.005732
903.554800	2529.620753
903.861941	2530.510517
904.169041	2531.422966
904.476101	2530.954138
904.783121	2531.284334
905.090100	2527.231246
905.397039	2531.566638
905.703938	2531.170908
906.010796	2530.387008
906.317614	2528.315094
906.624391	2528.025228
906.931129	2530.450023
907.237826	2530.966741
907.544483	2528.990609
907.851099	2528.597399
908.157675	2529.351051
908.464211	2531.652338
908.770707	2526.522964
909.077163	2528.375588
909.383578	2526.205371
909.689954	2525.852491
909.996289	2526.858201
910.302584	2530.389529
910.608839	2529.671165
910.915054	2530.167718
911.221229	2528.922553
911.527363	2529.018335
911.833458	2527.732841
912.139513	2527.954652
912.445527	2530.041689
912.751502	2530.966741
913.057436	2530.644107
913.363331	2531.712832
913.669186	2529.875331
913.975000	2528.673016
914.280775	2530.172759
914.586510	2531.251566
914.892205	2529.204858
915.197859	2530.281144
915.503475	2528.720907
915.809050	2531.780887
916.114585	2526.926256
916.420081	2529.585465
916.725536	2527.236287
917.030952	2531.380116
917.336328	2528.801566
917.641665	2530.505476
917.946961	2530.109745
918.252218	2528.443644
918.557435	2527.649662
918.862612	2533.169725
919.167750	2529.303160
919.472848	2529.436751
919.777906	2529.577903
920.082925	2530.560928
920.387904	2529.255269
920.692843	2529.913140
920.997743	2530.192924
921.302603	2528.824251
921.607423	2530.681916
921.912204	2532.627801
922.216946	2531.087729
922.521647	2530.991947
922.826310	2529.013294
923.130932	2527.203520
923.435516	2529.855167
923.740059	2530.742410
924.044564	2529.139323
924.349028	2529.875331
924.653454	2523.773015
924.957840	2524.831657
925.262186	2526.124713
925.566493	2526.470032
925.870761	2522.767304
926.174989	2527.727800
926.479178	2530.339117
926.783328	2526.044054
927.087438	2525.718900
927.391509	2528.877183
927.695541	2531.062523
927.999533	2528.957841
928.303486	2529.169570
928.607400	2529.892975
928.911275	2525.975999
929.215110	2530.802904
929.518906	2526.858201
929.822663	2529.225022
930.126381	2528.902389
930.430060	2526.530526
930.733699	2529.308202
931.037299	2529.096473
931.340861	2530.414735
931.644383	2530.102183
931.947866	2530.593696
932.251309	2528.496576
932.554714	2528.902389
932.858080	2529.519930
933.161407	2527.944569
933.464694	2531.606968
933.767943	2526.986750
934.071153	2529.126720
934.374323	2531.034797
934.677455	2529.961031
934.980548	2530.825589
935.283602	2527.437933
935.586617	2527.158149
935.889593	2528.874662
936.192530	2528.481452
936.495428	2528.594878
936.798287	2528.047913
937.101108	2530.553367
937.403890	2527.949611
937.706632	2529.280475
938.009336	2526.623787
938.312002	2530.036648
938.614628	2527.231246
938.917216	2529.598068
939.219765	2527.024559
939.522275	2528.068078
939.824747	2528.378109
940.127179	2527.526154
940.429573	2525.207223
940.731929	2526.749816
941.034246	2522.726975
941.336524	2527.846267
941.638763	2529.061185
941.940964	2527.894158
942.243126	2528.657893
942.545250	2527.669827
942.847335	2529.328366
943.149381	2528.461288
943.451389	2528.970444
943.753359	2526.827954
944.055290	2528.007584
944.357182	2525.550021
944.659036	2528.433561
944.960851	2527.347193
945.262628	2528.816689
945.564367	2527.790814
945.866067	2529.436751
946.167729	2530.180321
946.469352	2527.795855
946.770937	2528.998171
947.072484	2530.475229
947.373992	2528.975485
947.675462	2526.893489
947.976893	2527.818541
948.278286	2529.401463
948.579641	2528.224353
948.880958	2527.604292
949.182236	2526.918695
949.483476	2528.423479
949.784678	2527.306863
950.085841	2528.481452
950.386967	2529.812317
950.688054	2526.414579
950.989103	2529.426669
951.290114	2525.368540
951.591087	2530.442461
951.892021	2528.420958
952.192917	2530.308871
952.493776	2529.008253
952.794596	2527.672347
953.095378	2528.032790
953.396122	2529.524971
953.696828	2528.443644
953.997496	2529.051103
954.298126	2525.771832
954.598718	2529.106555
954.899272	2529.950949
955.199788	2527.095135
955.500266	2527.551359
955.800706	2525.287881
956.101108	2521.350740
956.401472	2525.643283
956.701798	2524.655217
957.002087	2525.434075
957.302337	2527.896678
957.602550	2530.399611
957.902724	2527.884076
958.202861	2529.414066
958.502960	2525.827285
958.803022	2529.524971
959.103045	2526.462470
959.403031	2527.894158
959.702979	2527.329549
960.002889	2527.687471
960.302762	2529.706453
960.602596	2526.802748
960.902393	2527.354754
961.202153	2529.310722
961.501875	2528.352903
961.801559	2528.236956
962.101205	2530.893644
962.400814	2525.880217
962.700385	2527.984899
962.999918	2529.033459
963.299414	2528.983047
963.598873	2527.382481
963.898293	2526.898530
964.197677	2530.838192
964.497022	2529.015815
964.796331	2527.589168
965.095601	2529.358613
965.394835	2528.347862
965.694030	2528.534384
965.993189	2526.964065
966.292309	2528.478932
966.591393	2529.348531
966.890439	2527.768129
967.189447	2523.876358
967.488419	2526.122192
967.787353	2528.589837
968.086249	2526.240659
968.385108	2528.506658
968.683930	2526.207892
968.982714	2527.354754
969.281462	2530.860877
969.580172	2527.412728
969.878844	2528.453726
970.177480	2525.877696
970.476078	2529.824920
970.774639	2527.629497
971.073162	2530.865918
971.371649	2527.518592
971.670098	2524.254445
971.968510	2526.422141
972.266885	2523.644465
972.565223	2527.422810
972.863524	2526.228057
973.161788	2527.047244
973.460014	2528.453726
973.758204	2527.180835
974.056356	2526.974147
974.354471	2526.470032
974.652550	2527.311905
974.950591	2529.156967
975.248595	2526.074301
975.546563	2523.828467
975.844493	2525.068591
976.142386	2527.800897
976.440243	2528.602440
976.738062	2528.055475
977.035845	2525.585309
977.333590	2530.127389
977.631299	2528.262162
977.928971	2528.665454
978.226606	2525.630680
978.524204	2526.396935
978.821765	2528.423479
979.119290	2528.872142
979.416777	2528.327697
979.714228	2528.879703
980.011642	2526.810310
980.309020	2529.459436
980.606360	2528.826771
980.903664	2525.202182
981.200931	2527.533715
981.498162	2525.764270
981.795356	2526.769981
982.092513	2527.770650
982.389633	2526.822913
982.686717	2527.143026
982.983764	2527.942049
983.280775	2527.954652
983.577749	2528.221833
983.874686	2528.146216
984.171587	2525.880217
984.468451	2531.627132
984.765279	2529.293078
985.062070	2524.478776
985.358824	2527.054806
985.655543	2527.498427
985.952224	2527.952131
986.248869	2527.536236
986.545478	2523.107582
986.842050	2524.193951
987.138586	2521.859897
987.435086	2523.001718
987.731549	2522.865607
988.027975	2529.063706
988.324366	2528.123530
988.620719	2527.755526
988.917037	2527.442975
989.213318	2528.975485
989.509563	2526.051616
989.805772	2529.083870
990.101944	2527.669827
990.398080	2528.166380
990.694180	2527.233767
990.990244	2528.801566
991.286271	2525.983561
991.582262	2528.189065
991.878217	2526.898530
992.174136	2527.463139
992.470019	2527.266534
992.765865	2527.858870
993.061676	2527.115300
993.357450	2528.458767
993.653188	2527.165711
993.948890	2528.189065
994.244556	2528.121010
994.540186	2528.914992
994.835780	2529.182173
995.131337	2529.983716
995.426859	2527.011956
995.722345	2524.877027
996.017795	2529.822399
996.313208	2526.023890
996.608586	2527.911802
996.903928	2526.225536
997.199234	2522.850483
997.494504	2528.635208
997.789738	2526.046575
998.084936	2527.475742
998.380099	2526.316277
998.675225	2526.417100
998.970316	2528.108407
999.265371	2528.544467
999.560390	2527.311905
999.855373	2527.742923
1000.150320	2527.122861
1000.445232	2527.372398
1000.740108	2526.192768
1001.034948	2529.661082
1001.329752	2527.851308
1001.624521	2526.598581
1001.919254	2522.873169
1002.213951	2524.135978
1002.508613	2525.466842
1002.803239	2524.952645
1003.097829	2522.452232
1003.392384	2527.647141
1003.686903	2527.203520
1003.981386	2529.950949
1004.275834	2528.226874
1004.570246	2527.137985
1004.864623	2527.876514
1005.158964	2526.951462
1005.453270	2527.566483
1005.747540	2527.634538
1006.041775	2527.692512
1006.335974	2529.729138
1006.630138	2525.940711
1006.924266	2525.456760
1007.218359	2525.635721
1007.512416	2525.237470
1007.806438	2524.534229
1008.100425	2527.228726
1008.394376	2528.816689
1008.688292	2528.526823
1008.982172	2527.143026
1009.276017	2526.880886
1009.569827	2528.662934
1009.863602	2527.616894
1010.157341	2525.050947
1010.451045	2525.232429
1010.744714	2526.843077
1011.038347	2523.969620
1011.331945	2525.161853
1011.625508	2526.419620
1011.919036	2524.377953
1012.212528	2527.029600
1012.505986	2524.917357
1012.799408	2528.607481
1013.092795	2527.095135
1013.386147	2528.443644
1013.679464	2527.432892
1013.972745	2526.301153
1014.265992	2523.425175
1014.559204	2528.007584
1014.852380	2525.774353
1015.145521	2527.286699
1015.438628	2527.342152
1015.731699	2528.032790
1016.024736	2525.592871
1016.317737	2526.389373
1016.610703	2524.730834
1016.903635	2525.645803
1017.196531	2522.006090
1017.489393	2527.732841
1017.782219	2523.218488
1018.075011	2524.498941
1018.367768	2525.209743
1018.660490	2527.324508
1018.953177	2527.324508
1019.245829	2527.324508
