Dividing Wavelength (nm)	Counts (n)	Blue Motor Position (mm): 0.000000	Red Motor Position (mm): 47.400000	
326.493990	2128.556635
326.888308	2128.556635
327.282561	2128.556635
327.676750	2096.757037
328.070874	2094.294433
328.464933	2096.464650
328.858929	2105.115270
329.252859	2112.850921
329.646726	2125.123610
330.040528	2140.420991
330.434265	2157.177786
330.827938	2171.724036
331.221547	2189.668023
331.615091	2211.397917
332.008571	2228.011039
332.401986	2251.013824
332.795338	2266.212903
333.188625	2286.019596
333.581847	2304.815538
333.975006	2324.445792
334.368100	2340.612772
334.761129	2360.240504
335.154095	2376.876312
335.546996	2396.060423
335.939833	2426.740885
336.332606	2441.410643
336.725315	2451.566048
337.117960	2459.281533
337.510540	2467.700260
337.903056	2480.908083
338.295508	2488.802530
338.687896	2495.807214
339.080220	2506.673421
339.472480	2511.034019
339.864676	2517.244720
340.256807	2522.782428
340.648875	2521.748991
341.040879	2523.062212
341.432818	2524.839219
341.824694	2528.204189
342.216506	2530.545805
342.608253	2528.937677
342.999937	2530.893644
343.391557	2529.109076
343.783113	2525.020700
344.174605	2529.046062
344.566033	2527.082532
344.957397	2525.091276
345.348697	2520.125740
345.739934	2521.847294
346.131106	2519.861079
346.522215	2515.871006
346.913260	2513.378155
347.304241	2514.439318
347.695159	2512.082579
348.086012	2509.279697
348.476802	2509.887156
348.867528	2509.756086
349.258191	2507.144769
349.648789	2504.404902
350.039324	2503.895745
350.429796	2504.215858
350.820203	2501.574294
351.210548	2498.910044
351.600828	2499.900631
351.991045	2500.387102
352.381198	2497.710249
352.771288	2495.353510
353.161314	2499.414159
353.551276	2497.150681
353.941175	2495.681185
354.331010	2497.480877
354.720782	2497.309477
355.110490	2498.799138
355.500135	2496.974241
355.889717	2497.783346
356.279235	2496.810403
356.668689	2497.967348
357.058080	2497.246463
357.447408	2497.697646
357.836672	2495.217399
358.225873	2496.966679
358.615010	2496.603716
359.004084	2501.188645
359.393095	2500.692092
359.782043	2500.442555
360.170927	2503.048831
360.559748	2504.109994
360.948505	2505.821466
361.337199	2506.819614
361.725830	2506.053359
362.114398	2508.236178
362.502903	2506.880108
362.891344	2507.664007
363.279722	2509.065448
363.668037	2509.977897
364.056289	2506.388596
364.444478	2507.414470
364.832603	2508.672238
365.220665	2509.990500
365.608665	2513.073166
365.996601	2512.485871
366.384474	2514.424195
366.772284	2515.921418
367.160031	2513.110974
367.547715	2521.103724
367.935336	2520.970133
368.322893	2522.379136
368.710388	2527.463139
369.097820	2536.118800
369.485189	2538.674665
369.872495	2541.144831
370.259738	2547.438711
370.646918	2559.000598
371.034035	2565.896896
371.421090	2573.904769
371.808081	2584.571851
372.195010	2594.265989
372.581875	2607.244440
372.968678	2618.892026
373.355418	2629.944756
373.742096	2646.855306
374.128710	2660.905002
374.515262	2678.891839
374.901751	2692.150074
375.288177	2707.457537
375.674540	2729.729355
376.060841	2745.971953
376.447079	2764.616660
376.833254	2785.597942
377.219367	2799.985396
377.605417	2836.511076
377.991404	2848.173785
378.377329	2868.673637
378.763191	2886.723489
379.148991	2921.651123
379.534727	2951.514918
379.920402	2976.645070
380.306013	2989.739468
380.691563	3039.546068
381.077049	3059.614901
381.462474	3078.012592
381.847835	3115.213787
382.233134	3140.409474
382.618371	3137.009215
383.003545	3208.843137
383.388657	3216.079713
383.773706	3247.781009
384.158693	3263.428751
384.543618	3291.008904
384.928480	3324.451918
385.313280	3371.732900
385.698017	3371.395143
386.082692	3423.999583
386.467305	3430.505192
386.851856	3458.869244
387.236344	3484.407730
387.620770	3516.156917
388.005133	3542.665824
388.389435	3566.694484
388.773674	3579.791402
389.157851	3619.893781
389.541965	3636.937922
389.926018	3600.041717
390.310008	3671.432017
390.693936	3694.011345
391.077802	3733.453333
391.461606	3724.984194
391.845348	3785.692289
392.229027	3787.169348
392.612645	3797.884320
392.996200	3873.791494
393.379694	3918.181374
393.763125	3982.738390
394.146494	3945.252370
394.529801	4012.677803
394.913047	4059.759659
395.296230	4023.486037
395.679351	4081.141713
396.062410	4101.293726
396.445408	4085.933330
396.828343	4113.309316
397.211217	4143.631857
397.594028	4059.875606
397.976778	4126.244917
398.359466	4153.290707
398.742092	4180.444883
399.124656	4103.915126
399.507158	4185.475954
399.889598	4211.339594
400.271977	4272.007360
400.654294	4241.155498
401.036549	4248.613885
401.418742	4220.212025
401.800874	4325.216739
402.182944	4342.792722
402.564952	4408.577259
402.946898	4397.257348
403.328783	4390.867685
403.710606	4305.261331
404.092367	4497.001618
404.474067	4461.874858
404.855705	4467.483141
405.237282	4400.639962
405.618797	4508.185417
406.000250	4543.390315
406.381642	4624.084065
406.762972	4586.971090
407.144240	4599.221094
407.525447	4597.665898
407.906593	4658.593284
408.287677	4700.001321
408.668700	4628.152276
409.049661	4678.604144
409.430560	4720.410433
409.811399	4646.575173
410.192176	4806.241118
410.572891	4747.486470
410.953545	4849.673179
411.334138	4731.221187
411.714669	4799.927073
412.095139	4691.501936
412.475547	4838.015511
412.855894	4810.826047
413.236180	4823.509591
413.616405	4779.250780
413.996568	4866.369481
414.376670	4806.435202
414.756711	4763.013224
415.136691	4792.244354
415.516609	4867.793607
415.896466	4907.001181
416.276262	4942.843784
416.655997	4921.978449
417.035670	5103.429740
417.415283	5199.947672
417.794834	5142.044979
418.174324	5095.575623
418.553753	5002.689842
418.933121	5184.569632
419.312428	5255.932206
419.691674	5194.225962
420.070859	5317.426721
420.449983	5235.429833
420.829045	5347.214899
421.208047	5252.796608
421.586988	5325.081713
421.965867	5334.271737
422.344686	5469.929187
422.723444	5325.369059
423.102141	5142.007170
423.480777	5440.927428
423.859352	5214.415783
424.237866	5469.074711
424.616319	5461.964163
424.994712	5570.114557
425.373044	5449.542760
425.751314	5595.403506
426.129524	5392.471858
426.507673	5589.248257
426.885762	5669.198436
427.263789	5598.753352
427.641756	5483.321012
428.019662	5603.865082
428.397508	5612.117451
428.775292	5559.691972
429.153016	5660.283156
429.530679	5581.966310
429.908282	5665.949413
430.285824	5540.971647
430.663305	5818.464481
431.040726	5547.567997
431.418086	5547.255445
431.795385	5655.569677
432.172624	5669.566441
432.549802	5660.194936
432.926920	5679.399211
433.303977	5683.679151
433.680974	5721.676848
434.057910	5739.489765
434.434786	5751.107104
434.811601	5710.760229
435.188355	5950.222599
435.565050	5817.408359
435.941683	5805.475948
436.318257	6017.680799
436.694770	6001.019785
437.071222	6033.315938
437.447614	5969.515094
437.823946	5882.809769
438.200218	6033.953643
438.576429	5899.518673
438.952580	5996.409650
439.328670	6043.904881
439.704700	5947.495334
440.080670	5935.943530
440.456580	6202.930600
440.832429	6094.228199
441.208218	5933.725423
441.583947	6097.983859
441.959616	6098.833293
442.335224	6020.513927
442.710773	6158.734804
443.086261	6188.119690
443.461689	5984.144523
443.837057	6132.432584
444.212365	6291.448220
444.587612	6177.583678
444.962800	6333.239386
445.337927	6314.040151
445.712995	5920.822589
446.088002	6504.454614
446.462949	6328.586401
446.837837	6266.527276
447.212664	6437.676970
447.587431	6573.523463
447.962139	7118.497400
448.336786	8048.668422
448.711374	7793.379350
449.085901	6865.658328
449.460369	6785.226719
449.834776	6718.930505
450.209124	7104.752694
450.583412	7257.487052
450.957640	7407.804178
451.331808	7173.524114
451.705917	6722.784467
452.079965	6649.264279
452.453954	6855.510486
452.827883	6732.128245
453.201752	6828.295817
453.575562	6625.172605
453.949311	6835.371076
454.323001	6717.213992
454.696632	6794.439428
455.070202	6934.770027
455.443713	7085.964313
455.817164	7186.394180
456.190556	7272.620596
456.563888	7350.274530
456.937160	7390.278606
457.310373	7045.703138
457.683526	7068.678197
458.056619	6958.236598
458.429653	6945.663961
458.802628	6876.632920
459.175542	6989.171639
459.548398	7349.987184
459.921194	7506.971236
460.293930	7509.915269
460.666607	8044.222124
461.039224	8349.837035
461.411782	8474.038463
461.784280	8495.208789
462.156719	8388.747181
462.529099	8263.262780
462.901419	7856.426541
463.273680	7742.715754
463.645882	7761.889783
464.018024	7625.662682
464.390106	7792.275337
464.762130	8182.001900
465.134094	8648.185123
465.505999	9671.413325
465.877845	10897.081662
466.249631	11544.625435
466.621358	11163.839359
466.993026	10536.442557
467.364634	10280.861098
467.736184	9914.278473
468.107674	9575.603675
468.479105	9610.453172
468.850477	9372.924085
469.221790	9141.658632
469.593043	8816.179054
469.964238	8679.505812
470.335373	8689.883027
470.706449	8752.562213
471.077467	8731.573369
471.448425	10044.456189
471.819324	11111.308015
472.190164	11142.729527
472.560945	9895.270802
472.931667	9099.683464
473.302330	8965.475346
473.672934	8608.922096
474.043479	8964.648597
474.413965	8908.661542
474.784393	8794.713821
475.154761	8947.851472
475.525070	9033.417497
475.895321	8861.274696
476.265513	9041.233806
476.635645	9207.329743
477.005719	9205.645997
477.375734	9324.135798
477.745691	9561.415348
478.115588	9686.332619
478.485427	9937.150188
478.855207	10476.563732
479.224928	11289.399378
479.594591	11916.027404
479.964194	11739.219015
480.333739	11667.475834
480.703226	11580.702453
481.072653	11675.899602
481.442022	11924.047880
481.811333	12109.458997
482.180584	11908.690004
482.549777	11614.505910
482.918912	11445.723038
483.287988	11466.074176
483.657005	11473.633386
484.025964	11162.246354
484.394864	11287.924840
484.763706	11267.319124
485.132489	11018.686896
485.501213	10980.603499
485.869879	11050.627647
486.238487	10899.365305
486.607036	11008.004691
486.975527	10786.922368
487.343959	10972.615791
487.712333	11021.209993
488.080648	10951.425301
488.448905	10998.471869
488.817104	10936.533732
489.185244	11210.994312
489.553326	11356.996210
489.921350	11900.228428
490.289315	12961.915592
490.657222	13307.562306
491.025070	13208.183519
491.392861	13087.568873
491.760593	12715.546842
492.128267	12367.989531
492.495883	12033.279601
492.863440	11692.613548
493.230939	11359.617610
493.598380	11286.551126
493.965763	11152.274952
494.333088	11053.685106
494.700354	10977.039403
495.067563	11041.243539
495.434713	10867.187620
495.801805	10997.899698
496.168839	10921.347256
496.535815	10847.756492
496.902733	10854.461227
497.269593	10785.029415
497.636395	10883.410053
498.003139	10874.053671
498.369825	10737.635007
498.736453	10900.434029
499.103023	10827.307052
499.469535	10852.084323
499.835989	10846.241626
500.202385	10805.289812
500.568723	10662.254634
500.935003	10877.552232
501.301226	10688.405619
501.667390	10940.889289
502.033497	11045.331914
502.399546	10905.260934
502.765537	10813.486728
503.131470	10879.848478
503.497345	11060.488143
503.863163	10668.175469
504.228923	10979.973355
504.594625	11044.858046
504.960269	10792.896136
505.325856	11020.264777
505.691385	10806.048506
506.056856	10953.930754
506.422270	10986.264715
506.787625	10872.942097
507.152924	10995.260654
507.518164	10966.324431
507.883347	10892.118646
508.248472	10808.790894
508.613540	11041.341841
508.978550	10926.761455
509.343503	10899.776159
509.708398	11022.074551
510.073236	11138.908333
510.438016	11138.137036
510.802738	11085.308264
511.167403	11142.560649
511.532010	11035.221880
511.896561	11261.529359
512.261053	11348.007832
512.625488	11209.950793
512.989866	11192.337002
513.354186	11178.236894
513.718449	11082.765002
514.082655	11275.039651
514.446803	11168.391521
514.810894	11289.989193
515.174927	11162.347178
515.538904	11180.823006
515.902822	11334.837818
516.266684	11223.395551
516.630488	11168.862869
516.994235	11219.027391
517.357925	11285.316043
517.721558	11369.999866
518.085133	11388.863864
518.448651	11398.442056
518.812112	11278.626432
519.175516	11298.997735
519.538863	11425.064390
519.902152	11334.764721
520.265385	11494.254226
520.628560	11403.193344
520.991678	11377.700229
521.354739	11446.494335
521.717743	11376.626463
522.080690	11353.971518
522.443580	11495.030564
522.806413	11448.478029
523.169189	11478.145219
523.531908	11534.659074
523.894569	11354.314316
524.257174	11357.749862
524.619722	11478.830816
524.982213	11419.766137
525.344647	11476.035496
525.707025	11423.894842
526.069345	11527.949298
526.431608	11438.380598
526.793815	11549.830427
527.155964	11335.258754
527.518057	11387.059131
527.880093	11343.856442
528.242072	11409.409086
528.603995	11312.744961
528.965860	11234.549103
529.327669	11285.384099
529.689421	11237.064639
530.051117	11207.089938
530.412755	11312.934005
530.774337	11192.747856
531.135862	11185.019767
531.497331	11209.091277
531.858743	11059.152238
532.220098	11231.163969
532.581396	11095.204049
532.942638	11076.904661
533.303824	11040.384022
533.664953	11051.189735
534.026025	10971.179062
534.387040	11065.224308
534.747999	11066.948382
535.108902	11131.530604
535.469748	10882.719415
535.830537	10990.826959
536.191270	10970.488424
536.551947	10988.855868
536.912567	10988.742442
537.273131	10914.866853
537.633638	10892.539582
537.994089	10883.694878
538.354483	10831.846611
538.714821	10975.736265
539.075103	10986.872174
539.435328	10948.362800
539.795497	10772.048444
540.155609	10928.301528
540.515665	11021.976249
540.875665	10758.021433
541.235609	10828.254789
541.595496	10824.980559
541.955328	10981.702471
542.315102	10861.314676
542.674821	10810.119238
543.034483	10808.372478
543.394090	10818.790022
543.753640	10741.872097
544.113134	10969.558331
544.472571	10820.045270
544.831953	10965.036416
545.191278	10770.064750
545.550548	10798.932917
545.909761	10933.682960
546.268918	10909.472818
546.628019	10996.019348
546.987064	10857.314520
547.346053	10772.083732
547.704986	10881.864939
548.063863	10865.035047
548.422684	10859.323420
548.781449	10771.072981
549.140158	10875.845802
549.498811	10753.403736
549.857408	10611.830492
550.215949	10834.296612
550.574434	10684.927223
550.932864	10784.076637
551.291237	10849.911586
551.649555	10787.308017
552.007817	10804.347117
552.366022	10765.051322
552.724173	10760.405899
553.082267	10741.635163
553.440305	10884.698068
553.798288	10686.805053
554.156215	10839.282313
554.514086	10811.170318
554.871902	10663.653554
555.229661	10701.832732
555.587365	10680.760709
555.945014	10568.206867
556.302606	10697.900633
556.660143	10590.564385
557.017625	10746.129351
557.375050	10642.868877
557.732421	10776.477098
558.089735	10695.427947
558.446994	10686.578201
558.804197	10732.757691
559.161345	10727.587987
559.518437	10587.199415
559.875474	10672.747795
560.232455	10697.346106
560.589381	10651.890021
560.946251	10644.502210
561.303065	10752.418191
561.659825	10687.593993
562.016528	10614.325863
562.373177	10495.473100
562.729770	10613.612540
563.086307	10526.062821
563.442789	10626.510332
563.799216	10493.522173
564.155587	10544.137878
564.511904	10501.005766
564.868164	10485.796605
565.224370	10505.378967
565.580520	10429.749057
565.936615	10427.084807
566.292654	10305.643411
566.648638	10431.863821
567.004567	10388.504856
567.360441	10368.970385
567.716260	10284.785637
568.072023	10370.828050
568.427732	10327.718623
568.783385	10238.427186
569.138982	10306.984357
569.494525	10323.902470
569.850013	10199.932935
570.205445	10286.492067
570.560823	10184.766624
570.916145	10098.699004
571.271412	10167.052009
571.626625	10108.194017
571.981782	10089.211553
572.336884	10065.843284
572.691931	10077.763092
573.046923	10012.938895
573.401860	9969.879879
573.756743	9907.261187
574.111570	9951.872878
574.466342	9937.613974
574.821059	9963.033992
575.175722	9852.189102
575.530330	9865.671668
575.884882	9859.420637
576.239380	9785.766858
576.593823	9759.406665
576.948211	9769.733469
577.302544	9661.336058
577.656823	9673.036576
578.011047	9679.040590
578.365216	9646.963728
578.719330	9562.799144
579.073389	9578.923275
579.427394	9528.267241
579.781344	9507.757306
580.135239	9451.823184
580.489080	9466.210637
580.842866	9361.110141
581.196597	9365.753043
581.550273	9403.007170
581.903895	9378.141679
582.257463	9442.214744
582.610975	9321.232093
582.964434	9348.537503
583.317837	9269.144371
583.671186	9248.997400
584.024481	9248.526052
584.377721	9167.547477
584.730906	9142.490422
585.084037	9174.572325
585.437113	9112.954302
585.790135	9133.912899
586.143103	9027.698308
586.496016	9006.270883
586.848874	9058.787103
587.201679	9049.045074
587.554428	8936.052651
587.907124	8982.839600
588.259765	8951.183675
588.612352	8956.174417
588.964884	8829.044079
589.317362	8851.089044
589.669786	8845.513528
590.022155	8900.220130
590.374470	8911.567767
590.726731	8849.370011
591.078937	8698.972227
591.431090	8813.509763
591.783188	8683.347171
592.135232	8679.226027
592.487222	8679.604114
592.839157	8725.874345
593.191038	8661.133326
593.542866	8605.675593
593.894639	8507.662959
594.246358	8560.310249
594.598022	8575.922703
594.949633	8472.085016
595.301190	8447.889998
595.652692	8472.211045
596.004141	8590.053057
596.355535	8363.317081
596.706876	8344.037188
597.058162	8278.655943
597.409395	8349.826953
597.760573	8413.463958
598.111698	8319.159093
598.462768	8308.698699
598.813785	8275.951364
599.164748	8247.118484
599.515657	8234.313954
599.866511	8144.911611
600.217312	8270.701002
600.568060	8125.654403
600.918753	8236.373265
601.269392	8202.103501
601.619978	8110.712423
601.970510	8181.792692
602.320988	8175.924789
602.671412	8235.644818
603.021783	8169.590579
603.372100	8134.753686
603.722363	8145.904718
604.072572	8114.299204
604.422728	8129.891493
604.772830	8057.936583
605.122878	8066.874549
605.472872	8060.043786
605.822813	8093.428827
606.172701	8033.181998
606.522534	8113.490099
606.872314	8106.485416
607.222041	8082.408865
607.571714	8137.158316
607.921333	8093.053261
608.270899	8101.318233
608.620411	8193.886420
608.969870	8093.010411
609.319276	8087.437416
609.668627	8102.132379
610.017926	8137.460785
610.367171	8185.187909
610.716362	8162.729569
611.065500	8153.521902
611.414585	8178.130294
611.763616	8164.889703
612.112594	8147.228021
612.461518	8159.863673
612.810389	8219.729896
613.159207	8161.933067
613.507971	8116.335830
613.856682	8228.415804
614.205340	8184.146911
614.553945	8263.993747
614.902496	8159.062130
615.250994	8218.527580
615.599439	8198.315074
615.947830	8210.885191
616.296169	8179.357815
616.644454	8198.042852
616.992686	8194.745937
617.340864	8248.935820
617.688990	8152.581726
618.037063	8247.587312
618.385082	8198.627626
618.733048	8280.493443
619.080961	8223.886327
619.428821	8238.372083
619.776628	8240.070951
620.124382	8191.741409
620.472083	8174.762803
620.819731	8207.426960
621.167326	8098.858150
621.514868	8105.071372
621.862357	7996.129517
622.209793	8015.850511
622.557176	7943.898122
622.904506	7918.704955
623.251783	7849.749533
623.599007	7808.480127
623.946179	7810.375600
624.293297	7767.470340
624.640363	7685.105448
624.987376	7664.635843
625.334336	7615.348482
625.681243	7558.096097
626.028097	7550.920015
626.374899	7524.509410
626.721647	7519.443050
627.068343	7452.746064
627.414987	7424.835716
627.761577	7376.894343
628.108115	7409.936586
628.454600	7304.155534
628.801032	7361.123093
629.147412	7319.097514
629.493739	7305.400699
629.840014	7242.333344
630.186236	7300.344422
630.532405	7183.596340
630.878521	7234.665749
631.224585	7191.263935
631.570597	7111.328879
631.916556	7145.787686
632.262462	7140.237376
632.608316	7104.135152
632.954117	7079.131029
633.299866	7067.478402
633.645562	7056.690333
633.991206	6983.623849
634.336797	6920.261586
634.682336	6882.049640
635.027823	6847.086718
635.373257	6843.683939
635.718639	6773.309431
636.063968	6782.988447
636.409245	6675.231263
636.754470	6676.930131
637.099642	6631.290045
637.444762	6578.867086
637.789829	6590.456699
638.134845	6527.759868
638.479808	6518.448857
638.824719	6518.463981
639.169577	6449.755574
639.514383	6467.903728
639.859137	6395.051493
640.203839	6404.286887
640.548489	6385.687550
640.893086	6371.630293
641.237632	6339.293811
641.582125	6357.068920
641.926566	6326.895093
642.270955	6341.947979
642.615292	6339.102247
642.959576	6353.953487
643.303809	6343.382187
643.647990	6353.613209
643.992118	6341.411096
644.336195	6291.816224
644.680219	6312.689122
645.024192	6301.601104
645.368112	6399.888481
645.711981	6415.574031
646.055797	6489.346276
646.399562	6447.292971
646.743274	6580.215595
647.086935	6632.688965
647.430544	6628.346011
647.774101	6647.872921
648.117606	6654.675958
648.461059	6645.072560
648.804460	6603.808195
649.147810	6514.113465
649.491108	6486.452654
649.834354	6459.500125
650.177548	6381.763012
650.520690	6290.586183
650.863781	6269.801506
651.206820	6290.833199
651.549807	6207.671805
651.892742	6151.835985
652.235626	6156.423435
652.578458	6145.000180
652.921238	6053.044493
653.263967	6086.628660
653.606644	6030.175299
653.949269	6031.213776
654.291843	5972.701104
654.634365	6023.152971
654.976836	5977.790148
655.319255	5972.501978
655.661622	5951.210665
656.003938	5945.229336
656.346203	5912.713893
656.688416	5942.925528
657.030577	5897.051028
657.372687	5863.345874
657.714746	5852.920768
658.056753	5898.979270
658.398708	5834.606256
658.740612	5827.016799
659.082465	5868.666812
659.424266	5866.731009
659.766016	5865.183374
660.107715	5841.931052
660.449362	5855.471592
660.790958	5853.389595
661.132503	5836.332851
661.473996	5875.573193
661.815438	5862.012489
662.156829	5861.571388
662.498168	5852.081416
662.839456	5828.942519
663.180693	5862.937540
663.521879	5863.955853
663.863013	5847.052865
664.204097	5872.392224
664.545129	5909.230456
664.886110	5908.186937
665.227040	5943.505261
665.567918	5907.216515
665.908746	5935.298263
666.249522	5939.762204
666.590248	5922.397950
666.930922	5950.913237
667.271545	5963.967305
667.612118	5969.651206
667.952639	5941.909736
668.293109	5963.914372
668.633528	5919.300161
668.973896	5920.499956
669.314213	5910.538636
669.654480	5896.665380
669.994695	5888.924688
670.334859	5882.819851
670.674973	5866.985587
671.015035	5872.372060
671.355047	5868.152614
671.695008	5859.058373
672.034918	5834.233210
672.374777	5843.241752
672.714585	5828.055276
673.054342	5829.542417
673.394049	5830.553168
673.733705	5860.338826
674.073310	5846.667216
674.412864	5801.700124
674.752368	5798.851872
675.091820	5806.136339
675.431223	5731.963322
675.770574	5734.617490
676.109875	5690.081416
676.449125	5692.329771
676.788324	5661.195605
677.127473	5608.293736
677.466571	5595.985759
677.805619	5588.504687
678.144616	5571.667233
678.483562	5552.198297
678.822458	5519.652607
679.161303	5511.803531
679.500098	5500.738198
679.838842	5487.505169
680.177535	5494.484647
680.516179	5503.783055
680.854771	5516.786712
681.193314	5598.302169
681.531805	5708.889961
681.870247	5855.217013
682.208638	5963.342202
682.546978	5975.975333
682.885268	5949.305109
683.223508	5867.126739
683.561697	5810.078522
683.899836	5783.055417
684.237925	5736.709569
684.575963	5701.610535
684.913951	5659.035470
685.251889	5724.091561
685.589776	5688.133010
685.927614	5662.491181
686.265401	5733.944496
686.603137	5715.947577
686.940824	5793.167971
687.278460	5816.286703
687.616046	5822.993958
687.953582	5892.050204
688.291068	5875.658892
688.628504	5935.333551
688.965889	5902.382049
689.303224	5843.536660
689.640510	5792.154699
689.977745	5720.973607
690.314930	5623.124811
690.652065	5570.197737
690.989150	5474.781297
691.326185	5399.819339
691.663170	5344.704404
692.000105	5270.438126
692.336990	5191.186146
692.673825	5165.801416
693.010610	5095.847845
693.347345	5023.613151
693.684030	5016.172408
694.020665	4968.770439
694.357251	4882.135689
694.693786	4895.726640
695.030272	4858.495198
695.366707	4819.937933
695.703093	4788.579436
696.039429	4813.669258
696.375716	4791.619251
696.711952	4767.746867
697.048139	4756.958798
697.384276	4730.807812
697.720363	4745.044031
698.056400	4754.765896
698.392388	4700.192885
698.728326	4683.637736
699.064214	4662.706865
699.400053	4656.342408
699.735842	4623.549703
700.071581	4602.560859
700.407270	4575.129420
700.742910	4556.537645
701.078501	4500.956403
701.414042	4497.450280
701.749533	4470.704439
702.084974	4403.188265
702.420366	4463.785455
702.755709	4402.404366
703.091002	4347.049976
703.426246	4400.332452
703.761440	4352.529710
704.096584	4315.825069
704.431679	4334.421886
704.766725	4322.043332
705.101721	4308.399449
705.436668	4337.514633
705.771565	4284.834576
706.106413	4314.133762
706.441212	4344.352959
706.775961	4353.709340
707.110661	4335.399869
707.445311	4362.876678
707.779913	4382.476685
708.114465	4394.610742
708.448967	4418.692334
708.783421	4480.048217
709.117825	4523.364332
709.452180	4528.725599
709.786485	4573.541457
710.120742	4657.927851
710.454949	4641.591992
710.789107	4707.631108
711.123216	4780.604330
711.457275	4771.225263
711.791286	4846.976162
712.125247	4863.082648
712.459159	4767.978760
712.793023	4841.027600
713.126837	4802.757681
713.460602	4797.023368
713.794318	4712.019432
714.127985	4725.217173
714.461602	4636.039161
714.795171	4607.733082
715.128691	4543.775964
715.462162	4489.402078
715.795584	4441.322073
716.128957	4417.895832
716.462281	4365.944221
716.795556	4338.316177
717.128782	4306.319973
717.461960	4233.223243
717.795088	4244.354110
718.128167	4203.596382
718.461198	4145.668483
718.794180	4140.405518
719.127113	4120.490440
719.459997	4093.704269
719.792833	4058.199422
720.125619	4044.537895
720.458357	4009.882483
720.791046	4010.971372
721.123686	3987.466993
721.456278	3944.987710
721.788821	3961.308445
722.121315	3936.087553
722.453761	3910.584355
722.786158	3923.746808
723.118506	3945.627936
723.450805	3893.199936
723.783056	3918.942588
724.115259	3933.874486
724.447412	3941.037966
724.779518	3934.038324
725.111574	3935.119651
725.443582	3966.707521
725.775542	3950.948874
726.107453	4002.257738
726.439315	4005.274869
726.771129	4014.437166
727.102895	4055.013413
727.434612	4101.520578
727.766281	4114.940129
728.097901	4113.251343
728.429473	4119.247795
728.760996	4124.808188
729.092471	4118.549596
729.423897	4103.307667
729.755276	4110.236733
730.086606	4110.743369
730.417887	4148.312568
730.749120	4211.720201
731.080305	4277.736631
731.411442	4305.178152
731.742530	4275.243781
732.073570	4278.439872
732.404562	4326.393848
732.735506	4319.396727
733.066401	4289.404382
733.397249	4221.668918
733.728048	4143.654542
734.058798	4058.698497
734.389501	3990.340450
734.720156	3926.267385
735.050762	3881.696023
735.381320	3876.634705
735.711831	3825.154442
736.042293	3797.377684
736.372707	3821.391220
736.703073	3791.350985
737.033391	3783.040642
737.363661	3801.370278
737.693883	3823.647137
738.024056	3833.474866
738.354182	3830.470338
738.684260	3890.460069
739.014290	3914.350097
739.344272	3906.942122
739.674207	3951.717650
740.004093	3955.367446
740.333931	3950.016261
740.663722	3949.784368
740.993464	3942.487298
741.323159	3924.182868
741.652806	3891.281777
741.982405	3867.303529
742.311956	3835.095597
742.641460	3826.565965
742.970915	3803.704332
743.300323	3758.669184
743.629683	3726.882189
743.958996	3717.167885
744.288260	3692.125953
744.617477	3659.693690
744.946647	3645.281031
745.275768	3620.231538
745.604842	3615.034108
745.933869	3568.055596
746.262847	3557.038154
746.591778	3601.201182
746.920662	3570.303950
747.249498	3537.329763
747.578286	3583.093358
747.907027	3596.795214
748.235720	3597.962241
748.564365	3623.286477
748.892963	3623.067187
749.221514	3605.770988
749.550017	3583.720981
749.878473	3583.834407
750.206881	3552.455745
750.535242	3549.090775
750.863555	3547.807801
751.191821	3544.299158
751.520039	3527.612939
751.848210	3504.221985
752.176334	3536.026625
752.504411	3543.429559
752.832440	3503.637211
753.160421	3484.465703
753.488356	3495.639421
753.816243	3506.908920
754.144082	3463.338227
754.471875	3448.756690
754.799620	3468.112200
755.127318	3459.733802
755.454969	3460.704224
755.782572	3466.549442
756.110129	3445.187553
756.437638	3434.956531
756.765100	3445.721915
757.092515	3455.088379
757.419882	3462.945017
757.747203	3434.752364
758.074477	3435.891665
758.401703	3453.104685
758.728882	3475.686534
759.056014	3479.989158
759.383099	3484.037205
759.710138	3480.384889
760.037129	3498.762415
760.364073	3527.542363
760.690970	3515.483923
761.017820	3492.662619
761.344623	3511.314888
761.671379	3552.178482
761.998088	3603.759568
762.324751	3734.577510
762.651366	3975.912668
762.977935	4446.917754
763.304456	4890.118356
763.630931	4988.622503
763.957359	4629.410044
764.283740	4286.624185
764.610074	4091.702931
764.936362	3896.892582
765.262602	3738.650762
765.588796	3625.784369
765.914943	3540.971997
766.241044	3452.890436
766.567097	3422.267947
766.893104	3375.430587
767.219064	3347.179960
767.544978	3318.576453
767.870845	3262.975047
768.196665	3243.382603
768.522438	3252.935589
768.848165	3248.176740
769.173846	3209.798436
769.499479	3194.962320
769.825066	3178.790298
770.150607	3161.070643
770.476101	3175.742921
770.801548	3174.159999
771.126949	3128.552680
771.452303	3111.190946
771.777611	3115.828807
772.102872	3119.130763
772.428087	3098.514965
772.753256	3086.138932
773.078378	3078.017633
773.403453	3044.284752
773.728482	3033.680685
774.053465	3055.367729
774.378401	3045.141748
774.703291	3011.071110
775.028135	3013.074969
775.352932	3006.811335
775.677683	2995.347751
776.002388	2992.350785
776.327046	2995.166270
776.651658	2986.757625
776.976224	2972.022332
777.300743	2971.145172
777.625216	2963.177628
777.949643	2957.455918
778.274024	2958.600260
778.598359	2947.038374
778.922647	2955.048767
779.246889	2953.163376
779.571086	2938.964966
779.895236	2933.187804
780.219339	2941.646860
780.543397	2953.992646
780.867409	2958.748974
781.191374	2948.913683
781.515294	2945.168106
781.839167	2949.306893
782.162995	2938.254163
782.486776	2948.689352
782.810511	2947.295473
783.134201	2927.801331
783.457844	2936.290634
783.781441	2929.989192
784.104993	2908.682755
784.428498	2908.786098
784.751958	2924.627924
785.075372	2919.596853
785.398739	2902.784605
785.722061	2918.850762
786.045337	2932.517330
786.368568	2915.619383
786.691752	2906.268042
787.014891	2955.414251
787.337983	2983.952223
787.661030	3013.223683
787.984031	3081.861513
788.306987	3123.718213
788.629897	3119.221504
788.952760	3103.102415
789.275579	3086.847214
789.598351	3028.601723
789.921078	2981.484578
790.243759	2974.605924
790.566395	2956.215794
790.888984	2932.661003
791.211529	2916.708272
791.534027	2907.218300
791.856480	2897.365364
792.178888	2883.726523
792.501249	2873.878629
792.823566	2870.463247
793.145836	2871.844523
793.468062	2862.357072
793.790241	2861.358923
794.112375	2866.309336
794.434464	2880.359032
794.756507	2886.849517
795.078505	2892.558624
795.400457	2907.036818
795.722364	2942.186263
796.044226	2964.982361
796.366042	2968.443113
796.687812	2957.665126
797.009538	2974.689103
797.331218	2961.425827
797.652852	2950.103395
797.974442	2931.340221
798.295986	2924.968202
798.617484	2923.786052
798.938938	2908.985224
799.260346	2890.322873
799.581709	2885.846328
799.903026	2881.803322
800.224299	2875.504401
800.545526	2864.794469
800.866708	2854.901205
801.187845	2839.571056
801.508936	2840.201200
801.829983	2847.659587
802.150984	2834.086281
802.471940	2823.812409
802.792851	2822.647903
803.113717	2820.840649
803.434538	2828.228460
803.755314	2818.930052
804.076045	2815.310503
804.396731	2813.573826
804.717372	2817.480720
805.037967	2810.836479
805.358518	2815.665905
805.679024	2829.960096
805.999485	2823.643531
806.319901	2826.234684
806.640272	2819.487099
806.960598	2825.914570
807.280879	2835.838082
807.601115	2841.879905
807.921306	2830.045796
808.241453	2822.451298
808.561554	2828.891372
808.881611	2831.905982
809.201623	2824.694611
809.521590	2825.546566
809.841513	2821.294353
810.161390	2824.530774
810.481223	2818.993066
810.801011	2809.775316
811.120755	2807.766417
811.440453	2809.561067
811.760107	2811.459062
812.079716	2807.002682
812.399281	2799.317443
812.718801	2789.958541
813.038276	2787.740433
813.357707	2792.121196
813.677093	2802.193421
813.996434	2794.394756
814.315731	2789.517440
814.634983	2783.745318
814.954191	2786.202881
815.273354	2800.852474
815.592473	2807.355562
815.911547	2809.475368
816.230577	2815.963333
816.549562	2828.074705
816.868502	2824.860969
817.187399	2835.258349
817.506250	2851.337109
817.825058	2843.034329
818.143821	2854.898684
818.462539	2873.150182
818.781213	2899.066754
819.099843	2934.120417
819.418429	2991.425733
819.736970	3053.391597
820.055466	3125.827936
820.373919	3230.656210
820.692327	3368.095708
821.010691	3535.094011
821.329011	3976.142041
821.647286	4868.950551
821.965517	6250.052785
822.283704	7003.304514
822.601847	6992.415621
822.919945	6344.667681
823.237999	5831.069886
823.556010	5255.070168
823.873976	4703.895613
824.191897	4296.356133
824.509775	3998.625587
824.827609	3732.258579
825.145398	3608.669652
825.463144	3594.776232
825.780845	3684.670087
826.098502	3787.857465
826.416116	4069.456319
826.733685	4390.613107
827.051210	4452.279021
827.368692	4336.201413
827.686129	4074.089139
828.003522	3747.603852
828.320872	3493.202023
828.638177	3296.513844
828.955439	3162.073832
829.272656	3076.197777
829.589830	3010.682941
829.906960	2964.453040
830.224046	2918.661719
830.541088	2885.256513
830.858086	2869.669265
831.175041	2853.162007
831.491952	2851.984897
831.808819	2864.726414
832.125642	2888.865979
832.442421	2933.379368
832.759157	3014.085720
833.075849	3190.042154
833.392497	3472.931543
833.709101	3670.721214
834.025662	3624.299749
834.342179	3467.020790
834.658653	3291.530663
834.975083	3141.805873
835.291469	3046.422201
835.607811	2960.001701
835.924110	2902.661097
836.240366	2851.437932
836.556578	2808.298258
836.872746	2786.727161
837.188871	2764.125148
837.504952	2749.563775
837.820990	2743.320306
838.136984	2728.055692
838.452935	2720.226780
838.768842	2715.868702
839.084706	2734.546177
839.400526	2814.783703
839.716303	2945.203394
840.032037	3026.020652
840.347727	3012.192767
840.663373	2950.330247
840.978977	2874.770913
841.294537	2804.436734
841.610054	2758.070722
841.925527	2733.535426
842.240957	2713.476675
842.556344	2692.618901
842.871687	2674.203566
843.186987	2667.881959
843.502244	2663.367606
843.817458	2657.169507
844.132629	2644.518732
844.447756	2636.231075
844.762840	2634.181846
845.077881	2634.471712
845.392879	2631.676392
845.707833	2628.172790
846.022745	2623.504682
846.337613	2624.258334
846.652438	2625.067439
846.967221	2622.186420
847.281960	2621.513426
847.596656	2616.459669
847.911309	2618.748353
848.225919	2614.745677
848.540485	2614.533948
848.855009	2616.205091
849.169490	2611.047991
849.483928	2613.422374
849.798323	2610.574122
850.112675	2607.952722
850.426984	2609.207969
850.741251	2608.277877
851.055474	2607.499018
851.369654	2615.990842
851.683792	2612.300717
851.997887	2609.931375
852.311938	2608.507249
852.625947	2609.477671
852.939914	2613.079576
853.253837	2613.699638
853.567718	2608.751745
853.881555	2609.575974
854.195350	2612.419184
854.509103	2610.311982
854.822812	2608.030860
855.136479	2610.085130
855.450103	2608.308123
855.763685	2614.072683
856.077224	2610.347270
856.390720	2604.549943
856.704173	2610.546396
857.017584	2614.488578
857.330953	2614.851541
857.644278	2617.157869
857.957561	2617.629217
858.270802	2613.684514
858.584000	2612.431787
858.897155	2616.426902
859.210268	2617.626696
859.523339	2612.270470
859.836367	2606.742845
860.149352	2609.281066
860.462295	2609.825511
860.775195	2606.095057
861.088054	2607.330140
861.400869	2606.747886
861.713642	2601.827720
862.026373	2606.871395
862.339062	2607.740994
862.651708	2612.555296
862.964312	2613.979422
863.276873	2608.174533
863.589392	2613.926489
863.901869	2619.023096
864.214303	2627.426699
864.526696	2624.921246
864.839045	2629.405352
865.151353	2628.777729
865.463619	2629.775877
865.775842	2629.554066
866.088023	2629.526340
866.400162	2629.995167
866.712258	2628.850825
867.024313	2627.759416
867.336325	2625.332100
867.648296	2625.647172
867.960224	2632.172946
868.272110	2629.498614
868.583954	2625.581637
868.895755	2624.434775
869.207515	2630.514406
869.519233	2634.033132
869.830909	2633.715539
870.142542	2628.145064
870.454134	2628.109776
870.765684	2636.757875
871.077191	2638.348359
871.388657	2643.097126
871.700081	2639.802732
872.011463	2636.987248
872.322803	2641.720891
872.634101	2642.121663
872.945357	2652.506440
873.256571	2655.667243
873.567744	2654.563231
873.878874	2652.854279
874.189963	2652.075421
874.501010	2657.713952
874.812015	2663.596978
875.122979	2662.860970
875.433900	2653.416368
875.744780	2653.310504
876.055618	2659.624549
876.366415	2662.553459
876.677169	2661.719148
876.987882	2657.837460
877.298554	2656.723365
877.609183	2667.070333
877.919771	2672.577794
878.230317	2680.941068
878.540822	2691.189734
878.851285	2702.330684
879.161707	2727.249107
879.472087	2764.241094
879.782425	2811.222127
880.092722	2921.043664
880.402977	3112.090792
880.713191	3372.360524
881.023363	3672.397398
881.333494	3863.041233
881.643583	4035.398283
881.953631	4034.619425
882.263637	3856.283567
882.573602	3635.743168
882.883526	3502.351717
883.193408	3387.592370
883.503248	3282.683438
883.813048	3171.810821
884.122806	3055.597101
884.432522	2973.461582
884.742197	2907.520769
885.051831	2871.239585
885.361424	2834.703822
885.670975	2800.562608
885.980485	2764.548605
886.289954	2748.744587
886.599382	2735.766137
886.908768	2726.515619
887.218113	2710.023485
887.527417	2695.381453
887.836680	2686.521625
888.145901	2680.608352
888.455082	2673.601148
888.764221	2661.739313
889.073319	2655.687408
889.382376	2652.007366
889.691392	2654.553148
890.000366	2654.394352
890.309300	2651.674649
890.618193	2655.873931
890.927044	2656.471307
891.235855	2655.324445
891.544625	2656.282264
891.853353	2657.361071
892.162041	2664.854746
892.470687	2681.606500
892.779293	2696.109900
893.087858	2705.367979
893.396381	2727.831361
893.704864	2769.052876
894.013306	2839.102229
894.321707	2932.303081
894.630068	2983.523725
894.938387	3004.058865
895.246665	2996.645848
895.554903	2951.691359
895.863100	2906.555388
896.171256	2849.827284
896.479371	2791.985084
896.787446	2749.704927
897.095480	2731.866804
897.403473	2724.017728
897.711425	2708.818649
898.019336	2689.742923
898.327207	2679.660615
898.635038	2678.125584
898.942827	2675.957887
899.250576	2665.079077
899.558284	2655.344609
899.865952	2649.834628
900.173579	2649.522077
900.481165	2643.765079
900.788711	2636.964562
901.096216	2630.854684
901.403681	2627.429220
901.711105	2629.123048
902.018489	2629.594396
902.325832	2630.940384
902.633135	2631.767133
902.940397	2646.656181
903.247619	2682.113136
903.554800	2754.315062
903.861941	2881.490771
904.169041	3010.317458
904.476101	3072.006057
904.783121	3065.238308
905.090100	3005.026767
905.397039	2928.756629
905.703938	2854.777697
906.010796	2791.677574
906.317614	2743.032960
906.624391	2706.923175
906.931129	2679.947961
907.237826	2655.745381
907.544483	2637.083030
907.851099	2623.361009
908.157675	2613.422374
908.464211	2607.161261
908.770707	2596.995774
909.077163	2593.303129
909.383578	2590.233066
909.689954	2590.051585
909.996289	2587.392376
910.302584	2586.714341
910.608839	2582.343661
910.915054	2586.066553
911.221229	2585.796851
911.527363	2588.791296
911.833458	2586.890781
912.139513	2589.242480
912.445527	2591.105186
912.751502	2595.475866
913.057436	2598.298913
913.363331	2608.587907
913.669186	2618.332458
913.975000	2630.877369
914.280775	2647.891263
914.586510	2665.016063
914.892205	2703.845551
915.197859	2768.095056
915.503475	2850.515401
915.809050	2920.355547
916.114585	2938.120573
916.420081	2952.318983
916.725536	2960.984726
917.030952	2930.200920
917.336328	2887.643499
917.641665	2837.902434
917.946961	2788.650361
918.252218	2752.782552
918.557435	2726.742471
918.862612	2701.526620
919.167750	2687.096317
919.472848	2669.946312
919.777906	2654.487613
920.082925	2639.850623
920.387904	2630.060702
920.692843	2627.477111
920.997743	2622.824126
921.302603	2615.015379
921.607423	2607.897269
921.912204	2601.530292
922.216946	2600.136413
922.521647	2597.966196
922.826310	2591.856318
923.130932	2589.260124
923.435516	2585.297777
923.740059	2584.246696
924.044564	2579.429874
924.349028	2578.940882
924.653454	2571.784964
924.957840	2568.286403
925.262186	2566.423697
925.566493	2567.991496
925.870761	2564.737431
926.174989	2564.296330
926.479178	2563.376319
926.783328	2561.485887
927.087438	2555.512119
927.391509	2558.375495
927.695541	2557.057233
927.999533	2557.954558
928.303486	2555.088662
928.607400	2556.006152
928.911275	2555.680998
929.215110	2555.305432
929.518906	2555.381049
929.822663	2554.360216
930.126381	2552.769732
930.430060	2552.565565
930.733699	2555.865000
931.037299	2555.985988
931.340861	2554.786193
931.644383	2555.686039
931.947866	2555.698642
932.251309	2556.759805
932.554714	2555.335679
932.858080	2556.227963
933.161407	2553.079762
933.464694	2556.273333
933.767943	2554.571944
934.071153	2551.917777
934.374323	2548.865358
934.677455	2552.000956
934.980548	2550.783517
935.283602	2550.579350
935.586617	2552.628579
935.889593	2550.854093
936.192530	2551.358208
936.495428	2548.520039
936.798287	2550.768393
937.101108	2554.450956
937.403890	2555.499516
937.706632	2560.709549
938.009336	2562.284909
938.312002	2567.220199
938.614628	2571.633729
938.917216	2574.676066
939.219765	2576.773186
939.522275	2575.565829
939.824747	2576.231262
940.127179	2570.852350
940.429573	2565.959911
940.731929	2566.902606
941.034246	2563.938408
941.336524	2566.663152
941.638763	2565.150805
941.940964	2565.448233
942.243126	2563.998902
942.545250	2560.089487
942.847335	2561.357337
943.149381	2556.520350
943.451389	2556.716955
943.753359	2553.846018
944.055290	2555.514640
944.357182	2554.947510
944.659036	2554.045143
944.960851	2555.244938
945.262628	2552.114382
945.564367	2555.890206
945.866067	2554.050185
946.167729	2555.572613
946.469352	2552.142108
946.770937	2554.249310
947.072484	2553.961964
947.373992	2552.379042
947.675462	2553.200750
947.976893	2551.794268
948.278286	2552.046326
948.579641	2551.784186
948.880958	2554.037582
949.182236	2551.146480
949.483476	2553.331820
949.784678	2550.599515
950.085841	2550.496171
950.386967	2553.712427
950.688054	2550.150852
950.989103	2554.277037
951.290114	2552.202602
951.591087	2552.610935
951.892021	2557.427758
952.192917	2555.970864
952.493776	2559.913047
952.794596	2559.202244
953.095378	2560.253324
953.396122	2560.424724
953.696828	2556.790052
953.997496	2555.381049
954.298126	2556.595967
954.598718	2555.764177
954.899272	2554.468600
955.199788	2553.299053
955.500266	2552.789896
955.800706	2547.912580
956.101108	2544.683721
956.401472	2542.480737
956.701798	2542.803370
957.002087	2542.836138
957.302337	2541.033925
957.602550	2543.851930
957.902724	2542.871426
958.202861	2543.604914
958.502960	2539.864378
958.803022	2541.238092
959.103045	2541.923689
959.403031	2542.107691
959.702979	2539.483771
960.002889	2539.887063
960.302762	2536.096115
960.602596	2538.858668
960.902393	2538.586445
961.202153	2537.300951
961.501875	2539.168698
961.801559	2536.668286
962.101205	2537.540406
962.400814	2538.924203
962.700385	2536.930426
962.999918	2535.796167
963.299414	2534.891279
963.598873	2537.139634
963.898293	2535.609644
964.197677	2535.982689
964.497022	2536.436393
964.796331	2538.135262
965.095601	2537.434542
965.394835	2537.500077
965.694030	2533.404139
965.993189	2537.459747
966.292309	2533.552853
966.591393	2533.996475
966.890439	2534.372041
967.189447	2536.648122
967.488419	2534.082174
967.787353	2534.989582
968.086249	2534.775333
968.385108	2535.954963
968.683930	2533.651156
968.982714	2535.944881
969.281462	2536.275076
969.580172	2537.621064
969.878844	2537.711805
970.177480	2537.487474
970.476078	2538.074768
970.774639	2535.697864
971.073162	2537.265663
971.371649	2534.626619
971.670098	2535.776002
971.968510	2536.542257
972.266885	2532.894982
972.565223	2535.019829
972.863524	2536.486805
973.161788	2537.235416
973.460014	2536.070909
973.758204	2537.953780
974.056356	2535.433203
974.354471	2537.255581
974.652550	2535.723070
974.950591	2537.895807
975.248595	2537.643749
975.546563	2539.254398
975.844493	2538.384799
976.142386	2535.118131
976.440243	2535.103008
976.738062	2535.239119
977.035845	2536.713657
977.333590	2539.403112
977.631299	2534.293903
977.928971	2535.811290
978.226606	2533.933460
978.524204	2536.847247
978.821765	2537.316074
979.119290	2536.461599
979.416777	2535.528985
979.714228	2534.097298
980.011642	2534.513193
980.309020	2534.787936
980.606360	2534.341794
980.903664	2535.029911
981.200931	2537.673996
981.498162	2534.689633
981.795356	2541.679193
982.092513	2542.029553
982.389633	2545.505429
982.686717	2548.641027
982.983764	2549.883671
983.280775	2553.097407
983.577749	2550.700338
983.874686	2548.731767
984.171587	2545.613814
984.468451	2545.767569
984.765279	2543.867054
985.062070	2540.557536
985.358824	2537.074099
985.655543	2538.490663
985.952224	2535.284489
986.248869	2534.276259
986.545478	2530.107224
986.842050	2532.710980
987.138586	2531.322143
987.435086	2533.535209
987.731549	2530.182842
988.027975	2531.879190
988.324366	2532.957997
988.620719	2532.539581
988.917037	2531.594365
989.213318	2533.593182
989.509563	2529.771988
989.805772	2531.874149
990.101944	2531.216278
990.398080	2531.281813
990.694180	2532.980682
990.990244	2534.175436
991.286271	2533.517565
991.582262	2534.248532
991.878217	2533.111752
992.174136	2529.310722
992.470019	2530.714683
992.765865	2533.048738
993.061676	2533.744417
993.357450	2529.890455
993.653188	2533.688964
993.948890	2532.181659
994.244556	2534.261135
994.540186	2534.099818
994.835780	2532.632842
995.131337	2533.404139
995.426859	2534.210724
995.722345	2533.991433
996.017795	2536.365817
996.313208	2535.924716
996.608586	2536.801877
996.903928	2533.656197
997.199234	2535.450848
997.494504	2535.886907
997.789738	2535.672658
998.084936	2532.597554
998.380099	2533.341125
998.675225	2532.602596
998.970316	2534.172915
999.265371	2531.347348
999.560390	2532.834489
999.855373	2533.469674
1000.150320	2532.610157
1000.445232	2531.249046
1000.740108	2529.610671
1001.034948	2531.730476
1001.329752	2533.167205
1001.624521	2530.185362
1001.919254	2526.843077
1002.213951	2525.786956
1002.508613	2524.375432
1002.803239	2529.227543
1003.097829	2526.099507
1003.392384	2531.503624
1003.686903	2530.296268
1003.981386	2533.283151
1004.275834	2528.824251
1004.570246	2529.247708
1004.864623	2528.194107
1005.158964	2532.287523
1005.453270	2531.538912
1005.747540	2531.508665
1006.041775	2529.484642
1006.335974	2529.058664
1006.630138	2529.744261
1006.924266	2532.532019
1007.218359	2528.857018
1007.512416	2529.855167
1007.806438	2530.898686
1008.100425	2529.338448
1008.394376	2530.702081
1008.688292	2529.862728
1008.982172	2527.974816
1009.276017	2530.422297
1009.569827	2527.029600
1009.863602	2531.773326
1010.157341	2527.805938
1010.451045	2529.010773
1010.744714	2528.584796
1011.038347	2527.251411
1011.331945	2527.838705
1011.625508	2530.664272
1011.919036	2528.978006
1012.212528	2528.978006
1012.505986	2529.802235
1012.799408	2529.207378
1013.092795	2527.584127
1013.386147	2530.606299
1013.679464	2531.843902
1013.972745	2531.541433
1014.265992	2529.807276
1014.559204	2528.751154
1014.852380	2530.628984
1015.145521	2528.483973
1015.438628	2530.359282
1015.731699	2528.448685
1016.024736	2531.238963
1016.317737	2529.920702
1016.610703	2529.605630
1016.903635	2529.277955
1017.196531	2524.632531
1017.489393	2525.507172
1017.782219	2522.858045
1018.075011	2527.480783
1018.367768	2527.959693
1018.660490	2529.262831
1018.953177	2529.262831
1019.245829	2529.262831
