Dividing Wavelength (nm)	Counts (n)	Blue Motor Position (mm): 0.000000	Red Motor Position (mm): 19.400000	
326.493990	2127.865997
326.888308	2127.865997
327.282561	2127.865997
327.676750	2095.927767
328.070874	2094.864084
328.464933	2096.459609
328.858929	2101.916658
329.252859	2112.697165
329.646726	2125.761316
330.040528	2136.710702
330.434265	2154.203506
330.827938	2169.657163
331.221547	2189.327745
331.615091	2209.101671
332.008571	2225.240925
332.401986	2247.162383
332.795338	2266.318767
333.188625	2285.364246
333.581847	2303.943419
333.975006	2323.568631
334.368100	2339.869202
334.761129	2358.264372
335.154095	2374.718698
335.546996	2392.876934
335.939833	2407.143400
336.332606	2423.582603
336.725315	2435.394026
337.117960	2444.596652
337.510540	2452.869186
337.903056	2464.970476
338.295508	2472.633029
338.687896	2479.965388
339.080220	2487.988384
339.472480	2496.245794
339.864676	2502.925323
340.256807	2506.537310
340.648875	2505.559326
341.040879	2506.887670
341.432818	2512.581653
341.824694	2512.024606
342.216506	2512.695079
342.608253	2513.612569
342.999937	2514.209946
343.391557	2513.244565
343.783113	2509.937568
344.174605	2512.006962
344.566033	2507.086795
344.957397	2508.079903
345.348697	2508.962105
345.739934	2509.009996
346.131106	2500.631598
346.522215	2500.820641
346.913260	2497.763181
347.304241	2498.819303
347.695159	2495.779487
348.086012	2493.742861
348.476802	2492.994250
348.867528	2495.010711
349.258191	2488.880668
349.648789	2487.617859
350.039324	2487.093579
350.429796	2484.741881
350.820203	2484.159628
351.210548	2485.921511
351.600828	2481.994452
351.991045	2482.899339
352.381198	2481.240800
352.771288	2483.786582
353.161314	2482.473362
353.551276	2483.834473
353.941175	2479.642754
354.331010	2479.005048
354.720782	2479.912456
355.110490	2482.526294
355.500135	2482.218783
355.889717	2481.707106
356.279235	2482.899339
356.668689	2483.234576
357.058080	2483.436222
357.447408	2479.801550
357.836672	2482.196098
358.225873	2480.502271
358.615010	2479.821715
359.004084	2486.332365
359.393095	2481.805409
359.782043	2486.612149
360.170927	2485.394710
360.559748	2489.135247
360.948505	2490.720689
361.337199	2488.305977
361.725830	2490.080463
362.114398	2490.065339
362.502903	2489.538539
362.891344	2489.301605
363.279722	2489.362098
363.668037	2492.578355
364.056289	2492.414517
364.444478	2493.722697
364.832603	2495.350989
365.220665	2494.239415
365.608665	2495.194713
365.996601	2496.689416
366.384474	2497.256545
366.772284	2498.683192
367.160031	2499.267966
367.547715	2501.740652
367.935336	2503.716784
368.322893	2509.677948
368.710388	2509.526714
369.097820	2518.691532
369.485189	2519.538445
369.872495	2524.718231
370.259738	2533.923378
370.646918	2537.978986
371.034035	2549.747560
371.421090	2556.391801
371.808081	2568.419994
372.195010	2576.019533
372.581875	2587.450349
372.968678	2604.991044
373.355418	2611.978083
373.742096	2631.356279
374.128710	2643.565953
374.515262	2661.635969
374.901751	2675.862106
375.288177	2691.986236
375.674540	2711.649257
376.060841	2731.259345
376.447079	2749.387334
376.833254	2769.463730
377.219367	2780.672735
377.605417	2822.040444
377.991404	2829.201403
378.377329	2851.546317
378.763191	2867.839326
379.148991	2907.435069
379.534727	2931.304933
379.920402	2960.215950
380.306013	2971.853454
380.691563	3023.283305
381.077049	3041.837272
381.462474	3060.698749
381.847835	3096.412803
382.233134	3120.995990
382.618371	3118.790485
383.003545	3189.616176
383.388657	3198.463401
383.773706	3228.576734
384.158693	3243.014598
384.543618	3269.077364
384.928480	3303.435348
385.313280	3352.939479
385.698017	3349.085517
386.082692	3406.756317
386.467305	3407.683889
386.851856	3441.903241
387.236344	3464.432158
387.620770	3496.287209
388.005133	3521.626569
388.389435	3551.848286
388.773674	3556.082855
389.157851	3606.297789
389.541965	3616.543934
389.926018	3582.712750
390.310008	3655.706137
390.693936	3671.631142
391.077802	3712.797205
391.461606	3700.360678
391.845348	3761.340996
392.229027	3763.493568
392.612645	3774.410187
392.996200	3855.829863
393.379694	3892.262282
393.763125	3957.464566
394.146494	3921.992487
394.529801	3988.054287
394.913047	4032.189589
395.296230	4001.405783
395.679351	4053.944688
396.062410	4079.619285
396.445408	4060.828384
396.828343	4091.972632
397.211217	4117.879122
397.594028	4033.870814
397.976778	4101.097121
398.359466	4127.764825
398.742092	4155.942354
399.124656	4077.343204
399.507158	4161.081811
399.889598	4183.492260
400.271977	4248.031632
400.654294	4216.136252
401.036549	4223.317375
401.418742	4193.269578
401.800874	4294.213643
402.182944	4313.806087
402.564952	4380.901324
402.946898	4371.844891
403.328783	4364.353737
403.710606	4275.427783
404.092367	4469.786949
404.474067	4432.779838
404.855705	4443.310809
405.237282	4370.808934
405.618797	4480.101149
406.000250	4511.406715
406.381642	4591.563582
406.762972	4551.980442
407.144240	4557.394641
407.525447	4557.011513
407.906593	4613.129638
408.287677	4653.776461
408.668700	4577.438268
409.049661	4628.525322
409.430560	4661.116381
409.811399	4583.517900
410.192176	4737.520109
410.572891	4667.785828
410.953545	4760.089355
411.334138	4636.618894
411.714669	4689.452707
412.095139	4578.348197
412.475547	4705.909554
412.855894	4676.196993
413.236180	4671.014687
413.616405	4610.205768
413.996568	4676.204555
414.376670	4609.782312
414.756711	4549.104463
415.136691	4565.105086
415.516609	4614.483188
415.896466	4630.093120
416.276262	4640.916478
416.655997	4598.278398
417.035670	4731.919387
417.415283	4784.165905
417.794834	4711.684195
418.174324	4644.909072
418.553753	4542.634142
418.933121	4664.176362
419.312428	4685.777706
419.691674	4601.754274
420.070859	4667.387577
420.449983	4563.491916
420.829045	4614.198362
421.208047	4507.787166
421.586988	4520.125390
421.965867	4490.727902
422.344686	4533.703738
422.723444	4395.697111
423.102141	4233.417327
423.480777	4386.360894
423.859352	4192.745298
424.237866	4306.604799
424.616319	4258.270216
424.994712	4276.393164
425.373044	4155.418074
425.751314	4185.034853
426.129524	4028.254968
426.507673	4080.214141
426.885762	4078.626178
427.263789	3988.046725
427.641756	3892.335378
428.019662	3892.726068
428.397508	3846.748224
428.775292	3769.938684
429.153016	3763.123044
429.530679	3687.994728
429.908282	3670.945546
430.285824	3583.733584
430.663305	3623.541055
431.040726	3491.414934
431.418086	3451.783903
431.795385	3436.126079
432.172624	3398.544277
432.549802	3353.405785
432.926920	3311.801143
433.303977	3276.301337
433.680974	3246.571132
434.057910	3213.959908
434.434786	3173.918023
434.811601	3132.154584
435.188355	3139.640698
435.565050	3084.863520
435.941683	3050.830690
436.318257	3044.259546
436.694770	3009.856192
437.071222	2984.637820
437.447614	2942.561829
437.823946	2907.543454
438.200218	2898.224881
438.576429	2859.503778
438.952580	2842.154647
439.328670	2824.866010
439.704700	2797.379119
440.080670	2775.240892
440.456580	2771.144954
440.832429	2744.026067
441.208218	2717.993549
441.583947	2714.802498
441.959616	2699.550487
442.335224	2683.640606
442.710773	2673.452434
443.086261	2662.039262
443.461689	2643.124852
443.837057	2638.633184
444.212365	2633.826444
444.587612	2621.654578
444.962800	2615.421192
445.337927	2608.824842
445.712995	2592.778849
446.088002	2601.903338
446.462949	2592.249528
446.837837	2587.765422
447.212664	2582.663774
447.587431	2582.850297
447.962139	2583.533373
448.336786	2589.759198
448.711374	2586.064032
449.085901	2572.684810
449.460369	2568.719942
449.834776	2564.906309
450.209124	2568.974521
450.583412	2566.751372
450.957640	2567.658779
451.331808	2565.276834
451.705917	2558.516647
452.079965	2557.710062
452.453954	2557.939435
452.827883	2557.851215
453.201752	2554.824002
453.575562	2555.408776
453.949311	2552.280740
454.323001	2552.368960
454.696632	2553.314176
455.070202	2553.846018
455.443713	2556.225443
455.817164	2550.680173
456.190556	2551.476676
456.563888	2551.481717
456.937160	2549.626572
457.310373	2553.798127
457.683526	2549.389638
458.056619	2551.867365
458.429653	2548.550286
458.802628	2550.982642
459.175542	2551.585060
459.548398	2555.156718
459.921194	2552.137067
460.293930	2552.994063
460.666607	2555.575134
461.039224	2557.105124
461.411782	2558.574620
461.784280	2555.854918
462.156719	2554.801317
462.529099	2558.264589
462.901419	2555.232335
463.273680	2553.629248
463.645882	2555.744012
464.018024	2552.878116
464.390106	2555.123950
464.762130	2557.513457
465.134094	2559.867676
465.505999	2565.501166
465.877845	2569.324881
466.249631	2571.510221
466.621358	2570.302865
466.993026	2568.972000
467.364634	2572.208421
467.736184	2565.894376
468.107674	2564.611402
468.479105	2565.642318
468.850477	2563.885476
469.221790	2564.578634
469.593043	2560.477656
469.964238	2560.833057
470.335373	2560.281051
470.706449	2560.409600
471.077467	2561.911864
471.448425	2567.956208
471.819324	2573.584656
472.190164	2573.866960
472.560945	2567.613409
472.931667	2564.808007
473.302330	2562.340362
473.672934	2565.143244
474.043479	2564.369427
474.413965	2562.405897
474.784393	2557.536143
475.154761	2559.308108
475.525070	2560.293654
475.895321	2559.371123
476.265513	2560.714590
476.635645	2567.265569
477.005719	2565.541495
477.375734	2563.459498
477.745691	2568.309088
478.115588	2570.406208
478.485427	2568.873697
478.855207	2571.868143
479.224928	2575.545665
479.594591	2578.905594
479.964194	2579.460121
480.333739	2580.286870
480.703226	2580.712847
481.072653	2578.903073
481.442022	2581.547158
481.811333	2582.194947
482.180584	2578.933320
482.549777	2579.639082
482.918912	2576.170768
483.287988	2578.398958
483.657005	2581.131263
484.025964	2575.827969
484.394864	2577.894842
484.763706	2578.303176
485.132489	2578.867785
485.501213	2578.613207
485.869879	2577.279822
486.238487	2574.355952
486.607036	2576.135480
486.975527	2574.769327
487.343959	2576.763103
487.712333	2575.137331
488.080648	2576.049780
488.448905	2573.052814
488.817104	2572.019378
489.185244	2576.874009
489.553326	2576.437949
489.921350	2580.002045
490.289315	2583.051943
490.657222	2586.265678
491.025070	2583.283836
491.392861	2582.109247
491.760593	2582.154617
492.128267	2577.849472
492.495883	2578.066242
492.863440	2578.595563
493.230939	2574.502146
493.598380	2574.388720
493.965763	2567.867987
494.333088	2569.213975
494.700354	2568.631722
495.067563	2574.028277
495.434713	2566.791701
495.801805	2572.611713
496.168839	2567.545353
496.535815	2571.840417
496.902733	2570.754048
497.269593	2571.676579
497.636395	2570.345714
498.003139	2569.881928
498.369825	2569.655076
498.736453	2570.844789
499.103023	2568.442679
499.469535	2571.573235
499.835989	2570.703636
500.202385	2572.314285
500.568723	2569.405539
500.935003	2571.038873
501.301226	2568.508214
501.667390	2570.320509
502.033497	2571.174984
502.399546	2571.830334
502.765537	2571.326219
503.131470	2572.223544
503.497345	2572.599110
503.863163	2571.570715
504.228923	2571.663976
504.594625	2570.996023
504.960269	2571.041394
505.325856	2571.323698
505.691385	2569.503842
506.056856	2573.025088
506.422270	2572.349573
506.787625	2573.730849
507.152924	2573.365366
507.518164	2575.220510
507.883347	2570.842268
508.248472	2573.357804
508.613540	2571.099367
508.978550	2570.501990
509.343503	2573.246898
509.708398	2574.262691
510.073236	2574.013154
510.438016	2577.325192
510.802738	2573.940057
511.167403	2574.713874
511.532010	2569.997875
511.896561	2574.363514
512.261053	2576.115315
512.625488	2572.510890
512.989866	2569.587021
513.354186	2572.321847
513.718449	2568.412432
514.082655	2572.054666
514.446803	2574.056004
514.810894	2575.568350
515.174927	2576.178329
515.538904	2575.638926
515.902822	2575.893504
516.266684	2575.936354
516.630488	2575.361663
516.994235	2575.689338
517.357925	2575.424677
517.721558	2577.529359
518.085133	2578.819894
518.448651	2575.742270
518.812112	2575.338977
519.175516	2575.626323
519.538863	2577.912486
519.902152	2577.022723
520.265385	2577.970460
520.628560	2576.455593
520.991678	2572.730180
521.354739	2577.489029
521.717743	2576.916858
522.080690	2576.843762
522.443580	2577.436097
522.806413	2576.102712
523.169189	2577.783937
523.531908	2578.731674
523.894569	2577.156313
524.257174	2577.698237
524.619722	2578.293093
524.982213	2579.495409
525.344647	2579.354256
525.707025	2578.847620
526.069345	2577.945254
526.431608	2576.170768
526.793815	2576.747980
527.155964	2574.882753
527.518057	2577.418453
527.880093	2578.792168
528.242072	2577.385686
528.603995	2577.829307
528.965860	2578.940882
529.327669	2576.319482
529.689421	2577.478947
530.051117	2580.637230
530.412755	2577.887281
530.774337	2576.964749
531.135862	2578.658577
531.497331	2575.318813
531.858743	2571.396795
532.220098	2577.083217
532.581396	2570.822103
532.942638	2576.614389
533.303824	2574.776889
533.664953	2575.848134
534.026025	2577.161354
534.387040	2576.011971
534.747999	2577.085737
535.108902	2575.270922
535.469748	2575.775037
535.830537	2575.558268
536.191270	2575.769996
536.551947	2578.603124
536.912567	2576.637074
537.273131	2578.013309
537.633638	2577.055490
537.994089	2577.388206
538.354483	2573.171281
538.714821	2577.773855
539.075103	2576.611869
539.435328	2575.643967
539.795497	2576.253947
540.155609	2578.981211
540.515665	2577.955336
540.875665	2575.752352
541.235609	2576.722774
541.595496	2579.462641
541.955328	2577.307548
542.315102	2578.041036
542.674821	2574.524831
543.034483	2576.009451
543.394090	2575.656570
543.753640	2575.091961
544.113134	2575.217990
544.472571	2577.012640
544.831953	2577.965418
545.191278	2576.357290
545.550548	2576.458113
545.909761	2573.932495
546.268918	2576.233782
546.628019	2575.235634
546.987064	2576.740418
547.346053	2575.825449
547.704986	2573.662794
548.063863	2574.713874
548.422684	2575.744790
548.781449	2575.764955
549.140158	2574.950808
549.498811	2578.308217
549.857408	2576.506004
550.215949	2570.038204
550.574434	2572.704974
550.932864	2573.935016
551.291237	2572.082392
551.649555	2575.643967
552.007817	2574.492063
552.366022	2578.686303
552.724173	2576.442990
553.082267	2576.997517
553.440305	2576.372414
553.798288	2574.426528
554.156215	2575.759914
554.514086	2577.136149
554.871902	2576.992476
555.229661	2577.758731
555.587365	2575.122208
555.945014	2572.863771
556.302606	2574.376117
556.660143	2577.073134
557.017625	2575.747311
557.375050	2576.279152
557.732421	2574.063565
558.089735	2576.551375
558.446994	2575.528021
558.804197	2574.885273
559.161345	2576.153124
559.518437	2578.887950
559.875474	2576.001889
560.232455	2576.145562
560.589381	2574.509707
560.946251	2576.921900
561.303065	2577.642785
561.659825	2575.570870
562.016528	2576.324523
562.373177	2575.154975
562.729770	2575.449883
563.086307	2574.938206
563.442789	2575.593556
563.799216	2574.456775
564.155587	2577.113463
564.511904	2577.305027
564.868164	2574.376117
565.224370	2578.840059
565.580520	2575.107084
565.936615	2575.961560
566.292654	2573.216652
566.648638	2576.392578
567.004567	2573.483833
567.360441	2572.311764
567.716260	2572.664645
568.072023	2571.979048
568.427732	2566.413614
568.783385	2571.802608
569.138982	2570.958215
569.494525	2570.018039
569.850013	2565.733059
570.205445	2575.079358
570.560823	2573.287228
570.916145	2575.318813
571.271412	2573.912331
571.626625	2574.471899
571.981782	2571.732032
572.336884	2574.671024
572.691931	2571.260684
573.046923	2571.278328
573.401860	2571.416960
573.756743	2573.229254
574.111570	2571.202711
574.466342	2571.422001
574.821059	2572.619275
575.175722	2573.471230
575.530330	2571.122052
575.884882	2573.017526
576.239380	2569.440827
576.593823	2572.818400
576.948211	2570.345714
577.302544	2570.247412
577.656823	2570.585169
578.011047	2571.283369
578.365216	2568.540981
578.719330	2571.273287
579.073389	2570.875036
579.427394	2570.217165
579.781344	2572.276476
580.135239	2571.232957
580.489080	2569.581980
580.842866	2570.373441
581.196597	2569.861764
581.550273	2569.745817
581.903895	2568.649366
582.257463	2569.269428
582.610975	2572.178174
582.964434	2570.691033
583.317837	2568.646846
583.671186	2569.773543
584.024481	2572.291600
584.377721	2569.876887
584.730906	2568.977041
585.084037	2568.377144
585.437113	2569.869325
585.790135	2568.664490
586.143103	2568.535940
586.496016	2570.481826
586.848874	2564.470250
587.201679	2566.358162
587.554428	2564.571073
587.907124	2566.133830
588.259765	2563.991340
588.612352	2565.274314
588.964884	2567.237843
589.317362	2566.106104
589.669786	2565.755744
590.022155	2568.525858
590.374470	2569.206414
590.726731	2568.331773
591.078937	2567.799932
591.431090	2568.714901
591.783188	2565.728017
592.135232	2565.806155
592.487222	2568.664490
592.839157	2567.003429
593.191038	2566.569890
593.542866	2566.789180
593.894639	2565.728018
594.246358	2567.230281
594.598022	2565.362534
594.949633	2563.104097
595.301190	2565.188614
595.652692	2564.858418
596.004141	2564.835733
596.355535	2565.284396
596.706876	2562.242060
597.058162	2566.322874
597.409395	2566.247256
597.760573	2565.980075
598.111698	2563.164591
598.462768	2562.363047
598.813785	2563.653583
599.164748	2563.948490
599.515657	2565.591906
599.866511	2564.392112
600.217312	2563.734241
600.568060	2564.162739
600.918753	2564.119889
601.269392	2564.187945
601.619978	2565.564180
601.970510	2562.433623
602.320988	2564.122410
602.671412	2563.933367
603.021783	2565.937225
603.372100	2563.527554
603.722363	2563.031000
604.072572	2562.751216
604.422728	2566.174160
604.772830	2561.324570
605.122878	2559.121585
605.472872	2561.634601
605.822813	2560.928839
606.172701	2564.180383
606.522534	2563.187276
606.872314	2559.658468
607.222041	2559.895403
607.571714	2561.614436
607.921333	2565.506207
608.270899	2562.879766
608.620411	2564.445044
608.969870	2564.833213
609.319276	2565.559139
609.668627	2566.741289
610.017926	2571.321178
610.367171	2571.243040
610.716362	2574.592887
611.065500	2568.256156
611.414585	2566.920250
611.763616	2566.259859
612.112594	2564.187945
612.461518	2565.475960
612.810389	2565.785991
613.159207	2563.383881
613.507971	2566.242215
613.856682	2565.818758
614.205340	2563.749365
614.553945	2564.802966
614.902496	2562.655434
615.250994	2563.653583
615.599439	2563.764488
615.947830	2563.996381
616.296169	2561.886658
616.644454	2566.146433
616.992686	2564.140054
617.340864	2564.145095
617.688990	2561.057388
618.037063	2565.899417
618.385082	2560.777604
618.733048	2564.319015
619.080961	2561.735424
619.428821	2563.845147
619.776628	2560.281051
620.124382	2564.976886
620.472083	2562.025290
620.819731	2565.102914
621.167326	2563.361196
621.514868	2562.819272
621.862357	2562.693243
622.209793	2563.151988
622.557176	2561.049827
622.904506	2560.896072
623.251783	2558.743499
623.599007	2562.231977
623.946179	2558.650237
624.293297	2557.803324
624.640363	2558.801472
624.987376	2558.622511
625.334336	2557.400031
625.681243	2560.034034
626.028097	2557.755433
626.374899	2559.227450
626.721647	2560.074363
627.068343	2560.384394
627.414987	2556.238045
627.761577	2561.027142
628.108115	2559.429096
628.454600	2557.470607
628.801032	2560.323901
629.147412	2558.146122
629.493739	2558.032696
629.840014	2559.290464
630.186236	2558.425906
630.532405	2558.640155
630.878521	2558.937583
631.224585	2558.468756
631.570597	2558.670402
631.916556	2555.398693
632.262462	2558.110834
632.608316	2557.561348
632.954117	2556.515309
633.299866	2558.504044
633.645562	2558.108313
633.991206	2558.388098
634.336797	2558.042778
634.682336	2553.447767
635.027823	2556.243087
635.373257	2555.865000
635.718639	2551.622869
636.063968	2554.203940
636.409245	2556.976574
636.754470	2555.655792
637.099642	2556.069167
637.444762	2558.531770
637.789829	2554.607232
638.134845	2553.467931
638.479808	2557.402552
638.824719	2556.427089
639.169577	2553.667057
639.514383	2558.385577
639.859137	2553.445246
640.203839	2554.902140
640.548489	2553.533466
640.893086	2552.926007
641.237632	2548.961140
641.582125	2549.515667
641.926566	2546.788403
642.270955	2555.469269
642.615292	2553.044474
642.959576	2556.243087
643.303809	2554.135884
643.647990	2553.719989
643.992118	2554.471121
644.336195	2554.599670
644.680219	2552.331151
645.024192	2554.561862
645.368112	2555.093703
645.711981	2556.061605
646.055797	2555.653272
646.399562	2556.268292
646.743274	2554.188816
647.086935	2554.766028
647.430544	2555.403734
647.774101	2557.427758
648.117606	2554.622356
648.461059	2554.604712
648.804460	2556.941286
649.147810	2555.839794
649.491108	2553.578837
649.834354	2553.334341
650.177548	2553.576316
650.520690	2554.314845
650.863781	2552.555482
651.206820	2555.587737
651.549807	2553.982129
651.892742	2553.969526
652.235626	2552.762170
652.578458	2550.743188
652.921238	2552.502550
653.263967	2554.705535
653.606644	2551.194371
653.949269	2552.159752
654.291843	2552.142108
654.634365	2552.966337
654.976836	2551.698486
655.319255	2552.762170
655.661622	2548.638506
656.003938	2552.948693
656.346203	2549.994576
656.688416	2552.036244
657.030577	2551.673281
657.372687	2549.525749
657.714746	2550.985163
658.056753	2551.559855
658.398708	2547.363094
658.740612	2551.610266
659.082465	2544.371169
659.424266	2547.262271
659.766016	2546.546427
660.107715	2552.409289
660.449362	2549.427447
660.790958	2550.987684
661.132503	2553.523384
661.473996	2551.645554
661.815438	2551.199412
662.156829	2554.455998
662.498168	2551.542211
662.839456	2549.855945
663.180693	2553.236038
663.521879	2553.737633
663.863013	2554.927345
664.204097	2549.336706
664.545129	2549.961809
664.886110	2551.111192
665.227040	2551.769063
665.567918	2553.684701
665.908746	2550.627241
666.249522	2552.321069
666.590248	2549.407282
666.930922	2549.830739
667.271545	2552.343754
667.612118	2552.011038
667.952639	2553.523384
668.293109	2552.094217
668.633528	2552.416851
668.973896	2550.854093
669.314213	2555.381049
669.654480	2552.598332
669.994695	2550.564227
670.334859	2553.790565
670.674973	2551.877447
671.015035	2550.428116
671.355047	2551.781665
671.695008	2552.202602
672.034918	2551.247303
672.374777	2549.321582
672.714585	2551.143959
673.054342	2550.609597
673.394049	2552.200081
673.733705	2549.752601
674.073310	2548.446942
674.412864	2552.240410
674.752368	2549.797971
675.091820	2553.135215
675.431223	2553.039433
675.770574	2550.397869
676.109875	2544.293031
676.449125	2550.090358
676.788324	2546.790923
677.127473	2547.970553
677.466571	2547.524411
677.805619	2551.249824
678.144616	2548.852755
678.483562	2549.079607
678.822458	2549.621531
679.161303	2551.733774
679.500098	2549.308979
679.838842	2549.291335
680.177535	2549.825698
680.516179	2548.562889
680.854771	2549.296377
681.193314	2548.590615
681.531805	2550.793599
681.870247	2550.914587
682.208638	2551.620348
682.546978	2551.791748
682.885268	2550.473486
683.223508	2552.658826
683.561697	2551.257385
683.899836	2549.124977
684.237925	2549.611449
684.575963	2552.192519
684.913951	2549.588763
685.251889	2550.710420
685.589776	2550.869217
685.927614	2548.250337
686.265401	2551.912735
686.603137	2551.012889
686.940824	2549.011551
687.278460	2551.401058
687.616046	2551.648075
687.953582	2549.417364
688.291068	2550.959957
688.628504	2551.091027
688.965889	2550.418033
689.303224	2549.876109
689.640510	2551.635472
689.977745	2549.810574
690.314930	2551.658157
690.652065	2551.852242
690.989150	2549.346788
691.326185	2548.547765
691.663170	2548.981304
692.000105	2548.119267
692.336990	2548.242775
692.673825	2546.175902
693.010610	2548.986346
693.347345	2544.222455
693.684030	2541.938812
694.020665	2544.630789
694.357251	2542.042156
694.693786	2547.151366
695.030272	2544.285470
695.366707	2546.617003
695.703093	2547.378218
696.039429	2545.407126
696.375716	2546.490974
696.711952	2544.779503
697.048139	2547.340409
697.384276	2545.336550
697.720363	2545.230686
698.056400	2545.591128
698.392388	2546.543907
698.728326	2545.828063
699.064214	2544.827394
699.400053	2546.364946
699.735842	2543.909904
700.071581	2543.985521
700.407270	2541.880839
700.742910	2545.286139
701.078501	2544.998793
701.414042	2544.083823
701.749533	2541.969059
702.084974	2544.431663
702.420366	2543.894780
702.755709	2544.872764
703.091002	2542.314378
703.426246	2542.291693
703.761440	2541.270860
704.096584	2544.555171
704.431679	2545.029040
704.766725	2544.688762
705.101721	2543.093237
705.436668	2544.547610
705.771565	2543.718340
706.106413	2542.866385
706.441212	2543.965356
706.775961	2545.775131
707.110661	2543.632640
707.445311	2545.409647
707.779913	2546.324616
708.114465	2543.811601
708.448967	2542.531148
708.783421	2545.923845
709.117825	2542.768082
709.452180	2545.996941
709.786485	2542.639533
710.120742	2545.646581
710.454949	2545.031560
710.789107	2544.930737
711.123216	2541.369162
711.457275	2545.175233
711.791286	2544.129194
712.125247	2542.878988
712.459159	2546.720347
712.793023	2546.213711
713.126837	2544.212373
713.460602	2546.029709
713.794318	2546.758156
714.127985	2544.446787
714.461602	2545.399565
714.795171	2546.400234
715.128691	2547.738660
715.462162	2546.576674
715.795584	2543.126004
716.128957	2544.736653
716.462281	2543.433515
716.795556	2544.393854
717.128782	2542.881508
717.461960	2543.015099
717.795088	2541.626261
718.128167	2541.212886
718.461198	2542.427804
718.794180	2543.350336
719.127113	2540.272711
719.459997	2543.138607
719.792833	2542.085006
720.125619	2542.160623
720.458357	2544.005686
720.791046	2541.643905
721.123686	2542.037115
721.456278	2540.204656
721.788821	2543.393185
722.121315	2543.383103
722.453761	2540.605427
722.786158	2542.185829
723.118506	2539.191384
723.450805	2542.906714
723.783056	2541.258257
724.115259	2541.923689
724.447412	2542.314378
724.779518	2540.983514
725.111574	2541.921168
725.443582	2543.146169
725.775542	2540.865047
726.107453	2540.313040
726.439315	2543.642722
726.771129	2546.110367
727.102895	2541.664070
727.434612	2545.966694
727.766281	2540.348328
728.097901	2540.854964
728.429473	2540.839841
728.760996	2538.810777
729.092471	2537.111908
729.423897	2541.971580
729.755276	2542.049718
730.086606	2542.740356
730.417887	2544.681200
730.749120	2542.049718
731.080305	2543.841848
731.411442	2545.323947
731.742530	2546.359904
732.073570	2547.594987
732.404562	2543.693134
732.735506	2544.356046
733.066401	2544.545089
733.397249	2544.255223
733.728048	2541.596014
734.058798	2542.392516
734.389501	2543.282280
734.720156	2542.253885
735.050762	2542.687424
735.381320	2542.281611
735.711831	2541.805222
736.042293	2541.054090
736.372707	2540.154244
736.703073	2540.970911
737.033391	2541.031405
737.363661	2539.090561
737.693883	2541.863195
738.024056	2545.535676
738.354182	2538.707433
738.684260	2543.269677
739.014290	2544.285470
739.344272	2542.024512
739.674207	2539.750952
740.004093	2544.519883
740.333931	2541.265818
740.663722	2543.052908
740.993464	2540.335726
741.323159	2545.364277
741.652806	2542.732794
741.982405	2541.948895
742.311956	2542.090047
742.641460	2544.106509
742.970915	2540.428987
743.300323	2541.543082
743.629683	2541.119625
743.958996	2541.293545
744.288260	2541.626261
744.617477	2540.832279
744.946647	2537.984027
745.275768	2538.430169
745.604842	2536.864891
745.933869	2538.397402
746.262847	2533.477236
746.591778	2538.941847
746.920662	2538.679707
747.249498	2541.439738
747.578286	2539.700540
747.907027	2541.220448
748.235720	2539.521579
748.564365	2542.027033
748.892963	2539.650129
749.221514	2541.916127
749.550017	2539.438400
749.878473	2540.426466
750.206881	2540.668442
750.535242	2536.328008
750.863555	2542.694986
751.191821	2539.231713
751.520039	2539.372865
751.848210	2541.588452
752.176334	2538.435211
752.504411	2540.393699
752.832440	2539.587114
753.160421	2538.679707
753.488356	2540.285314
753.816243	2542.616848
754.144082	2538.437731
754.471875	2538.495704
754.799620	2540.028215
755.127318	2539.612320
755.454969	2539.277083
755.782572	2539.902186
756.110129	2537.200128
756.437638	2538.841023
756.765100	2538.294058
757.092515	2538.140303
757.419882	2537.396733
757.747203	2540.111394
758.074477	2539.965201
758.401703	2541.674152
758.728882	2540.313040
759.056014	2538.147865
759.383099	2539.571991
759.710138	2540.537372
760.037129	2541.880839
760.364073	2541.888401
760.690970	2540.860006
761.017820	2542.773123
761.344623	2540.267670
761.671379	2540.015612
761.998088	2535.188707
762.324751	2539.990407
762.651366	2539.582073
762.977935	2543.635161
763.304456	2545.971736
763.630931	2550.196223
763.957359	2548.051212
764.283740	2547.882333
764.610074	2544.499719
764.936362	2543.098278
765.262602	2542.440407
765.588796	2540.970911
765.914943	2539.133410
766.241044	2542.377393
766.567097	2542.541230
766.893104	2537.603420
767.219064	2540.118956
767.544978	2540.239944
767.870845	2538.619213
768.196665	2540.640715
768.522438	2538.621733
768.848165	2538.944367
769.173846	2537.079140
769.499479	2538.382278
769.825066	2536.970755
770.150607	2537.744573
770.476101	2539.398071
770.801548	2538.011754
771.126949	2538.215920
771.452303	2537.605941
771.777611	2536.900179
772.102872	2539.287166
772.428087	2538.314223
772.753256	2537.056455
773.078378	2536.575025
773.403453	2536.605272
773.728482	2539.135931
774.053465	2537.951260
774.378401	2534.908923
774.703291	2538.707433
775.028135	2534.170394
775.352932	2538.112577
775.677683	2536.199459
776.002388	2536.897659
776.327046	2536.973276
776.651658	2537.941178
776.976224	2538.798174
777.300743	2538.271373
777.625216	2538.707433
777.949643	2538.168029
778.274024	2537.290869
778.598359	2535.198790
778.922647	2530.439941
779.246889	2533.570497
779.571086	2534.568646
779.895236	2533.159643
780.219339	2533.431865
780.543397	2535.655014
780.867409	2536.348173
781.191374	2535.322298
781.515294	2537.220293
781.839167	2536.325488
782.162995	2535.902031
782.486776	2535.753317
782.810511	2535.879346
783.134201	2534.782895
783.457844	2537.938657
783.781441	2539.135931
784.104993	2535.765920
784.428498	2536.937988
784.751958	2537.323636
785.075372	2536.204500
785.398739	2537.941177
785.722061	2538.881353
786.045337	2535.710467
786.368568	2536.320447
786.691752	2534.974458
787.014891	2536.302803
787.337983	2534.482946
787.661030	2537.109387
787.984031	2538.999820
788.306987	2537.585776
788.629897	2539.473688
788.952760	2537.154757
789.275579	2536.421270
789.598351	2540.171888
789.921078	2535.082843
790.243759	2535.191228
790.566395	2536.096115
790.888984	2536.859850
791.211529	2534.979500
791.534027	2538.863709
791.856480	2534.543440
792.178888	2535.665097
792.501249	2535.962525
792.823566	2536.396064
793.145836	2537.021167
793.468062	2535.934798
793.790241	2533.920857
794.112375	2537.426980
794.434464	2536.751465
794.756507	2531.629653
795.078505	2535.876825
795.400457	2535.415559
795.722364	2531.763243
796.044226	2533.820034
796.366042	2531.894313
796.687812	2533.817514
797.009538	2533.890610
797.331218	2535.700385
797.652852	2535.339942
797.974442	2537.119469
798.295986	2533.623429
798.617484	2536.219623
798.938938	2534.709798
799.260346	2534.031763
799.581709	2535.506300
799.903026	2535.370189
800.224299	2535.881866
800.545526	2535.097967
800.866708	2533.699047
801.187845	2534.251053
801.508936	2533.215096
801.829983	2533.444468
802.150984	2535.042514
802.471940	2535.660055
802.792851	2533.706608
803.113717	2537.671476
803.434538	2534.729963
803.755314	2533.878007
804.076045	2535.599562
804.396731	2535.478574
804.717372	2532.877338
805.037967	2534.916485
805.358518	2533.935981
805.679024	2534.351876
805.999485	2533.184849
806.319901	2535.413039
806.640272	2535.375230
806.960598	2536.244829
807.280879	2532.917668
807.601115	2534.218285
807.921306	2533.706608
808.241453	2534.054448
808.561554	2533.015970
808.881611	2535.007226
809.201623	2536.043183
809.521590	2534.203162
809.841513	2534.162833
810.161390	2532.098480
810.481223	2534.503111
810.801011	2534.036804
811.120755	2534.848430
811.440453	2533.656197
811.760107	2536.716177
812.079716	2529.789632
812.399281	2532.292565
812.718801	2531.155784
813.038276	2530.591175
813.357707	2535.029911
813.677093	2534.727442
813.996434	2533.633512
814.315731	2534.198121
814.634983	2533.928419
814.954191	2535.314736
815.273354	2533.862884
815.592473	2538.596528
815.911547	2535.881866
816.230577	2537.794984
816.549562	2534.649304
816.868502	2535.904551
817.187399	2536.690971
817.506250	2535.002185
817.825058	2536.123842
818.143821	2538.420087
818.462539	2535.554191
818.781213	2539.599717
819.099843	2537.406815
819.418429	2538.047042
819.736970	2536.219623
820.055466	2538.392361
820.373919	2539.466127
820.692327	2540.486960
821.010691	2546.818649
821.329011	2550.657488
821.647286	2570.295303
821.965517	2582.106726
822.283704	2593.852615
822.601847	2596.390836
822.919945	2587.964547
823.237999	2578.540110
823.556010	2570.373441
823.873976	2560.389436
824.191897	2558.128478
824.509775	2551.222097
824.827609	2549.908877
825.145398	2547.531973
825.463144	2548.109185
825.780845	2546.128011
826.098502	2551.227138
826.416116	2553.820812
826.733685	2555.242417
827.051210	2557.596636
827.368692	2556.795093
827.686129	2552.807540
828.003522	2547.418547
828.320872	2542.974770
828.638177	2541.860675
828.955439	2536.476722
829.272656	2536.504449
829.589830	2533.162164
829.906960	2538.755324
830.224046	2535.904551
830.541088	2535.256763
830.858086	2535.786084
831.175041	2536.920344
831.491952	2536.149047
831.808819	2536.673327
832.125642	2537.822710
832.442421	2534.855991
832.759157	2538.977135
833.075849	2539.975283
833.392497	2545.707075
833.709101	2549.190512
834.025662	2546.506098
834.342179	2547.834442
834.658653	2543.710778
834.975083	2541.548123
835.291469	2542.019471
835.607811	2537.754655
835.924110	2535.435724
836.240366	2536.408667
836.556578	2535.450848
836.872746	2537.495035
837.188871	2534.414890
837.504952	2535.097967
837.820990	2535.024870
838.136984	2531.488501
838.452935	2532.388347
838.768842	2534.747607
839.084706	2532.156453
839.400526	2535.143337
839.716303	2534.540919
840.032037	2539.501415
840.347727	2539.952598
840.663373	2537.767258
840.978977	2537.558050
841.294537	2534.808100
841.610054	2531.833820
841.925527	2535.476053
842.240957	2532.622760
842.556344	2536.680889
842.871687	2531.246525
843.186987	2533.326001
843.502244	2531.233922
843.817458	2533.414221
844.132629	2535.062679
844.447756	2532.529499
844.762840	2526.989271
845.077881	2530.681916
845.392879	2528.564631
845.707833	2529.585465
846.022745	2527.637059
846.337613	2532.022863
846.652438	2532.121165
846.967221	2533.310878
847.281960	2529.761905
847.596656	2532.998326
847.911309	2533.046217
848.225919	2530.288706
848.540485	2531.138140
848.855009	2530.432379
849.169490	2532.123686
849.483928	2531.049920
849.798323	2533.618388
850.112675	2529.466998
850.426984	2531.659900
850.741251	2531.491021
851.055474	2533.172246
851.369654	2529.403983
851.683792	2531.821217
851.997887	2534.767771
852.311938	2530.460105
852.625947	2532.947915
852.939914	2531.480939
853.253837	2532.307688
853.567718	2532.106042
853.881555	2533.459592
854.195350	2531.659900
854.509103	2532.635363
854.822812	2529.144364
855.136479	2531.453213
855.450103	2530.155115
855.763685	2530.636546
856.077224	2529.494724
856.390720	2531.362472
856.704173	2532.363141
857.017584	2532.781557
857.330953	2533.134437
857.644278	2532.564787
857.957561	2532.595034
858.270802	2532.642925
858.584000	2530.475229
858.897155	2532.945394
859.210268	2530.828109
859.523339	2529.335928
859.836367	2534.530837
860.149352	2531.170908
860.462295	2530.563449
860.775195	2527.405166
861.088054	2527.853829
861.400869	2529.086391
861.713642	2527.478263
862.026373	2529.661082
862.339062	2533.411701
862.651708	2531.390198
862.964312	2531.811134
863.276873	2531.508665
863.589392	2528.453726
863.901869	2531.566638
864.214303	2531.417924
864.526696	2532.479087
864.839045	2529.903058
865.151353	2530.833151
865.463619	2532.158974
865.775842	2533.409180
866.088023	2531.753161
866.400162	2533.265507
866.712258	2529.628315
867.024313	2533.315919
867.336325	2533.313398
867.648296	2535.899510
867.960224	2530.376926
868.272110	2531.738038
868.583954	2534.054448
868.895755	2533.807431
869.207515	2533.275590
869.519233	2531.798532
869.830909	2529.739220
870.142542	2530.586134
870.454134	2534.220806
870.765684	2533.540250
871.077191	2532.065713
871.388657	2532.940353
871.700081	2531.738038
872.011463	2531.516227
872.322803	2533.520086
872.634101	2532.678213
872.945357	2532.632842
873.256571	2535.541588
873.567744	2532.655528
873.878874	2533.623429
874.189963	2533.187369
874.501010	2532.524458
874.812015	2534.112421
875.122979	2533.600744
875.433900	2531.274252
875.744780	2532.037986
876.055618	2530.598737
876.366415	2533.106711
876.677169	2533.925898
876.987882	2533.031094
877.298554	2527.289219
877.609183	2531.985054
877.919771	2526.270906
878.230317	2532.065713
878.540822	2535.828934
878.851285	2533.033614
879.161707	2534.848430
879.472087	2536.685930
879.782425	2538.415046
880.092722	2541.487629
880.402977	2547.630275
880.713191	2552.253013
881.023363	2563.023438
881.333494	2568.941753
881.643583	2567.676423
881.953631	2566.017884
882.263637	2566.849674
882.573602	2564.109807
882.883526	2561.301884
883.193408	2553.548590
883.503248	2548.542724
883.813048	2547.847045
884.122806	2545.732281
884.432522	2544.068700
884.742197	2538.669624
885.051831	2542.387475
885.361424	2537.240457
885.670975	2540.229861
885.980485	2536.401105
886.289954	2535.493697
886.599382	2534.089736
886.908768	2535.781043
887.218113	2533.124355
887.527417	2538.387320
887.836680	2532.302647
888.145901	2535.405477
888.455082	2529.915661
888.764221	2533.018491
889.073319	2531.914478
889.382376	2532.784077
889.691392	2532.254756
890.000366	2531.362472
890.309300	2531.143182
890.618193	2533.109232
890.927044	2534.936650
891.235855	2532.703419
891.544625	2531.790970
891.853353	2533.353727
892.162041	2533.938501
892.470687	2534.750127
892.779293	2534.694674
893.087858	2532.320291
893.396381	2532.353058
893.704864	2533.421783
894.013306	2532.262318
894.321707	2541.883360
894.630068	2542.571477
894.938387	2544.217414
895.246665	2543.073072
895.554903	2541.759852
895.863100	2541.958977
896.171256	2538.810777
896.479371	2537.432021
896.787446	2534.805580
897.095480	2539.140972
897.403473	2534.019160
897.711425	2536.632998
898.019336	2534.235929
898.327207	2534.336752
898.635038	2533.194931
898.942827	2533.991433
899.250576	2534.747607
899.558284	2534.278779
899.865952	2534.188038
900.173579	2531.513706
900.481165	2532.537061
900.788711	2532.204344
901.096216	2530.823068
901.403681	2531.823737
901.711105	2530.061854
902.018489	2530.800383
902.325832	2535.297092
902.633135	2531.662420
902.940397	2532.088398
903.247619	2533.822555
903.554800	2534.924047
903.861941	2538.717515
904.169041	2545.379400
904.476101	2551.038095
904.783121	2547.012734
905.090100	2543.710778
905.397039	2543.282280
905.703938	2540.229861
906.010796	2538.712474
906.317614	2538.881353
906.624391	2534.016639
906.931129	2535.586959
907.237826	2533.419263
907.544483	2533.278110
907.851099	2531.047400
908.157675	2531.357431
908.464211	2531.077647
908.770707	2527.052285
909.077163	2529.862728
909.383578	2527.072450
909.689954	2530.404652
909.996289	2525.166894
910.302584	2530.815507
910.608839	2529.313243
910.915054	2531.801052
911.221229	2533.071423
911.527363	2530.944056
911.833458	2532.534540
912.139513	2530.510517
912.445527	2530.752492
912.751502	2530.873480
913.057436	2528.965403
913.363331	2532.058151
913.669186	2532.358100
913.975000	2532.400949
914.280775	2535.193749
914.586510	2532.421114
914.892205	2533.194931
915.197859	2539.655170
915.503475	2540.431508
915.809050	2545.205480
916.114585	2545.734801
916.420081	2546.453166
916.725536	2544.161961
917.030952	2544.403937
917.336328	2543.007537
917.641665	2539.183822
917.946961	2538.470499
918.252218	2536.176774
918.557435	2535.299613
918.862612	2537.399253
919.167750	2532.831968
919.472848	2535.067720
919.777906	2535.849099
920.082925	2533.537730
920.387904	2531.160826
920.692843	2532.138809
920.997743	2532.756351
921.302603	2531.997657
921.607423	2533.131917
921.912204	2531.864067
922.216946	2531.546474
922.521647	2530.702081
922.826310	2530.502955
923.130932	2534.084695
923.435516	2528.874662
923.740059	2527.574045
924.044564	2529.976154
924.349028	2531.307019
924.653454	2526.434744
924.957840	2530.634025
925.262186	2525.963396
925.566493	2528.499096
925.870761	2523.921729
926.174989	2532.181659
926.479178	2529.124199
926.783328	2529.988757
927.087438	2528.909950
927.391509	2531.208717
927.695541	2529.056144
927.999533	2526.827954
928.303486	2528.355423
928.607400	2532.166536
928.911275	2527.979858
929.215110	2528.431041
929.518906	2527.301822
929.822663	2528.690660
930.126381	2530.812986
930.430060	2531.254087
930.733699	2529.025897
931.037299	2529.819879
931.340861	2527.518592
931.644383	2526.512882
931.947866	2530.351720
932.251309	2526.018849
932.554714	2527.511030
932.858080	2530.001360
933.161407	2529.777029
933.464694	2529.250228
933.767943	2530.669313
934.071153	2528.877183
934.374323	2529.000691
934.677455	2526.545649
934.980548	2525.875176
935.283602	2528.466329
935.586617	2529.230064
935.889593	2529.197296
936.192530	2528.637728
936.495428	2527.574045
936.798287	2528.766277
937.101108	2526.253262
937.403890	2527.929446
937.706632	2528.859539
938.009336	2530.291227
938.312002	2530.384488
938.614628	2526.916174
938.917216	2530.828109
939.219765	2529.671165
939.522275	2530.641587
939.824747	2531.715353
940.127179	2525.340813
940.429573	2524.909795
940.731929	2529.971113
941.034246	2523.009280
941.336524	2529.005732
941.638763	2528.665454
941.940964	2529.998840
942.243126	2528.741072
942.545250	2526.742254
942.847335	2530.024045
943.149381	2527.929446
943.451389	2527.863911
943.753359	2528.809127
944.055290	2525.449198
944.357182	2527.742923
944.659036	2529.651000
944.960851	2530.659231
945.262628	2527.747964
945.564367	2530.218130
945.866067	2528.796524
946.167729	2529.565300
946.469352	2529.711494
946.770937	2528.980527
947.072484	2526.454908
947.373992	2528.405835
947.675462	2529.391381
947.976893	2528.917512
948.278286	2526.505320
948.579641	2528.448685
948.880958	2527.687471
949.182236	2528.010104
949.483476	2527.483304
949.784678	2525.819723
950.085841	2528.292409
950.386967	2528.370547
950.688054	2526.802748
950.989103	2526.575896
951.290114	2527.125382
951.591087	2527.758047
951.892021	2528.617563
952.192917	2528.373068
952.493776	2528.433561
952.794596	2529.724097
953.095378	2525.192099
953.396122	2529.497245
953.696828	2529.126720
953.997496	2530.628984
954.298126	2529.295599
954.598718	2530.898686
954.899272	2529.162008
955.199788	2526.812830
955.500266	2529.242667
955.800706	2527.319466
956.101108	2523.457942
956.401472	2523.543642
956.701798	2522.946265
957.002087	2523.218488
957.302337	2529.777029
957.602550	2526.790145
957.902724	2526.152439
958.202861	2528.161339
958.502960	2526.777542
958.803022	2527.747964
959.103045	2527.901720
959.403031	2526.381812
959.702979	2527.422810
960.002889	2527.558921
960.302762	2525.681091
960.602596	2529.386339
960.902393	2525.078673
961.202153	2526.170083
961.501875	2531.304498
961.801559	2525.464322
962.101205	2528.131092
962.400814	2525.575227
962.700385	2529.401463
962.999918	2527.324508
963.299414	2526.104548
963.598873	2527.470701
963.898293	2526.835516
964.197677	2526.840557
964.497022	2526.923736
964.796331	2524.718231
965.095601	2523.856194
965.394835	2527.374919
965.694030	2524.637573
965.993189	2528.761236
966.292309	2524.577079
966.591393	2526.913653
966.890439	2526.122192
967.189447	2526.260824
967.488419	2524.902233
967.787353	2525.819723
968.086249	2528.746113
968.385108	2527.682429
968.683930	2528.854498
968.982714	2525.111441
969.281462	2525.875176
969.580172	2526.948942
969.878844	2525.108920
970.177480	2527.074970
970.476078	2526.525485
970.774639	2525.159332
971.073162	2527.500948
971.371649	2524.337624
971.670098	2522.472397
971.968510	2525.025741
972.266885	2520.844104
972.565223	2526.666637
972.863524	2527.160670
973.161788	2527.349713
973.460014	2526.623787
973.758204	2526.883407
974.056356	2527.190917
974.354471	2527.871473
974.652550	2526.661596
974.950591	2526.104548
975.248595	2527.382481
975.546563	2527.321987
975.844493	2527.813499
976.142386	2525.567665
976.440243	2525.645803
976.738062	2526.243180
977.035845	2524.826616
977.333590	2525.602953
977.631299	2526.366688
977.928971	2528.259642
978.226606	2526.303674
978.524204	2525.144208
978.821765	2527.846267
979.119290	2526.409538
979.416777	2526.502799
979.714228	2528.015146
980.011642	2525.580268
980.309020	2526.001205
980.606360	2526.099507
980.903664	2527.122861
981.200931	2526.848118
981.498162	2527.490866
981.795356	2526.797707
982.092513	2528.758716
982.389633	2524.065402
982.686717	2524.851822
982.983764	2525.534898
983.280775	2527.858870
983.577749	2527.327028
983.874686	2524.566996
984.171587	2529.048582
984.468451	2528.355423
984.765279	2526.656555
985.062070	2529.174611
985.358824	2525.572707
985.655543	2525.038344
985.952224	2527.828623
986.248869	2526.255783
986.545478	2519.394772
986.842050	2524.335103
987.138586	2523.672192
987.435086	2524.660258
987.731549	2521.948117
988.027975	2524.312418
988.324366	2525.040865
988.620719	2523.631862
988.917037	2524.914836
989.213318	2528.370547
989.509563	2528.262162
989.805772	2524.587161
990.101944	2525.285361
990.398080	2526.701925
990.694180	2526.772501
990.990244	2525.981040
991.286271	2527.707635
991.582262	2527.347193
991.878217	2524.115813
992.174136	2528.128572
992.470019	2526.076822
992.765865	2526.154960
993.061676	2527.702594
993.357450	2527.221164
993.653188	2526.971627
993.948890	2526.986750
994.244556	2524.819054
994.540186	2529.005732
994.835780	2526.195289
995.131337	2525.038344
995.426859	2528.443644
995.722345	2527.016997
996.017795	2524.768642
996.313208	2526.712007
996.608586	2526.520443
996.903928	2525.928108
997.199234	2527.430372
997.494504	2525.587830
997.789738	2524.319980
998.084936	2525.658406
998.380099	2526.953983
998.675225	2524.899712
998.970316	2526.409538
999.265371	2527.954652
999.560390	2524.057840
999.855373	2523.959537
1000.150320	2524.433406
1000.445232	2527.019518
1000.740108	2523.876358
1001.034948	2524.173786
1001.329752	2524.493900
1001.624521	2526.250742
1001.919254	2521.517098
1002.213951	2524.125895
1002.508613	2520.403003
1002.803239	2526.744775
1003.097829	2522.313601
1003.392384	2525.239990
1003.686903	2526.769981
1003.981386	2530.049251
1004.275834	2523.702438
1004.570246	2525.968437
1004.864623	2527.024559
1005.158964	2526.303674
1005.453270	2524.766122
1005.747540	2526.124713
1006.041775	2524.932480
1006.335974	2524.241842
1006.630138	2523.210926
1006.924266	2527.969775
1007.218359	2523.437778
1007.512416	2525.741585
1007.806438	2524.307377
1008.100425	2528.884745
1008.394376	2524.932480
1008.688292	2527.327028
1008.982172	2524.362830
1009.276017	2526.142357
1009.569827	2523.089938
1009.863602	2528.494055
1010.157341	2525.905423
1010.451045	2525.645803
1010.744714	2527.458098
1011.038347	2527.574045
1011.331945	2525.708818
1011.625508	2526.263345
1011.919036	2526.114631
1012.212528	2527.400125
1012.505986	2524.282171
1012.799408	2524.745957
1013.092795	2527.155629
1013.386147	2524.713190
1013.679464	2523.735206
1013.972745	2524.912315
1014.265992	2527.430372
1014.559204	2527.037162
1014.852380	2524.935001
1015.145521	2524.635052
1015.438628	2523.959537
1015.731699	2526.328880
1016.024736	2522.782428
1016.317737	2527.102697
1016.610703	2526.717048
1016.903635	2522.820237
1017.196531	2521.360822
1017.489393	2522.018693
1017.782219	2519.828312
1018.075011	2524.866945
1018.367768	2523.604136
1018.660490	2526.533046
1018.953177	2526.533046
1019.245829	2526.533046
