Dividing Wavelength (nm)	Counts (n)	Blue Motor Position (mm): 0.000000	Red Motor Position (mm): 49.400000	
326.493990	2128.513786
326.888308	2128.513786
327.282561	2128.513786
327.676750	2095.847109
328.070874	2097.828282
328.464933	2096.026070
328.858929	2106.040322
329.252859	2114.610283
329.646726	2125.486573
330.040528	2137.930661
330.434265	2157.225677
330.827938	2174.126146
331.221547	2188.243897
331.615091	2210.193081
332.008571	2229.064640
332.401986	2249.637589
332.795338	2268.410846
333.188625	2286.102775
333.581847	2307.870478
333.975006	2322.320945
334.368100	2341.477330
334.761129	2361.808303
335.154095	2376.072248
335.546996	2398.679303
335.939833	2424.802562
336.332606	2442.111363
336.725315	2455.495627
337.117960	2460.894703
337.510540	2472.978348
337.903056	2483.403455
338.295508	2485.611480
338.687896	2495.265290
339.080220	2508.994872
339.472480	2510.678618
339.864676	2517.605163
340.256807	2519.205729
340.648875	2524.453570
341.040879	2526.286030
341.432818	2526.487676
341.824694	2529.930784
342.216506	2531.639735
342.608253	2531.934643
342.999937	2528.060516
343.391557	2528.806607
343.783113	2528.867101
344.174605	2526.197810
344.566033	2526.167563
344.957397	2528.809127
345.348697	2521.290246
345.739934	2521.461646
346.131106	2520.839063
346.522215	2519.039371
346.913260	2516.281860
347.304241	2515.429905
347.695159	2514.086438
348.086012	2511.560819
348.476802	2508.999913
348.867528	2507.180057
349.258191	2505.163595
349.648789	2505.110663
350.039324	2503.580673
350.429796	2502.753924
350.820203	2504.278873
351.210548	2500.293841
351.600828	2500.866012
351.991045	2499.792246
352.381198	2499.109169
352.771288	2498.973058
353.161314	2498.620178
353.551276	2498.731083
353.941175	2499.154540
354.331010	2500.187976
354.720782	2499.474653
355.110490	2496.336535
355.500135	2497.450630
355.889717	2499.988851
356.279235	2498.519354
356.668689	2498.509272
357.058080	2498.685713
357.447408	2498.910044
357.836672	2495.134220
358.225873	2498.907523
358.615010	2498.466422
359.004084	2499.217554
359.393095	2504.500683
359.782043	2502.953049
360.170927	2501.407936
360.559748	2504.974552
360.948505	2505.241733
361.337199	2509.201559
361.725830	2507.855571
362.114398	2507.974038
362.502903	2505.710560
362.891344	2508.387413
363.279722	2504.775426
363.668037	2509.995541
364.056289	2506.663338
364.444478	2510.650891
364.832603	2511.013854
365.220665	2512.506036
365.608665	2508.919255
365.996601	2513.794051
366.384474	2516.581809
366.772284	2516.564165
367.160031	2516.493588
367.547715	2517.895029
367.935336	2520.534073
368.322893	2525.315608
368.710388	2525.756709
369.097820	2533.573018
369.485189	2535.186187
369.872495	2542.964687
370.259738	2546.889226
370.646918	2558.763663
371.034035	2563.242729
371.421090	2573.451065
371.808081	2585.847262
372.195010	2596.274889
372.581875	2607.743514
372.968678	2618.216511
373.355418	2628.437451
373.742096	2646.772127
374.128710	2662.734941
374.515262	2677.142559
374.901751	2694.821885
375.288177	2707.606251
375.674540	2727.977554
376.060841	2747.476737
376.447079	2764.329314
376.833254	2788.438633
377.219367	2799.345169
377.605417	2835.303719
377.991404	2846.457272
378.377329	2867.350334
378.763191	2884.984291
379.148991	2924.433840
379.534727	2949.803447
379.920402	2976.297231
380.306013	2990.178048
380.691563	3041.229813
381.077049	3061.843091
381.462474	3074.821542
381.847835	3119.072790
382.233134	3139.620533
382.618371	3138.370327
383.003545	3208.374310
383.388657	3215.331102
383.773706	3247.783530
384.158693	3265.019235
384.543618	3289.196609
384.928480	3324.131805
385.313280	3374.692058
385.698017	3369.103938
386.082692	3422.661157
386.467305	3427.596447
386.851856	3459.673308
387.236344	3482.413953
387.620770	3512.686082
388.005133	3540.266235
388.389435	3569.935946
388.773674	3577.724529
389.157851	3621.126343
389.541965	3635.501193
389.926018	3601.685133
390.310008	3674.055938
390.693936	3690.767362
391.077802	3730.292529
391.461606	3720.651323
391.845348	3786.211528
392.229027	3781.147689
392.612645	3794.458856
392.996200	3873.645301
393.379694	3913.165426
393.763125	3981.047083
394.146494	3948.367803
394.529801	4004.616998
394.913047	4057.647416
395.296230	4022.714740
395.679351	4077.622988
396.062410	4101.074436
396.445408	4079.659614
396.828343	4116.013895
397.211217	4140.135816
397.594028	4060.326789
397.976778	4124.041933
398.359466	4153.043691
398.742092	4179.844985
399.124656	4101.528140
399.507158	4184.765151
399.889598	4208.960169
400.271977	4269.690950
400.654294	4242.186414
401.036549	4248.886108
401.418742	4220.312848
401.800874	4320.087365
402.182944	4341.411445
402.564952	4406.913678
402.946898	4393.627717
403.328783	4389.473806
403.710606	4304.404335
404.092367	4495.650588
404.474067	4459.361842
404.855705	4472.466322
405.237282	4399.362029
405.618797	4506.990664
406.000250	4541.167167
406.381642	4619.352942
406.762972	4585.557047
407.144240	4595.926700
407.525447	4594.084158
407.906593	4655.760155
408.287677	4698.040312
408.668700	4625.848469
409.049661	4675.098021
409.430560	4718.565370
409.811399	4644.460409
410.192176	4806.977127
410.572891	4744.764247
410.953545	4850.383982
411.334138	4726.757245
411.714669	4794.727123
412.095139	4687.771482
412.475547	4831.734233
412.855894	4812.187159
413.236180	4822.337522
413.616405	4776.279020
413.996568	4863.453173
414.376670	4805.182476
414.756711	4760.911063
415.136691	4791.621772
415.516609	4871.002301
415.896466	4908.508486
416.276262	4940.078712
416.655997	4922.031381
417.035670	5102.681129
417.415283	5192.721178
417.794834	5139.080780
418.174324	5092.966825
418.553753	4999.234131
418.933121	5184.388150
419.312428	5251.927009
419.691674	5191.561712
420.070859	5317.953522
420.449983	5226.123863
420.829045	5344.863201
421.208047	5250.949025
421.586988	5321.116846
421.965867	5333.457590
422.344686	5462.833762
422.723444	5318.901258
423.102141	5139.453826
423.480777	5435.941727
423.859352	5205.129978
424.237866	5466.130677
424.616319	5460.224965
424.994712	5568.813940
425.373044	5445.270383
425.751314	5582.543522
426.129524	5389.979007
426.507673	5582.291465
426.885762	5665.231048
427.263789	5593.949133
427.641756	5477.387574
428.019662	5600.028764
428.397508	5609.120485
428.775292	5555.742228
429.153016	5654.541282
429.530679	5586.372279
429.908282	5662.080327
430.285824	5535.350761
430.663305	5817.093287
431.040726	5544.192944
431.418086	5550.905241
431.795385	5653.006250
432.172624	5664.333723
432.549802	5655.710829
432.926920	5669.568961
433.303977	5681.098080
433.680974	5716.431527
434.057910	5736.243262
434.434786	5745.216516
434.811601	5712.577565
435.188355	5948.130520
435.565050	5819.351724
435.941683	5798.120905
436.318257	6010.411455
436.694770	5999.797306
437.071222	6031.513725
437.447614	5961.807170
437.823946	5877.584613
438.200218	6028.882243
438.576429	5895.274022
438.952580	5995.829918
439.328670	6041.303646
439.704700	5948.327125
440.080670	5934.156441
440.456580	6206.749274
440.832429	6089.411377
441.208218	5931.822387
441.583947	6092.962870
441.959616	6090.354073
442.335224	6022.737076
442.710773	6157.356048
443.086261	6185.301685
443.461689	5980.948431
443.837057	6125.768178
444.212365	6280.667713
444.587612	6178.435633
444.962800	6330.058417
445.337927	6310.977650
445.712995	5918.342342
446.088002	6494.382389
446.462949	6324.404763
446.837837	6255.492190
447.212664	6434.443070
447.587431	6572.873154
447.962139	7115.513037
448.336786	8042.435035
448.711374	7780.839480
449.085901	6858.421752
449.460369	6779.681450
449.834776	6714.254834
450.209124	7102.769000
450.583412	7253.799448
450.957640	7402.034577
451.331808	7160.391909
451.705917	6720.001750
452.079965	6639.865048
452.453954	6852.770619
452.827883	6727.147585
453.201752	6821.379354
453.575562	6617.913343
453.949311	6828.121897
454.323001	6714.471604
454.696632	6784.205885
455.070202	6928.559326
455.443713	7081.414672
455.817164	7178.603077
456.190556	7259.503514
456.563888	7337.081830
456.937160	7385.366002
457.310373	7043.694238
457.683526	7062.651497
458.056619	6955.277441
458.429653	6939.831346
458.802628	6877.376491
459.175542	6988.561659
459.548398	7343.274888
459.921194	7501.383117
460.293930	7502.968559
460.666607	8040.544603
461.039224	8348.168413
461.411782	8470.900345
461.784280	8488.501533
462.156719	8379.481540
462.529099	8255.247345
462.901419	7846.339192
463.273680	7743.174499
463.645882	7749.803616
464.018024	7619.394008
464.390106	7782.374511
464.762130	8175.536620
465.134094	8637.018967
465.505999	9662.130040
465.877845	10884.980372
466.249631	11543.115610
466.621358	11148.360496
466.993026	10524.827739
467.364634	10263.857286
467.736184	9910.661445
468.107674	9569.297192
468.479105	9605.396894
468.850477	9368.538281
469.221790	9136.942632
469.593043	8811.750400
469.964238	8674.888115
470.335373	8682.401954
470.706449	8740.531499
471.077467	8723.893171
471.448425	10037.670796
471.819324	11105.946748
472.190164	11136.793569
472.560945	9885.732939
472.931667	9099.396118
473.302330	8960.356054
473.672934	8600.384902
474.043479	8960.282957
474.413965	8899.635356
474.784393	8785.478427
475.154761	8933.955531
475.525070	9032.089153
475.895321	8851.948561
476.265513	9032.603350
476.635645	9200.498979
477.005719	9197.461684
477.375734	9316.662287
477.745691	9555.439060
478.115588	9686.100726
478.485427	9929.429661
478.855207	10468.835643
479.224928	11278.331525
479.594591	11906.429047
479.964194	11722.426932
480.333739	11670.883654
480.703226	11574.612739
481.072653	11671.843994
481.442022	11908.591702
481.811333	12098.693613
482.180584	11900.422512
482.549777	11615.604882
482.918912	11440.684405
483.287988	11457.012702
483.657005	11468.435957
484.025964	11148.932667
484.394864	11285.048862
484.763706	11252.183060
485.132489	11003.691984
485.501213	10970.755605
485.869879	11046.022552
486.238487	10887.697554
486.607036	10996.465490
486.975527	10785.372213
487.343959	10970.984978
487.712333	11019.906855
488.080648	10947.886411
488.448905	10992.238482
488.817104	10927.378997
489.185244	11194.905470
489.553326	11351.133348
489.921350	11881.165304
490.289315	12953.731279
490.657222	13295.468578
491.025070	13201.942571
491.392861	13085.111310
491.760593	12693.643029
492.128267	12352.611492
492.495883	12020.757375
492.863440	11688.265552
493.230939	11352.517145
493.598380	11282.417380
493.965763	11146.603654
494.333088	11053.236444
494.700354	10971.486572
495.067563	11037.266068
495.434713	10865.902126
495.801805	10991.570529
496.168839	10917.120249
496.535815	10842.468322
496.902733	10849.044507
497.269593	10773.296129
497.636395	10881.431400
498.003139	10859.734274
498.369825	10741.320091
498.736453	10888.456248
499.103023	10823.765641
499.469535	10847.436379
499.835989	10836.098824
500.202385	10796.944182
500.568723	10656.086782
500.935003	10872.715245
501.301226	10679.029073
501.667390	10937.456263
502.033497	11035.579802
502.399546	10890.760055
502.765537	10803.099431
503.131470	10869.841787
503.497345	11046.554394
503.863163	10661.390076
504.228923	10970.231325
504.594625	11032.013186
504.960269	10786.624940
505.325856	11008.125678
505.691385	10796.361929
506.056856	10955.266660
506.422270	10977.339352
506.787625	10866.597805
507.152924	10978.362706
507.518164	10964.428957
507.883347	10885.570187
508.248472	10805.277209
508.613540	11038.571727
508.978550	10913.747717
509.343503	10895.715509
509.708398	11009.963179
510.073236	11126.255037
510.438016	11133.577312
510.802738	11079.190824
511.167403	11136.705348
511.532010	11027.390448
511.896561	11259.127249
512.261053	11327.855820
512.625488	11203.951820
512.989866	11177.213540
513.354186	11174.997953
513.718449	11073.733775
514.082655	11265.365677
514.446803	11163.100830
514.810894	11290.579008
515.174927	11155.642443
515.538904	11176.444764
515.902822	11328.725419
516.266684	11218.772812
516.630488	11158.047073
516.994235	11213.590506
517.357925	11276.128540
517.721558	11359.388237
518.085133	11379.585620
518.448651	11391.883515
518.812112	11264.637230
519.175516	11294.059925
519.538863	11413.913357
519.902152	11327.707106
520.265385	11486.047228
520.628560	11395.019113
520.991678	11376.447502
521.354739	11442.411000
521.717743	11361.687003
522.080690	11351.057731
522.443580	11480.542288
522.806413	11438.247007
523.169189	11473.124230
523.531908	11526.547858
523.894569	11342.485248
524.257174	11353.399347
524.619722	11466.827829
524.982213	11415.602144
525.344647	11469.408899
525.707025	11418.946949
526.069345	11514.494459
526.431608	11421.051631
526.793815	11532.972808
527.155964	11333.499392
527.518057	11378.272400
527.880093	11330.189874
528.242072	11397.333002
528.603995	11305.931842
528.965860	11218.878677
529.327669	11275.120310
529.689421	11223.761034
530.051117	11202.983919
530.412755	11310.458798
530.774337	11193.544358
531.135862	11174.221615
531.497331	11200.375122
531.858743	11051.706453
532.220098	11211.281658
532.581396	11089.658780
532.942638	11072.728065
533.303824	11032.028309
533.664953	11041.906450
534.026025	10957.935951
534.387040	11054.915148
534.747999	11054.196783
535.108902	11119.371341
535.469748	10879.243539
535.830537	10982.579631
536.191270	10967.360388
536.551947	10982.637605
536.912567	10980.810186
537.273131	10905.820502
537.633638	10884.929961
537.994089	10874.404032
538.354483	10820.443521
538.714821	10968.411468
539.075103	10982.075516
539.435328	10936.581623
539.795497	10772.063567
540.155609	10925.312124
540.515665	11012.977789
540.875665	10754.414488
541.235609	10822.268418
541.595496	10809.380709
541.955328	10974.768363
542.315102	10848.487460
542.674821	10804.447940
543.034483	10810.746861
543.394090	10818.364045
543.753640	10737.947559
544.113134	10964.423916
544.472571	10813.239712
544.831953	10956.484098
545.191278	10764.222052
545.550548	10793.443101
545.909761	10927.202556
546.268918	10907.166490
546.628019	10991.918369
546.987064	10851.307985
547.346053	10774.261510
547.704986	10874.862777
548.063863	10852.802687
548.422684	10847.678354
548.781449	10768.625500
549.140158	10867.510254
549.498811	10747.155226
549.857408	10602.585016
550.215949	10825.605662
550.574434	10682.459578
550.932864	10784.981524
551.291237	10839.259628
551.649555	10784.396750
552.007817	10799.545418
552.366022	10762.371949
552.724173	10756.025136
553.082267	10736.541077
553.440305	10877.242201
553.798288	10674.353403
554.156215	10833.306025
554.514086	10808.390122
554.871902	10651.842130
555.229661	10694.752432
555.587365	10664.334110
555.945014	10572.164173
556.302606	10691.745384
556.660143	10588.041287
557.017625	10735.487476
557.375050	10635.476024
557.732421	10770.924267
558.089735	10686.190032
558.446994	10685.111225
558.804197	10723.418953
559.161345	10723.348377
559.518437	10575.529143
559.875474	10658.541824
560.232455	10688.279590
560.589381	10637.489965
560.946251	10641.124637
561.303065	10749.643036
561.659825	10682.265494
562.016528	10611.664134
562.373177	10493.716258
562.729770	10603.162228
563.086307	10513.686789
563.442789	10612.758065
563.799216	10486.761986
564.155587	10535.540191
564.511904	10489.426236
564.868164	10481.899793
565.224370	10502.674388
565.580520	10417.312530
565.936615	10429.219735
566.292654	10294.767121
566.648638	10425.809395
567.004567	10380.043280
567.360441	10364.201454
567.716260	10280.598958
568.072023	10367.891578
568.427732	10320.008178
568.783385	10235.558769
569.138982	10301.897833
569.494525	10318.127828
569.850013	10193.364312
570.205445	10274.726014
570.560823	10173.948307
570.916145	10092.100134
571.271412	10160.964816
571.626625	10106.238050
571.981782	10079.288041
572.336884	10059.758611
572.691931	10068.930991
573.046923	10010.650211
573.401860	9962.413930
573.756743	9900.649713
574.111570	9943.681003
574.466342	9927.072921
574.821059	9958.864958
575.175722	9849.650881
575.530330	9861.802582
575.884882	9852.584832
576.239380	9778.126990
576.593823	9757.947251
576.948211	9770.088870
577.302544	9646.525148
577.656823	9663.367643
578.011047	9668.575155
578.365216	9643.044231
578.719330	9559.421571
579.073389	9577.584849
579.427394	9518.557978
579.781344	9500.314043
580.135239	9445.453686
580.489080	9458.774935
580.842866	9356.777269
581.196597	9363.489565
581.550273	9405.857943
581.903895	9373.287048
582.257463	9434.108569
582.610975	9313.007451
582.964434	9342.041976
583.317837	9263.435264
583.671186	9244.873736
584.024481	9237.248991
584.377721	9165.072271
584.730906	9136.186459
585.084037	9166.675358
585.437113	9105.379968
585.790135	9123.792782
586.143103	9022.881485
586.496016	8995.528184
586.848874	9058.093945
587.201679	9043.688848
587.554428	8931.119882
587.907124	8976.538158
588.259765	8946.651677
588.612352	8948.103530
588.964884	8829.888472
589.317362	8843.716357
589.669786	8836.936005
590.022155	8887.718068
590.374470	8904.500069
590.726731	8838.544133
591.078937	8701.339049
591.431090	8805.083474
591.783188	8677.743928
592.135232	8668.798401
592.487222	8676.027415
592.839157	8720.387049
593.191038	8656.523191
593.542866	8602.197197
593.894639	8500.030652
594.246358	8553.532418
594.598022	8564.842247
594.949633	8465.108059
595.301190	8443.668032
595.652692	8465.594530
596.004141	8582.423271
596.355535	8352.400462
596.706876	8336.508224
597.058162	8269.518852
597.409395	8351.956840
597.760573	8410.734174
598.111698	8321.783014
598.462768	8309.243144
598.813785	8271.557998
599.164748	8236.766475
599.515657	8228.355310
599.866511	8137.107905
600.217312	8266.118593
600.568060	8123.461501
600.918753	8228.045279
601.269392	8197.977317
601.619978	8113.689224
601.970510	8170.989500
602.320988	8170.077051
602.671412	8225.063436
603.021783	8161.681009
603.372100	8138.572360
603.722363	8141.990262
604.072572	8108.108667
604.422728	8123.514433
604.772830	8054.211171
605.122878	8063.623005
605.472872	8059.998415
605.822813	8085.761232
606.172701	8028.753344
606.522534	8107.425591
606.872314	8101.298068
607.222041	8077.876867
607.571714	8129.836040
607.921333	8090.787262
608.270899	8100.511648
608.620411	8180.839914
608.969870	8089.670647
609.319276	8078.355777
609.668627	8104.138758
610.017926	8137.312071
610.367171	8179.569543
610.716362	8155.440061
611.065500	8142.625447
611.414585	8173.313472
611.763616	8159.914085
612.112594	8143.802557
612.461518	8162.104466
612.810389	8218.499854
613.159207	8154.961151
613.507971	8106.687062
613.856682	8224.960093
614.205340	8180.905449
614.553945	8260.348993
614.902496	8157.638004
615.250994	8209.980304
615.599439	8190.871810
615.947830	8209.428298
616.296169	8184.739247
616.644454	8187.834515
616.992686	8193.044548
617.340864	8257.021831
617.688990	8152.395204
618.037063	8248.403979
618.385082	8193.087397
618.733048	8281.158876
619.080961	8213.148669
619.428821	8237.530210
619.776628	8239.284531
620.124382	8195.965896
620.472083	8172.408584
620.819731	8203.411681
621.167326	8092.675175
621.514868	8104.695806
621.862357	7993.498034
622.209793	8010.612752
622.557176	7942.249664
622.904506	7913.530211
623.251783	7843.788368
623.599007	7803.713716
623.946179	7806.569529
624.293297	7762.643435
624.640363	7680.495313
624.987376	7667.123652
625.334336	7613.700024
625.681243	7555.941004
626.028097	7550.627628
626.374899	7527.851695
626.721647	7515.268975
627.068343	7446.404293
627.414987	7414.874396
627.761577	7374.167079
628.108115	7412.114364
628.454600	7306.814743
628.801032	7354.924994
629.147412	7321.348389
629.493739	7302.812067
629.840014	7241.539362
630.186236	7296.515665
630.532405	7183.608943
630.878521	7234.038125
631.224585	7188.024993
631.570597	7110.413909
631.916556	7144.421533
632.262462	7142.717623
632.608316	7103.809998
632.954117	7079.743529
633.299866	7065.794657
633.645562	7056.854170
633.991206	6975.063970
634.336797	6918.494662
634.682336	6877.583178
635.027823	6847.369022
635.373257	6834.695562
635.718639	6765.944305
636.063968	6783.490041
636.409245	6675.440470
636.754470	6676.660430
637.099642	6629.444983
637.444762	6577.218629
637.789829	6586.655669
638.134845	6532.211207
638.479808	6513.473238
638.824719	6518.564804
639.169577	6445.803310
639.514383	6465.350384
639.859137	6395.694241
640.203839	6405.017855
640.548489	6392.984620
640.893086	6365.953953
641.237632	6340.019737
641.582125	6358.281317
641.926566	6330.537327
642.270955	6344.002249
642.615292	6333.834242
642.959576	6356.733683
643.303809	6340.927145
643.647990	6347.092476
643.992118	6336.558985
644.336195	6286.333970
644.680219	6311.648124
645.024192	6300.918028
645.368112	6391.699126
645.711981	6417.474546
646.055797	6496.086299
646.399562	6452.278672
646.743274	6580.639052
647.086935	6633.402288
647.430544	6628.630836
647.774101	6648.719834
648.117606	6650.632952
648.461059	6647.746892
648.804460	6612.766325
649.147810	6513.427868
649.491108	6486.293857
649.834354	6462.164375
650.177548	6379.421396
650.520690	6292.950484
650.863781	6270.035919
651.206820	6290.089629
651.549807	6210.973761
651.892742	6150.376571
652.235626	6159.125493
652.578458	6141.773842
652.921238	6051.653135
653.263967	6089.560091
653.606644	6029.950967
653.949269	6038.531011
654.291843	5974.914170
654.634365	6020.992837
654.976836	5978.644624
655.319255	5978.687474
655.661622	5951.278720
656.003938	5951.525737
656.346203	5911.569552
656.688416	5944.175735
657.030577	5895.458024
657.372687	5868.576071
657.714746	5850.019584
658.056753	5894.641357
658.398708	5838.140105
658.740612	5825.620399
659.082465	5875.346341
659.424266	5867.366194
659.766016	5864.424681
660.107715	5839.778480
660.449362	5856.144586
660.790958	5851.143761
661.132503	5841.356361
661.473996	5882.769440
661.815438	5862.690524
662.156829	5860.593404
662.498168	5855.020408
662.839456	5827.309186
663.180693	5865.710175
663.521879	5866.554568
663.863013	5862.640112
664.204097	5870.015320
664.545129	5913.354120
664.886110	5905.099231
665.227040	5942.171876
665.567918	5908.237349
665.908746	5938.920332
666.249522	5938.302790
666.590248	5924.653866
666.930922	5955.959432
667.271545	5966.470238
667.612118	5971.032482
667.952639	5944.599192
668.293109	5961.318178
668.633528	5927.393733
668.973896	5927.058497
669.314213	5917.182876
669.654480	5897.479527
669.994695	5892.088013
670.334859	5886.300768
670.674973	5874.073449
671.015035	5876.926742
671.355047	5881.239449
671.695008	5865.251430
672.034918	5838.994580
672.374777	5847.206620
672.714585	5831.417726
673.054342	5834.651626
673.394049	5830.124670
673.733705	5856.653742
674.073310	5849.076888
674.412864	5807.731865
674.752368	5795.892715
675.091820	5804.167769
675.431223	5737.521194
675.770574	5739.509930
676.109875	5689.892373
676.449125	5695.684659
676.788324	5663.620400
677.127473	5605.505978
677.466571	5598.261840
677.805619	5586.475622
678.144616	5575.823664
678.483562	5548.432555
678.822458	5518.067165
679.161303	5513.530126
679.500098	5505.809599
679.838842	5488.717567
680.177535	5490.388709
680.516179	5509.081308
680.854771	5518.069685
681.193314	5602.254434
681.531805	5708.685794
681.870247	5859.111305
682.208638	5963.926975
682.546978	5976.567669
682.885268	5958.278363
683.223508	5869.967429
683.561697	5817.201672
683.899836	5788.978772
684.237925	5738.461370
684.575963	5707.919539
684.913951	5660.169730
685.251889	5726.055090
685.589776	5696.019895
685.927614	5665.896481
686.265401	5735.063632
686.603137	5718.901693
686.940824	5799.076203
687.278460	5819.371889
687.616046	5829.900339
687.953582	5903.665022
688.291068	5879.429675
688.628504	5944.465601
688.965889	5906.709879
689.303224	5849.581003
689.640510	5798.738446
689.977745	5724.280604
690.314930	5626.590604
690.652065	5568.924845
690.989150	5478.559642
691.326185	5403.252365
691.663170	5348.878480
692.000105	5273.304022
692.336990	5191.614644
692.673825	5166.587836
693.010610	5098.837249
693.347345	5031.006003
693.684030	5017.268859
694.020665	4975.291171
694.357251	4885.782964
694.693786	4896.039192
695.030272	4862.775138
695.366707	4823.592770
695.703093	4790.232934
696.039429	4813.747396
696.375716	4800.615190
696.711952	4772.389770
697.048139	4762.778810
697.384276	4738.019183
697.720363	4747.804063
698.056400	4757.742697
698.392388	4707.787383
698.728326	4687.995813
699.064214	4668.642824
699.400053	4662.079242
699.735842	4625.737563
700.071581	4603.574131
700.407270	4576.639246
700.742910	4560.280701
701.078501	4505.324563
701.414042	4501.339531
701.749533	4474.475222
702.084974	4403.871342
702.420366	4463.298984
702.755709	4406.485180
703.091002	4350.861088
703.426246	4399.477976
703.761440	4356.978528
704.096584	4319.590811
704.431679	4340.052854
704.766725	4320.929237
705.101721	4315.116787
705.436668	4341.335828
705.771565	4287.929844
706.106413	4314.229544
706.441212	4350.114998
706.775961	4357.628837
707.110661	4337.912885
707.445311	4364.073952
707.779913	4389.677973
708.114465	4398.368922
708.448967	4423.448662
708.783421	4488.552644
709.117825	4531.079818
709.452180	4532.274571
709.786485	4578.300306
710.120742	4661.711237
710.454949	4645.738341
710.789107	4711.709401
711.123216	4783.533241
711.457275	4782.008292
711.791286	4852.186194
712.125247	4872.537332
712.459159	4771.847846
712.793023	4849.718549
713.126837	4806.825892
713.460602	4800.947907
713.794318	4719.823138
714.127985	4728.960230
714.461602	4641.042507
714.795171	4613.643835
715.128691	4552.809711
715.462162	4493.792923
715.795584	4439.895427
716.128957	4423.060494
716.462281	4372.215416
716.795556	4343.995037
717.128782	4306.022545
717.461960	4239.106269
717.795088	4249.044904
718.128167	4208.945046
718.461198	4148.489008
718.794180	4147.753000
719.127113	4124.077221
719.459997	4102.669961
719.792833	4057.334864
720.125619	4053.004513
720.458357	4013.907845
720.791046	4019.611910
721.123686	3994.333044
721.456278	3952.370480
721.788821	3968.996205
722.121315	3940.435548
722.453761	3918.642640
722.786158	3926.038012
723.118506	3949.683545
723.450805	3901.374167
723.783056	3925.223866
724.115259	3942.774643
724.447412	3942.966207
724.779518	3938.575362
725.111574	3945.721198
725.443582	3972.726659
725.775542	3958.613949
726.107453	4008.922143
726.439315	4005.665558
726.771129	4021.610728
727.102895	4061.773600
727.434612	4109.682206
727.766281	4122.945482
728.097901	4122.690903
728.429473	4126.433960
728.760996	4130.862614
729.092471	4124.694762
729.423897	4111.149182
729.755276	4118.594966
730.086606	4118.600007
730.417887	4152.360614
730.749120	4218.934092
731.080305	4282.866005
731.411442	4311.504800
731.742530	4281.066313
732.073570	4283.193680
732.404562	4338.873224
732.735506	4333.252338
733.066401	4293.268426
733.397249	4233.278695
733.728048	4150.785254
734.058798	4066.247624
734.389501	3996.692304
734.720156	3932.657047
735.050762	3891.717837
735.381320	3884.309862
735.711831	3833.268179
736.042293	3802.605361
736.372707	3824.519256
736.703073	3798.307777
737.033391	3788.354019
737.363661	3804.286585
737.693883	3831.619722
738.024056	3842.120445
738.354182	3834.689784
738.684260	3897.779825
739.014290	3919.597938
739.344272	3914.496291
739.674207	3957.966160
740.004093	3962.225935
740.333931	3957.540183
740.663722	3956.153866
740.993464	3952.584729
741.323159	3929.415586
741.652806	3899.791245
741.982405	3874.083881
742.311956	3843.738655
742.641460	3833.374043
742.970915	3813.539623
743.300323	3769.926081
743.629683	3735.018611
743.958996	3725.826067
744.288260	3696.088300
744.617477	3665.440606
744.946647	3651.368225
745.275768	3626.190182
745.604842	3623.904018
745.933869	3574.999785
746.262847	3565.623239
746.591778	3604.309053
746.920662	3576.491967
747.249498	3544.601627
747.578286	3591.915377
747.907027	3606.464147
748.235720	3606.101184
748.564365	3630.376860
748.892963	3631.634628
749.221514	3614.633337
749.550017	3592.006117
749.878473	3591.272630
750.206881	3558.605953
750.535242	3552.309552
750.863555	3558.018658
751.191821	3553.259809
751.520039	3533.848846
751.848210	3509.318592
752.176334	3546.345867
752.504411	3555.079666
752.832440	3512.497039
753.160421	3493.650685
753.488356	3501.749299
753.816243	3517.560878
754.144082	3469.831233
754.471875	3459.028041
754.799620	3478.091164
755.127318	3466.980461
755.454969	3469.077581
755.782572	3472.979434
756.110129	3450.790795
756.437638	3437.681275
756.765100	3454.745581
757.092515	3460.830253
757.419882	3475.895742
757.747203	3444.572532
758.074477	3446.634364
758.401703	3460.366467
758.728882	3486.038543
759.056014	3489.418637
759.383099	3496.909791
759.710138	3490.966271
760.037129	3509.971421
760.364073	3537.594423
760.690970	3522.309645
761.017820	3500.725945
761.344623	3519.733615
761.671379	3564.143660
761.998088	3616.889253
762.324751	3744.939602
762.651366	3990.766428
762.977935	4463.059529
763.304456	4909.148712
763.630931	5012.686450
763.957359	4651.956605
764.283740	4304.558090
764.610074	4114.955253
764.936362	3912.636105
765.262602	3754.545520
765.588796	3640.723828
765.914943	3552.175961
766.241044	3462.521560
766.567097	3431.064760
766.893104	3382.793192
767.219064	3352.886547
767.544978	3327.194306
767.870845	3270.824124
768.196665	3256.116557
768.522438	3262.044954
768.848165	3255.393152
769.173846	3218.539797
769.499479	3205.773074
769.825066	3186.604087
770.150607	3168.730676
770.476101	3183.715506
770.801548	3180.189219
771.126949	3135.028042
771.452303	3114.535752
771.777611	3127.105869
772.102872	3130.334728
772.428087	3104.551746
772.753256	3092.279057
773.078378	3088.082297
773.403453	3054.102399
773.728482	3039.656973
774.053465	3060.807134
774.378401	3047.705175
774.703291	3016.296266
775.028135	3019.157121
775.352932	3012.230575
775.677683	3000.053668
776.002388	2997.520488
776.327046	3000.348576
776.651658	2988.171669
776.976224	2974.701706
777.300743	2978.679176
777.625216	2968.052424
777.949643	2961.846763
778.274024	2963.122175
778.598359	2954.786627
778.922647	2959.278295
779.246889	2956.666978
779.571086	2941.757765
779.895236	2938.622168
780.219339	2948.079372
780.543397	2960.571351
780.867409	2964.039665
781.191374	2956.089766
781.515294	2952.704631
781.839167	2956.188068
782.162995	2946.624999
782.486776	2953.203705
782.810511	2951.691359
783.134201	2936.779626
783.457844	2946.357818
783.781441	2937.515634
784.104993	2917.262799
784.428498	2914.459917
784.751958	2932.000612
785.075372	2924.257400
785.398739	2911.473033
785.722061	2923.458377
786.045337	2936.676282
786.368568	2922.772780
786.691752	2913.325658
787.014891	2960.314253
787.337983	2992.295333
787.661030	3019.610825
787.984031	3086.945517
788.306987	3132.678864
788.629897	3126.319449
788.952760	3107.359669
789.275579	3094.146805
789.598351	3037.542209
789.921078	2992.413800
790.243759	2981.313179
790.566395	2963.401959
790.888984	2939.718618
791.211529	2921.749426
791.534027	2911.707447
791.856480	2903.513052
792.178888	2885.402706
792.501249	2879.086141
792.823566	2875.355687
793.145836	2871.347969
793.468062	2866.896631
793.790241	2866.379912
794.112375	2875.509442
794.434464	2885.737943
794.756507	2892.082235
795.078505	2898.323184
795.400457	2909.287693
795.722364	2945.170626
796.044226	2973.678351
796.366042	2979.248826
796.687812	2962.461784
797.009538	2983.997593
797.331218	2969.731128
797.652852	2957.251752
797.974442	2937.581169
798.295986	2936.076385
798.617484	2929.855601
798.938938	2913.030750
799.260346	2898.734038
799.581709	2894.595250
799.903026	2886.884806
800.224299	2879.502036
800.545526	2871.975593
800.866708	2854.989425
801.187845	2846.611027
801.508936	2847.205884
801.829983	2854.051771
802.150984	2841.968125
802.471940	2828.528409
802.792851	2829.932370
803.113717	2828.964468
803.434538	2833.546877
803.755314	2827.401711
804.076045	2821.387614
804.396731	2819.764363
804.717372	2820.639003
805.037967	2817.074907
805.358518	2822.985660
805.679024	2832.873883
805.999485	2827.668892
806.319901	2834.613081
806.640272	2823.220074
806.960598	2828.392297
807.280879	2840.281859
807.601115	2847.485668
807.921306	2835.865808
808.241453	2829.763491
808.561554	2835.878411
808.881611	2839.818073
809.201623	2832.805828
809.521590	2833.304902
809.841513	2825.796103
810.161390	2832.158039
810.481223	2824.485403
810.801011	2816.336378
811.120755	2813.881336
811.440453	2812.318578
811.760107	2814.851758
812.079716	2812.830256
812.399281	2802.856333
812.718801	2798.263842
813.038276	2793.210085
813.357707	2799.687967
813.677093	2806.964873
813.996434	2799.919861
814.315731	2793.870476
814.634983	2791.203706
814.954191	2792.267389
815.273354	2804.038483
815.592473	2815.063487
815.911547	2819.981132
816.230577	2824.016576
816.549562	2833.282217
816.868502	2831.810200
817.187399	2841.857219
817.506250	2859.511340
817.825058	2852.675536
818.143821	2864.764222
818.462539	2880.185112
818.781213	2907.004051
819.099843	2943.370934
819.418429	3001.361848
819.736970	3065.452557
820.055466	3138.309833
820.373919	3246.863519
820.692327	3388.290570
821.010691	3558.742064
821.329011	4003.260928
821.647286	4912.380092
821.965517	6307.138812
822.283704	7073.036274
822.601847	7067.611993
822.919945	6422.901348
823.237999	5911.040230
823.556010	5311.702491
823.873976	4752.494856
824.191897	4334.550435
824.509775	4036.754354
824.827609	3763.538939
825.145398	3635.423055
825.463144	3622.371508
825.780845	3714.680076
826.098502	3818.850479
826.416116	4104.671299
826.733685	4430.221453
827.051210	4496.656299
827.368692	4383.996592
827.686129	4107.343111
828.003522	3779.479067
828.320872	3516.378728
828.638177	3322.858914
828.955439	3179.687624
829.272656	3093.625045
829.589830	3029.211702
829.906960	2971.591314
830.224046	2927.927360
830.541088	2895.245559
830.858086	2879.370966
831.175041	2859.942359
831.491952	2862.140302
831.808819	2873.984493
832.125642	2899.777557
832.442421	2942.995368
832.759157	3029.652803
833.075849	3206.642673
833.392497	3491.314111
833.709101	3697.837581
834.025662	3651.521980
834.342179	3491.311590
834.658653	3309.948519
834.975083	3156.667195
835.291469	3059.990467
835.607811	2972.491160
835.924110	2914.916142
836.240366	2863.256918
836.556578	2817.838642
836.872746	2795.902061
837.188871	2771.646549
837.504952	2753.022006
837.820990	2746.695358
838.136984	2731.513923
838.452935	2728.373285
838.768842	2724.685681
839.084706	2742.720408
839.400526	2822.259734
839.716303	2957.208902
840.032037	3038.973897
840.347727	3026.161804
840.663373	2963.780046
840.978977	2886.113509
841.294537	2816.091882
841.610054	2764.742689
841.925527	2740.099008
842.240957	2719.778117
842.556344	2696.379602
842.871687	2680.681449
843.186987	2673.341529
843.502244	2664.895075
843.817458	2664.075888
844.132629	2650.182468
844.447756	2642.242651
844.762840	2634.138996
845.077881	2633.745786
845.392879	2636.122690
845.707833	2634.048255
846.022745	2625.493417
846.337613	2626.975516
846.652438	2624.631380
846.967221	2626.617594
847.281960	2621.720113
847.596656	2622.798920
847.911309	2621.931842
848.225919	2618.773559
848.540485	2614.808691
848.855009	2614.990173
849.169490	2618.292129
849.483928	2615.320368
849.798323	2613.054370
850.112675	2611.481530
850.426984	2614.107971
850.741251	2612.769545
851.055474	2609.739811
851.369654	2616.305914
851.683792	2616.799947
851.997887	2612.152003
852.311938	2612.542693
852.625947	2613.540841
852.939914	2616.283229
853.253837	2615.887498
853.567718	2611.620162
853.881555	2613.561006
854.195350	2617.450256
854.509103	2611.965481
854.822812	2611.184102
855.136479	2610.569081
855.450103	2612.094030
855.763685	2613.666870
856.077224	2613.099740
856.390720	2610.387599
856.704173	2611.680655
857.017584	2616.827673
857.330953	2619.265071
857.644278	2621.770525
857.957561	2621.064763
858.270802	2614.347426
858.584000	2616.134515
858.897155	2620.711882
859.210268	2620.822788
859.523339	2615.756428
859.836367	2611.693258
860.149352	2613.724843
860.462295	2617.225925
860.775195	2610.662342
861.088054	2608.968515
861.400869	2610.730398
861.713642	2604.065992
862.026373	2606.664707
862.339062	2612.101592
862.651708	2614.067642
862.964312	2617.583847
863.276873	2614.254164
863.589392	2618.571913
863.901869	2622.884620
864.214303	2629.516258
864.526696	2629.821247
864.839045	2628.243366
865.151353	2634.015487
865.463619	2635.036321
865.775842	2630.191772
866.088023	2631.550363
866.400162	2632.641773
866.712258	2632.823255
867.024313	2632.172946
867.336325	2628.238325
867.648296	2628.954169
867.960224	2634.610344
868.272110	2634.297792
868.583954	2627.124230
868.895755	2628.079529
869.207515	2634.945580
869.519233	2639.810294
869.830909	2636.382309
870.142542	2634.270066
870.454134	2637.554377
870.765684	2637.483801
871.077191	2642.464461
871.388657	2646.719195
871.700081	2643.162661
872.011463	2644.057466
872.322803	2644.042342
872.634101	2650.908394
872.945357	2655.624393
873.256571	2660.423572
873.567744	2660.191679
873.878874	2655.016934
874.189963	2660.310146
874.501010	2663.274344
874.812015	2667.095539
875.122979	2668.822134
875.433900	2661.008346
875.744780	2655.173210
876.055618	2662.432472
876.366415	2666.339366
876.677169	2671.766168
876.987882	2661.870383
877.298554	2661.777122
877.609183	2673.412105
877.919771	2683.741429
878.230317	2685.679753
878.540822	2697.977647
878.851285	2712.055070
879.161707	2738.379975
879.472087	2777.335491
879.782425	2825.095383
880.092722	2941.873712
880.402977	3136.744555
880.713191	3400.502765
881.023363	3704.761606
881.333494	3904.199734
881.643583	4080.244388
881.953631	4080.977876
882.263637	3900.302922
882.573602	3676.095084
882.883526	3540.435114
883.193408	3419.361722
883.503248	3316.290290
883.813048	3194.485931
884.122806	3078.022674
884.432522	2992.053357
884.742197	2927.244283
885.051831	2886.758777
885.361424	2850.152438
885.670975	2811.393527
885.980485	2778.436983
886.289954	2761.624735
886.599382	2749.931779
886.908768	2733.578276
887.218113	2717.176882
887.527417	2702.975952
887.836680	2694.637883
888.145901	2690.468849
888.455082	2679.426201
888.764221	2668.529747
889.073319	2663.473470
889.382376	2659.899292
889.691392	2661.346103
890.000366	2660.786535
890.309300	2657.734116
890.618193	2661.310815
890.927044	2662.805517
891.235855	2663.614622
891.544625	2664.597647
891.853353	2663.632266
892.162041	2671.143586
892.470687	2690.362985
892.779293	2702.585262
893.087858	2714.837787
893.396381	2737.598596
893.704864	2780.576953
894.013306	2853.353571
894.321707	2946.854372
894.630068	3000.038545
894.938387	3020.896319
895.246665	3017.168386
895.554903	2969.839513
895.863100	2924.045671
896.171256	2863.897144
896.479371	2805.795325
896.787446	2765.299737
897.095480	2741.422311
897.403473	2732.769171
897.711425	2720.012531
898.019336	2701.622402
898.327207	2684.989115
898.635038	2683.552386
898.942827	2681.961902
899.250576	2673.333967
899.558284	2658.331493
899.865952	2656.231852
900.173579	2654.313693
900.481165	2652.226656
900.788711	2643.318937
901.096216	2635.668986
901.403681	2633.357617
901.711105	2637.072947
902.018489	2628.810496
902.325832	2637.040180
902.633135	2636.372227
902.940397	2652.781183
903.247619	2692.364323
903.554800	2765.440889
903.861941	2893.531567
904.169041	3026.708769
904.476101	3091.747216
904.783121	3083.578026
905.090100	3026.169366
905.397039	2949.879064
905.703938	2872.222610
906.010796	2806.732980
906.317614	2754.360433
906.624391	2713.138918
906.931129	2683.663291
907.237826	2665.434479
907.544483	2641.496560
907.851099	2633.037504
908.157675	2620.311111
908.464211	2613.515635
908.770707	2602.120107
909.077163	2597.860332
909.383578	2591.692480
909.689954	2594.530650
909.996289	2592.325145
910.302584	2590.326328
910.608839	2587.094948
910.915054	2586.999166
911.221229	2590.263313
911.527363	2592.635176
911.833458	2591.299270
912.139513	2591.586616
912.445527	2592.650300
912.751502	2598.916454
913.057436	2606.374841
913.363331	2611.393310
913.669186	2626.668006
913.975000	2634.723770
914.280775	2652.703045
914.586510	2673.023936
914.892205	2714.429453
915.197859	2778.747014
915.503475	2868.219933
915.809050	2939.716098
916.114585	2955.265537
916.420081	2966.252732
916.725536	2980.733446
917.030952	2952.407203
917.336328	2902.398957
917.641665	2854.510516
917.946961	2801.291054
918.252218	2763.736979
918.557435	2736.519789
918.862612	2713.827035
919.167750	2695.212575
919.472848	2676.968639
919.777906	2662.644200
920.082925	2645.637868
920.387904	2636.770478
920.692843	2631.439458
920.997743	2626.841926
921.302603	2619.572582
921.607423	2611.700820
921.912204	2606.256374
922.216946	2604.917947
922.521647	2603.360231
922.826310	2597.956114
923.130932	2595.485949
923.435516	2588.045206
923.740059	2585.219639
924.044564	2584.743250
924.349028	2581.693352
924.653454	2573.995510
924.957840	2571.129614
925.262186	2569.428224
925.566493	2568.795560
925.870761	2565.745662
926.174989	2568.059551
926.479178	2563.698953
926.783328	2563.492266
927.087438	2562.231977
927.391509	2559.902964
927.695541	2558.998077
927.999533	2557.072356
928.303486	2557.596636
928.607400	2556.144784
928.911275	2558.289795
929.215110	2555.801986
929.518906	2554.319886
929.822663	2553.767880
930.126381	2556.278375
930.430060	2555.287788
930.733699	2556.419527
931.037299	2556.792572
931.340861	2558.917419
931.644383	2557.394990
931.947866	2556.162428
932.251309	2555.706204
932.554714	2556.122099
932.858080	2555.146636
933.161407	2555.315514
933.464694	2558.879610
933.767943	2556.202757
934.071153	2555.295350
934.374323	2554.239228
934.677455	2553.039433
934.980548	2554.793755
935.283602	2552.255534
935.586617	2554.738302
935.889593	2554.312325
936.192530	2553.959444
936.495428	2551.358208
936.798287	2555.565051
937.101108	2556.515309
937.403890	2558.572100
937.706632	2563.724159
938.009336	2565.806155
938.312002	2569.705488
938.614628	2572.173133
938.917216	2575.893504
939.219765	2578.335943
939.522275	2578.164544
939.824747	2576.783268
940.127179	2569.723132
940.429573	2568.021743
940.731929	2567.862946
941.034246	2566.378326
941.336524	2567.270611
941.638763	2569.413101
941.940964	2568.601475
942.243126	2565.917061
942.545250	2565.859088
942.847335	2564.324056
943.149381	2562.733572
943.451389	2559.003118
943.753359	2559.247614
944.055290	2559.348437
944.357182	2558.332645
944.659036	2554.912222
944.960851	2555.640669
945.262628	2558.098231
945.564367	2558.602347
945.866067	2555.804506
946.167729	2560.212995
946.469352	2555.948179
946.770937	2555.171841
947.072484	2555.164280
947.373992	2556.381718
947.675462	2555.716286
947.976893	2555.623025
948.278286	2552.313507
948.579641	2552.784855
948.880958	2553.261244
949.182236	2552.210163
949.483476	2554.093034
949.784678	2551.204453
950.085841	2552.437015
950.386967	2553.122612
950.688054	2552.802499
950.989103	2554.211502
951.290114	2557.049671
951.591087	2555.237376
951.892021	2555.333158
952.192917	2558.602347
952.493776	2560.026472
952.794596	2560.555794
953.095378	2558.766184
953.396122	2560.394477
953.696828	2560.218036
953.997496	2560.018911
954.298126	2555.290308
954.598718	2556.782490
954.899272	2556.454815
955.199788	2551.300235
955.500266	2552.086655
955.800706	2546.440563
956.101108	2542.478216
956.401472	2544.477033
956.701798	2542.384955
957.002087	2542.211035
957.302337	2545.696993
957.602550	2542.087527
957.902724	2543.065510
958.202861	2542.959646
958.502960	2542.795809
958.803022	2540.857485
959.103045	2540.232382
959.403031	2542.536189
959.702979	2537.961342
960.002889	2540.494522
960.302762	2541.275901
960.602596	2541.495191
960.902393	2539.060314
961.202153	2539.151054
961.501875	2538.835982
961.801559	2536.791794
962.101205	2537.356404
962.400814	2537.850437
962.700385	2535.019829
962.999918	2538.858667
963.299414	2537.512679
963.598873	2538.730118
963.898293	2536.446475
964.197677	2537.661393
964.497022	2536.030580
964.796331	2536.325488
965.095601	2535.844058
965.394835	2537.207690
965.694030	2537.605941
965.993189	2536.978317
966.292309	2535.813811
966.591393	2536.340611
966.890439	2538.160468
967.189447	2537.641229
967.488419	2533.378933
967.787353	2538.268853
968.086249	2537.421939
968.385108	2537.863040
968.683930	2537.661393
968.982714	2536.761547
969.281462	2535.763399
969.580172	2536.199459
969.878844	2538.457896
970.177480	2537.590817
970.476078	2536.685930
970.774639	2536.383461
971.073162	2540.486960
971.371649	2533.895652
971.670098	2534.054448
971.968510	2537.391692
972.266885	2530.618902
972.565223	2537.530323
972.863524	2537.603420
973.161788	2535.539068
973.460014	2542.095088
973.758204	2540.542413
974.056356	2538.702392
974.354471	2540.885211
974.652550	2537.058976
974.950591	2540.285314
975.248595	2538.117618
975.546563	2536.058307
975.844493	2535.108049
976.142386	2534.591331
976.440243	2540.572660
976.738062	2536.247350
977.035845	2536.333049
977.333590	2536.489325
977.631299	2536.811959
977.928971	2536.015457
978.226606	2533.668800
978.524204	2534.525796
978.821765	2536.073430
979.119290	2536.751465
979.416777	2534.661907
979.714228	2537.253060
980.011642	2535.874304
980.309020	2538.437731
980.606360	2535.597041
980.903664	2538.588966
981.200931	2534.984541
981.498162	2540.923020
981.795356	2542.763041
982.092513	2542.669780
982.389633	2546.533824
982.686717	2546.279246
982.983764	2552.787376
983.280775	2552.316028
983.577749	2551.975750
983.874686	2551.620348
984.171587	2550.183620
984.468451	2544.018288
984.765279	2548.416695
985.062070	2541.928730
985.358824	2540.819676
985.655543	2538.505787
985.952224	2538.205838
986.248869	2538.014274
986.545478	2529.933305
986.842050	2531.738038
987.138586	2532.259797
987.435086	2533.268028
987.731549	2530.578572
988.027975	2532.037986
988.324366	2532.549663
988.620719	2534.341794
988.917037	2534.929088
989.213318	2533.046217
989.509563	2529.111597
989.805772	2532.090918
990.101944	2530.865918
990.398080	2532.078316
990.694180	2532.181659
990.990244	2535.783564
991.286271	2533.716691
991.582262	2534.936650
991.878217	2533.131917
992.174136	2529.676206
992.470019	2532.037986
992.765865	2531.216278
993.061676	2532.693336
993.357450	2531.929602
993.653188	2533.918337
993.948890	2535.400436
994.244556	2532.675692
994.540186	2536.033101
994.835780	2535.662576
995.131337	2538.692309
995.426859	2536.549819
995.722345	2535.017308
996.017795	2534.699716
996.313208	2538.407484
996.608586	2535.723070
996.903928	2537.769778
997.199234	2533.391536
997.494504	2536.640560
997.789738	2535.614685
998.084936	2538.808256
998.380099	2534.808100
998.675225	2536.201979
998.970316	2533.643594
999.265371	2535.801208
999.560390	2533.741896
999.855373	2532.153933
1000.150320	2532.443799
1000.445232	2532.917668
1000.740108	2530.124868
1001.034948	2530.651669
1001.329752	2531.753161
1001.624521	2530.989426
1001.919254	2529.174611
1002.213951	2530.013963
1002.508613	2526.354085
1002.803239	2530.702081
1003.097829	2528.153777
1003.392384	2530.099663
1003.686903	2533.840199
1003.981386	2533.189890
1004.275834	2529.335928
1004.570246	2534.301464
1004.864623	2530.122348
1005.158964	2530.545805
1005.453270	2530.248377
1005.747540	2533.139478
1006.041775	2530.326515
1006.335974	2530.833151
1006.630138	2530.876000
1006.924266	2528.579755
1007.218359	2530.041689
1007.512416	2529.799714
1007.806438	2531.919519
1008.100425	2532.048069
1008.394376	2528.642769
1008.688292	2532.519417
1008.982172	2527.677388
1009.276017	2527.629497
1009.569827	2530.528161
1009.863602	2528.683098
1010.157341	2530.792821
1010.451045	2530.906247
1010.744714	2530.989426
1011.038347	2531.145702
1011.331945	2529.537574
1011.625508	2532.862215
1011.919036	2527.629497
1012.212528	2528.514220
1012.505986	2527.712676
1012.799408	2532.731145
1013.092795	2531.324663
1013.386147	2531.478418
1013.679464	2528.748633
1013.972745	2529.114117
1014.265992	2531.332225
1014.559204	2530.361803
1014.852380	2528.746113
1015.145521	2531.178470
1015.438628	2528.829292
1015.731699	2528.577234
1016.024736	2528.945238
1016.317737	2530.318953
1016.610703	2531.120496
1016.903635	2527.674868
1017.196531	2526.684281
1017.489393	2526.359127
1017.782219	2526.840557
1018.075011	2526.749816
1018.367768	2529.527492
1018.660490	2531.244005
1018.953177	2531.244005
1019.245829	2531.244005
