Dividing Wavelength (nm)	Counts (n)	Blue Motor Position (mm): 0.000000	Red Motor Position (mm): 38.100000	
326.493990	2129.431276
326.888308	2129.431276
327.282561	2129.431276
327.676750	2097.684609
328.070874	2094.246542
328.464933	2096.948601
328.858929	2101.858685
329.252859	2112.613986
329.646726	2126.565380
330.040528	2136.443521
330.434265	2154.543783
330.827938	2170.763696
331.221547	2188.473269
331.615091	2207.680066
332.008571	2228.374002
332.401986	2246.927969
332.795338	2267.395053
333.188625	2285.187806
333.581847	2304.656742
333.975006	2322.522591
334.368100	2343.652588
334.761129	2357.722448
335.154095	2375.031250
335.546996	2393.696122
335.939833	2417.215625
336.332606	2430.846905
336.725315	2443.296035
337.117960	2452.143260
337.510540	2462.598613
337.903056	2472.653194
338.295508	2481.139977
338.687896	2488.003507
339.080220	2495.192193
339.472480	2502.905158
339.864676	2507.399347
340.256807	2510.592918
340.648875	2517.446367
341.040879	2518.376459
341.432818	2516.818743
341.824694	2521.580113
342.216506	2523.039527
342.608253	2522.333765
342.999937	2519.525842
343.391557	2522.328724
343.783113	2520.491223
344.174605	2517.088445
344.566033	2517.020389
344.957397	2516.170955
345.348697	2514.527538
345.739934	2512.962260
346.131106	2510.900428
346.522215	2511.097033
346.913260	2507.863133
347.304241	2504.477998
347.695159	2503.300889
348.086012	2502.975734
348.476802	2498.620178
348.867528	2500.256032
349.258191	2498.796618
349.648789	2497.778305
350.039324	2496.258397
350.429796	2497.488438
350.820203	2493.697491
351.210548	2492.432161
351.600828	2491.890237
351.991045	2493.747902
352.381198	2489.329331
352.771288	2493.090032
353.161314	2489.220946
353.551276	2490.753457
353.941175	2494.856956
354.331010	2489.271358
354.720782	2489.425113
355.110490	2491.512151
355.500135	2489.697335
355.889717	2491.353354
356.279235	2490.352685
356.668689	2491.612974
357.058080	2489.961996
357.447408	2489.543580
357.836672	2486.387818
358.225873	2490.526605
358.615010	2486.055102
359.004084	2491.759167
359.393095	2494.425938
359.782043	2494.211688
360.170927	2496.200424
360.559748	2496.702018
360.948505	2496.497852
361.337199	2500.266114
361.725830	2496.480208
362.114398	2499.577997
362.502903	2497.616988
362.891344	2499.651093
363.279722	2499.315857
363.668037	2502.315343
364.056289	2499.915754
364.444478	2501.433141
364.832603	2501.823831
365.220665	2503.164778
365.608665	2505.322392
365.996601	2502.093533
366.384474	2506.943123
366.772284	2506.895232
367.160031	2505.660149
367.547715	2508.762979
367.935336	2511.344050
368.322893	2519.059536
368.710388	2518.772190
369.097820	2528.857018
369.485189	2529.295599
369.872495	2535.158461
370.259738	2540.197094
370.646918	2551.968188
371.034035	2555.257541
371.421090	2564.671896
371.808081	2577.027764
372.195010	2586.046388
372.581875	2599.382761
372.968678	2612.840121
373.355418	2621.957047
373.742096	2640.846251
374.128710	2656.856956
374.515262	2670.463030
374.901751	2687.033302
375.288177	2698.781712
375.674540	2720.904815
376.060841	2737.563308
376.447079	2761.072729
376.833254	2778.870523
377.219367	2791.395269
377.605417	2829.992864
377.991404	2837.834379
378.377329	2859.818851
378.763191	2879.509597
379.148991	2915.326996
379.534727	2940.142075
379.920402	2967.349183
380.306013	2981.923158
380.691563	3031.903678
381.077049	3053.550393
381.462474	3068.298288
381.847835	3109.078703
382.233134	3130.874131
382.618371	3129.137454
383.003545	3201.500697
383.388657	3204.464895
383.773706	3238.873291
384.158693	3253.419540
384.543618	3279.878036
384.928480	3318.372287
385.313280	3365.028166
385.698017	3362.023638
386.082692	3417.269643
386.467305	3421.146290
386.851856	3457.021662
387.236344	3474.466574
387.620770	3505.835154
388.005133	3536.926471
388.389435	3559.798186
388.773674	3568.685740
389.157851	3613.970425
389.541965	3625.227321
389.926018	3594.151128
390.310008	3663.371212
390.693936	3681.380734
391.077802	3723.650809
391.461606	3717.908935
391.845348	3776.242647
392.229027	3775.451185
392.612645	3792.152528
392.996200	3868.412583
393.379694	3906.470774
393.763125	3969.326401
394.146494	3935.795166
394.529801	4000.135412
394.913047	4050.310017
395.296230	4015.594111
395.679351	4068.584199
396.062410	4093.580761
396.445408	4073.330446
396.828343	4105.243470
397.211217	4129.751039
397.594028	4052.321437
397.976778	4118.380717
398.359466	4146.951456
398.742092	4175.086136
399.124656	4095.342644
399.507158	4175.146630
399.889598	4200.155794
400.271977	4263.714662
400.654294	4234.854056
401.036549	4239.940580
401.418742	4211.100139
401.800874	4316.064524
402.182944	4337.436496
402.564952	4400.002256
402.946898	4385.955081
403.328783	4384.485584
403.710606	4297.077018
404.092367	4487.746059
404.474067	4455.833035
404.855705	4460.130618
405.237282	4392.402717
405.618797	4501.775590
406.000250	4532.614849
406.381642	4615.196511
406.762972	4578.239812
407.144240	4585.330195
407.525447	4586.154423
407.906593	4646.214730
408.287677	4690.476061
408.668700	4620.033498
409.049661	4672.232125
409.430560	4712.813414
409.811399	4638.617712
410.192176	4801.509995
410.572891	4740.075974
410.953545	4840.934339
411.334138	4720.596955
411.714669	4790.497595
412.095139	4683.166388
412.475547	4826.062935
412.855894	4806.533505
413.236180	4817.979445
413.616405	4769.032362
413.996568	4856.614848
414.376670	4799.836332
414.756711	4752.809928
415.136691	4785.542140
415.516609	4864.577350
415.896466	4900.162855
416.276262	4936.191982
416.655997	4913.912602
417.035670	5096.987146
417.415283	5190.140107
417.794834	5132.529801
418.174324	5088.598666
418.553753	4995.443184
418.933121	5177.270041
419.312428	5247.347121
419.691674	5188.479047
420.070859	5309.146626
420.449983	5223.179829
420.829045	5340.104352
421.208047	5248.960290
421.586988	5320.315302
421.965867	5330.284184
422.344686	5460.136745
422.723444	5318.387061
423.102141	5136.759329
423.480777	5433.952992
423.859352	5205.442529
424.237866	5463.713444
424.616319	5452.098625
424.994712	5561.852106
425.373044	5442.159991
425.751314	5587.514100
426.129524	5383.854005
426.507673	5582.684675
426.885762	5667.020658
427.263789	5593.916365
427.641756	5475.663499
428.019662	5595.353094
428.397508	5607.996308
428.775292	5552.785591
429.153016	5650.117669
429.530679	5575.899282
429.908282	5657.160161
430.285824	5534.309762
430.663305	5810.920394
431.040726	5541.984919
431.418086	5541.785793
431.795385	5648.996012
432.172624	5661.803064
432.549802	5657.671838
432.926920	5666.965205
433.303977	5672.220608
433.680974	5715.602258
434.057910	5729.770420
434.434786	5739.993880
434.811601	5707.425506
435.188355	5942.887720
435.565050	5818.255273
435.941683	5798.927489
436.318257	6012.979923
436.694770	5997.969887
437.071222	6030.160175
437.447614	5963.984949
437.823946	5874.401124
438.200218	6029.086409
438.576429	5896.105812
438.952580	5993.979814
439.328670	6036.731319
439.704700	5946.328307
440.080670	5931.202325
440.456580	6204.153080
440.832429	6082.504996
441.208218	5929.437921
441.583947	6087.891469
441.959616	6094.545792
442.335224	6019.583834
442.710773	6157.582900
443.086261	6179.753895
443.461689	5976.446681
443.837057	6123.698785
444.212365	6280.566890
444.587612	6174.657288
444.962800	6327.623540
445.337927	6301.427184
445.712995	5918.566673
446.088002	6493.101936
446.462949	6326.012892
446.837837	6255.850112
447.212664	6429.767399
447.587431	6572.946251
447.962139	7114.023376
448.336786	8037.595528
448.711374	7781.388966
449.085901	6856.740527
449.460369	6776.364370
449.834776	6708.714606
450.209124	7098.612568
450.583412	7252.516475
450.957640	7395.445789
451.331808	7164.273597
451.705917	6718.713735
452.079965	6640.079297
452.453954	6852.919333
452.827883	6724.448048
453.201752	6817.298540
453.575562	6614.820595
453.949311	6823.015208
454.323001	6710.897426
454.696632	6784.001718
455.070202	6928.536640
455.443713	7080.913077
455.817164	7187.316711
456.190556	7258.190293
456.563888	7339.282294
456.937160	7378.835187
457.310373	7040.205760
457.683526	7060.811476
458.056619	6952.560259
458.429653	6936.317661
458.802628	6878.175513
459.175542	6985.652913
459.548398	7339.350350
459.921194	7499.739700
460.293930	7509.504415
460.666607	8029.300309
461.039224	8339.250612
461.411782	8467.109397
461.784280	8493.396494
462.156719	8376.993731
462.529099	8259.267665
462.901419	7850.946807
463.273680	7743.711382
463.645882	7749.402845
464.018024	7618.219419
464.390106	7788.116386
464.762130	8168.201742
465.134094	8637.598700
465.505999	9657.005707
465.877845	10881.580114
466.249631	11540.753829
466.621358	11151.823769
466.993026	10524.946206
467.364634	10270.032700
467.736184	9906.540302
468.107674	9580.571732
468.479105	9601.679043
468.850477	9373.685299
469.221790	9145.557964
469.593043	8814.787696
469.964238	8677.411212
470.335373	8684.481430
470.706449	8741.617868
471.077467	8724.740085
471.448425	10039.984685
471.819324	11111.083684
472.190164	11129.972887
472.560945	9887.393999
472.931667	9091.206764
473.302330	8958.687432
473.672934	8605.947815
474.043479	8962.362433
474.413965	8905.228516
474.784393	8790.537225
475.154761	8938.331253
475.525070	9028.255355
475.895321	8854.582564
476.265513	9030.667547
476.635645	9207.014671
477.005719	9198.064102
477.375734	9318.489706
477.745691	9552.484944
478.115588	9687.192136
478.485427	9931.660371
478.855207	10468.013935
479.224928	11283.133224
479.594591	11906.834860
479.964194	11721.794267
480.333739	11666.759990
480.703226	11582.640777
481.072653	11671.987667
481.442022	11906.005590
481.811333	12098.900301
482.180584	11903.311093
482.549777	11611.982813
482.918912	11437.967223
483.287988	11457.559667
483.657005	11466.268261
484.025964	11155.279480
484.394864	11283.828903
484.763706	11258.398802
485.132489	11007.654331
485.501213	10975.668209
485.869879	11052.528162
486.238487	10889.451876
486.607036	11004.974957
486.975527	10781.692171
487.343959	10971.564710
487.712333	11016.020125
488.080648	10946.588313
488.448905	10989.170940
488.817104	10931.351426
489.185244	11196.564009
489.553326	11347.992709
489.921350	11888.301058
490.289315	12948.501082
490.657222	13294.593938
491.025070	13204.594218
491.392861	13077.370618
491.760593	12698.414481
492.128267	12347.242663
492.495883	12019.303002
492.863440	11682.574090
493.230939	11353.449758
493.598380	11281.910744
493.965763	11148.879735
494.333088	11043.355782
494.700354	10967.869544
495.067563	11030.589060
495.434713	10855.910559
495.801805	10985.934519
496.168839	10906.853939
496.535815	10846.891934
496.902733	10842.269196
497.269593	10775.108424
497.636395	10879.649352
498.003139	10862.227124
498.369825	10732.949255
498.736453	10893.762062
499.103023	10812.939763
499.469535	10842.864053
499.835989	10829.878040
500.202385	10801.158587
500.568723	10645.248301
500.935003	10866.144101
501.301226	10672.722590
501.667390	10929.632393
502.033497	11027.360201
502.399546	10888.748635
502.765537	10798.844697
503.131470	10862.874913
503.497345	11044.764785
503.863163	10651.819445
504.228923	10964.600356
504.594625	11031.798937
504.960269	10783.711153
505.325856	10998.265182
505.691385	10794.143821
506.056856	10945.988416
506.422270	10976.028652
506.787625	10864.485561
507.152924	10978.211472
507.518164	10952.231885
507.883347	10879.820751
508.248472	10800.556169
508.613540	11029.810202
508.978550	10914.667727
509.343503	10884.483819
509.708398	11009.937973
510.073236	11121.874274
510.438016	11124.503236
510.802738	11071.099772
511.167403	11125.677824
511.532010	11022.530776
511.896561	11254.688513
512.261053	11322.597897
512.625488	11194.996210
512.989866	11174.549290
513.354186	11169.014103
513.718449	11060.851107
514.082655	11254.756569
514.446803	11150.780250
514.810894	11277.098962
515.174927	11147.952163
515.538904	11168.300780
515.902822	11316.185549
516.266684	11202.255472
516.630488	11147.206072
516.994235	11205.872500
517.357925	11264.657395
517.721558	11354.210972
518.085133	11367.161697
518.448651	11377.738037
518.812112	11262.494740
519.175516	11274.780032
519.538863	11400.085472
519.902152	11314.002729
520.265385	11478.825775
520.628560	11378.809283
520.991678	11356.519821
521.354739	11433.357088
521.717743	11355.435973
522.080690	11335.697335
522.443580	11468.872017
522.806413	11424.245202
523.169189	11446.068357
523.531908	11510.741320
523.894569	11330.696510
524.257174	11331.329175
524.619722	11448.704881
524.982213	11393.045501
525.344647	11450.131527
525.707025	11399.193188
526.069345	11490.183494
526.431608	11406.989333
526.793815	11514.260045
527.155964	11310.118520
527.518057	11358.148113
527.880093	11311.096504
528.242072	11381.599561
528.603995	11281.540219
528.965860	11200.082735
529.327669	11259.812846
529.689421	11207.495751
530.051117	11174.022490
530.412755	11278.507965
530.774337	11165.124853
531.135862	11146.091977
531.497331	11169.273723
531.858743	11019.211176
532.220098	11190.411281
532.581396	11055.668800
532.942638	11029.716940
533.303824	10997.420788
533.664953	11010.779846
534.026025	10922.718450
534.387040	11023.097905
534.747999	11024.612772
535.108902	11083.188459
535.469748	10834.626807
535.830537	10936.778228
536.191270	10915.663355
536.551947	10940.768301
536.912567	10931.905953
537.273131	10851.060969
537.633638	10828.222021
537.994089	10825.305714
538.354483	10764.186764
538.714821	10909.288816
539.075103	10916.883314
539.435328	10879.931657
539.795497	10707.907323
540.155609	10859.610766
540.515665	10942.295771
540.875665	10675.172590
541.235609	10742.981151
541.595496	10734.529656
541.955328	10887.894159
542.315102	10768.491910
542.674821	10716.257994
543.034483	10709.638959
543.394090	10714.501152
543.753640	10644.338373
544.113134	10853.662204
544.472571	10713.661800
544.831953	10848.298416
545.191278	10653.717440
545.550548	10678.966059
545.909761	10808.576645
546.268918	10772.839905
546.628019	10857.042298
546.987064	10713.772705
547.346053	10633.482248
547.704986	10719.754034
548.063863	10711.015194
548.422684	10688.249343
548.781449	10607.941242
549.140158	10702.765346
549.498811	10568.103524
549.857408	10424.642368
550.215949	10636.927877
550.574434	10490.855403
550.932864	10577.031407
551.291237	10624.443459
551.649555	10560.892153
552.007817	10571.397918
552.366022	10531.224963
552.724173	10513.396922
553.082267	10489.398509
553.440305	10609.559453
553.798288	10415.843034
554.156215	10553.579960
554.514086	10514.861377
554.871902	10360.861689
555.229661	10389.621472
555.587365	10357.748777
555.945014	10242.555891
556.302606	10354.409012
556.660143	10245.152085
557.017625	10373.951045
557.375050	10270.367937
557.732421	10378.271314
558.089735	10286.439135
558.446994	10278.204410
558.804197	10302.137288
559.161345	10284.057190
559.518437	10135.174273
559.875474	10200.651299
560.232455	10213.707888
560.589381	10155.351491
560.946251	10123.670360
561.303065	10220.268950
561.659825	10135.096135
562.016528	10058.536131
562.373177	9934.642214
562.729770	10016.311427
563.086307	9925.759701
563.442789	9995.998097
563.799216	9858.349392
564.155587	9886.509277
564.511904	9823.784720
564.868164	9799.340165
565.224370	9806.375095
565.580520	9696.752684
565.936615	9700.629332
566.292654	9549.228358
566.648638	9652.274584
567.004567	9586.457279
567.360441	9556.341426
567.716260	9450.139438
568.072023	9527.231283
568.427732	9445.249519
568.783385	9358.082928
569.138982	9387.608966
569.494525	9374.519610
569.850013	9244.853571
570.205445	9290.665057
570.560823	9186.318213
570.916145	9084.998583
571.271412	9120.067370
571.626625	9045.359990
571.981782	9006.943877
572.336884	8955.400600
572.691931	8947.818704
573.046923	8863.104635
573.401860	8804.158423
573.756743	8724.538439
574.111570	8734.714008
574.466342	8702.377527
574.821059	8692.738840
575.175722	8579.998476
575.530330	8557.545177
575.884882	8523.928242
576.239380	8429.056247
576.593823	8399.252946
576.948211	8380.255358
577.302544	8263.845033
577.656823	8236.171619
578.011047	8217.950368
578.365216	8156.874269
578.719330	8072.127432
579.073389	8045.056435
579.427394	7988.164494
579.781344	7937.899149
580.135239	7873.019499
580.489080	7856.340841
580.842866	7744.144921
581.196597	7715.775828
581.550273	7721.991571
581.903895	7657.001015
582.257463	7689.604678
582.610975	7553.937145
582.964434	7551.565283
583.317837	7454.394522
583.671186	7426.721107
584.024481	7378.731843
584.377721	7296.218237
584.730906	7246.583037
585.084037	7243.848211
585.437113	7178.955958
585.790135	7159.018194
586.143103	7057.728811
586.496016	7014.846235
586.848874	7022.022318
587.201679	6992.168605
587.554428	6880.023096
587.907124	6882.891513
588.259765	6840.192940
588.612352	6798.502598
588.964884	6700.147165
589.317362	6675.291756
589.669786	6645.382591
590.022155	6661.776423
590.374470	6630.092771
590.726731	6570.639923
591.078937	6437.684532
591.431090	6476.493854
591.783188	6381.059771
592.135232	6327.847872
592.487222	6320.142468
592.839157	6308.658719
593.191038	6246.186220
593.542866	6183.791859
593.894639	6093.298107
594.246358	6101.605928
594.598022	6074.381177
594.949633	5989.062168
595.301190	5949.809224
595.652692	5934.078303
596.004141	5961.910514
596.355535	5822.129400
596.706876	5778.591475
597.058162	5713.356423
597.409395	5727.209514
597.760573	5736.679322
598.111698	5661.664432
598.462768	5621.594821
598.813785	5585.086784
599.164748	5532.752046
599.515657	5514.883676
599.866511	5428.682466
600.217312	5478.373119
600.568060	5378.361668
600.918753	5402.014762
601.269392	5361.607393
601.619978	5286.942864
601.970510	5293.498884
602.320988	5267.771356
602.671412	5261.341364
603.021783	5215.202203
603.372100	5172.241490
603.722363	5145.167973
604.072572	5118.996823
604.422728	5094.073359
604.772830	5039.308784
605.122878	5004.308053
605.472872	4988.766175
605.822813	4970.980985
606.172701	4926.787709
606.522534	4930.223256
606.872314	4907.356582
607.222041	4871.766036
607.571714	4865.623390
607.921333	4827.494623
608.270899	4799.755674
608.620411	4816.404084
608.969870	4758.322430
609.319276	4734.155139
609.668627	4712.737797
610.017926	4709.597158
610.367171	4701.120457
610.716362	4673.948638
611.065500	4645.937467
611.414585	4630.289725
611.763616	4609.898258
612.112594	4570.431065
612.461518	4554.506060
612.810389	4556.711564
613.159207	4508.563504
613.507971	4469.567658
613.856682	4481.426973
614.205340	4446.942960
614.553945	4459.515598
614.902496	4400.587030
615.250994	4393.398344
615.599439	4365.871124
615.947830	4347.735573
616.296169	4318.033094
616.644454	4304.951300
616.992686	4279.798463
617.340864	4277.474491
617.688990	4229.636462
618.037063	4241.601640
618.385082	4210.071744
618.733048	4211.541240
619.080961	4179.497146
619.428821	4164.908046
619.776628	4141.635560
620.124382	4114.468782
620.472083	4081.300510
620.819731	4074.479829
621.167326	4024.756408
621.514868	4004.858973
621.862357	3959.612097
622.209793	3942.872946
622.557176	3908.840116
622.904506	3879.936661
623.251783	3844.439376
623.599007	3815.624140
623.946179	3797.435657
624.293297	3767.503806
624.640363	3735.880648
624.987376	3710.745455
625.334336	3687.362063
625.681243	3655.663288
626.028097	3640.078561
626.374899	3621.854789
626.721647	3597.672374
627.068343	3574.167995
627.414987	3551.553378
627.761577	3527.338196
628.108115	3522.148328
628.454600	3486.585508
628.801032	3480.150475
629.147412	3465.866366
629.493739	3447.685445
629.840014	3425.035540
630.186236	3421.652926
630.532405	3390.528842
630.878521	3388.890467
631.224585	3368.836757
631.570597	3342.635360
631.916556	3340.170236
632.262462	3332.411900
632.608316	3310.281235
632.954117	3296.523926
633.299866	3288.165693
633.645562	3268.880759
633.991206	3244.902511
634.336797	3227.293760
634.682336	3210.017726
635.027823	3191.541897
635.373257	3179.773323
635.718639	3157.657782
636.063968	3149.891884
636.409245	3126.258955
636.754470	3110.273456
637.099642	3098.028493
637.444762	3082.287490
637.789829	3070.821386
638.134845	3060.797052
638.479808	3045.466903
638.824719	3043.208466
639.169577	3023.868079
639.514383	3013.669825
639.859137	2997.074346
640.203839	2995.438492
640.548489	2982.734784
640.893086	2975.324288
641.237632	2963.797690
641.582125	2958.935497
641.926566	2946.015020
642.270955	2944.555606
642.615292	2939.698454
642.959576	2934.679985
643.303809	2927.229160
643.647990	2921.812440
643.992118	2912.534196
644.336195	2905.431211
644.680219	2900.821075
645.024192	2896.800755
645.368112	2899.379305
645.711981	2892.808161
646.055797	2898.713873
646.399562	2891.129457
646.743274	2897.632546
647.086935	2898.807134
647.430544	2894.839746
647.774101	2892.127606
648.117606	2885.453118
648.461059	2883.068652
648.804460	2871.549616
649.147810	2857.109230
649.491108	2846.220338
649.834354	2839.661797
650.177548	2826.766525
650.520690	2818.970381
650.863781	2808.325985
651.206820	2807.055614
651.549807	2799.544295
651.892742	2787.697583
652.235626	2787.178344
652.578458	2783.316820
652.921238	2771.407094
653.263967	2771.417177
653.606644	2764.586413
653.949269	2760.568614
654.291843	2752.933786
654.634365	2754.856986
654.976836	2746.491192
655.319255	2746.657550
655.661622	2737.921230
656.003938	2734.891497
656.346203	2730.782956
656.688416	2727.670044
657.030577	2721.645865
657.372687	2721.242572
657.714746	2714.968857
658.056753	2714.986501
658.398708	2707.528113
658.740612	2705.899821
659.082465	2702.595344
659.424266	2698.832123
659.766016	2699.109387
660.107715	2698.035621
660.449362	2696.314067
660.790958	2694.221988
661.132503	2690.088242
661.473996	2689.778211
661.815438	2687.149249
662.156829	2686.435926
662.498168	2681.961902
662.839456	2678.823783
663.180693	2680.182374
663.521879	2677.185408
663.863013	2675.748680
664.204097	2672.963442
664.545129	2672.928154
664.886110	2670.780622
665.227040	2672.313133
665.567918	2672.855057
665.908746	2666.898934
666.249522	2668.726352
666.590248	2665.373985
666.930922	2664.859787
667.271545	2663.286947
667.612118	2660.965496
667.952639	2659.841319
668.293109	2657.688746
668.633528	2654.532984
668.973896	2650.570637
669.314213	2651.828405
669.654480	2647.525780
669.994695	2645.605100
670.334859	2646.804895
670.674973	2644.707775
671.015035	2642.963536
671.355047	2642.482105
671.695008	2639.613689
672.034918	2638.416415
672.374777	2638.149234
672.714585	2633.518934
673.054342	2636.687299
673.394049	2631.255456
673.733705	2633.027421
674.073310	2634.391053
674.412864	2629.065074
674.752368	2629.314612
675.091820	2629.302009
675.431223	2623.958386
675.770574	2623.297994
676.109875	2617.881275
676.449125	2618.294649
676.788324	2614.481016
677.127473	2615.718620
677.466571	2611.524380
677.805619	2614.884309
678.144616	2612.260388
678.483562	2611.771396
678.822458	2610.533793
679.161303	2611.995727
679.500098	2608.857609
679.838842	2609.913731
680.177535	2607.042794
680.516179	2612.008330
680.854771	2609.490274
681.193314	2610.165789
681.531805	2611.264760
681.870247	2614.617127
682.208638	2620.066615
682.546978	2616.482354
682.885268	2613.732405
683.223508	2611.446242
683.561697	2607.670417
683.899836	2610.180912
684.237925	2608.051025
684.575963	2605.893411
684.913951	2604.723863
685.251889	2607.804008
685.589776	2603.463575
685.927614	2604.653287
686.265401	2606.936930
686.603137	2605.785026
686.940824	2603.261928
687.278460	2608.086313
687.616046	2607.236878
687.953582	2608.131683
688.291068	2607.284769
688.628504	2607.690582
688.965889	2608.502208
689.303224	2606.649584
689.640510	2604.144130
689.977745	2600.141454
690.314930	2599.226485
690.652065	2597.419231
690.989150	2595.014601
691.326185	2593.177100
691.663170	2589.940679
692.000105	2593.282964
692.336990	2591.049733
692.673825	2591.344641
693.010610	2589.161821
693.347345	2587.140318
693.684030	2581.670667
694.020665	2582.499936
694.357251	2576.468196
694.693786	2581.504308
695.030272	2581.161510
695.366707	2582.522622
695.703093	2579.997003
696.039429	2582.124370
696.375716	2580.004565
696.711952	2579.195460
697.048139	2579.308886
697.384276	2578.058680
697.720363	2578.209914
698.056400	2580.158320
698.392388	2577.088258
698.728326	2579.749987
699.064214	2576.122877
699.400053	2575.462486
699.735842	2575.853175
700.071581	2574.378637
700.407270	2573.078020
700.742910	2574.615572
701.078501	2570.600293
701.414042	2573.078020
701.749533	2569.949984
702.084974	2570.575087
702.420366	2573.098184
702.755709	2568.750189
703.091002	2569.738255
703.426246	2569.375292
703.761440	2571.984089
704.096584	2569.163564
704.431679	2567.860426
704.766725	2570.166753
705.101721	2569.433266
705.436668	2571.999213
705.771565	2566.847154
706.106413	2567.880590
706.441212	2568.823286
706.775961	2567.331104
707.110661	2570.111301
707.445311	2569.062741
707.779913	2570.091136
708.114465	2571.918554
708.448967	2567.164746
708.783421	2570.005437
709.117825	2569.392936
709.452180	2572.218503
709.786485	2572.485684
710.120742	2575.399471
710.454949	2570.907803
710.789107	2571.797567
711.123216	2573.188925
711.457275	2572.062227
711.791286	2572.770509
712.125247	2574.504666
712.459159	2575.699420
712.793023	2578.434246
713.126837	2574.444173
713.460602	2576.715212
713.794318	2573.887125
714.127985	2574.129100
714.461602	2572.881415
714.795171	2573.516600
715.128691	2570.819583
715.462162	2571.303534
715.795584	2570.320509
716.128957	2571.180025
716.462281	2570.262535
716.795556	2569.428224
717.128782	2565.806155
717.461960	2565.944787
717.795088	2566.476629
718.128167	2567.250446
718.461198	2565.934705
718.794180	2567.424366
719.127113	2561.385063
719.459997	2563.663665
719.792833	2562.375650
720.125619	2562.849519
720.458357	2563.522513
720.791046	2563.504869
721.123686	2562.887327
721.456278	2562.108469
721.788821	2561.473284
722.121315	2564.437482
722.453761	2560.833057
722.786158	2561.087635
723.118506	2561.380022
723.450805	2561.488407
723.783056	2562.668037
724.115259	2565.019735
724.447412	2560.573438
724.779518	2561.952193
725.111574	2561.377502
725.443582	2563.363716
725.775542	2561.753068
726.107453	2562.191648
726.439315	2562.940259
726.771129	2564.069478
727.102895	2562.128634
727.434612	2567.295816
727.766281	2564.722307
728.097901	2560.734755
728.429473	2561.901782
728.760996	2560.974209
729.092471	2561.329611
729.423897	2562.748696
729.755276	2565.715415
730.086606	2567.124417
730.417887	2565.904458
730.749120	2566.784139
731.080305	2566.811866
731.411442	2567.933522
731.742530	2565.808676
732.073570	2570.585169
732.404562	2569.428224
732.735506	2568.309088
733.066401	2567.810014
733.397249	2566.438820
733.728048	2565.105435
734.058798	2565.390260
734.389501	2562.179045
734.720156	2563.769529
735.050762	2563.036041
735.381320	2558.841801
735.711831	2560.860783
736.042293	2560.444888
736.372707	2559.469425
736.703073	2559.116544
737.033391	2560.616287
737.363661	2560.666699
737.693883	2562.322718
738.024056	2562.615105
738.354182	2561.460681
738.684260	2563.494786
739.014290	2562.083263
739.344272	2563.514951
739.674207	2561.639642
740.004093	2565.160888
740.333931	2564.079560
740.663722	2564.364385
740.993464	2563.444375
741.323159	2563.905640
741.652806	2558.919939
741.982405	2562.937739
742.311956	2560.391956
742.641460	2561.077553
742.970915	2562.458829
743.300323	2558.294836
743.629683	2559.285423
743.958996	2559.807182
744.288260	2556.086811
744.617477	2558.085628
744.946647	2552.406768
745.275768	2556.144784
745.604842	2553.719989
745.933869	2555.050854
746.262847	2552.263096
746.591778	2555.307952
746.920662	2555.794424
747.249498	2557.188303
747.578286	2555.754095
747.907027	2558.120916
748.235720	2557.480690
748.564365	2558.317521
748.892963	2555.476831
749.221514	2557.581513
749.550017	2555.471790
749.878473	2558.783828
750.206881	2558.047820
750.535242	2555.013045
750.863555	2556.452294
751.191821	2556.515309
751.520039	2558.708211
751.848210	2555.194527
752.176334	2553.989691
752.504411	2558.146122
752.832440	2557.563869
753.160421	2554.007335
753.488356	2555.002963
753.816243	2555.985988
754.144082	2553.916594
754.471875	2554.080432
754.799620	2554.692932
755.127318	2555.141594
755.454969	2554.377860
755.782572	2553.730071
756.110129	2555.922973
756.437638	2555.491955
756.765100	2554.975236
757.092515	2556.061605
757.419882	2556.013714
757.747203	2554.226625
758.074477	2556.049002
758.401703	2554.463559
758.728882	2556.923642
759.056014	2553.901471
759.383099	2555.623025
759.710138	2559.275341
760.037129	2554.493806
760.364073	2560.036555
760.690970	2555.907850
761.017820	2554.831563
761.344623	2558.844322
761.671379	2556.424568
761.998088	2552.126984
762.324751	2558.647717
762.651366	2562.226936
762.977935	2575.797722
763.304456	2577.420974
763.630931	2583.677046
763.957359	2580.667477
764.283740	2571.747155
764.610074	2568.672051
764.936362	2567.310940
765.262602	2561.246432
765.588796	2562.390774
765.914943	2558.975392
766.241044	2556.580844
766.567097	2555.567572
766.893104	2555.534804
767.219064	2553.291491
767.544978	2554.798796
767.870845	2552.326110
768.196665	2553.788045
768.522438	2550.110523
768.848165	2553.049516
769.173846	2550.579350
769.499479	2553.399876
769.825066	2549.976932
770.150607	2551.658157
770.476101	2548.187323
770.801548	2549.251006
771.126949	2550.667570
771.452303	2550.140770
771.777611	2546.440563
772.102872	2548.416695
772.428087	2547.249668
772.753256	2550.289484
773.078378	2551.098589
773.403453	2547.342929
773.728482	2546.591797
774.053465	2549.026675
774.378401	2548.134391
774.703291	2546.511139
775.028135	2545.976777
775.352932	2544.514842
775.677683	2548.101623
776.002388	2547.927703
776.327046	2548.381407
776.651658	2546.133053
776.976224	2548.028526
777.300743	2546.942158
777.625216	2546.377548
777.949643	2549.533311
778.274024	2549.021634
778.598359	2540.078627
778.922647	2543.511652
779.246889	2543.708257
779.571086	2540.794471
779.895236	2546.768238
780.219339	2549.734957
780.543397	2545.089534
780.867409	2542.437887
781.191374	2546.095244
781.515294	2545.313865
781.839167	2546.266643
782.162995	2546.448125
782.486776	2547.809236
782.810511	2545.593649
783.134201	2545.782692
783.457844	2546.402754
783.781441	2545.775131
784.104993	2545.938968
784.428498	2547.514329
784.751958	2546.617003
785.075372	2543.078113
785.398739	2545.160110
785.722061	2543.698175
786.045337	2545.109698
786.368568	2547.279915
786.691752	2545.001313
787.014891	2545.752445
787.337983	2545.341591
787.661030	2549.452652
787.984031	2550.899463
788.306987	2549.901315
788.629897	2552.308466
788.952760	2552.908363
789.275579	2551.726213
789.598351	2547.844524
789.921078	2548.865358
790.243759	2547.289997
790.566395	2548.217570
790.888984	2545.041643
791.211529	2546.760676
791.534027	2547.650440
791.856480	2543.262115
792.178888	2545.553320
792.501249	2545.838145
792.823566	2546.009544
793.145836	2545.197918
793.468062	2543.410829
793.790241	2544.988711
794.112375	2543.289842
794.434464	2542.891591
794.756507	2544.184647
795.078505	2546.553989
795.400457	2543.557023
795.722364	2542.039636
796.044226	2544.066179
796.366042	2541.764893
796.687812	2543.173895
797.009538	2547.552137
797.331218	2544.260264
797.652852	2549.951727
797.974442	2548.356201
798.295986	2545.132383
798.617484	2544.701365
798.938938	2545.908721
799.260346	2545.311344
799.581709	2546.380069
799.903026	2548.358722
800.224299	2546.228834
800.545526	2544.373690
800.866708	2545.129863
801.187845	2546.642209
801.508936	2543.211704
801.829983	2545.039122
802.150984	2542.498381
802.471940	2544.149358
802.792851	2545.765048
803.113717	2543.859492
803.434538	2542.815973
803.755314	2544.446787
804.076045	2541.908566
804.396731	2544.688762
804.717372	2543.335212
805.037967	2544.328319
805.358518	2545.439894
805.679024	2544.242620
805.999485	2546.178423
806.319901	2541.969059
806.640272	2543.025181
806.960598	2544.960984
807.280879	2543.675490
807.601115	2544.724050
807.921306	2543.597352
808.241453	2543.448638
808.561554	2542.856303
808.881611	2545.323947
809.201623	2542.551313
809.521590	2545.117260
809.841513	2545.732281
810.161390	2545.475182
810.481223	2543.032743
810.801011	2543.365459
811.120755	2545.364277
811.440453	2546.944678
811.760107	2542.952084
812.079716	2543.131045
812.399281	2538.558719
812.718801	2541.769934
813.038276	2539.314892
813.357707	2544.958464
813.677093	2542.458051
813.996434	2543.118442
814.315731	2543.672969
814.634983	2542.178267
814.954191	2546.138094
815.273354	2543.105840
815.592473	2541.893442
815.911547	2543.854451
816.230577	2543.730943
816.549562	2546.289328
816.868502	2544.698844
817.187399	2545.449976
817.506250	2546.445604
817.825058	2548.144473
818.143821	2545.147507
818.462539	2547.279915
818.781213	2547.315203
819.099843	2550.455842
819.418429	2549.964329
819.736970	2555.252500
820.055466	2560.079405
820.373919	2561.246432
820.692327	2563.993861
821.010691	2571.051476
821.329011	2590.462439
821.647286	2627.749333
821.965517	2669.306085
822.283704	2693.309539
822.601847	2698.774150
822.919945	2684.116995
823.237999	2657.736637
823.556010	2635.358955
823.873976	2618.639968
824.191897	2602.939295
824.509775	2588.481265
824.827609	2583.548496
825.145398	2579.321489
825.463144	2577.075655
825.780845	2575.512897
826.098502	2584.055132
826.416116	2593.106524
826.733685	2603.118256
827.051210	2606.841148
827.368692	2601.376537
827.686129	2590.628797
828.003522	2579.197981
828.320872	2567.270611
828.638177	2561.284240
828.955439	2557.924311
829.272656	2553.200750
829.589830	2551.605225
829.906960	2551.096068
830.224046	2549.752601
830.541088	2545.528114
830.858086	2549.838301
831.175041	2545.883515
831.491952	2548.807385
831.808819	2548.288146
832.125642	2549.911397
832.442421	2551.602704
832.759157	2556.152346
833.075849	2561.163253
833.392497	2573.786302
833.709101	2576.967270
834.025662	2576.901735
834.342179	2574.005592
834.658653	2565.228943
834.975083	2560.616287
835.291469	2563.681309
835.607811	2551.363250
835.924110	2548.903167
836.240366	2549.724875
836.556578	2546.569112
836.872746	2544.877805
837.188871	2543.705737
837.504952	2545.598690
837.820990	2543.330171
838.136984	2543.083154
838.452935	2541.550644
838.768842	2545.271015
839.084706	2543.317568
839.400526	2547.761345
839.716303	2550.833928
840.032037	2556.419527
840.347727	2555.071018
840.663373	2550.516336
840.978977	2550.596994
841.294537	2545.654143
841.610054	2544.519883
841.925527	2541.424615
842.240957	2540.802032
842.556344	2541.359080
842.871687	2541.389327
843.186987	2543.753628
843.502244	2539.385468
843.817458	2538.863709
844.132629	2539.592155
844.447756	2540.582742
844.762840	2533.794828
845.077881	2536.418749
845.392879	2535.861702
845.707833	2538.004192
846.022745	2532.905065
846.337613	2539.995448
846.652438	2539.287166
846.967221	2537.474871
847.281960	2535.513862
847.596656	2539.456044
847.911309	2536.234747
848.225919	2540.686086
848.540485	2537.820190
848.855009	2537.971424
849.169490	2535.692823
849.483928	2537.162319
849.798323	2535.907072
850.112675	2536.519572
850.426984	2535.581917
850.741251	2535.977648
851.055474	2539.040149
851.369654	2538.188194
851.683792	2539.564429
851.997887	2537.381609
852.311938	2538.883873
852.625947	2537.041332
852.939914	2539.526620
853.253837	2537.777340
853.567718	2538.253729
853.881555	2537.573173
854.195350	2537.424459
854.509103	2539.468647
854.822812	2535.130734
855.136479	2539.178781
855.450103	2535.970086
855.763685	2536.151568
856.077224	2535.803728
856.390720	2536.907741
856.704173	2536.665766
857.017584	2536.925385
857.330953	2537.336239
857.644278	2539.385468
857.957561	2539.939995
858.270802	2539.516538
858.584000	2535.748276
858.897155	2537.520241
859.210268	2537.374048
859.523339	2538.384799
859.836367	2538.384799
860.149352	2539.912269
860.462295	2538.934285
860.775195	2536.781712
861.088054	2531.924560
861.400869	2535.528985
861.713642	2530.056813
862.026373	2531.859025
862.339062	2538.835982
862.651708	2540.169367
862.964312	2538.959491
863.276873	2537.232895
863.589392	2538.231044
863.901869	2535.622247
864.214303	2536.461599
864.526696	2538.132741
864.839045	2537.419418
865.151353	2536.922864
865.463619	2538.147865
865.775842	2537.994110
866.088023	2539.067875
866.400162	2537.762217
866.712258	2539.090561
867.024313	2539.115766
867.336325	2537.520241
867.648296	2537.439583
867.960224	2539.655170
868.272110	2537.376568
868.583954	2538.573842
868.895755	2538.362114
869.207515	2538.125180
869.519233	2537.353883
869.830909	2541.787578
870.142542	2541.124666
870.454134	2538.349511
870.765684	2538.921682
871.077191	2540.307999
871.388657	2538.949408
871.700081	2540.996117
872.011463	2539.342618
872.322803	2539.496373
872.634101	2541.069213
872.945357	2539.256919
873.256571	2539.382948
873.567744	2539.282124
873.878874	2539.448483
874.189963	2541.487629
874.501010	2543.315048
874.812015	2539.859337
875.122979	2542.795809
875.433900	2540.282793
875.744780	2541.202804
876.055618	2542.543751
876.366415	2543.131045
876.677169	2540.960829
876.987882	2541.931251
877.298554	2538.631816
877.609183	2539.791281
877.919771	2539.168698
878.230317	2539.597197
878.540822	2544.388813
878.851285	2544.580377
879.161707	2547.912580
879.472087	2550.947354
879.782425	2557.296688
880.092722	2560.646534
880.402977	2576.516087
880.713191	2590.512850
881.023363	2614.864144
881.333494	2629.324694
881.643583	2632.724952
881.953631	2629.755712
882.263637	2626.610032
882.573602	2619.970833
882.883526	2605.762341
883.193408	2599.163470
883.503248	2587.992273
883.813048	2579.878536
884.122806	2573.541806
884.432522	2569.471074
884.742197	2564.187945
885.051831	2558.423386
885.361424	2553.838456
885.670975	2554.440874
885.980485	2551.350647
886.289954	2548.555327
886.599382	2549.067004
886.908768	2547.456355
887.218113	2544.905532
887.527417	2546.160779
887.836680	2544.905532
888.145901	2542.019471
888.455082	2543.925027
888.764221	2544.209852
889.073319	2541.434697
889.382376	2544.028371
889.691392	2542.387475
890.000366	2542.211035
890.309300	2542.110212
890.618193	2540.870088
890.927044	2541.767413
891.235855	2542.299255
891.544625	2542.261446
891.853353	2544.532486
892.162041	2541.906045
892.470687	2547.332847
892.779293	2545.732281
893.087858	2545.923845
893.396381	2545.616334
893.704864	2548.477189
894.013306	2550.717982
894.321707	2560.202913
894.630068	2568.271280
894.938387	2572.715057
895.246665	2573.415777
895.554903	2566.703481
895.863100	2562.136195
896.171256	2559.547563
896.479371	2557.692418
896.787446	2553.374670
897.095480	2549.787889
897.403473	2549.286294
897.711425	2546.508618
898.019336	2545.704554
898.327207	2548.051212
898.635038	2542.674821
898.942827	2543.594832
899.250576	2543.927548
899.558284	2544.335881
899.865952	2541.739687
900.173579	2542.886549
900.481165	2542.085006
900.788711	2539.319933
901.096216	2541.646426
901.403681	2539.614841
901.711105	2540.975952
902.018489	2539.350180
902.325832	2543.030222
902.633135	2542.362269
902.940397	2543.952753
903.247619	2546.047353
903.554800	2552.356357
903.861941	2562.302553
904.169041	2578.204873
904.476101	2586.111923
904.783121	2583.152766
905.090100	2575.036508
905.397039	2571.101887
905.703938	2563.358675
906.010796	2561.480845
906.317614	2552.152190
906.624391	2552.316028
906.931129	2546.652291
907.237826	2542.503422
907.544483	2542.168185
907.851099	2543.206663
908.157675	2541.825387
908.464211	2538.732639
908.770707	2533.741896
909.077163	2536.630478
909.383578	2534.379602
909.689954	2534.460261
909.996289	2531.780888
910.302584	2535.561753
910.608839	2535.594520
910.915054	2537.489994
911.221229	2536.113759
911.527363	2534.888759
911.833458	2536.121321
912.139513	2539.836651
912.445527	2539.322454
912.751502	2539.183822
913.057436	2542.258926
913.363331	2539.977804
913.669186	2542.377393
913.975000	2542.818494
914.280775	2545.419729
914.586510	2548.976263
914.892205	2552.857952
915.197859	2558.413303
915.503475	2560.218036
915.809050	2571.212793
916.114585	2576.954667
916.420081	2581.728640
916.725536	2579.276118
917.030952	2576.465675
917.336328	2570.091136
917.641665	2566.322874
917.946961	2561.251473
918.252218	2559.081256
918.557435	2555.106306
918.862612	2553.034392
919.167750	2548.542724
919.472848	2545.220604
919.777906	2546.501057
920.082925	2543.519214
920.387904	2544.867723
920.692843	2543.796478
920.997743	2539.529141
921.302603	2539.042670
921.607423	2538.107536
921.912204	2539.715664
922.216946	2538.503266
922.521647	2540.832279
922.826310	2536.925385
923.130932	2539.289686
923.435516	2536.811959
923.740059	2537.863040
924.044564	2538.289017
924.349028	2536.358255
924.653454	2532.237112
924.957840	2534.056968
925.262186	2534.505631
925.566493	2534.127545
925.870761	2532.461443
926.174989	2535.539068
926.479178	2535.665097
926.783328	2535.037473
927.087438	2534.162833
927.391509	2534.145189
927.695541	2534.387164
927.999533	2535.738193
928.303486	2530.208048
928.607400	2532.680733
928.911275	2535.256763
929.215110	2530.883562
929.518906	2532.562266
929.822663	2532.267359
930.126381	2530.313912
930.430060	2535.448327
930.733699	2532.884900
931.037299	2534.233409
931.340861	2535.266845
931.644383	2532.773995
931.947866	2534.220806
932.251309	2535.029911
932.554714	2534.982020
932.858080	2531.990095
933.161407	2535.287010
933.464694	2534.041845
933.767943	2532.831968
934.071153	2531.085208
934.374323	2531.894313
934.677455	2533.550332
934.980548	2532.973120
935.283602	2530.802904
935.586617	2532.647966
935.889593	2535.382792
936.192530	2532.763913
936.495428	2532.776515
936.798287	2535.392874
937.101108	2532.083357
937.403890	2538.188194
937.706632	2537.366486
938.009336	2534.762730
938.312002	2536.118800
938.614628	2533.963707
938.917216	2535.211393
939.219765	2537.111908
939.522275	2537.452186
939.824747	2535.302133
940.127179	2532.128727
940.429573	2530.266021
940.731929	2533.837678
941.034246	2529.388860
941.336524	2534.528316
941.638763	2534.593851
941.940964	2534.679551
942.243126	2535.110570
942.545250	2535.312216
942.847335	2537.994110
943.149381	2533.474715
943.451389	2532.156453
943.753359	2529.368695
944.055290	2531.831299
944.357182	2534.598892
944.659036	2533.499921
944.960851	2536.020498
945.262628	2531.995137
945.564367	2533.199972
945.866067	2531.687626
946.167729	2532.363141
946.469352	2533.114273
946.770937	2534.069571
947.072484	2531.231402
947.373992	2532.400949
947.675462	2533.101670
947.976893	2533.651156
948.278286	2532.272400
948.579641	2534.946732
948.880958	2534.477905
949.182236	2535.097967
949.483476	2530.213089
949.784678	2534.276259
950.085841	2531.823737
950.386967	2532.216947
950.688054	2530.941535
950.989103	2534.578728
951.290114	2532.940353
951.591087	2533.804911
951.892021	2535.203831
952.192917	2534.079654
952.493776	2533.555374
952.794596	2532.589993
953.095378	2532.257277
953.396122	2533.031094
953.696828	2536.272556
953.997496	2533.676361
954.298126	2531.279293
954.598718	2533.436907
954.899272	2535.430683
955.199788	2531.485980
955.500266	2534.389685
955.800706	2528.635207
956.101108	2525.955834
956.401472	2529.928263
956.701798	2528.887265
957.002087	2529.507327
957.302337	2533.106711
957.602550	2531.518748
957.902724	2530.071936
958.202861	2534.248532
958.502960	2529.267872
958.803022	2529.988757
959.103045	2531.276772
959.403031	2532.002698
959.702979	2530.424817
960.002889	2531.022194
960.302762	2533.348686
960.602596	2529.214940
960.902393	2531.407842
961.202153	2528.917512
961.501875	2530.210568
961.801559	2532.650487
962.101205	2529.333407
962.400814	2531.778367
962.700385	2528.622605
962.999918	2529.726617
963.299414	2529.565300
963.598873	2528.579755
963.898293	2528.665454
964.197677	2528.708304
964.497022	2531.319622
964.796331	2533.600744
965.095601	2527.460619
965.394835	2531.186031
965.694030	2527.485824
965.993189	2530.807945
966.292309	2531.004550
966.591393	2526.124713
966.890439	2529.993798
967.189447	2527.135464
967.488419	2528.262162
967.787353	2531.727955
968.086249	2525.434075
968.385108	2532.426155
968.683930	2528.241997
968.982714	2529.943387
969.281462	2530.694519
969.580172	2528.405835
969.878844	2528.405835
970.177480	2527.339631
970.476078	2529.613191
970.774639	2531.853984
971.073162	2529.083870
971.371649	2526.273427
971.670098	2524.037675
971.968510	2530.187883
972.266885	2524.287212
972.565223	2528.264683
972.863524	2529.766947
973.161788	2528.491535
973.460014	2530.339118
973.758204	2526.800227
974.056356	2528.194107
974.354471	2529.837523
974.652550	2530.238294
974.950591	2528.940197
975.248595	2530.404653
975.546563	2528.579755
975.844493	2529.366175
976.142386	2530.702081
976.440243	2526.147398
976.738062	2529.628315
977.035845	2528.433561
977.333590	2528.012625
977.631299	2528.123530
977.928971	2529.900537
978.226606	2526.089425
978.524204	2530.129910
978.821765	2529.449354
979.119290	2527.475742
979.416777	2530.540764
979.714228	2532.680733
980.011642	2528.236956
980.309020	2533.620909
980.606360	2528.894827
980.903664	2526.351565
981.200931	2525.981040
981.498162	2530.704601
981.795356	2530.147554
982.092513	2530.301309
982.389633	2529.845084
982.686717	2533.744417
982.983764	2529.698891
983.280775	2531.571680
983.577749	2532.302647
983.874686	2532.685775
984.171587	2530.066895
984.468451	2528.809127
984.765279	2527.294261
985.062070	2527.246370
985.358824	2529.829961
985.655543	2529.756864
985.952224	2527.531195
986.248869	2530.644107
986.545478	2525.935670
986.842050	2527.574045
987.138586	2525.103879
987.435086	2528.481452
987.731549	2522.227901
988.027975	2528.652852
988.324366	2527.528674
988.620719	2527.649662
988.917037	2525.368540
989.213318	2528.494055
989.509563	2526.654034
989.805772	2527.939528
990.101944	2528.249559
990.398080	2528.947759
990.694180	2527.868952
990.990244	2529.741741
991.286271	2528.741072
991.582262	2527.662265
991.878217	2527.420289
992.174136	2529.230064
992.470019	2527.264014
992.765865	2528.282327
993.061676	2526.056657
993.357450	2528.851977
993.653188	2529.328366
993.948890	2524.992974
994.244556	2529.411545
994.540186	2527.952131
994.835780	2526.500279
995.131337	2529.961031
995.426859	2525.600433
995.722345	2527.712676
996.017795	2526.875845
996.313208	2527.432892
996.608586	2529.058664
996.903928	2528.849457
997.199234	2529.756864
997.494504	2527.579086
997.789738	2527.644621
998.084936	2528.909950
998.380099	2527.647141
998.675225	2531.017153
998.970316	2527.024559
999.265371	2527.982378
999.560390	2528.499096
999.855373	2528.128572
1000.150320	2527.299302
1000.445232	2526.989271
1000.740108	2526.354085
1001.034948	2526.091945
1001.329752	2528.320135
1001.624521	2527.710156
1001.919254	2522.817716
1002.213951	2522.570699
1002.508613	2523.374763
1002.803239	2527.682429
1003.097829	2522.855525
1003.392384	2528.786442
1003.686903	2527.291740
1003.981386	2527.586648
1004.275834	2526.591020
1004.570246	2528.879703
1004.864623	2527.203520
1005.158964	2525.527336
1005.453270	2527.311905
1005.747540	2527.964734
1006.041775	2524.698066
1006.335974	2527.725279
1006.630138	2528.952800
1006.924266	2526.502799
1007.218359	2529.555218
1007.512416	2531.150743
1007.806438	2526.893489
1008.100425	2527.700073
1008.394376	2525.434075
1008.688292	2529.219981
1008.982172	2525.537418
1009.276017	2526.162522
1009.569827	2525.509692
1009.863602	2526.613705
1010.157341	2525.565145
1010.451045	2527.500948
1010.744714	2528.564631
1011.038347	2526.974147
1011.331945	2524.579599
1011.625508	2524.357788
1011.919036	2525.698735
1012.212528	2528.819210
1012.505986	2527.425331
1012.799408	2528.451205
1013.092795	2524.806451
1013.386147	2526.207892
1013.679464	2526.636390
1013.972745	2524.695546
1014.265992	2525.207223
1014.559204	2526.701925
1014.852380	2525.441637
1015.145521	2526.885927
1015.438628	2525.224867
1015.731699	2528.257121
1016.024736	2526.712007
1016.317737	2526.875845
1016.610703	2527.390043
1016.903635	2525.965917
1017.196531	2522.880730
1017.489393	2525.766791
1017.782219	2518.880575
1018.075011	2527.395084
1018.367768	2525.456760
1018.660490	2525.920546
1018.953177	2525.920546
1019.245829	2525.920546
