Dividing Wavelength (nm)	Counts (n)	Blue Motor Position (mm): 0.000000	Red Motor Position (mm): 12.300000	
326.493990	2130.101749
326.888308	2130.101749
327.282561	2130.101749
327.676750	2093.359299
328.070874	2094.619588
328.464933	2094.569176
328.858929	2103.265167
329.252859	2113.544079
329.646726	2123.737292
330.040528	2138.762451
330.434265	2154.178300
330.827938	2170.882163
331.221547	2187.628876
331.615091	2207.627133
332.008571	2226.372664
332.401986	2247.467372
332.795338	2268.405805
333.188625	2286.246448
333.581847	2303.482153
333.975006	2322.472180
334.368100	2342.092351
334.761129	2359.219671
335.154095	2373.133255
335.546996	2393.529764
335.939833	2407.907135
336.332606	2421.843404
336.725315	2432.374375
337.117960	2446.172013
337.510540	2450.968671
337.903056	2465.683799
338.295508	2469.520117
338.687896	2479.983032
339.080220	2487.519557
339.472480	2495.149343
339.864676	2499.053717
340.256807	2503.242916
340.648875	2506.958246
341.040879	2510.555109
341.432818	2511.006292
341.824694	2511.316323
342.216506	2512.695079
342.608253	2513.781448
342.999937	2511.815398
343.391557	2512.937054
343.783113	2510.971004
344.174605	2509.957733
344.566033	2510.550068
344.957397	2507.951353
345.348697	2506.439007
345.739934	2505.556805
346.131106	2500.243429
346.522215	2501.947339
346.913260	2497.037255
347.304241	2498.100939
347.695159	2495.172028
348.086012	2494.524240
348.476802	2494.816627
348.867528	2491.635659
349.258191	2489.132726
349.648789	2488.260606
350.039324	2487.068373
350.429796	2487.136429
350.820203	2484.671305
351.210548	2481.964205
351.600828	2480.298104
351.991045	2482.405306
352.381198	2481.606283
352.771288	2482.034781
353.161314	2479.902373
353.551276	2482.138125
353.941175	2477.096971
354.331010	2478.480768
354.720782	2479.703248
355.110490	2478.458083
355.500135	2480.323310
355.889717	2478.321972
356.279235	2480.842548
356.668689	2480.890439
357.058080	2480.466983
357.447408	2478.742908
357.836672	2480.295583
358.225873	2480.109061
358.615010	2480.928248
359.004084	2484.870430
359.393095	2483.050574
359.782043	2486.450832
360.170927	2483.779021
360.559748	2485.382108
360.948505	2487.955617
361.337199	2487.892602
361.725830	2490.221615
362.114398	2488.507623
362.502903	2490.156080
362.891344	2490.072901
363.279722	2490.677840
363.668037	2488.792448
364.056289	2493.831081
364.444478	2495.003150
364.832603	2491.212202
365.220665	2492.046513
365.608665	2496.996926
365.996601	2492.011225
366.384474	2495.542553
366.772284	2495.461895
367.160031	2497.818634
367.547715	2498.116062
367.935336	2501.665034
368.322893	2502.249808
368.710388	2508.712567
369.097820	2513.698269
369.485189	2518.189937
369.872495	2521.932993
370.259738	2531.586803
370.646918	2537.563091
371.034035	2542.475695
371.421090	2552.948692
371.808081	2565.637277
372.195010	2573.143555
372.581875	2585.922880
372.968678	2598.533326
373.355418	2608.882815
373.742096	2627.388891
374.128710	2642.741725
374.515262	2656.040289
374.901751	2670.457989
375.288177	2684.593384
375.674540	2708.506097
376.060841	2725.280537
376.447079	2743.595049
376.833254	2765.037597
377.219367	2775.805501
377.605417	2814.995431
377.991404	2823.676298
378.377329	2848.017509
378.763191	2858.896319
379.148991	2899.646487
379.534727	2923.163469
379.920402	2952.903756
380.306013	2964.485807
380.691563	3015.308200
381.077049	3036.019780
381.462474	3050.712223
381.847835	3091.792586
382.233134	3112.824280
382.618371	3112.819239
383.003545	3178.596214
383.388657	3188.814633
383.773706	3219.013665
384.158693	3233.701067
384.543618	3261.243411
384.928480	3294.691467
385.313280	3336.165039
385.698017	3331.645645
386.082692	3378.306565
386.467305	3381.958881
386.851856	3408.921492
387.236344	3428.284564
387.620770	3449.434725
388.005133	3466.748568
388.389435	3478.169302
388.773674	3481.425887
389.157851	3507.465968
389.541965	3507.773478
389.926018	3463.688588
390.310008	3512.620547
390.693936	3513.515352
391.077802	3530.496479
391.461606	3504.509331
391.845348	3534.458826
392.229027	3513.827904
392.612645	3502.230729
392.996200	3542.628016
393.379694	3546.502142
393.763125	3567.218764
394.146494	3514.453007
394.529801	3532.676778
394.913047	3532.134854
395.296230	3480.089982
395.679351	3484.904283
396.062410	3464.422075
396.445408	3423.417330
396.828343	3408.306471
397.211217	3384.721433
397.594028	3306.265956
397.976778	3305.875266
398.359466	3285.196453
398.742092	3262.758277
399.124656	3195.612629
399.507158	3196.013401
399.889598	3175.458096
400.271977	3159.838081
400.654294	3117.048767
401.036549	3083.210022
401.418742	3044.138559
401.800874	3040.841644
402.182944	3013.911800
402.564952	2998.725324
402.946898	2965.718369
403.328783	2933.354162
403.710606	2882.292314
404.092367	2892.606515
404.474067	2859.327338
404.855705	2839.137517
405.237282	2798.730148
405.618797	2792.864766
406.000250	2774.217538
406.381642	2766.882659
406.762972	2741.865933
407.144240	2718.782489
407.525447	2706.557691
407.906593	2689.944569
408.287677	2672.993689
408.668700	2655.314362
409.049661	2647.190543
409.430560	2636.019346
409.811399	2621.152983
410.192176	2613.344236
410.572891	2601.167329
410.953545	2595.485949
411.334138	2581.539597
411.714669	2576.826118
412.095139	2566.902606
412.475547	2560.986812
412.855894	2557.359702
413.236180	2552.026161
413.616405	2549.588763
413.996568	2545.470141
414.376670	2541.608617
414.756711	2537.860519
415.136691	2535.687782
415.516609	2534.150230
415.896466	2533.792308
416.276262	2533.177287
416.655997	2529.454395
417.035670	2525.124044
417.415283	2528.184024
417.794834	2525.741585
418.174324	2527.183355
418.553753	2527.165711
418.933121	2529.840043
419.312428	2527.057326
419.691674	2529.409025
420.070859	2530.505476
420.449983	2527.916843
420.829045	2527.674868
421.208047	2527.702594
421.586988	2526.848118
421.965867	2527.911802
422.344686	2526.129754
422.723444	2528.005063
423.102141	2525.716379
423.480777	2526.452388
423.859352	2527.082532
424.237866	2525.209743
424.616319	2524.282171
424.994712	2526.270906
425.373044	2526.981709
425.751314	2524.879548
426.129524	2526.260824
426.507673	2525.681091
426.885762	2526.248221
427.263789	2527.846267
427.641756	2526.994312
428.019662	2527.110258
428.397508	2526.943900
428.775292	2526.039013
429.153016	2530.049251
429.530679	2530.744930
429.908282	2526.928777
430.285824	2526.470032
430.663305	2526.182686
431.040726	2528.146216
431.418086	2528.247039
431.795385	2527.735362
432.172624	2528.042872
432.549802	2526.331400
432.926920	2526.492717
433.303977	2530.250897
433.680974	2527.526154
434.057910	2530.258459
434.434786	2528.652852
434.811601	2528.970444
435.188355	2529.446833
435.565050	2530.959179
435.941683	2527.868952
436.318257	2526.747295
436.694770	2526.762419
437.071222	2528.509179
437.447614	2525.618077
437.823946	2526.772501
438.200218	2530.157636
438.576429	2530.618902
438.952580	2533.527647
439.328670	2530.908768
439.704700	2528.665454
440.080670	2532.025383
440.456580	2529.955990
440.832429	2533.865405
441.208218	2528.307533
441.583947	2532.796680
441.959616	2531.808614
442.335224	2531.586803
442.710773	2531.193593
443.086261	2528.781401
443.461689	2531.843902
443.837057	2531.256608
444.212365	2529.840043
444.587612	2533.232740
444.962800	2532.995806
445.337927	2535.574356
445.712995	2531.309540
446.088002	2532.887421
446.462949	2533.542771
446.837837	2532.060672
447.212664	2532.373223
447.587431	2534.671989
447.962139	2535.365148
448.336786	2537.928575
448.711374	2537.616023
449.085901	2535.854140
449.460369	2533.409180
449.834776	2535.808769
450.209124	2531.506145
450.583412	2536.716177
450.957640	2536.638039
451.331808	2537.058976
451.705917	2530.719725
452.079965	2535.702905
452.453954	2534.233409
452.827883	2534.790456
453.201752	2534.409849
453.575562	2534.936650
453.949311	2535.415559
454.323001	2535.319778
454.696632	2533.678882
455.070202	2539.007382
455.443713	2535.251722
455.817164	2535.307175
456.190556	2532.728624
456.563888	2531.687626
456.937160	2530.855836
457.310373	2536.587628
457.683526	2536.736342
458.056619	2536.015457
458.429653	2535.244160
458.802628	2537.651311
459.175542	2536.191897
459.548398	2537.709284
459.921194	2538.243647
460.293930	2538.934285
460.666607	2538.863709
461.039224	2541.228010
461.411782	2539.816487
461.784280	2541.066693
462.156719	2540.257588
462.529099	2544.338402
462.901419	2540.658359
463.273680	2540.728936
463.645882	2541.817825
464.018024	2540.408822
464.390106	2539.110725
464.762130	2540.378575
465.134094	2543.277239
465.505999	2544.706406
465.877845	2547.332847
466.249631	2548.053732
466.621358	2550.342416
466.993026	2549.853424
467.364634	2552.270657
467.736184	2547.521890
468.107674	2543.330171
468.479105	2544.945861
468.850477	2541.991745
469.221790	2544.371169
469.593043	2543.902342
469.964238	2544.532486
470.335373	2541.848072
470.706449	2546.342260
471.077467	2541.976621
471.448425	2547.993238
471.819324	2549.734957
472.190164	2549.671943
472.560945	2545.535676
472.931667	2544.499719
473.302330	2544.436704
473.672934	2542.425284
474.043479	2544.121632
474.413965	2544.282949
474.784393	2542.329502
475.154761	2543.120963
475.525070	2542.528628
475.895321	2542.957126
476.265513	2536.728780
476.635645	2545.404606
477.005719	2542.616848
477.375734	2546.017106
477.745691	2547.264792
478.115588	2546.680018
478.485427	2547.358053
478.855207	2547.345450
479.224928	2550.163455
479.594591	2554.009855
479.964194	2548.590615
480.333739	2551.960626
480.703226	2551.113713
481.072653	2546.959802
481.442022	2549.808054
481.811333	2552.517674
482.180584	2547.128680
482.549777	2551.668239
482.918912	2550.380225
483.287988	2547.020296
483.657005	2550.561706
484.025964	2550.947354
484.394864	2546.811088
484.763706	2550.660009
485.132489	2550.241593
485.501213	2545.462579
485.869879	2549.155224
486.238487	2548.273022
486.607036	2551.806871
486.975527	2546.715306
487.343959	2548.701520
487.712333	2547.085831
488.080648	2547.910059
488.448905	2550.584391
488.817104	2546.722868
489.185244	2551.975750
489.553326	2549.276212
489.921350	2550.609597
490.289315	2553.336861
490.657222	2553.389793
491.025070	2550.259237
491.392861	2553.412479
491.760593	2553.039433
492.128267	2553.104968
492.495883	2550.120605
492.863440	2548.724206
493.230939	2549.729916
493.598380	2548.063814
493.965763	2544.519883
494.333088	2548.855276
494.700354	2544.010727
495.067563	2546.589277
495.434713	2543.312527
495.801805	2550.226469
496.168839	2546.826211
496.535815	2549.682025
496.902733	2547.542055
497.269593	2551.118754
497.636395	2550.407951
498.003139	2550.803682
498.369825	2549.361912
498.736453	2549.185471
499.103023	2549.006510
499.469535	2547.153886
499.835989	2547.428629
500.202385	2550.075235
500.568723	2548.958619
500.935003	2551.312838
501.301226	2548.961140
501.667390	2547.083310
502.033497	2550.108002
502.399546	2548.668753
502.765537	2549.190512
503.131470	2551.703527
503.497345	2549.979453
503.863163	2550.627241
504.228923	2548.898125
504.594625	2548.144473
504.960269	2552.409289
505.325856	2551.269988
505.691385	2549.150183
506.056856	2550.465924
506.422270	2550.055070
506.787625	2548.542724
507.152924	2547.721016
507.518164	2549.387117
507.883347	2551.033054
508.248472	2550.707900
508.613540	2548.303269
508.978550	2550.901984
509.343503	2551.015410
509.708398	2549.487940
510.073236	2551.902653
510.438016	2549.351829
510.802738	2551.701007
511.167403	2551.149001
511.532010	2549.568599
511.896561	2549.588763
512.261053	2551.259906
512.625488	2547.748742
512.989866	2543.849410
513.354186	2548.946016
513.718449	2547.721016
514.082655	2547.085831
514.446803	2552.583209
514.810894	2553.306614
515.174927	2552.358878
515.538904	2549.828218
515.902822	2550.223949
516.266684	2550.140770
516.630488	2551.338044
516.994235	2549.719833
517.357925	2552.053888
517.721558	2550.647406
518.085133	2551.239741
518.448651	2548.595656
518.812112	2547.814277
519.175516	2552.268137
519.538863	2549.891233
519.902152	2552.739485
520.265385	2551.161603
520.628560	2551.237221
520.991678	2551.728733
521.354739	2552.946172
521.717743	2551.073383
522.080690	2551.640513
522.443580	2550.901984
522.806413	2552.900802
523.169189	2554.251831
523.531908	2552.676470
523.894569	2554.087993
524.257174	2552.527756
524.619722	2550.533980
524.982213	2553.046995
525.344647	2551.753939
525.707025	2550.430636
526.069345	2553.599001
526.431608	2552.895760
526.793815	2551.766542
527.155964	2551.514484
527.518057	2553.062118
527.880093	2551.509443
528.242072	2551.028013
528.603995	2552.195040
528.965860	2550.155893
529.327669	2550.153373
529.689421	2553.266285
530.051117	2550.675132
530.412755	2550.332334
530.774337	2551.330482
531.135862	2554.317366
531.497331	2550.823846
531.858743	2547.020296
532.220098	2548.590615
532.581396	2548.711603
532.942638	2547.690769
533.303824	2552.071532
533.664953	2552.494989
534.026025	2548.285625
534.387040	2554.491286
534.747999	2550.481048
535.108902	2551.300235
535.469748	2551.524567
535.830537	2553.253682
536.191270	2553.634289
536.551947	2554.524053
536.912567	2552.742005
537.273131	2551.829556
537.633638	2550.418033
537.994089	2549.659340
538.354483	2549.767724
538.714821	2554.367777
539.075103	2551.290153
539.435328	2553.921635
539.795497	2552.568085
540.155609	2550.763352
540.515665	2551.060780
540.875665	2554.468600
541.235609	2551.169165
541.595496	2553.256203
541.955328	2551.922818
542.315102	2554.317366
542.674821	2554.163611
543.034483	2553.162942
543.394090	2553.084804
543.753640	2551.222097
544.113134	2553.077242
544.472571	2552.517674
544.831953	2552.757129
545.191278	2556.283416
545.550548	2551.960626
545.909761	2551.310318
546.268918	2552.895760
546.628019	2551.022972
546.987064	2552.399207
547.346053	2552.310987
547.704986	2553.248641
548.063863	2553.452808
548.422684	2551.088507
548.781449	2550.733105
549.140158	2549.354350
549.498811	2554.133364
549.857408	2551.761501
550.215949	2550.150852
550.574434	2549.976932
550.932864	2549.981973
551.291237	2547.499205
551.649555	2551.491799
552.007817	2553.656975
552.366022	2553.120092
552.724173	2552.036244
553.082267	2553.052036
553.440305	2554.113199
553.798288	2553.470452
554.156215	2549.644216
554.514086	2554.650082
554.871902	2550.596994
555.229661	2552.663867
555.587365	2553.679660
555.945014	2550.662529
556.302606	2550.019782
556.660143	2553.616645
557.017625	2553.203271
557.375050	2551.106151
557.732421	2553.238559
558.089735	2552.205122
558.446994	2551.466593
558.804197	2553.616645
559.161345	2551.282591
559.518437	2550.498692
559.875474	2554.433312
560.232455	2555.587737
560.589381	2551.373332
560.946251	2554.387942
561.303065	2552.820143
561.659825	2552.313507
562.016528	2552.058929
562.373177	2549.903836
562.729770	2551.333003
563.086307	2554.392983
563.442789	2553.906512
563.799216	2552.805020
564.155587	2550.831408
564.511904	2552.540359
564.868164	2554.040102
565.224370	2553.861141
565.580520	2555.809547
565.936615	2554.100596
566.292654	2551.244783
566.648638	2554.004814
567.004567	2553.273847
567.360441	2554.070349
567.716260	2553.097407
568.072023	2554.302242
568.427732	2548.310831
568.783385	2550.002138
569.138982	2548.615821
569.494525	2548.522559
569.850013	2547.879812
570.205445	2552.469783
570.560823	2552.005997
570.916145	2553.934238
571.271412	2551.519525
571.626625	2552.623538
571.981782	2552.056408
572.336884	2551.307797
572.691931	2552.316028
573.046923	2552.074052
573.401860	2553.155380
573.756743	2554.524053
574.111570	2550.349978
574.466342	2551.937941
574.821059	2548.973743
575.175722	2553.941800
575.530330	2552.991542
575.884882	2554.070349
576.239380	2551.360729
576.593823	2555.461708
576.948211	2551.348126
577.302544	2550.733105
577.656823	2551.827036
578.011047	2553.599001
578.365216	2548.983825
578.719330	2553.722510
579.073389	2551.380894
579.427394	2552.217725
579.781344	2550.004659
580.135239	2550.838970
580.489080	2552.134546
580.842866	2550.327293
581.196597	2553.296532
581.550273	2550.793599
581.903895	2550.723023
582.257463	2553.110009
582.610975	2551.610266
582.964434	2550.256716
583.317837	2551.786707
583.671186	2551.453990
584.024481	2551.958106
584.377721	2554.050185
584.730906	2550.410472
585.084037	2548.825029
585.437113	2549.659340
585.790135	2553.372149
586.143103	2551.322920
586.496016	2551.136398
586.848874	2548.283105
587.201679	2552.242931
587.554428	2547.484082
587.907124	2548.910728
588.259765	2544.822352
588.612352	2551.363250
588.964884	2550.629762
589.317362	2550.153373
589.669786	2551.204453
590.022155	2550.758311
590.374470	2550.894422
590.726731	2553.336861
591.078937	2552.247972
591.431090	2552.321069
591.783188	2551.295194
592.135232	2549.069525
592.487222	2548.656150
592.839157	2549.707231
593.191038	2549.044319
593.542866	2549.954247
593.894639	2549.571119
594.246358	2547.451314
594.598022	2549.979453
594.949633	2550.463404
595.301190	2549.924000
595.652692	2549.863506
596.004141	2550.899463
596.355535	2550.901984
596.706876	2551.459032
597.058162	2550.256716
597.409395	2550.584391
597.760573	2549.399720
598.111698	2551.343085
598.462768	2548.903167
598.813785	2548.215049
599.164748	2548.711603
599.515657	2546.599359
599.866511	2548.366284
600.217312	2548.247817
600.568060	2549.951727
600.918753	2550.954916
601.269392	2547.388300
601.619978	2550.833928
601.970510	2553.193188
602.320988	2549.351829
602.671412	2548.464586
603.021783	2550.266799
603.372100	2548.958619
603.722363	2549.818136
604.072572	2549.034237
604.422728	2550.876778
604.772830	2546.148176
605.122878	2545.661705
605.472872	2549.243444
605.822813	2548.250337
606.172701	2544.857641
606.522534	2548.993907
606.872314	2549.261088
607.222041	2547.128680
607.571714	2549.634134
607.921333	2549.392158
608.270899	2548.706562
608.620411	2549.873589
608.969870	2551.466593
609.319276	2552.225287
609.668627	2552.502550
610.017926	2555.665874
610.367171	2555.280226
610.716362	2555.822150
611.065500	2554.387942
611.414585	2552.822664
611.763616	2551.285112
612.112594	2552.615976
612.461518	2551.791748
612.810389	2551.877447
613.159207	2550.793599
613.507971	2552.588250
613.856682	2548.971222
614.205340	2548.114226
614.553945	2551.063301
614.902496	2548.799823
615.250994	2550.067673
615.599439	2547.940306
615.947830	2552.129505
616.296169	2548.406613
616.644454	2551.143959
616.992686	2548.565409
617.340864	2550.670091
617.688990	2548.066335
618.037063	2549.477858
618.385082	2549.732436
618.733048	2553.195709
619.080961	2551.179247
619.428821	2549.624052
619.776628	2545.941489
620.124382	2550.876778
620.472083	2547.423588
620.819731	2547.932744
621.167326	2545.737322
621.514868	2548.638506
621.862357	2549.666901
622.209793	2548.265461
622.557176	2551.590102
622.904506	2546.364946
623.251783	2544.373690
623.599007	2545.855789
623.946179	2543.022661
624.293297	2545.633978
624.640363	2548.827549
624.987376	2546.533824
625.334336	2547.514329
625.681243	2548.444422
626.028097	2549.099772
626.374899	2550.125646
626.721647	2549.036757
627.068343	2548.774617
627.414987	2547.773948
627.761577	2548.862837
628.108115	2546.722868
628.454600	2548.273022
628.801032	2546.606921
629.147412	2548.872920
629.493739	2547.516849
629.840014	2548.769576
630.186236	2546.677497
630.532405	2548.993907
630.878521	2548.308310
631.224585	2548.673794
631.570597	2547.930224
631.916556	2548.358722
632.262462	2546.228834
632.608316	2548.280584
632.954117	2546.836293
633.299866	2547.194215
633.645562	2544.703885
633.991206	2547.295038
634.336797	2544.197249
634.682336	2543.859492
635.027823	2547.721016
635.373257	2544.913093
635.718639	2545.404606
636.063968	2544.063659
636.409245	2541.449821
636.754470	2544.343443
637.099642	2543.020140
637.444762	2546.039791
637.789829	2544.645912
638.134845	2545.848227
638.479808	2545.139945
638.824719	2544.371169
639.169577	2543.322609
639.514383	2545.712116
639.859137	2544.719009
640.203839	2545.770089
640.548489	2544.734132
640.893086	2544.499719
641.237632	2537.547968
641.582125	2542.122815
641.926566	2538.490663
642.270955	2545.139945
642.615292	2542.740356
642.959576	2544.149358
643.303809	2542.740356
643.647990	2545.623896
643.992118	2544.421581
644.336195	2546.203629
644.680219	2544.744215
645.024192	2543.108360
645.368112	2546.957281
645.711981	2543.509132
646.055797	2545.603731
646.399562	2544.983669
646.743274	2548.736808
647.086935	2544.802188
647.430544	2542.687424
647.774101	2544.086344
648.117606	2542.828576
648.461059	2544.524924
648.804460	2543.181457
649.147810	2546.624565
649.491108	2546.518701
649.834354	2543.816642
650.177548	2544.928217
650.520690	2544.615665
650.863781	2543.695655
651.206820	2544.164482
651.549807	2544.910573
651.892742	2543.463762
652.235626	2541.253216
652.578458	2544.051056
652.921238	2542.780685
653.263967	2542.737835
653.606644	2543.564585
653.949269	2543.325130
654.291843	2543.912424
654.634365	2542.783206
654.976836	2542.750438
655.319255	2544.277908
655.661622	2542.261446
656.003938	2544.454348
656.346203	2542.861344
656.688416	2543.252033
657.030577	2541.953936
657.372687	2540.187012
657.714746	2541.424615
658.056753	2539.695499
658.398708	2538.654501
658.740612	2540.134079
659.082465	2537.784902
659.424266	2538.835982
659.766016	2539.085519
660.107715	2542.720191
660.449362	2545.059287
660.790958	2542.906714
661.132503	2542.725232
661.473996	2543.216745
661.815438	2545.954092
662.156829	2541.810263
662.498168	2541.190201
662.839456	2543.360418
663.180693	2543.304965
663.521879	2543.191539
663.863013	2542.884029
664.204097	2544.419060
664.545129	2541.991745
664.886110	2541.717002
665.227040	2542.437887
665.567918	2544.461910
665.908746	2542.848741
666.249522	2543.816642
666.590248	2544.431663
666.930922	2543.110881
667.271545	2543.917465
667.612118	2544.537527
667.952639	2543.310006
668.293109	2543.357897
668.633528	2545.238248
668.973896	2541.969059
669.314213	2542.205994
669.654480	2540.355890
669.994695	2543.342774
670.334859	2543.244471
670.674973	2542.906714
671.015035	2542.289173
671.355047	2542.563916
671.695008	2541.200283
672.034918	2542.137938
672.374777	2545.089534
672.714585	2541.845551
673.054342	2543.685572
673.394049	2544.751776
673.733705	2541.454862
674.073310	2542.077444
674.412864	2543.186498
674.752368	2538.054603
675.091820	2545.979297
675.431223	2539.806404
675.770574	2545.071890
676.109875	2540.343287
676.449125	2541.371683
676.788324	2537.774819
677.127473	2540.224820
677.466571	2536.549819
677.805619	2541.815304
678.144616	2539.380427
678.483562	2539.995448
678.822458	2543.161292
679.161303	2542.694986
679.500098	2539.304810
679.838842	2544.003165
680.177535	2542.299255
680.516179	2543.937630
680.854771	2540.771785
681.193314	2541.848072
681.531805	2540.217258
681.870247	2542.972249
682.208638	2541.500232
682.546978	2545.374359
682.885268	2543.229348
683.223508	2543.635161
683.561697	2545.999462
683.899836	2541.767413
684.237925	2542.548792
684.575963	2540.890252
684.913951	2540.991076
685.251889	2541.026364
685.589776	2541.162475
685.927614	2541.701878
686.265401	2543.196580
686.603137	2539.483771
686.940824	2544.144317
687.278460	2543.297403
687.616046	2541.797660
687.953582	2541.885880
688.291068	2542.551313
688.628504	2544.872764
688.965889	2541.906045
689.303224	2542.246323
689.640510	2541.417053
689.977745	2542.828576
690.314930	2539.637526
690.652065	2542.306817
690.989150	2544.698844
691.326185	2541.825387
691.663170	2538.984696
692.000105	2542.432846
692.336990	2538.861188
692.673825	2543.776313
693.010610	2543.791437
693.347345	2539.587114
693.684030	2536.741383
694.020665	2542.954605
694.357251	2537.840354
694.693786	2539.945036
695.030272	2541.104502
695.366707	2541.543082
695.703093	2540.504604
696.039429	2539.708102
696.375716	2539.849254
696.711952	2540.401261
697.048139	2538.218441
697.384276	2540.590304
697.720363	2541.575849
698.056400	2539.801363
698.392388	2536.577545
698.728326	2541.618699
699.064214	2539.193904
699.400053	2538.218441
699.735842	2537.807587
700.071581	2539.282124
700.407270	2536.685930
700.742910	2542.193391
701.078501	2538.304141
701.414042	2538.099974
701.749533	2542.246323
702.084974	2538.122659
702.420366	2538.876312
702.755709	2540.970911
703.091002	2540.146682
703.426246	2537.873122
703.761440	2539.677855
704.096584	2535.360107
704.431679	2538.878832
704.766725	2540.706250
705.101721	2536.728780
705.436668	2541.467465
705.771565	2538.931764
706.106413	2540.164326
706.441212	2540.159285
706.775961	2539.801363
707.110661	2541.593493
707.445311	2537.946219
707.779913	2536.804397
708.114465	2541.129707
708.448967	2538.951929
708.783421	2540.436549
709.117825	2539.977804
709.452180	2540.907897
709.786485	2537.192566
710.120742	2540.857485
710.454949	2539.987886
710.789107	2540.832279
711.123216	2536.645601
711.457275	2538.359593
711.791286	2535.244160
712.125247	2536.058307
712.459159	2539.004861
712.793023	2540.764224
713.126837	2537.868081
713.460602	2539.982845
713.794318	2537.794984
714.127985	2539.105684
714.461602	2537.784902
714.795171	2540.474357
715.128691	2541.827907
715.462162	2540.444110
715.795584	2537.250539
716.128957	2538.641898
716.462281	2539.619882
716.795556	2538.467978
717.128782	2541.081816
717.461960	2536.746424
717.795088	2539.811446
718.128167	2537.520241
718.461198	2538.031918
718.794180	2537.424459
719.127113	2537.416898
719.459997	2535.965045
719.792833	2537.933616
720.125619	2538.871270
720.458357	2536.648122
720.791046	2541.139790
721.123686	2537.116949
721.456278	2538.329346
721.788821	2538.362114
722.121315	2537.845396
722.453761	2536.774150
722.786158	2538.909079
723.118506	2538.823379
723.450805	2537.288348
723.783056	2535.067720
724.115259	2537.245498
724.447412	2538.185673
724.779518	2540.071065
725.111574	2539.816487
725.443582	2538.324305
725.775542	2534.959335
726.107453	2538.546116
726.439315	2538.016795
726.771129	2540.776827
727.102895	2538.014274
727.434612	2538.067206
727.766281	2537.321116
728.097901	2536.945550
728.429473	2534.097298
728.760996	2535.551671
729.092471	2532.196783
729.423897	2536.670807
729.755276	2535.748276
730.086606	2538.858668
730.417887	2535.750796
730.749120	2538.866229
731.080305	2539.839172
731.411442	2538.684748
731.742530	2537.923533
732.073570	2537.794984
732.404562	2537.742052
732.735506	2537.976466
733.066401	2538.835982
733.397249	2537.671476
733.728048	2537.863040
734.058798	2537.878163
734.389501	2539.201466
734.720156	2539.380427
735.050762	2536.842206
735.381320	2537.560570
735.711831	2539.665252
736.042293	2539.370345
736.372707	2538.024357
736.703073	2535.874304
737.033391	2538.639377
737.363661	2536.766589
737.693883	2538.536034
738.024056	2539.635005
738.354182	2536.645601
738.684260	2536.799356
739.014290	2533.915816
739.344272	2538.667104
739.674207	2536.678368
740.004093	2538.651980
740.333931	2534.493028
740.663722	2538.165509
740.993464	2537.406815
741.323159	2538.054603
741.652806	2537.406815
741.982405	2538.659542
742.311956	2535.410518
742.641460	2536.222144
742.970915	2538.929244
743.300323	2536.827082
743.629683	2535.781043
743.958996	2538.770447
744.288260	2535.917154
744.617477	2538.999820
744.946647	2531.117976
745.275768	2535.264325
745.604842	2532.277441
745.933869	2532.148892
746.262847	2531.906916
746.591778	2536.668286
746.920662	2536.007895
747.249498	2534.861033
747.578286	2533.925898
747.907027	2535.251722
748.235720	2535.367668
748.564365	2537.240457
748.892963	2538.082330
749.221514	2537.764737
749.550017	2536.075951
749.878473	2538.256250
750.206881	2537.744573
750.535242	2534.495549
750.863555	2533.162164
751.191821	2537.048893
751.520039	2535.758358
751.848210	2537.351362
752.176334	2536.456558
752.504411	2536.121321
752.832440	2533.358769
753.160421	2534.069571
753.488356	2534.253573
753.816243	2538.372196
754.144082	2534.190559
754.471875	2536.643080
754.799620	2536.562422
755.127318	2536.799356
755.454969	2535.808769
755.782572	2537.800025
756.110129	2536.917823
756.437638	2534.064530
756.765100	2535.312216
757.092515	2538.248688
757.419882	2534.026722
757.747203	2536.116280
758.074477	2537.583256
758.401703	2534.359438
758.728882	2533.056299
759.056014	2537.918492
759.383099	2536.696013
759.710138	2536.522093
760.037129	2534.515713
760.364073	2534.921526
760.690970	2536.287679
761.017820	2535.874304
761.344623	2534.813142
761.671379	2537.394212
761.998088	2532.403470
762.324751	2534.654345
762.651366	2536.257432
762.977935	2539.811446
763.304456	2534.669469
763.630931	2542.460572
763.957359	2539.922351
764.283740	2540.242464
764.610074	2539.065355
764.936362	2539.735828
765.262602	2536.900179
765.588796	2539.203987
765.914943	2539.032587
766.241044	2537.215251
766.567097	2535.617206
766.893104	2537.195087
767.219064	2534.787936
767.544978	2536.980838
767.870845	2534.049407
768.196665	2535.793646
768.522438	2536.363296
768.848165	2533.247863
769.173846	2535.284489
769.499479	2536.317926
769.825066	2533.303316
770.150607	2533.494880
770.476101	2536.446475
770.801548	2535.833975
771.126949	2535.639891
771.452303	2535.597041
771.777611	2535.133255
772.102872	2534.717360
772.428087	2533.220137
772.753256	2534.976979
773.078378	2532.300126
773.403453	2535.839016
773.728482	2532.925229
774.053465	2536.832124
774.378401	2532.511855
774.703291	2537.668955
775.028135	2533.885569
775.352932	2535.299613
775.677683	2535.934798
776.002388	2534.465302
776.327046	2534.540919
776.651658	2534.404808
776.976224	2533.789787
777.300743	2536.849768
777.625216	2534.538399
777.949643	2534.077133
778.274024	2536.922864
778.598359	2532.012781
778.922647	2529.277955
779.246889	2534.046886
779.571086	2530.747451
779.895236	2533.699047
780.219339	2534.276259
780.543397	2534.724921
780.867409	2529.988757
781.191374	2533.557894
781.515294	2533.835158
781.839167	2534.994623
782.162995	2533.661238
782.486776	2533.406660
782.810511	2533.562935
783.134201	2534.823224
783.457844	2534.230888
783.781441	2535.798687
784.104993	2534.359438
784.428498	2533.129396
784.751958	2534.619057
785.075372	2534.329191
785.398739	2534.745086
785.722061	2535.932278
786.045337	2534.782895
786.368568	2535.037473
786.691752	2535.115611
787.014891	2534.031763
787.337983	2532.209386
787.661030	2534.369520
787.984031	2533.023532
788.306987	2536.459078
788.629897	2534.346835
788.952760	2535.423121
789.275579	2533.605785
789.598351	2532.272400
789.921078	2532.393388
790.243759	2535.360107
790.566395	2532.199303
790.888984	2533.257946
791.211529	2534.399767
791.534027	2535.213913
791.856480	2534.188038
792.178888	2533.406660
792.501249	2537.225334
792.823566	2533.182328
793.145836	2536.935467
793.468062	2534.475384
793.790241	2536.365817
794.112375	2533.174767
794.434464	2535.488656
794.756507	2535.160981
795.078505	2532.630322
795.400457	2533.608306
795.722364	2527.445495
796.044226	2533.880528
796.366042	2530.366844
796.687812	2533.111752
797.009538	2534.671989
797.331218	2534.848430
797.652852	2533.126876
797.974442	2534.624098
798.295986	2534.004036
798.617484	2533.961187
798.938938	2534.619057
799.260346	2534.510672
799.581709	2533.356248
799.903026	2531.775846
800.224299	2534.147709
800.545526	2534.966897
800.866708	2532.027904
801.187845	2530.528161
801.508936	2534.223327
801.829983	2534.848430
802.150984	2533.830117
802.471940	2532.206865
802.792851	2530.878521
803.113717	2533.194931
803.434538	2532.171577
803.755314	2534.056968
804.076045	2531.304498
804.396731	2532.423635
804.717372	2534.162833
805.037967	2531.221319
805.358518	2533.812473
805.679024	2534.624098
805.999485	2534.520755
806.319901	2532.713501
806.640272	2533.063861
806.960598	2534.268697
807.280879	2532.887421
807.601115	2533.973789
807.921306	2532.579910
808.241453	2533.517565
808.561554	2534.331711
808.881611	2535.309695
809.201623	2531.390198
809.521590	2533.507483
809.841513	2533.968748
810.161390	2532.519417
810.481223	2531.254087
810.801011	2533.036135
811.120755	2531.400280
811.440453	2535.564273
811.760107	2532.554705
812.079716	2530.379447
812.399281	2530.515558
812.718801	2530.717204
813.038276	2529.729138
813.357707	2533.280631
813.677093	2531.594365
813.996434	2532.191742
814.315731	2532.990764
814.634983	2531.362472
814.954191	2532.080836
815.273354	2533.396577
815.592473	2531.007070
815.911547	2533.736855
816.230577	2531.692667
816.549562	2534.235929
816.868502	2531.405322
817.187399	2532.791639
817.506250	2533.048738
817.825058	2533.275590
818.143821	2534.218285
818.462539	2534.218285
818.781213	2533.671320
819.099843	2531.412883
819.418429	2535.108049
819.736970	2535.067720
820.055466	2535.468492
820.373919	2535.173584
820.692327	2534.041845
821.010691	2534.220806
821.329011	2540.507125
821.647286	2548.459545
821.965517	2554.302242
822.283704	2555.756615
822.601847	2559.189641
822.919945	2553.518343
823.237999	2550.329813
823.556010	2546.117929
823.873976	2544.358566
824.191897	2541.220448
824.509775	2540.955788
824.827609	2539.571991
825.145398	2536.481763
825.463144	2534.979500
825.780845	2536.958152
826.098502	2538.999820
826.416116	2538.546116
826.733685	2542.445448
827.051210	2543.652805
827.368692	2542.485778
827.686129	2540.285314
828.003522	2536.338091
828.320872	2531.848943
828.638177	2533.326001
828.955439	2532.698378
829.272656	2529.550177
829.589830	2528.559590
829.906960	2532.995806
830.224046	2533.681402
830.541088	2531.853984
830.858086	2532.247194
831.175041	2533.446989
831.491952	2532.030425
831.808819	2533.585621
832.125642	2532.932791
832.442421	2532.653007
832.759157	2530.747451
833.075849	2535.773481
833.392497	2535.823893
833.709101	2538.616692
834.025662	2537.570653
834.342179	2538.152906
834.658653	2533.721732
834.975083	2535.065199
835.291469	2538.508307
835.607811	2535.113090
835.924110	2533.048738
836.240366	2534.566125
836.556578	2533.121834
836.872746	2535.221475
837.188871	2533.378933
837.504952	2534.437576
837.820990	2531.191073
838.136984	2531.720394
838.452935	2533.497400
838.768842	2532.537061
839.084706	2530.276103
839.400526	2533.484797
839.716303	2532.080836
840.032037	2534.891279
840.347727	2529.867770
840.663373	2533.633512
840.978977	2532.209386
841.294537	2533.678882
841.610054	2530.351720
841.925527	2531.591844
842.240957	2530.041689
842.556344	2530.886083
842.871687	2533.255425
843.186987	2533.673841
843.502244	2529.035979
843.817458	2534.374561
844.132629	2532.839530
844.447756	2532.191742
844.762840	2524.869466
845.077881	2528.683098
845.392879	2530.893644
845.707833	2530.145033
846.022745	2526.013807
846.337613	2530.949097
846.652438	2529.976154
846.967221	2531.347348
847.281960	2529.900537
847.596656	2531.178470
847.911309	2531.405322
848.225919	2530.825589
848.540485	2530.810465
848.855009	2530.742410
849.169490	2530.691998
849.483928	2532.201824
849.798323	2529.550177
850.112675	2530.283665
850.426984	2530.543284
850.741251	2532.065713
851.055474	2529.431710
851.369654	2532.963038
851.683792	2527.929446
851.997887	2532.037986
852.311938	2531.165867
852.625947	2530.893644
852.939914	2530.959179
853.253837	2534.253573
853.567718	2531.533871
853.881555	2531.652338
854.195350	2532.237112
854.509103	2530.031607
854.822812	2528.655372
855.136479	2532.073274
855.450103	2529.651000
855.763685	2532.476567
856.077224	2529.204858
856.390720	2529.419107
856.704173	2530.944056
857.017584	2530.573531
857.330953	2528.305012
857.644278	2532.342976
857.957561	2533.885569
858.270802	2530.654190
858.584000	2530.913809
858.897155	2532.625281
859.210268	2532.501773
859.523339	2531.632173
859.836367	2530.507996
860.149352	2531.392719
860.462295	2531.233922
860.775195	2526.210413
861.088054	2526.444826
861.400869	2524.982892
861.713642	2526.946421
862.026373	2528.816689
862.339062	2530.752492
862.651708	2531.712832
862.964312	2532.191742
863.276873	2531.168387
863.589392	2530.099663
863.901869	2529.502286
864.214303	2532.348017
864.526696	2530.278624
864.839045	2529.535053
865.151353	2530.260980
865.463619	2529.250228
865.775842	2531.460774
866.088023	2528.988088
866.400162	2530.515558
866.712258	2528.305012
867.024313	2531.894313
867.336325	2530.150074
867.648296	2530.303829
867.960224	2531.261649
868.272110	2532.509334
868.583954	2530.618902
868.895755	2532.506814
869.207515	2531.680064
869.519233	2531.438089
869.830909	2531.347348
870.142542	2532.809283
870.454134	2529.565300
870.765684	2531.664941
871.077191	2530.513037
871.388657	2530.833151
871.700081	2529.688809
872.011463	2529.736700
872.322803	2531.173428
872.634101	2529.857687
872.945357	2529.996319
873.256571	2530.513037
873.567744	2532.166536
873.878874	2530.092101
874.189963	2531.664941
874.501010	2533.278110
874.812015	2530.001360
875.122979	2532.922709
875.433900	2530.203006
875.744780	2528.415917
876.055618	2529.935825
876.366415	2534.326670
876.677169	2534.268697
876.987882	2530.064375
877.298554	2526.976668
877.609183	2527.942049
877.919771	2527.470701
878.230317	2527.359796
878.540822	2531.677544
878.851285	2528.834333
879.161707	2531.271731
879.472087	2532.683254
879.782425	2531.574200
880.092722	2533.809952
880.402977	2533.799870
880.713191	2536.789274
881.023363	2541.913607
881.333494	2544.424101
881.643583	2540.549975
881.953631	2543.718340
882.263637	2544.482075
882.573602	2538.404964
882.883526	2537.532844
883.193408	2537.812628
883.503248	2538.588966
883.813048	2535.919675
884.122806	2537.394212
884.432522	2534.666948
884.742197	2531.594365
885.051831	2530.185362
885.361424	2529.580424
885.670975	2532.012781
885.980485	2532.408511
886.289954	2533.837678
886.599382	2532.743748
886.908768	2530.359282
887.218113	2529.411545
887.527417	2531.972451
887.836680	2531.397760
888.145901	2528.700742
888.455082	2529.983716
888.764221	2530.840712
889.073319	2532.864736
889.382376	2531.710311
889.691392	2528.173942
890.000366	2529.162008
890.309300	2528.494055
890.618193	2531.803573
890.927044	2531.652338
891.235855	2528.567152
891.544625	2530.346679
891.853353	2531.370033
892.162041	2530.689478
892.470687	2531.899355
892.779293	2529.454395
893.087858	2529.648479
893.396381	2526.777542
893.704864	2528.141174
894.013306	2526.132275
894.321707	2533.159643
894.630068	2532.670651
894.938387	2535.715508
895.246665	2531.130579
895.554903	2535.395395
895.863100	2533.809952
896.171256	2533.172246
896.479371	2528.083201
896.787446	2531.740558
897.095480	2531.460774
897.403473	2532.816845
897.711425	2529.958510
898.019336	2531.085208
898.327207	2529.172090
898.635038	2528.138654
898.942827	2532.075795
899.250576	2530.613860
899.558284	2533.018491
899.865952	2530.016484
900.173579	2531.143182
900.481165	2528.998171
900.788711	2529.381298
901.096216	2531.748120
901.403681	2531.070085
901.711105	2527.523633
902.018489	2529.930784
902.325832	2532.894983
902.633135	2530.679395
902.940397	2528.874662
903.247619	2532.123686
903.554800	2531.962369
903.861941	2533.126876
904.169041	2534.954294
904.476101	2535.370189
904.783121	2534.724921
905.090100	2534.843388
905.397039	2532.272400
905.703938	2531.312060
906.010796	2532.534540
906.317614	2532.227030
906.624391	2533.570497
906.931129	2532.932791
907.237826	2529.199817
907.544483	2526.696884
907.851099	2529.212420
908.157675	2528.804086
908.464211	2531.402801
908.770707	2525.403828
909.077163	2529.071267
909.383578	2527.049765
909.689954	2525.676050
909.996289	2527.392563
910.302584	2531.180990
910.608839	2528.015146
910.915054	2531.226361
911.221229	2528.531864
911.527363	2530.387008
911.833458	2527.558921
912.139513	2530.182842
912.445527	2529.096473
912.751502	2532.589993
913.057436	2531.682585
913.363331	2528.642769
913.669186	2530.220650
913.975000	2528.589837
914.280775	2530.515558
914.586510	2530.795342
914.892205	2531.881711
915.197859	2529.673685
915.503475	2533.580579
915.809050	2535.226516
916.114585	2535.133255
916.420081	2534.576207
916.725536	2531.450692
917.030952	2535.909593
917.336328	2532.504293
917.641665	2535.501259
917.946961	2533.323481
918.252218	2530.974303
918.557435	2531.019673
918.862612	2532.814324
919.167750	2531.133099
919.472848	2530.291227
919.777906	2529.809796
920.082925	2529.086391
920.387904	2527.594209
920.692843	2530.182842
920.997743	2529.104035
921.302603	2527.810979
921.607423	2531.213758
921.912204	2527.871473
922.216946	2530.374406
922.521647	2532.622760
922.826310	2528.441123
923.130932	2530.616381
923.435516	2529.247708
923.740059	2528.829292
924.044564	2527.407687
924.349028	2525.721421
924.653454	2524.554393
924.957840	2529.451874
925.262186	2527.190917
925.566493	2526.782583
925.870761	2524.935001
926.174989	2529.789632
926.479178	2530.114786
926.783328	2526.948942
927.087438	2528.652852
927.391509	2525.487007
927.695541	2528.312574
927.999533	2527.145547
928.303486	2529.073788
928.607400	2526.533046
928.911275	2527.778211
929.215110	2530.182842
929.518906	2526.490197
929.822663	2526.722090
930.126381	2529.708973
930.430060	2528.224353
930.733699	2528.514220
931.037299	2528.241997
931.340861	2526.253262
931.644383	2529.340969
931.947866	2530.908768
932.251309	2529.343490
932.554714	2527.453057
932.858080	2528.494055
933.161407	2526.722090
933.464694	2526.185207
933.767943	2526.976668
934.071153	2526.651513
934.374323	2525.771832
934.677455	2529.953469
934.980548	2529.381298
935.283602	2528.173942
935.586617	2528.378109
935.889593	2529.414066
936.192530	2530.848274
936.495428	2527.032121
936.798287	2525.572707
937.101108	2525.250073
937.403890	2528.544467
937.706632	2528.723428
938.009336	2529.167049
938.312002	2527.906761
938.614628	2528.728469
938.917216	2526.661596
939.219765	2526.805269
939.522275	2526.132275
939.824747	2528.426000
940.127179	2525.040865
940.429573	2528.022707
940.731929	2525.744106
941.034246	2524.882068
941.336524	2525.676050
941.638763	2526.099507
941.940964	2529.497245
942.243126	2529.769467
942.545250	2531.276772
942.847335	2524.204033
943.149381	2528.057995
943.451389	2524.826616
943.753359	2529.648479
944.055290	2527.044723
944.357182	2528.627646
944.659036	2527.251411
944.960851	2528.695701
945.262628	2525.723941
945.564367	2529.298119
945.866067	2527.500948
946.167729	2525.219826
946.469352	2529.958510
946.770937	2528.410876
947.072484	2527.241328
947.373992	2526.893489
947.675462	2526.487676
947.976893	2528.650331
948.278286	2528.388191
948.579641	2527.914323
948.880958	2530.250897
949.182236	2525.739065
949.483476	2528.471370
949.784678	2525.948273
950.085841	2527.027079
950.386967	2527.226205
950.688054	2527.316946
950.989103	2525.088756
951.290114	2528.690660
951.591087	2527.430372
951.892021	2528.597399
952.192917	2526.767460
952.493776	2529.172090
952.794596	2527.523633
953.095378	2528.315094
953.396122	2528.090763
953.696828	2527.367357
953.997496	2528.945238
954.298126	2525.968437
954.598718	2527.193438
954.899272	2529.250228
955.199788	2525.648324
955.500266	2528.534384
955.800706	2525.005577
956.101108	2520.362674
956.401472	2526.654034
956.701798	2523.341996
957.002087	2524.100690
957.302337	2526.981709
957.602550	2527.717718
957.902724	2525.655886
958.202861	2527.823582
958.502960	2525.562624
958.803022	2528.539426
959.103045	2527.455577
959.403031	2528.047913
959.702979	2524.756040
960.002889	2528.504137
960.302762	2529.046062
960.602596	2525.315608
960.902393	2525.411390
961.202153	2528.438602
961.501875	2527.485824
961.801559	2528.352903
962.101205	2526.843077
962.400814	2526.545649
962.700385	2527.516071
962.999918	2529.005732
963.299414	2525.880217
963.598873	2527.294261
963.898293	2526.943900
964.197677	2527.392563
964.497022	2526.094466
964.796331	2526.268386
965.095601	2527.692512
965.394835	2528.778880
965.694030	2524.453570
965.993189	2529.530012
966.292309	2526.946421
966.591393	2527.942049
966.890439	2526.071781
967.189447	2525.945752
967.488419	2525.923067
967.787353	2525.847449
968.086249	2525.292922
968.385108	2526.280989
968.683930	2528.156298
968.982714	2525.363499
969.281462	2524.549352
969.580172	2525.330731
969.878844	2527.004394
970.177480	2527.165711
970.476078	2527.135464
970.774639	2527.760567
971.073162	2527.059847
971.371649	2525.618077
971.670098	2525.938190
971.968510	2520.700431
972.266885	2519.886285
972.565223	2531.659900
972.863524	2525.867614
973.161788	2528.642769
973.460014	2526.021369
973.758204	2527.838705
974.056356	2529.557739
974.354471	2527.405166
974.652550	2528.443644
974.950591	2524.398118
975.248595	2527.180835
975.546563	2526.086904
975.844493	2525.857532
976.142386	2528.131092
976.440243	2526.800228
976.738062	2525.849970
977.035845	2525.663447
977.333590	2526.646472
977.631299	2527.876514
977.928971	2527.725279
978.226606	2525.050947
978.524204	2526.901051
978.821765	2523.742768
979.119290	2524.085566
979.416777	2527.085053
979.714228	2527.780732
980.011642	2525.645803
980.309020	2528.325177
980.606360	2528.564631
980.903664	2527.198479
981.200931	2528.557070
981.498162	2525.912984
981.795356	2527.183355
982.092513	2526.200330
982.389633	2527.717718
982.686717	2527.858870
982.983764	2525.832326
983.280775	2525.015659
983.577749	2524.123375
983.874686	2526.033972
984.171587	2526.283509
984.468451	2527.750485
984.765279	2527.243849
985.062070	2525.660927
985.358824	2528.254600
985.655543	2529.673685
985.952224	2526.835516
986.248869	2526.419620
986.545478	2520.423168
986.842050	2525.108920
987.138586	2524.516585
987.435086	2522.991636
987.731549	2521.524660
988.027975	2525.129085
988.324366	2523.969620
988.620719	2527.057326
988.917037	2526.843077
989.213318	2526.283509
989.509563	2523.818385
989.805772	2524.327542
990.101944	2525.068591
990.398080	2525.950793
990.694180	2525.756709
990.990244	2526.240659
991.286271	2523.541122
991.582262	2524.360309
991.878217	2522.820237
992.174136	2525.668488
992.470019	2525.239990
992.765865	2521.539783
993.061676	2524.655217
993.357450	2527.672347
993.653188	2525.403828
993.948890	2525.469363
994.244556	2526.918695
994.540186	2528.030269
994.835780	2526.086904
995.131337	2527.410207
995.426859	2524.846780
995.722345	2528.657893
996.017795	2525.550021
996.313208	2526.535567
996.608586	2529.272913
996.903928	2523.379805
997.199234	2524.955165
997.494504	2526.033972
997.789738	2524.009949
998.084936	2527.216123
998.380099	2526.079342
998.675225	2526.061698
998.970316	2524.985412
999.265371	2527.216123
999.560390	2526.656555
999.855373	2526.709487
1000.150320	2524.788807
1000.445232	2524.839219
1000.740108	2528.650331
1001.034948	2526.197810
1001.329752	2526.825433
1001.624521	2522.963909
1001.919254	2521.935514
1002.213951	2523.631862
1002.508613	2522.739578
1002.803239	2523.959537
1003.097829	2519.407375
1003.392384	2525.807120
1003.686903	2526.432223
1003.981386	2527.697553
1004.275834	2527.241328
1004.570246	2526.759898
1004.864623	2526.046575
1005.158964	2525.315608
1005.453270	2524.466173
1005.747540	2525.257634
1006.041775	2524.483817
1006.335974	2525.618077
1006.630138	2524.803931
1006.924266	2527.188396
1007.218359	2523.883920
1007.512416	2527.047244
1007.806438	2521.751512
1008.100425	2525.421472
1008.394376	2525.403828
1008.688292	2523.200844
1008.982172	2525.257634
1009.276017	2524.773684
1009.569827	2522.129598
1009.863602	2527.022038
1010.157341	2522.595905
1010.451045	2525.756709
1010.744714	2525.368540
1011.038347	2525.068591
1011.331945	2524.335103
1011.625508	2528.249559
1011.919036	2524.115813
1012.212528	2525.025741
1012.505986	2525.552542
1012.799408	2525.464322
1013.092795	2526.308715
1013.386147	2522.732016
1013.679464	2523.505833
1013.972745	2528.259642
1014.265992	2525.277799
1014.559204	2526.066740
1014.852380	2528.264683
1015.145521	2527.692512
1015.438628	2527.884076
1015.731699	2525.028262
1016.024736	2525.771832
1016.317737	2523.556245
1016.610703	2526.706966
1016.903635	2521.259999
1017.196531	2518.948630
1017.489393	2523.039527
1017.782219	2520.123219
1018.075011	2524.224198
1018.367768	2525.053468
1018.660490	2525.416431
1018.953177	2525.416431
1019.245829	2525.416431
