Dividing Wavelength (nm)	Counts (n)	Blue Motor Position (mm): 0.000000	Red Motor Position (mm): 11.700000	
326.493990	2129.292644
326.888308	2129.292644
327.282561	2129.292644
327.676750	2095.564804
328.070874	2094.644793
328.464933	2096.827613
328.858929	2103.492018
329.252859	2115.459718
329.646726	2125.073198
330.040528	2137.585342
330.434265	2154.347178
330.827938	2170.466268
331.221547	2192.382684
331.615091	2209.089068
332.008571	2228.593292
332.401986	2247.464852
332.795338	2268.065527
333.188625	2288.197375
333.581847	2306.446352
333.975006	2322.840184
334.368100	2343.158555
334.761129	2361.422655
335.154095	2374.653163
335.546996	2391.914074
335.939833	2406.261198
336.332606	2421.167890
336.725315	2436.969387
337.117960	2446.139245
337.510540	2454.646192
337.903056	2462.694395
338.295508	2473.119501
338.687896	2478.432877
339.080220	2490.067860
339.472480	2494.133551
339.864676	2499.434324
340.256807	2505.241733
340.648875	2505.052690
341.040879	2510.139214
341.432818	2508.825993
341.824694	2511.339009
342.216506	2512.475789
342.608253	2513.920079
342.999937	2512.014523
343.391557	2512.352281
343.783113	2512.979904
344.174605	2512.679956
344.566033	2507.805160
344.957397	2508.483195
345.348697	2505.904645
345.739934	2503.641167
346.131106	2500.402225
346.522215	2500.916423
346.913260	2499.036073
347.304241	2497.783346
347.695159	2496.863335
348.086012	2493.679847
348.476802	2493.964672
348.867528	2488.263127
349.258191	2487.663230
349.648789	2490.307315
350.039324	2485.233393
350.429796	2486.352530
350.820203	2484.026037
351.210548	2485.301449
351.600828	2480.887919
351.991045	2481.797847
352.381198	2477.517908
352.771288	2482.420430
353.161314	2480.222487
353.551276	2482.259113
353.941175	2480.464462
354.331010	2480.993783
354.720782	2478.926910
355.110490	2481.112250
355.500135	2482.009576
355.889717	2481.520584
356.279235	2481.916314
356.668689	2482.034781
357.058080	2483.214411
357.447408	2480.797178
357.836672	2481.036633
358.225873	2480.421612
358.615010	2479.753659
359.004084	2483.605101
359.393095	2484.275574
359.782043	2485.291367
360.170927	2484.149545
360.559748	2486.589464
360.948505	2487.784217
361.337199	2487.340596
361.725830	2487.701038
362.114398	2489.142808
362.502903	2490.783704
362.891344	2489.392345
363.279722	2489.941831
363.668037	2492.636328
364.056289	2489.566265
364.444478	2493.084991
364.832603	2491.607932
365.220665	2493.636997
365.608665	2493.752943
365.996601	2495.048520
366.384474	2492.820330
366.772284	2496.606237
367.160031	2496.928870
367.547715	2497.944663
367.935336	2503.908348
368.322893	2507.109481
368.710388	2507.530417
369.097820	2513.423526
369.485189	2515.729854
369.872495	2525.154291
370.259738	2531.443130
370.646918	2535.178625
371.034035	2541.124666
371.421090	2552.116902
371.808081	2564.376988
372.195010	2572.770509
372.581875	2584.677715
372.968678	2598.273707
373.355418	2606.084975
373.742096	2627.527522
374.128710	2640.947074
374.515262	2657.199754
374.901751	2670.848678
375.288177	2684.958868
375.674540	2706.373689
376.060841	2724.191647
376.447079	2744.320975
376.833254	2767.207813
377.219367	2778.152158
377.605417	2816.454845
377.991404	2823.429282
378.377329	2845.418795
378.763191	2860.882534
379.148991	2899.782598
379.534727	2922.608942
379.920402	2951.172120
380.306013	2966.300623
380.691563	3017.037316
381.077049	3036.518855
381.462474	3052.458983
381.847835	3092.261413
382.233134	3111.354783
382.618371	3112.176492
383.003545	3179.422963
383.388657	3182.301462
383.773706	3215.326061
384.158693	3225.831826
384.543618	3252.439036
384.928480	3281.153448
385.313280	3319.012513
385.698017	3311.634785
386.082692	3357.211857
386.467305	3354.023327
386.851856	3372.514279
387.236344	3382.321844
387.620770	3399.764236
388.005133	3409.836462
388.389435	3422.290632
388.773674	3416.677307
389.157851	3436.027776
389.541965	3432.037703
389.926018	3386.979870
390.310008	3427.440171
390.693936	3420.180909
391.077802	3435.808486
391.461606	3400.827920
391.845348	3422.194850
392.229027	3402.756161
392.612645	3384.489540
392.996200	3410.995927
393.379694	3410.688417
393.763125	3421.814243
394.146494	3368.128475
394.529801	3372.756254
394.913047	3370.263404
395.296230	3317.076710
395.679351	3318.490754
396.062410	3293.176600
396.445408	3251.239241
396.828343	3233.101169
397.211217	3203.607899
397.594028	3138.176243
397.976778	3132.328504
398.359466	3108.899742
398.742092	3083.625917
399.124656	3026.451670
399.507158	3019.439425
399.889598	3000.242712
400.271977	2986.064466
400.654294	2948.528035
401.036549	2916.816657
401.418742	2882.882129
401.800874	2876.600852
402.182944	2853.797192
402.564952	2838.005778
402.946898	2813.591470
403.328783	2787.349743
403.710606	2750.811460
404.092367	2756.288674
404.474067	2730.861094
404.855705	2711.797971
405.237282	2688.379291
405.618797	2681.523321
406.000250	2667.571928
406.381642	2658.714621
406.762972	2642.391365
407.144240	2627.585496
407.525447	2617.616614
407.906593	2607.471292
408.287677	2599.644901
408.668700	2586.119485
409.049661	2582.575554
409.430560	2575.001220
409.811399	2565.594427
410.192176	2561.596792
410.572891	2555.945658
410.953545	2555.920453
411.334138	2547.405944
411.714669	2543.126004
412.095139	2536.025539
412.475547	2536.300282
412.855894	2534.341794
413.236180	2530.492873
413.616405	2533.315919
413.996568	2530.780218
414.376670	2531.874149
414.756711	2528.015146
415.136691	2529.613191
415.516609	2529.721576
415.896466	2528.262162
416.276262	2527.558921
416.655997	2520.776049
417.035670	2522.608508
417.415283	2524.950124
417.794834	2519.435102
418.174324	2522.127078
418.553753	2524.995494
418.933121	2525.139167
419.312428	2526.228057
419.691674	2527.321987
420.070859	2523.505833
420.449983	2526.139836
420.829045	2526.812830
421.208047	2526.810310
421.586988	2526.114631
421.965867	2525.436595
422.344686	2526.724610
422.723444	2527.180835
423.102141	2527.233767
423.480777	2525.539939
423.859352	2525.734023
424.237866	2526.061698
424.616319	2527.692512
424.994712	2525.590351
425.373044	2527.702594
425.751314	2528.998171
426.129524	2526.228057
426.507673	2526.472553
426.885762	2525.018180
427.263789	2529.300640
427.641756	2524.995494
428.019662	2530.621422
428.397508	2529.121679
428.775292	2530.525640
429.153016	2527.800897
429.530679	2526.548170
429.908282	2530.528161
430.285824	2526.459950
430.663305	2526.596061
431.040726	2529.028418
431.418086	2529.930784
431.795385	2528.723428
432.172624	2527.725279
432.549802	2528.433561
432.926920	2529.313243
433.303977	2527.163191
433.680974	2528.347862
434.057910	2528.723428
434.434786	2530.283665
434.811601	2529.580424
435.188355	2527.117820
435.565050	2529.900537
435.941683	2529.671165
436.318257	2527.354754
436.694770	2525.781914
437.071222	2527.649662
437.447614	2525.600433
437.823946	2526.422141
438.200218	2532.683254
438.576429	2530.376926
438.952580	2531.987575
439.328670	2531.443130
439.704700	2530.903727
440.080670	2528.239477
440.456580	2530.213089
440.832429	2530.507996
441.208218	2530.961700
441.583947	2530.127389
441.959616	2532.791639
442.335224	2530.205527
442.710773	2533.860363
443.086261	2531.780888
443.461689	2530.298788
443.837057	2531.566638
444.212365	2531.576721
444.587612	2529.293078
444.962800	2530.714683
445.337927	2532.756351
445.712995	2529.777029
446.088002	2532.534540
446.462949	2533.782226
446.837837	2532.405991
447.212664	2532.121165
447.587431	2532.453882
447.962139	2532.693336
448.336786	2538.530993
448.711374	2534.813142
449.085901	2534.714839
449.460369	2531.808614
449.834776	2534.747607
450.209124	2532.831968
450.583412	2535.287010
450.957640	2537.023687
451.331808	2535.153419
451.705917	2536.796836
452.079965	2535.196269
452.453954	2534.281300
452.827883	2534.230888
453.201752	2531.874149
453.575562	2535.559232
453.949311	2533.814993
454.323001	2534.485467
454.696632	2534.603934
455.070202	2537.981507
455.443713	2538.059645
455.817164	2533.898172
456.190556	2532.227030
456.563888	2532.300126
456.937160	2529.711494
457.310373	2537.076620
457.683526	2537.028729
458.056619	2535.135775
458.429653	2535.239119
458.802628	2537.565612
459.175542	2535.375230
459.548398	2537.043852
459.921194	2536.963194
460.293930	2535.450847
460.666607	2538.785571
461.039224	2539.622402
461.411782	2539.657690
461.784280	2540.849923
462.156719	2538.772968
462.529099	2540.499563
462.901419	2539.660211
463.273680	2538.404964
463.645882	2539.017464
464.018024	2540.655839
464.390106	2540.229861
464.762130	2540.643236
465.134094	2538.485622
465.505999	2544.119112
465.877845	2545.122301
466.249631	2549.664381
466.621358	2546.506098
466.993026	2548.704041
467.364634	2551.451470
467.736184	2544.774462
468.107674	2543.557023
468.479105	2543.292362
468.850477	2544.434184
469.221790	2546.405275
469.593043	2545.114739
469.964238	2544.504760
470.335373	2544.131714
470.706449	2542.919317
471.077467	2540.645757
471.448425	2545.807898
471.819324	2548.494833
472.190164	2549.213198
472.560945	2545.636499
472.931667	2544.313196
473.302330	2544.131714
473.672934	2544.464431
474.043479	2543.667928
474.413965	2544.076262
474.784393	2539.095602
475.154761	2541.212886
475.525070	2538.596528
475.895321	2538.455375
476.265513	2542.052238
476.635645	2542.921837
477.005719	2544.388813
477.375734	2545.107178
477.745691	2543.289842
478.115588	2544.734132
478.485427	2546.599359
478.855207	2544.524924
479.224928	2549.515667
479.594591	2549.888712
479.964194	2546.715306
480.333739	2550.695297
480.703226	2548.807385
481.072653	2547.887374
481.442022	2546.911911
481.811333	2551.143959
482.180584	2548.772097
482.549777	2547.884853
482.918912	2547.330327
483.287988	2549.745039
483.657005	2547.153886
484.025964	2546.372507
484.394864	2544.479554
484.763706	2548.394010
485.132489	2547.315203
485.501213	2545.278577
485.869879	2545.192877
486.238487	2546.122970
486.607036	2547.511808
486.975527	2547.733619
487.343959	2547.005172
487.712333	2547.327806
488.080648	2548.149514
488.448905	2546.170861
488.817104	2545.371838
489.185244	2548.406613
489.553326	2546.652291
489.921350	2550.801161
490.289315	2549.626572
490.657222	2551.030533
491.025070	2551.496840
491.392861	2550.803682
491.760593	2550.924669
492.128267	2549.467776
492.495883	2550.171017
492.863440	2550.375183
493.230939	2547.390820
493.598380	2549.697148
493.965763	2541.457382
494.333088	2546.289328
494.700354	2542.561395
495.067563	2546.196067
495.434713	2542.949564
495.801805	2548.658671
496.168839	2545.538196
496.535815	2547.549617
496.902733	2547.289997
497.269593	2547.683207
497.636395	2545.558361
498.003139	2548.520039
498.369825	2550.773435
498.736453	2547.534493
499.103023	2545.853268
499.469535	2549.545914
499.835989	2545.994421
500.202385	2550.786037
500.568723	2548.134391
500.935003	2548.888043
501.301226	2546.367466
501.667390	2549.054401
502.033497	2548.782179
502.399546	2548.976263
502.765537	2547.922662
503.131470	2547.466438
503.497345	2547.232024
503.863163	2550.453321
504.228923	2545.397044
504.594625	2548.225131
504.960269	2546.425439
505.325856	2546.874102
505.691385	2546.493495
506.056856	2549.447611
506.422270	2548.509957
506.787625	2549.069525
507.152924	2547.970553
507.518164	2551.239741
507.883347	2548.013403
508.248472	2549.591284
508.613540	2550.405430
508.978550	2547.869730
509.343503	2547.625234
509.708398	2548.986346
510.073236	2548.751932
510.438016	2551.113712
510.802738	2550.478527
511.167403	2549.114895
511.532010	2549.840821
511.896561	2549.941644
512.261053	2550.392828
512.625488	2544.860161
512.989866	2545.359235
513.354186	2548.343598
513.718449	2544.348484
514.082655	2547.458876
514.446803	2552.303425
514.810894	2548.978784
515.174927	2551.433826
515.538904	2550.231511
515.902822	2550.226469
516.266684	2550.433157
516.630488	2549.324103
516.994235	2550.523897
517.357925	2550.143290
517.721558	2551.451470
518.085133	2551.448949
518.448651	2551.922818
518.812112	2550.491130
519.175516	2551.201933
519.538863	2549.112374
519.902152	2549.450132
520.265385	2550.019782
520.628560	2547.521890
520.991678	2552.270657
521.354739	2550.176058
521.717743	2552.560524
522.080690	2550.266799
522.443580	2551.693445
522.806413	2551.083466
523.169189	2549.767724
523.531908	2552.310987
523.894569	2551.567416
524.257174	2552.782334
524.619722	2552.200081
524.982213	2552.280740
525.344647	2548.547765
525.707025	2550.430636
526.069345	2550.372663
526.431608	2549.629093
526.793815	2550.105482
527.155964	2550.622200
527.518057	2550.024823
527.880093	2552.641182
528.242072	2549.001469
528.603995	2552.752087
528.965860	2549.389638
529.327669	2551.317879
529.689421	2548.794782
530.051117	2552.071532
530.412755	2550.536500
530.774337	2552.063970
531.135862	2551.327962
531.497331	2551.527087
531.858743	2543.146169
532.220098	2549.049360
532.581396	2546.962322
532.942638	2544.797147
533.303824	2550.193702
533.664953	2552.462221
534.026025	2549.263609
534.387040	2550.922149
534.747999	2550.014741
535.108902	2549.424926
535.469748	2549.823177
535.830537	2549.624052
536.191270	2549.656819
536.551947	2552.431974
536.912567	2549.634134
537.273131	2551.713610
537.633638	2552.895760
537.994089	2551.106151
538.354483	2551.363250
538.714821	2553.064639
539.075103	2550.488609
539.435328	2551.073383
539.795497	2550.657488
540.155609	2550.959957
540.515665	2553.326779
540.875665	2552.525236
541.235609	2547.032898
541.595496	2549.719833
541.955328	2551.847200
542.315102	2552.429454
542.674821	2548.507436
543.034483	2553.535987
543.394090	2552.391645
543.753640	2552.021120
544.113134	2550.854093
544.472571	2553.699824
544.831953	2553.334341
545.191278	2552.991542
545.550548	2552.195040
545.909761	2552.719320
546.268918	2552.842828
546.628019	2551.769062
546.987064	2552.535318
547.346053	2551.345606
547.704986	2551.653116
548.063863	2550.644885
548.422684	2554.332489
548.781449	2550.967519
549.140158	2551.413661
549.498811	2554.002294
549.857408	2554.904660
550.215949	2549.354350
550.574434	2546.385110
550.932864	2551.116233
551.291237	2547.050542
551.649555	2551.932900
552.007817	2553.974567
552.366022	2552.434495
552.724173	2550.377704
553.082267	2549.659340
553.440305	2551.809392
553.798288	2550.738147
554.156215	2552.983981
554.514086	2551.829556
554.871902	2555.378529
555.229661	2551.176727
555.587365	2551.701007
555.945014	2553.294012
556.302606	2549.924000
556.660143	2548.580533
557.017625	2552.469783
557.375050	2551.022972
557.732421	2551.514484
558.089735	2552.419371
558.446994	2551.922818
558.804197	2551.622869
559.161345	2550.970040
559.518437	2550.261757
559.875474	2552.179917
560.232455	2555.043292
560.589381	2551.053219
560.946251	2556.580844
561.303065	2550.455842
561.659825	2551.249824
562.016528	2550.624721
562.373177	2550.995245
562.729770	2552.121943
563.086307	2553.362067
563.442789	2552.126984
563.799216	2553.069680
564.155587	2550.024823
564.511904	2552.290822
564.868164	2553.104968
565.224370	2550.032385
565.580520	2552.850390
565.936615	2552.033723
566.292654	2551.249824
566.648638	2551.466593
567.004567	2551.320400
567.360441	2552.550441
567.716260	2553.341903
568.072023	2550.108002
568.427732	2550.324772
568.783385	2549.432488
569.138982	2545.858310
569.494525	2548.893084
569.850013	2546.490974
570.205445	2553.440205
570.560823	2550.924669
570.916145	2552.689073
571.271412	2553.483055
571.626625	2552.467262
571.981782	2549.719833
572.336884	2551.698486
572.691931	2551.322920
573.046923	2550.377704
573.401860	2551.695966
573.756743	2550.891902
574.111570	2550.387786
574.466342	2550.372663
574.821059	2551.446429
575.175722	2552.805020
575.530330	2550.460883
575.884882	2551.648075
576.239380	2550.896943
576.593823	2553.467931
576.948211	2551.353167
577.302544	2550.057591
577.656823	2550.337375
578.011047	2553.379711
578.365216	2550.349978
578.719330	2552.379042
579.073389	2551.194371
579.427394	2551.312838
579.781344	2551.307797
580.135239	2550.748229
580.489080	2550.153373
580.842866	2549.555996
581.196597	2552.762170
581.550273	2552.742005
581.903895	2549.256047
582.257463	2554.133364
582.610975	2551.343085
582.964434	2550.745708
583.317837	2550.458362
583.671186	2551.327962
584.024481	2551.461552
584.377721	2549.621531
584.730906	2552.837787
585.084037	2549.011551
585.437113	2550.859134
585.790135	2550.647406
586.143103	2551.897612
586.496016	2550.823846
586.848874	2547.650440
587.201679	2548.056253
587.554428	2546.037271
587.907124	2550.896943
588.259765	2545.606252
588.612352	2552.101779
588.964884	2549.308979
589.317362	2550.881819
589.669786	2550.438198
590.022155	2551.867365
590.374470	2549.918959
590.726731	2552.742005
591.078937	2548.227652
591.431090	2551.524567
591.783188	2548.686397
592.135232	2547.244627
592.487222	2553.906512
592.839157	2550.970040
593.191038	2547.242106
593.542866	2553.160421
593.894639	2549.641696
594.246358	2549.694628
594.598022	2548.819987
594.949633	2548.625903
595.301190	2547.111036
595.652692	2552.583209
596.004141	2549.064483
596.355535	2550.168496
596.706876	2548.923331
597.058162	2548.814946
597.409395	2550.602035
597.760573	2550.211346
598.111698	2547.133722
598.462768	2549.689587
598.813785	2548.600697
599.164748	2549.460214
599.515657	2545.926365
599.866511	2548.570450
600.217312	2550.090358
600.568060	2549.845862
600.918753	2551.184289
601.269392	2546.750594
601.619978	2551.194371
601.970510	2550.080276
602.320988	2545.863351
602.671412	2549.767724
603.021783	2546.269164
603.372100	2548.441901
603.722363	2548.096582
604.072572	2551.053219
604.422728	2551.927859
604.772830	2543.622558
605.122878	2544.713968
605.472872	2549.208156
605.822813	2542.780685
606.172701	2548.767055
606.522534	2549.394679
606.872314	2549.122457
607.222041	2548.537683
607.571714	2550.400389
607.921333	2550.859134
608.270899	2546.294369
608.620411	2547.957950
608.969870	2551.002807
609.319276	2551.995914
609.668627	2554.720658
610.017926	2556.036399
610.367171	2557.674774
610.716362	2555.234856
611.065500	2554.839125
611.414585	2552.081614
611.763616	2553.596481
612.112594	2552.918446
612.461518	2551.900132
612.810389	2552.459701
613.159207	2548.210008
613.507971	2552.986501
613.856682	2549.543393
614.205340	2548.993907
614.553945	2548.570450
614.902496	2549.671943
615.250994	2550.927190
615.599439	2549.208156
615.947830	2551.978270
616.296169	2547.544576
616.644454	2549.500543
616.992686	2549.578681
617.340864	2551.098589
617.688990	2548.441901
618.037063	2548.588094
618.385082	2549.291335
618.733048	2549.344268
619.080961	2546.102806
619.428821	2548.499874
619.776628	2550.123126
620.124382	2549.714792
620.472083	2548.532642
620.819731	2548.015923
621.167326	2549.046839
621.514868	2549.530790
621.862357	2548.699000
622.209793	2548.807385
622.557176	2547.423588
622.904506	2546.874102
623.251783	2545.361756
623.599007	2545.220604
623.946179	2544.376210
624.293297	2545.339071
624.640363	2548.242775
624.987376	2549.210677
625.334336	2544.930737
625.681243	2546.879143
626.028097	2549.772766
626.374899	2548.101623
626.721647	2544.950902
627.068343	2546.357384
627.414987	2548.956099
627.761577	2546.813608
628.108115	2546.405275
628.454600	2544.517363
628.801032	2549.631613
629.147412	2547.617672
629.493739	2547.287477
629.840014	2548.709082
630.186236	2546.175902
630.532405	2546.291849
630.878521	2545.649102
631.224585	2548.172199
631.570597	2543.758669
631.916556	2547.584905
632.262462	2545.603731
632.608316	2546.916952
632.954117	2546.982487
633.299866	2545.760007
633.645562	2543.899821
633.991206	2549.634134
634.336797	2543.914945
634.682336	2547.927703
635.027823	2543.279759
635.373257	2543.194060
635.718639	2545.452497
636.063968	2545.018957
636.409245	2545.414688
636.754470	2543.572146
637.099642	2544.575336
637.444762	2545.807898
637.789829	2544.759338
638.134845	2543.531817
638.479808	2544.824873
638.824719	2545.414688
639.169577	2544.192208
639.514383	2544.804708
639.859137	2545.457538
640.203839	2544.177085
640.548489	2543.688093
640.893086	2542.959646
641.237632	2541.107022
641.582125	2541.956457
641.926566	2539.279604
642.270955	2544.698844
642.615292	2543.975439
642.959576	2541.931251
643.303809	2543.302445
643.647990	2540.539892
643.992118	2538.767927
644.336195	2544.552651
644.680219	2545.591128
645.024192	2542.863864
645.368112	2543.234389
645.711981	2543.176416
646.055797	2546.191026
646.399562	2544.471992
646.743274	2543.277239
647.086935	2543.075593
647.430544	2544.711447
647.774101	2545.722198
648.117606	2542.962167
648.461059	2543.310006
648.804460	2543.156251
649.147810	2545.628937
649.491108	2541.890922
649.834354	2543.854451
650.177548	2544.897970
650.520690	2542.773123
650.863781	2542.450490
651.206820	2545.916283
651.549807	2545.875954
651.892742	2545.142466
652.235626	2544.719009
652.578458	2542.321940
652.921238	2543.047866
653.263967	2543.988042
653.606644	2542.228679
653.949269	2540.315561
654.291843	2543.620037
654.634365	2545.974256
654.976836	2544.101468
655.319255	2544.885367
655.661622	2544.076262
656.003938	2545.676828
656.346203	2543.700696
656.688416	2542.531148
657.030577	2540.774306
657.372687	2543.259595
657.714746	2542.783206
658.056753	2542.717671
658.398708	2539.861857
658.740612	2542.218597
659.082465	2537.648791
659.424266	2537.968904
659.766016	2537.840354
660.107715	2543.549461
660.449362	2543.980480
660.790958	2541.507794
661.132503	2541.399409
661.473996	2544.522404
661.815438	2542.959646
662.156829	2542.415202
662.498168	2541.472506
662.839456	2540.434028
663.180693	2543.804039
663.521879	2541.545602
663.863013	2543.977959
664.204097	2540.744059
664.545129	2543.904862
664.886110	2543.118443
665.227040	2539.783719
665.567918	2542.579039
665.908746	2543.670449
666.249522	2545.308824
666.590248	2543.471323
666.930922	2542.967208
667.271545	2542.382434
667.612118	2543.723381
667.952639	2543.652805
668.293109	2543.864533
668.633528	2541.938813
668.973896	2542.473175
669.314213	2541.170037
669.654480	2542.533669
669.994695	2540.877650
670.334859	2543.887218
670.674973	2540.350849
671.015035	2542.362269
671.355047	2544.189688
671.695008	2541.553164
672.034918	2542.374872
672.374777	2544.161961
672.714585	2541.964018
673.054342	2543.267157
673.394049	2542.120294
673.733705	2545.495347
674.073310	2543.887218
674.412864	2542.316899
674.752368	2543.501570
675.091820	2541.240613
675.431223	2541.608617
675.770574	2542.843700
676.109875	2538.609130
676.449125	2542.153062
676.788324	2538.324305
677.127473	2542.142979
677.466571	2535.511341
677.805619	2544.028371
678.144616	2541.452341
678.483562	2540.612989
678.822458	2540.706250
679.161303	2541.333874
679.500098	2542.634492
679.838842	2539.423277
680.177535	2544.625747
680.516179	2542.344625
680.854771	2541.099460
681.193314	2538.687268
681.531805	2541.901004
681.870247	2541.069213
682.208638	2543.798998
682.546978	2545.535676
682.885268	2542.352187
683.223508	2543.798998
683.561697	2540.066024
683.899836	2542.223638
684.237925	2540.739018
684.575963	2540.297917
684.913951	2540.149203
685.251889	2542.962167
685.589776	2543.831766
685.927614	2542.818494
686.265401	2540.852444
686.603137	2543.809081
686.940824	2542.576518
687.278460	2544.121632
687.616046	2542.581560
687.953582	2544.081303
688.291068	2538.712474
688.628504	2541.638864
688.965889	2542.752959
689.303224	2541.245654
689.640510	2541.190201
689.977745	2542.994934
690.314930	2542.579039
690.652065	2541.800181
690.989150	2541.800181
691.326185	2544.126673
691.663170	2541.316230
692.000105	2540.721374
692.336990	2541.666590
692.673825	2541.356559
693.010610	2541.497712
693.347345	2538.989737
693.684030	2536.902700
694.020665	2539.362783
694.357251	2533.709129
694.693786	2538.238606
695.030272	2538.379758
695.366707	2538.218441
695.703093	2539.380427
696.039429	2540.434028
696.375716	2538.883873
696.711952	2539.342618
697.048139	2541.285983
697.384276	2539.471168
697.720363	2540.436549
698.056400	2540.408822
698.392388	2541.603576
698.728326	2541.109543
699.064214	2541.038967
699.400053	2539.340098
699.735842	2539.607279
700.071581	2539.728267
700.407270	2536.436393
700.742910	2540.066024
701.078501	2541.656508
701.414042	2540.310520
701.749533	2537.553009
702.084974	2540.166847
702.420366	2537.147196
702.755709	2538.717515
703.091002	2538.989738
703.426246	2538.833462
703.761440	2537.953780
704.096584	2538.757844
704.431679	2538.291538
704.766725	2538.641898
705.101721	2537.978986
705.436668	2539.198945
705.771565	2538.215920
706.106413	2539.856816
706.441212	2535.856660
706.775961	2538.447813
707.110661	2541.598535
707.445311	2540.444110
707.779913	2539.113246
708.114465	2537.716846
708.448967	2539.267001
708.783421	2540.542413
709.117825	2538.702392
709.452180	2539.917310
709.786485	2538.682227
710.120742	2541.769934
710.454949	2540.088709
710.789107	2538.621733
711.123216	2534.770292
711.457275	2535.402957
711.791286	2536.282638
712.125247	2539.796322
712.459159	2538.248688
712.793023	2542.193391
713.126837	2538.268852
713.460602	2540.774306
713.794318	2542.878988
714.127985	2539.007382
714.461602	2536.978317
714.795171	2540.968390
715.128691	2539.456044
715.462162	2539.405633
715.795584	2538.984696
716.128957	2539.932433
716.462281	2539.544264
716.795556	2537.066537
717.128782	2537.933616
717.461960	2541.454862
717.795088	2536.743903
718.128167	2538.488143
718.461198	2537.305992
718.794180	2537.875643
719.127113	2537.605941
719.459997	2539.113246
719.792833	2536.877494
720.125619	2538.541075
720.458357	2537.565612
720.791046	2536.880015
721.123686	2539.279604
721.456278	2540.340767
721.788821	2536.748945
722.121315	2538.775488
722.453761	2539.461085
722.786158	2537.311033
723.118506	2536.837165
723.450805	2539.559388
723.783056	2536.035621
724.115259	2537.114428
724.447412	2538.077289
724.779518	2537.479912
725.111574	2537.525282
725.443582	2540.560057
725.775542	2537.757175
726.107453	2535.884387
726.439315	2537.106867
726.771129	2541.883360
727.102895	2539.123328
727.434612	2540.179450
727.766281	2539.531662
728.097901	2534.820703
728.429473	2531.402801
728.760996	2535.798687
729.092471	2532.176618
729.423897	2538.190715
729.755276	2536.368337
730.086606	2537.290869
730.417887	2538.878832
730.749120	2539.473688
731.080305	2541.049049
731.411442	2537.263142
731.742530	2535.937319
732.073570	2540.940664
732.404562	2541.354039
732.735506	2540.300437
733.066401	2539.839172
733.397249	2539.700540
733.728048	2539.798843
734.058798	2539.387989
734.389501	2534.810621
734.720156	2538.243647
735.050762	2536.504449
735.381320	2537.300951
735.711831	2535.680220
736.042293	2535.592000
736.372707	2539.796322
736.703073	2538.354552
737.033391	2538.392361
737.363661	2540.507125
737.693883	2537.810108
738.024056	2539.556867
738.354182	2535.854140
738.684260	2541.046528
739.014290	2538.042001
739.344272	2536.217103
739.674207	2537.673996
740.004093	2537.613503
740.333931	2536.020498
740.663722	2539.355221
740.993464	2537.033770
741.323159	2538.062165
741.652806	2537.031249
741.982405	2538.299099
742.311956	2537.631147
742.641460	2538.906558
742.970915	2536.968235
743.300323	2537.011085
743.629683	2535.281969
743.958996	2537.573173
744.288260	2537.058976
744.617477	2540.832279
744.946647	2530.755013
745.275768	2536.058307
745.604842	2533.331042
745.933869	2535.866743
746.262847	2531.206196
746.591778	2536.159130
746.920662	2536.254912
747.249498	2536.592669
747.578286	2536.501928
747.907027	2538.062165
748.235720	2534.288862
748.564365	2537.268183
748.892963	2537.868081
749.221514	2537.696682
749.550017	2537.154757
749.878473	2536.335570
750.206881	2535.584438
750.535242	2537.706764
750.863555	2538.629295
751.191821	2537.006043
751.520039	2535.818852
751.848210	2537.454706
752.176334	2535.450847
752.504411	2537.215251
752.832440	2535.039993
753.160421	2539.758513
753.488356	2535.284489
753.816243	2536.658204
754.144082	2534.813142
754.471875	2537.305992
754.799620	2536.814480
755.127318	2533.963707
755.454969	2537.121990
755.782572	2537.963863
756.110129	2536.408667
756.437638	2536.471681
756.765100	2533.419263
757.092515	2537.263142
757.419882	2534.591331
757.747203	2537.205169
758.074477	2536.007895
758.401703	2537.374048
758.728882	2536.292720
759.056014	2537.772299
759.383099	2535.486136
759.710138	2537.484953
760.037129	2538.921682
760.364073	2535.082843
760.690970	2534.611495
761.017820	2535.715508
761.344623	2538.331867
761.671379	2535.992772
761.998088	2531.964890
762.324751	2532.688295
762.651366	2531.705270
762.977935	2537.590817
763.304456	2536.128883
763.630931	2538.155427
763.957359	2537.608461
764.283740	2540.497042
764.610074	2537.726928
764.936362	2540.247505
765.262602	2535.392874
765.588796	2536.945550
765.914943	2533.467153
766.241044	2535.246681
766.567097	2535.229037
766.893104	2537.119469
767.219064	2537.338760
767.544978	2534.545960
767.870845	2537.424459
768.196665	2534.485467
768.522438	2531.801052
768.848165	2534.944212
769.173846	2533.290713
769.499479	2537.921013
769.825066	2532.602596
770.150607	2536.920344
770.476101	2534.417411
770.801548	2537.502597
771.126949	2533.136958
771.452303	2539.690458
771.777611	2532.670651
772.102872	2535.849099
772.428087	2532.547143
772.753256	2534.268697
773.078378	2533.890610
773.403453	2536.380940
773.728482	2535.183666
774.053465	2534.664427
774.378401	2535.231557
774.703291	2533.353727
775.028135	2534.976979
775.352932	2536.774150
775.677683	2532.910106
776.002388	2534.732483
776.327046	2531.178470
776.651658	2533.477236
776.976224	2534.493028
777.300743	2535.176105
777.625216	2534.883718
777.949643	2535.312216
778.274024	2534.629139
778.598359	2533.184849
778.922647	2527.632018
779.246889	2532.146371
779.571086	2529.923222
779.895236	2536.113759
780.219339	2533.716691
780.543397	2532.506814
780.867409	2536.287679
781.191374	2532.048069
781.515294	2536.834644
781.839167	2532.564787
782.162995	2532.867256
782.486776	2532.721063
782.810511	2531.168387
783.134201	2533.822555
783.457844	2532.963038
783.781441	2534.220806
784.104993	2532.285003
784.428498	2532.221988
784.751958	2534.808100
785.075372	2533.630991
785.398739	2532.678213
785.722061	2536.204500
786.045337	2530.913809
786.368568	2533.484798
786.691752	2533.189890
787.014891	2534.740045
787.337983	2535.768440
787.661030	2532.466484
787.984031	2532.174097
788.306987	2533.502442
788.629897	2534.412370
788.952760	2535.602082
789.275579	2533.494880
789.598351	2532.595034
789.921078	2537.474871
790.243759	2535.506300
790.566395	2532.927750
790.888984	2530.117307
791.211529	2532.423635
791.534027	2536.617875
791.856480	2533.121834
792.178888	2533.174767
792.501249	2532.829448
792.823566	2533.552853
793.145836	2532.932791
793.468062	2534.223327
793.790241	2533.114273
794.112375	2533.336083
794.434464	2533.663758
794.756507	2532.395908
795.078505	2536.451517
795.400457	2534.498069
795.722364	2530.139992
796.044226	2532.408511
796.366042	2527.188396
796.687812	2531.160826
797.009538	2532.920188
797.331218	2532.721063
797.652852	2533.754499
797.974442	2535.435724
798.295986	2533.429345
798.617484	2536.275076
798.938938	2532.085877
799.260346	2533.946063
799.581709	2536.267514
799.903026	2534.417411
800.224299	2531.934643
800.545526	2534.825744
800.866708	2534.137627
801.187845	2531.743079
801.508936	2532.534540
801.829983	2535.319777
802.150984	2530.855836
802.471940	2535.793646
802.792851	2535.425642
803.113717	2533.941022
803.434538	2530.810465
803.755314	2535.405477
804.076045	2535.002185
804.396731	2535.239119
804.717372	2533.792308
805.037967	2534.062010
805.358518	2533.802390
805.679024	2532.504293
805.999485	2533.676361
806.319901	2532.088398
806.640272	2529.356092
806.960598	2534.326670
807.280879	2536.043183
807.601115	2529.933305
807.921306	2530.863397
808.241453	2533.547812
808.561554	2534.311547
808.881611	2533.041176
809.201623	2534.873635
809.521590	2536.383461
809.841513	2535.297092
810.161390	2533.230219
810.481223	2532.456402
810.801011	2531.264169
811.120755	2532.703419
811.440453	2533.121834
811.760107	2532.509334
812.079716	2527.475742
812.399281	2528.244518
812.718801	2528.181504
813.038276	2529.976154
813.357707	2532.529499
813.677093	2532.622760
813.996434	2532.539581
814.315731	2533.958666
814.634983	2533.762061
814.954191	2537.550488
815.273354	2532.655528
815.592473	2532.491690
815.911547	2533.709129
816.230577	2535.639891
816.549562	2531.324663
816.868502	2533.903213
817.187399	2534.026722
817.506250	2533.946063
817.825058	2534.485467
818.143821	2534.306506
818.462539	2533.290713
818.781213	2534.430014
819.099843	2536.028060
819.418429	2535.586959
819.736970	2535.854140
820.055466	2534.646783
820.373919	2536.285158
820.692327	2534.848430
821.010691	2536.348173
821.329011	2538.309182
821.647286	2545.525593
821.965517	2551.645554
822.283704	2553.730071
822.601847	2555.547407
822.919945	2550.339895
823.237999	2546.639688
823.556010	2547.095913
823.873976	2541.253216
824.191897	2541.346477
824.509775	2539.657690
824.827609	2536.781712
825.145398	2536.887576
825.463144	2537.550488
825.780845	2535.211393
826.098502	2535.385313
826.416116	2539.398071
826.733685	2540.360931
827.051210	2542.324461
827.368692	2538.959491
827.686129	2537.527803
828.003522	2535.077802
828.320872	2534.422452
828.638177	2532.892462
828.955439	2526.800228
829.272656	2531.047400
829.589830	2529.862728
829.906960	2535.473533
830.224046	2536.045704
830.541088	2533.893131
830.858086	2533.751979
831.175041	2534.540919
831.491952	2534.422452
831.808819	2533.073943
832.125642	2533.958666
832.442421	2534.258615
832.759157	2533.988913
833.075849	2532.655528
833.392497	2534.014119
833.709101	2539.110725
834.025662	2538.747762
834.342179	2536.214582
834.658653	2534.399767
834.975083	2533.686444
835.291469	2535.528985
835.607811	2532.269879
835.924110	2534.046886
836.240366	2532.158974
836.556578	2534.092257
836.872746	2533.162164
837.188871	2530.606299
837.504952	2531.932122
837.820990	2529.593027
838.136984	2531.150743
838.452935	2532.408511
838.768842	2532.209386
839.084706	2531.291896
839.400526	2532.325332
839.716303	2531.614529
840.032037	2532.627801
840.347727	2533.454551
840.663373	2532.610157
840.978977	2531.806093
841.294537	2533.741896
841.610054	2530.157636
841.925527	2529.590506
842.240957	2532.237112
842.556344	2533.630991
842.871687	2533.958666
843.186987	2531.120496
843.502244	2533.338604
843.817458	2532.426155
844.132629	2529.126720
844.447756	2532.113604
844.762840	2526.646472
845.077881	2528.431041
845.392879	2528.932636
845.707833	2530.578572
846.022745	2526.898530
846.337613	2528.327697
846.652438	2532.232071
846.967221	2531.491021
847.281960	2530.513037
847.596656	2533.167205
847.911309	2527.901720
848.225919	2532.322812
848.540485	2531.916999
848.855009	2531.574200
849.169490	2529.895496
849.483928	2530.034128
849.798323	2530.313912
850.112675	2531.236443
850.426984	2529.691329
850.741251	2531.808614
851.055474	2529.144364
851.369654	2532.307688
851.683792	2530.782739
851.997887	2531.475898
852.311938	2530.427338
852.625947	2532.741227
852.939914	2533.154602
853.253837	2533.386495
853.567718	2526.913653
853.881555	2529.756864
854.195350	2535.274407
854.509103	2529.325846
854.822812	2531.939684
855.136479	2530.734848
855.450103	2527.720238
855.763685	2528.317615
856.077224	2528.937677
856.390720	2533.207534
856.704173	2530.462626
857.017584	2531.622091
857.330953	2532.811803
857.644278	2530.318953
857.957561	2534.480425
858.270802	2528.940197
858.584000	2531.584283
858.897155	2533.202493
859.210268	2531.390198
859.523339	2532.113604
859.836367	2531.455733
860.149352	2529.459436
860.462295	2528.814168
860.775195	2527.019518
861.088054	2529.169570
861.400869	2528.025228
861.713642	2525.784435
862.026373	2531.065044
862.339062	2531.145702
862.651708	2530.787780
862.964312	2532.244674
863.276873	2530.187883
863.589392	2531.508665
863.901869	2528.907430
864.214303	2529.966072
864.526696	2528.539426
864.839045	2529.903058
865.151353	2530.790301
865.463619	2530.709642
865.775842	2533.252904
866.088023	2529.903058
866.400162	2530.946577
866.712258	2532.345497
867.024313	2529.656041
867.336325	2529.330887
867.648296	2531.677544
867.960224	2527.284178
868.272110	2533.046217
868.583954	2529.172090
868.895755	2533.240302
869.207515	2533.073943
869.519233	2528.428520
869.830909	2532.363141
870.142542	2531.702750
870.454134	2531.047400
870.765684	2531.047400
871.077191	2530.578572
871.388657	2533.068902
871.700081	2529.517409
872.011463	2530.434899
872.322803	2527.808458
872.634101	2530.278624
872.945357	2530.477749
873.256571	2532.101001
873.567744	2532.176618
873.878874	2531.974972
874.189963	2529.623274
874.501010	2531.932122
874.812015	2530.450023
875.122979	2532.892462
875.433900	2529.348531
875.744780	2532.743748
876.055618	2529.431710
876.366415	2532.239632
876.677169	2531.753161
876.987882	2525.325690
877.298554	2526.553211
877.609183	2529.242667
877.919771	2525.950793
878.230317	2527.952131
878.540822	2530.465146
878.851285	2532.814324
879.161707	2532.249715
879.472087	2533.814993
879.782425	2530.288706
880.092722	2534.014119
880.402977	2533.666279
880.713191	2535.221475
881.023363	2541.238092
881.333494	2543.264636
881.643583	2542.856302
881.953631	2546.128011
882.263637	2540.860006
882.573602	2539.067875
882.883526	2540.587783
883.193408	2539.090561
883.503248	2537.976466
883.813048	2537.623585
884.122806	2533.235260
884.432522	2535.680220
884.742197	2532.358100
885.051831	2534.256094
885.361424	2530.530681
885.670975	2532.032945
885.980485	2531.433048
886.289954	2529.522451
886.599382	2531.002029
886.908768	2533.199972
887.218113	2531.574200
887.527417	2533.066382
887.836680	2531.072605
888.145901	2530.865918
888.455082	2531.801052
888.764221	2530.472708
889.073319	2530.825589
889.382376	2529.340969
889.691392	2527.775691
890.000366	2531.259128
890.309300	2530.727286
890.618193	2531.788449
890.927044	2531.105373
891.235855	2531.740558
891.544625	2530.329035
891.853353	2529.416586
892.162041	2530.465146
892.470687	2533.338604
892.779293	2530.099663
893.087858	2529.383819
893.396381	2529.184693
893.704864	2530.873480
894.013306	2526.848118
894.321707	2534.563604
894.630068	2533.119314
894.938387	2536.181815
895.246665	2532.156453
895.554903	2533.880528
895.863100	2532.141330
896.171256	2531.304498
896.479371	2532.494211
896.787446	2530.598737
897.095480	2531.732997
897.403473	2531.496062
897.711425	2530.560928
898.019336	2528.647810
898.327207	2531.796011
898.635038	2532.952956
898.942827	2530.674354
899.250576	2532.353058
899.558284	2531.307019
899.865952	2532.002698
900.173579	2530.341638
900.481165	2530.555887
900.788711	2529.207378
901.096216	2527.700073
901.403681	2527.954652
901.711105	2531.417924
902.018489	2529.406504
902.325832	2535.080323
902.633135	2529.179652
902.940397	2530.457585
903.247619	2529.318284
903.554800	2529.983716
903.861941	2531.264169
904.169041	2534.903882
904.476101	2536.721218
904.783121	2534.722401
905.090100	2535.723070
905.397039	2532.526978
905.703938	2534.198121
906.010796	2533.283151
906.317614	2532.264838
906.624391	2530.571011
906.931129	2530.039169
907.237826	2527.286699
907.544483	2529.114117
907.851099	2531.052441
908.157675	2528.834333
908.464211	2530.258459
908.770707	2523.619259
909.077163	2528.131092
909.383578	2524.584640
909.689954	2527.395084
909.996289	2526.727131
910.302584	2531.191072
910.608839	2529.030938
910.915054	2526.933818
911.221229	2528.897348
911.527363	2531.148223
911.833458	2530.208048
912.139513	2527.342152
912.445527	2528.879703
912.751502	2527.866432
913.057436	2528.783922
913.363331	2530.344159
913.669186	2526.124713
913.975000	2530.601257
914.280775	2529.898017
914.586510	2527.866432
914.892205	2533.814993
915.197859	2533.351207
915.503475	2528.791483
915.809050	2531.473377
916.114585	2532.859694
916.420081	2533.905734
916.725536	2533.313398
917.030952	2533.681402
917.336328	2534.810621
917.641665	2533.270548
917.946961	2531.107893
918.252218	2532.746268
918.557435	2528.816689
918.862612	2532.012781
919.167750	2528.990609
919.472848	2532.965559
919.777906	2527.926925
920.082925	2530.722245
920.387904	2529.719056
920.692843	2528.887265
920.997743	2530.883562
921.302603	2529.310722
921.607423	2527.586647
921.912204	2531.470857
922.216946	2528.967924
922.521647	2530.323994
922.826310	2529.280475
923.130932	2527.934487
923.435516	2528.778880
923.740059	2531.037317
924.044564	2527.566483
924.349028	2528.821730
924.653454	2523.271420
924.957840	2528.635207
925.262186	2526.154960
925.566493	2526.951462
925.870761	2524.347706
926.174989	2530.407173
926.479178	2527.455577
926.783328	2527.561442
927.087438	2526.107069
927.391509	2530.137471
927.695541	2526.959024
927.999533	2529.121679
928.303486	2528.088242
928.607400	2526.129754
928.911275	2526.157480
929.215110	2527.604292
929.518906	2529.587986
929.822663	2528.627646
930.126381	2530.082019
930.430060	2528.514220
930.733699	2524.645134
931.037299	2527.531195
931.340861	2529.295599
931.644383	2528.804086
931.947866	2529.540095
932.251309	2526.480114
932.554714	2526.749816
932.858080	2531.569159
933.161407	2524.882068
933.464694	2526.825433
933.767943	2527.150588
934.071153	2527.891637
934.374323	2530.601258
934.677455	2529.701412
934.980548	2529.043541
935.283602	2528.786442
935.586617	2528.773839
935.889593	2526.207892
936.192530	2527.226205
936.495428	2528.607481
936.798287	2525.660927
937.101108	2528.148736
937.403890	2528.662934
937.706632	2531.969931
938.009336	2527.795855
938.312002	2529.615712
938.614628	2527.203520
938.917216	2529.940866
939.219765	2526.366688
939.522275	2528.448685
939.824747	2532.186700
940.127179	2526.011287
940.429573	2522.031296
940.731929	2525.965917
941.034246	2524.393077
941.336524	2527.110258
941.638763	2526.643952
941.940964	2529.716535
942.243126	2529.751823
942.545250	2529.870290
942.847335	2526.769981
943.149381	2527.553880
943.451389	2528.433561
943.753359	2528.390712
944.055290	2526.616225
944.357182	2528.675537
944.659036	2526.817872
944.960851	2528.914992
945.262628	2524.884589
945.564367	2527.747964
945.866067	2529.552697
946.167729	2528.063037
946.469352	2528.559590
946.770937	2528.463808
947.072484	2529.106555
947.373992	2532.539581
947.675462	2526.832995
947.976893	2529.724097
948.278286	2528.453726
948.579641	2529.061185
948.880958	2529.716535
949.182236	2526.827954
949.483476	2527.374919
949.784678	2528.168901
950.085841	2528.022707
950.386967	2530.439941
950.688054	2526.545649
950.989103	2526.580937
951.290114	2528.950280
951.591087	2528.743592
951.892021	2528.093283
952.192917	2530.913809
952.493776	2525.907943
952.794596	2526.391894
953.095378	2527.170752
953.396122	2529.358613
953.696828	2528.456247
953.997496	2529.905578
954.298126	2527.621936
954.598718	2527.808458
954.899272	2525.509692
955.199788	2524.619928
955.500266	2527.732841
955.800706	2525.166894
956.101108	2523.684794
956.401472	2526.959024
956.701798	2524.085566
957.002087	2523.284023
957.302337	2527.362316
957.602550	2526.273427
957.902724	2528.282327
958.202861	2527.982378
958.502960	2528.758716
958.803022	2529.028418
959.103045	2523.740247
959.403031	2528.761236
959.702979	2527.364837
960.002889	2528.862059
960.302762	2527.016997
960.602596	2527.758047
960.902393	2525.257634
961.202153	2528.408356
961.501875	2528.032790
961.801559	2528.070598
962.101205	2527.150588
962.400814	2527.392563
962.700385	2525.555063
962.999918	2527.969775
963.299414	2527.238808
963.598873	2526.497758
963.898293	2527.997502
964.197677	2526.777542
964.497022	2528.610002
964.796331	2525.849970
965.095601	2529.479601
965.394835	2530.059333
965.694030	2527.561442
965.993189	2527.687471
966.292309	2524.665299
966.591393	2527.362316
966.890439	2527.548839
967.189447	2528.168901
967.488419	2526.928777
967.787353	2527.513551
968.086249	2528.725948
968.385108	2527.271575
968.683930	2526.583458
968.982714	2527.664785
969.281462	2528.516740
969.580172	2525.978519
969.878844	2527.274096
970.177480	2528.400794
970.476078	2525.091276
970.774639	2527.894158
971.073162	2527.286699
971.371649	2524.750998
971.670098	2522.789990
971.968510	2524.345186
972.266885	2523.251255
972.565223	2525.479445
972.863524	2524.745957
973.161788	2530.137471
973.460014	2525.237470
973.758204	2526.772501
974.056356	2525.618077
974.354471	2528.083201
974.652550	2527.823582
974.950591	2528.431041
975.248595	2528.110928
975.546563	2527.596730
975.844493	2527.473222
976.142386	2525.572707
976.440243	2527.042203
976.738062	2522.840401
977.035845	2526.696884
977.333590	2527.669827
977.631299	2526.802748
977.928971	2527.606812
978.226606	2524.052799
978.524204	2528.090763
978.821765	2525.635721
979.119290	2526.149919
979.416777	2526.467511
979.714228	2527.689991
980.011642	2527.200999
980.309020	2528.965403
980.606360	2528.519261
980.903664	2526.643952
981.200931	2527.006915
981.498162	2526.984230
981.795356	2524.854342
982.092513	2530.119827
982.389633	2528.768798
982.686717	2527.344672
982.983764	2525.668488
983.280775	2528.042872
983.577749	2526.041534
983.874686	2526.205371
984.171587	2528.970444
984.468451	2525.479445
984.765279	2527.213602
985.062070	2526.971627
985.358824	2525.799558
985.655543	2527.236287
985.952224	2526.313756
986.248869	2526.260824
986.545478	2521.890144
986.842050	2528.877183
987.138586	2523.533560
987.435086	2524.415762
987.731549	2522.873169
988.027975	2525.625639
988.324366	2526.989271
988.620719	2526.709487
988.917037	2524.060360
989.213318	2525.492048
989.509563	2524.821575
989.805772	2531.561597
990.101944	2526.432223
990.398080	2524.556914
990.694180	2527.080012
990.990244	2526.361647
991.286271	2525.446678
991.582262	2528.872142
991.878217	2523.074815
992.174136	2527.178314
992.470019	2526.407018
992.765865	2526.331400
993.061676	2528.065557
993.357450	2527.969775
993.653188	2526.732172
993.948890	2527.705115
994.244556	2527.145547
994.540186	2525.769312
994.835780	2525.761750
995.131337	2524.635052
995.426859	2527.505989
995.722345	2524.206554
996.017795	2526.129754
996.313208	2527.548839
996.608586	2523.775535
996.903928	2526.442306
997.199234	2526.727131
997.494504	2527.493386
997.789738	2524.284692
998.084936	2526.800227
998.380099	2524.912315
998.675225	2524.632531
998.970316	2530.059333
999.265371	2528.239477
999.560390	2526.409538
999.855373	2527.543798
1000.150320	2527.778211
1000.445232	2527.269055
1000.740108	2527.132944
1001.034948	2525.532377
1001.329752	2526.916174
1001.624521	2523.223529
1001.919254	2519.535925
1002.213951	2524.864424
1002.508613	2522.666481
1002.803239	2524.798889
1003.097829	2523.508354
1003.392384	2525.960875
1003.686903	2525.401307
1003.981386	2524.889630
1004.275834	2529.479601
1004.570246	2525.580268
1004.864623	2525.794517
1005.158964	2525.844929
1005.453270	2526.306194
1005.747540	2526.777542
1006.041775	2525.111441
1006.335974	2525.098838
1006.630138	2523.084897
1006.924266	2528.418438
1007.218359	2524.713190
1007.512416	2523.135309
1007.806438	2525.799558
1008.100425	2526.119672
1008.394376	2524.889630
1008.688292	2528.158818
1008.982172	2526.593540
1009.276017	2525.325690
1009.569827	2524.463653
1009.863602	2527.894158
1010.157341	2525.897861
1010.451045	2528.683098
1010.744714	2525.446678
1011.038347	2524.148581
1011.331945	2527.264014
1011.625508	2525.708818
1011.919036	2528.723428
1012.212528	2524.342665
1012.505986	2525.595392
1012.799408	2528.025228
1013.092795	2525.640762
1013.386147	2527.019518
1013.679464	2525.807120
1013.972745	2525.471883
1014.265992	2525.907943
1014.559204	2525.855011
1014.852380	2525.305525
1015.145521	2528.239477
1015.438628	2527.659744
1015.731699	2526.573376
1016.024736	2523.601615
1016.317737	2524.937521
1016.610703	2525.711338
1016.903635	2521.806965
1017.196531	2523.437778
1017.489393	2523.349558
1017.782219	2521.577592
1018.075011	2525.184538
1018.367768	2526.215454
1018.660490	2527.858870
1018.953177	2527.858870
1019.245829	2527.858870
