Dividing Wavelength (nm)	Counts (n)	Blue Motor Position (mm): 0.000000	Red Motor Position (mm): 16.000000	
326.493990	2127.732407
326.888308	2127.732407
327.282561	2127.732407
327.676750	2095.274938
328.070874	2094.657396
328.464933	2098.408015
328.858929	2105.090064
329.252859	2115.983998
329.646726	2126.421707
330.040528	2137.905455
330.434265	2154.062353
330.827938	2171.703871
331.221547	2191.755061
331.615091	2209.331043
332.008571	2228.568087
332.401986	2248.359657
332.795338	2268.337749
333.188625	2285.185285
333.581847	2307.656229
333.975006	2325.721203
334.368100	2342.205777
334.761129	2360.341328
335.154095	2378.050901
335.546996	2393.925494
335.939833	2408.799419
336.332606	2425.654517
336.725315	2436.949222
337.117960	2445.010027
337.510540	2455.167952
337.903056	2466.402163
338.295508	2473.668987
338.687896	2477.326344
339.080220	2490.967706
339.472480	2496.442399
339.864676	2499.232678
340.256807	2507.391785
340.648875	2507.727022
341.040879	2511.691889
341.432818	2509.400685
341.824694	2514.567868
342.216506	2513.163906
342.608253	2515.555934
342.999937	2513.846983
343.391557	2516.463342
343.783113	2513.562157
344.174605	2515.729854
344.566033	2509.372959
344.957397	2506.940602
345.348697	2505.728204
345.739934	2506.804491
346.131106	2508.929337
346.522215	2501.186125
346.913260	2502.070847
347.304241	2496.402070
347.695159	2498.184118
348.086012	2497.606906
348.476802	2493.720176
348.867528	2492.674137
349.258191	2489.470483
349.648789	2491.174393
350.039324	2485.982005
350.429796	2489.150370
350.820203	2484.487303
351.210548	2487.517036
351.600828	2483.625265
351.991045	2484.010914
352.381198	2484.177272
352.771288	2482.281798
353.161314	2480.386324
353.551276	2482.770790
353.941175	2480.474544
354.331010	2482.327168
354.720782	2479.761221
355.110490	2484.028558
355.500135	2485.213229
355.889717	2482.208701
356.279235	2481.661736
356.668689	2484.973774
357.058080	2484.699031
357.447408	2479.990593
357.836672	2482.828763
358.225873	2482.334730
358.615010	2482.992601
359.004084	2485.598877
359.393095	2488.724393
359.782043	2484.273054
360.170927	2486.322283
360.559748	2488.517705
360.948505	2488.366471
361.337199	2487.509474
361.725830	2487.189361
362.114398	2491.156749
362.502903	2490.841677
362.891344	2493.112717
363.279722	2492.543067
363.668037	2496.273520
364.056289	2492.202789
364.444478	2496.699498
364.832603	2492.520381
365.220665	2495.681185
365.608665	2495.598006
365.996601	2497.596823
366.384474	2498.156391
366.772284	2501.299551
367.160031	2502.658142
367.547715	2504.936743
367.935336	2504.790550
368.322893	2508.810870
368.710388	2511.167609
369.097820	2520.748322
369.485189	2519.120030
369.872495	2525.973478
370.259738	2534.936650
370.646918	2539.771116
371.034035	2547.683207
371.421090	2558.960268
371.808081	2566.506876
372.195010	2575.956519
372.581875	2590.404466
372.968678	2605.573297
373.355418	2611.925151
373.742096	2632.510703
374.128710	2645.821870
374.515262	2662.858449
374.901751	2678.092816
375.288177	2692.157635
375.674540	2711.903835
376.060841	2730.893862
376.447079	2750.365318
376.833254	2769.829213
377.219367	2782.873199
377.605417	2819.771924
377.991404	2829.892041
378.377329	2849.945751
378.763191	2870.536344
379.148991	2907.341808
379.534727	2930.324428
379.920402	2958.978347
380.306013	2969.927733
380.691563	3019.905732
381.077049	3039.535985
381.462474	3059.942576
381.847835	3099.729883
382.233134	3121.953809
382.618371	3121.225363
383.003545	3187.730785
383.388657	3196.691436
383.773706	3231.049420
384.158693	3247.395361
384.543618	3272.218003
384.928480	3304.675472
385.313280	3353.342771
385.698017	3351.167513
386.082692	3404.835637
386.467305	3410.222110
386.851856	3440.960545
387.236344	3462.682877
387.620770	3494.913494
388.005133	3521.540869
388.389435	3550.424160
388.773674	3560.314904
389.157851	3602.287551
389.541965	3614.981176
389.926018	3579.491453
390.310008	3651.436280
390.693936	3670.479239
391.077802	3710.886608
391.461606	3700.940411
391.845348	3762.568517
392.229027	3757.784462
392.612645	3776.109056
392.996200	3852.051518
393.379694	3892.723547
393.763125	3954.959112
394.146494	3923.807302
394.529801	3984.898525
394.913047	4031.204043
395.296230	3995.240452
395.679351	4049.891601
396.062410	4068.760640
396.445408	4047.232392
396.828343	4076.922268
397.211217	4097.401955
397.594028	4011.929192
397.976778	4072.536464
398.359466	4093.769804
398.742092	4113.831076
399.124656	4030.276471
399.507158	4093.530349
399.889598	4110.718163
400.271977	4158.359588
400.654294	4114.735963
401.036549	4109.029377
401.418742	4063.616142
401.800874	4140.987771
402.182944	4143.717556
402.564952	4177.831044
402.946898	4144.491373
403.328783	4118.600007
403.710606	4022.392107
404.092367	4155.218949
404.474067	4105.026700
404.855705	4086.613886
405.237282	4001.410824
405.618797	4059.195050
406.000250	4052.870923
406.381642	4083.460644
406.762972	4021.688866
407.144240	3992.256089
407.525447	3959.977581
407.906593	3963.912201
408.287677	3957.288125
408.668700	3872.506000
409.049661	3865.524002
409.430560	3854.834235
409.811399	3768.741410
410.192176	3821.423988
410.572891	3747.674428
410.953545	3760.330244
411.334138	3653.203205
411.714669	3649.031650
412.095139	3554.769635
412.475547	3581.528079
412.855894	3528.870707
413.236180	3491.354440
413.616405	3432.035183
413.996568	3423.313986
414.376670	3362.709235
414.756711	3306.719660
415.136691	3282.748973
415.516609	3267.070985
415.896466	3244.123652
416.276262	3214.653067
416.655997	3170.253104
417.035670	3177.144362
417.415283	3165.209430
417.794834	3115.238993
418.174324	3075.081161
418.553753	3020.598891
418.933121	3020.185516
419.312428	3000.935870
419.691674	2958.751495
420.070859	2946.561985
420.449983	2904.463309
420.829045	2891.343706
421.208047	2857.527646
421.586988	2835.575942
421.965867	2811.937971
422.344686	2798.949438
422.723444	2769.352824
423.102141	2736.038359
423.480777	2740.293093
423.859352	2705.060469
424.237866	2705.199100
424.616319	2690.131092
424.994712	2681.125070
425.373044	2658.732265
425.751314	2649.832108
426.129524	2630.297637
426.507673	2627.630866
426.885762	2622.060391
427.263789	2612.404061
427.641756	2600.479212
428.019662	2592.839343
428.397508	2587.778024
428.775292	2580.309555
429.153016	2575.497774
429.530679	2572.992320
429.908282	2565.841443
430.285824	2559.794579
430.663305	2559.000598
431.040726	2553.125133
431.418086	2550.803682
431.795385	2551.396017
432.172624	2549.505584
432.549802	2546.919472
432.926920	2546.939637
433.303977	2543.569626
433.680974	2542.936961
434.057910	2544.618186
434.434786	2543.511652
434.811601	2543.909904
435.188355	2543.262115
435.565050	2542.568957
435.941683	2541.835469
436.318257	2537.699202
436.694770	2537.081661
437.071222	2537.913451
437.447614	2535.831455
437.823946	2535.166022
438.200218	2539.521579
438.576429	2536.753986
438.952580	2538.394881
439.328670	2539.337577
439.704700	2537.522762
440.080670	2539.725746
440.456580	2537.177443
440.832429	2538.611651
441.208218	2538.110056
441.583947	2539.075437
441.959616	2537.127031
442.335224	2537.830272
442.710773	2540.300438
443.086261	2538.427649
443.461689	2534.974458
443.837057	2539.637526
444.212365	2536.983358
444.587612	2540.759183
444.962800	2539.221631
445.337927	2540.519728
445.712995	2535.002185
446.088002	2541.200283
446.462949	2539.627443
446.837837	2538.689789
447.212664	2539.519059
447.587431	2539.196425
447.962139	2541.626261
448.336786	2546.180943
448.711374	2542.150541
449.085901	2541.578370
449.460369	2541.984183
449.834776	2540.915458
450.209124	2542.090047
450.583412	2543.899821
450.957640	2541.568288
451.331808	2541.548123
451.705917	2540.784388
452.079965	2541.424615
452.453954	2540.718853
452.827883	2539.241795
453.201752	2544.046015
453.575562	2540.350849
453.949311	2544.028371
454.323001	2540.300438
454.696632	2537.232895
455.070202	2542.543751
455.443713	2541.217927
455.817164	2543.350336
456.190556	2538.031918
456.563888	2542.110212
456.937160	2541.492670
457.310373	2542.876467
457.683526	2541.767413
458.056619	2542.284132
458.429653	2543.249513
458.802628	2544.305634
459.175542	2544.454348
459.548398	2549.102292
459.921194	2545.308824
460.293930	2547.171530
460.666607	2548.260419
461.039224	2548.595656
461.411782	2548.888043
461.784280	2546.725388
462.156719	2548.431819
462.529099	2548.298228
462.901419	2546.677497
463.273680	2548.754452
463.645882	2548.429298
464.018024	2544.620706
464.390106	2549.608928
464.762130	2549.729916
465.134094	2552.555482
465.505999	2556.570762
465.877845	2558.274672
466.249631	2563.235167
466.621358	2560.956565
466.993026	2560.268448
467.364634	2560.575958
467.736184	2556.555638
468.107674	2555.638148
468.479105	2555.270144
468.850477	2555.653272
469.221790	2555.557490
469.593043	2555.948179
469.964238	2556.447253
470.335373	2551.597663
470.706449	2555.744012
471.077467	2557.611760
471.448425	2560.281051
471.819324	2565.614592
472.190164	2565.110476
472.560945	2560.162584
472.931667	2556.308622
473.302330	2556.263251
473.672934	2556.268292
474.043479	2556.464897
474.413965	2558.599826
474.784393	2551.892571
475.154761	2556.240566
475.525070	2554.108158
475.895321	2554.594629
476.265513	2554.425751
476.635645	2557.319373
477.005719	2557.276523
477.375734	2560.386915
477.745691	2557.662171
478.115588	2561.846329
478.485427	2561.271638
478.855207	2562.088304
479.224928	2566.058213
479.594591	2570.698595
479.964194	2566.093501
480.333739	2568.092319
480.703226	2568.914027
481.072653	2567.953687
481.442022	2567.263049
481.811333	2570.789336
482.180584	2567.167267
482.549777	2567.280693
482.918912	2565.785991
483.287988	2568.656928
483.657005	2566.829510
484.025964	2568.215827
484.394864	2565.508727
484.763706	2566.486711
485.132489	2567.157185
485.501213	2566.176680
485.869879	2563.961093
486.238487	2559.688715
486.607036	2563.212482
486.975527	2560.074363
487.343959	2563.726679
487.712333	2567.389078
488.080648	2563.444375
488.448905	2564.124931
488.817104	2560.906154
489.185244	2562.262224
489.553326	2563.318346
489.921350	2566.577452
490.289315	2567.636094
490.657222	2568.641804
491.025070	2568.848492
491.392861	2570.224727
491.760593	2568.172977
492.128267	2567.555436
492.495883	2565.546536
492.863440	2565.155847
493.230939	2564.712225
493.598380	2566.363203
493.965763	2559.479507
494.333088	2562.027811
494.700354	2564.177863
495.067563	2562.584858
495.434713	2560.079405
495.801805	2562.647873
496.168839	2562.194169
496.535815	2561.959755
496.902733	2562.700805
497.269593	2563.746844
497.636395	2564.117369
498.003139	2562.675599
498.369825	2561.364899
498.736453	2563.411607
499.103023	2563.666186
499.469535	2561.831206
499.835989	2564.026628
500.202385	2564.583676
500.568723	2564.782801
500.935003	2564.114848
501.301226	2560.286092
501.667390	2562.862122
502.033497	2565.609550
502.399546	2564.704663
502.765537	2561.049827
503.131470	2564.949159
503.497345	2564.427400
503.863163	2564.235836
504.228923	2565.385219
504.594625	2563.522513
504.960269	2561.286761
505.325856	2563.618295
505.691385	2562.695763
506.056856	2563.058727
506.422270	2562.269786
506.787625	2564.006463
507.152924	2564.321536
507.518164	2563.252811
507.883347	2564.233315
508.248472	2563.935887
508.613540	2563.071329
508.978550	2562.264745
509.343503	2566.166598
509.708398	2565.574262
510.073236	2565.385219
510.438016	2563.787173
510.802738	2564.956721
511.167403	2563.956052
511.532010	2565.291958
511.896561	2564.450085
512.261053	2565.622153
512.625488	2562.446226
512.989866	2560.160063
513.354186	2561.367419
513.718449	2558.204095
514.082655	2564.482853
514.446803	2565.627194
514.810894	2565.841443
515.174927	2567.648697
515.538904	2564.349262
515.902822	2565.952349
516.266684	2566.257339
516.630488	2565.160888
516.994235	2567.018553
517.357925	2568.349417
517.721558	2564.674416
518.085133	2565.347410
518.448651	2564.616443
518.812112	2565.889334
519.175516	2565.632236
519.538863	2566.126269
519.902152	2565.334807
520.265385	2567.804973
520.628560	2567.683985
520.991678	2566.688357
521.354739	2563.714077
521.717743	2566.645507
522.080690	2565.818758
522.443580	2564.288768
522.806413	2565.579303
523.169189	2565.544015
523.531908	2568.354459
523.894569	2568.200703
524.257174	2566.451423
524.619722	2565.569221
524.982213	2567.406722
525.344647	2563.482183
525.707025	2564.039231
526.069345	2567.573080
526.431608	2566.388409
526.793815	2563.507389
527.155964	2562.491597
527.518057	2561.679971
527.880093	2564.157698
528.242072	2568.155333
528.603995	2567.021073
528.965860	2564.906309
529.327669	2564.649211
529.689421	2563.411607
530.051117	2564.684499
530.412755	2566.143913
530.774337	2565.213820
531.135862	2569.019891
531.497331	2565.581824
531.858743	2562.131154
532.220098	2564.092163
532.581396	2561.760629
532.942638	2562.652914
533.303824	2563.890517
533.664953	2569.650035
534.026025	2565.503686
534.387040	2567.552915
534.747999	2565.778429
535.108902	2567.142061
535.469748	2565.201217
535.830537	2563.749365
536.191270	2564.301371
536.551947	2565.208779
536.912567	2562.143757
537.273131	2564.830692
537.633638	2565.034859
537.994089	2564.651731
538.354483	2565.037379
538.714821	2567.794891
539.075103	2563.598130
539.435328	2566.423697
539.795497	2565.969993
540.155609	2563.116700
540.515665	2565.135682
540.875665	2563.414128
541.235609	2564.566032
541.595496	2565.196176
541.955328	2566.408573
542.315102	2564.291289
542.674821	2566.431258
543.034483	2565.544015
543.394090	2563.973696
543.753640	2566.232133
544.113134	2564.896227
544.472571	2562.506720
544.831953	2568.540981
545.191278	2567.101732
545.550548	2565.123079
545.909761	2564.815569
546.268918	2565.665003
546.628019	2564.679458
546.987064	2564.661813
547.346053	2565.221382
547.704986	2565.932184
548.063863	2565.627194
548.422684	2564.165260
548.781449	2567.051320
549.140158	2564.744993
549.498811	2566.219530
549.857408	2564.656772
550.215949	2560.086966
550.574434	2559.408931
550.932864	2561.397666
551.291237	2560.039075
551.649555	2562.723490
552.007817	2561.387584
552.366022	2566.335477
552.724173	2564.823130
553.082267	2567.356310
553.440305	2565.382698
553.798288	2569.854202
554.156215	2565.972513
554.514086	2562.831875
554.871902	2565.395301
555.229661	2563.996381
555.587365	2565.571742
555.945014	2563.877914
556.302606	2561.402707
556.660143	2564.833213
557.017625	2565.992678
557.375050	2566.741289
557.732421	2562.448747
558.089735	2564.500497
558.446994	2563.673747
558.804197	2564.704663
559.161345	2562.300033
559.518437	2566.332956
559.875474	2564.455126
560.232455	2567.605847
560.589381	2559.996226
560.946251	2568.578790
561.303065	2564.233315
561.659825	2562.957903
562.016528	2565.541495
562.373177	2562.781463
562.729770	2566.383367
563.086307	2565.740620
563.442789	2563.540157
563.799216	2565.397822
564.155587	2564.699622
564.511904	2563.348593
564.868164	2565.536454
565.224370	2564.293809
565.580520	2561.208623
565.936615	2563.567883
566.292654	2564.124931
566.648638	2564.044272
567.004567	2565.470919
567.360441	2563.217523
567.716260	2562.652914
568.072023	2563.378840
568.427732	2558.536812
568.783385	2560.785166
569.138982	2560.321380
569.494525	2561.634601
569.850013	2559.582851
570.205445	2563.527554
570.560823	2561.437996
570.916145	2565.425548
571.271412	2563.358675
571.626625	2564.472770
571.981782	2563.061247
572.336884	2564.112328
572.691931	2564.220712
573.046923	2561.508572
573.401860	2560.908674
573.756743	2565.223902
574.111570	2563.630898
574.466342	2561.664847
574.821059	2562.446226
575.175722	2562.005125
575.530330	2561.309446
575.884882	2562.605023
576.239380	2562.617626
576.593823	2562.395815
576.948211	2562.698284
577.302544	2563.822461
577.656823	2561.155691
578.011047	2564.122410
578.365216	2561.077553
578.719330	2562.358006
579.073389	2561.513613
579.427394	2561.062430
579.781344	2559.681153
580.135239	2561.866494
580.489080	2559.161915
580.842866	2561.344734
581.196597	2563.726679
581.550273	2562.620146
581.903895	2562.070660
582.257463	2561.037224
582.610975	2560.855742
582.964434	2560.505382
583.317837	2564.508058
583.671186	2562.668037
584.024481	2561.140568
584.377721	2562.708366
584.730906	2563.565362
585.084037	2565.967472
585.437113	2559.706359
585.790135	2561.619477
586.143103	2560.954045
586.496016	2560.207954
586.848874	2556.376677
587.201679	2559.766853
587.554428	2556.963972
587.907124	2557.115206
588.259765	2559.051009
588.612352	2559.469425
588.964884	2558.677964
589.317362	2560.820454
589.669786	2556.238045
590.022155	2559.340876
590.374470	2561.122923
590.726731	2560.107131
591.078937	2558.579661
591.431090	2559.376164
591.783188	2559.938252
592.135232	2558.052861
592.487222	2557.836091
592.839157	2559.925649
593.191038	2560.031514
593.542866	2560.689384
593.894639	2555.408776
594.246358	2556.961451
594.598022	2558.511606
594.949633	2558.312480
595.301190	2558.378015
595.652692	2559.476987
596.004141	2556.681667
596.355535	2559.030845
596.706876	2558.370453
597.058162	2558.057902
597.409395	2559.696277
597.760573	2561.049827
598.111698	2558.123437
598.462768	2559.169476
598.813785	2557.649568
599.164748	2559.900444
599.515657	2558.549414
599.866511	2555.353323
600.217312	2557.314332
600.568060	2556.427089
600.918753	2560.444888
601.269392	2558.572100
601.619978	2560.921277
601.970510	2556.953889
602.320988	2556.918601
602.671412	2559.242573
603.021783	2554.453477
603.372100	2559.703839
603.722363	2556.149825
604.072572	2558.473797
604.422728	2558.619991
604.772830	2552.089176
605.122878	2556.182593
605.472872	2556.835422
605.822813	2549.795451
606.172701	2552.747046
606.522534	2555.252500
606.872314	2557.379867
607.222041	2555.673436
607.571714	2556.336348
607.921333	2559.030845
608.270899	2558.819116
608.620411	2556.767367
608.969870	2561.150650
609.319276	2560.026473
609.668627	2562.728531
610.017926	2561.964796
610.367171	2564.666855
610.716362	2565.080229
611.065500	2563.696432
611.414585	2564.124931
611.763616	2561.982440
612.112594	2557.755433
612.461518	2557.994887
612.810389	2560.344065
613.159207	2558.330124
613.507971	2558.889692
613.856682	2560.298695
614.205340	2558.914898
614.553945	2558.418344
614.902496	2558.272151
615.250994	2557.402552
615.599439	2558.907336
615.947830	2557.866338
616.296169	2557.672254
616.644454	2556.689229
616.992686	2557.470607
617.340864	2559.219888
617.688990	2557.667213
618.037063	2558.730896
618.385082	2556.759805
618.733048	2559.557645
619.080961	2559.083777
619.428821	2558.574620
619.776628	2555.277706
620.124382	2560.260886
620.472083	2556.046482
620.819731	2559.716442
621.167326	2557.889023
621.514868	2558.103272
621.862357	2558.083108
622.209793	2558.060422
622.557176	2558.985474
622.904506	2553.722510
623.251783	2553.939279
623.599007	2553.644372
623.946179	2550.715461
624.293297	2550.183620
624.640363	2555.484393
624.987376	2554.871893
625.334336	2554.413148
625.681243	2557.306770
626.028097	2554.992880
626.374899	2554.912222
626.721647	2553.132695
627.068343	2555.557490
627.414987	2553.903991
627.761577	2553.099927
628.108115	2553.553631
628.454600	2555.116389
628.801032	2554.345092
629.147412	2555.486913
629.493739	2555.446584
629.840014	2555.633107
630.186236	2554.372818
630.532405	2554.513971
630.878521	2553.634289
631.224585	2555.882644
631.570597	2554.178734
631.916556	2554.776111
632.262462	2554.700493
632.608316	2553.180586
632.954117	2551.292673
633.299866	2553.548590
633.645562	2554.221584
633.991206	2553.591440
634.336797	2552.275698
634.682336	2554.549259
635.027823	2550.269319
635.373257	2552.545400
635.718639	2551.905174
636.063968	2553.115051
636.409245	2552.769732
636.754470	2552.696635
637.099642	2553.513302
637.444762	2552.893240
637.789829	2553.530946
638.134845	2551.312838
638.479808	2551.159083
638.824719	2554.188816
639.169577	2552.968857
639.514383	2550.821326
639.859137	2550.775955
640.203839	2554.619835
640.548489	2550.410472
640.893086	2552.731923
641.237632	2547.342929
641.582125	2547.163968
641.926566	2545.301262
642.270955	2552.855431
642.615292	2552.210163
642.959576	2551.189330
643.303809	2549.863506
643.647990	2551.476676
643.992118	2552.782334
644.336195	2551.650595
644.680219	2549.503064
645.024192	2549.424926
645.368112	2554.410627
645.711981	2553.785524
646.055797	2552.830225
646.399562	2550.851572
646.743274	2548.603218
647.086935	2549.477858
647.430544	2552.981460
647.774101	2550.599515
648.117606	2551.385935
648.461059	2552.099258
648.804460	2555.025648
649.147810	2552.255534
649.491108	2549.311500
649.834354	2549.102292
650.177548	2546.468289
650.520690	2552.386604
650.863781	2550.654968
651.206820	2553.115051
651.549807	2551.675801
651.892742	2550.065152
652.235626	2548.053732
652.578458	2549.659340
652.921238	2549.838301
653.263967	2550.614638
653.606644	2550.639844
653.949269	2550.118085
654.291843	2549.518187
654.634365	2551.035575
654.976836	2547.347971
655.319255	2551.499361
655.661622	2549.203115
656.003938	2550.576830
656.346203	2549.598846
656.688416	2549.253527
657.030577	2549.674463
657.372687	2551.993394
657.714746	2547.148845
658.056753	2546.150697
658.398708	2543.524255
658.740612	2546.753114
659.082465	2543.277239
659.424266	2546.392672
659.766016	2541.951415
660.107715	2549.346788
660.449362	2546.604400
660.790958	2548.121788
661.132503	2547.458876
661.473996	2550.266799
661.815438	2546.884184
662.156829	2549.293856
662.498168	2549.682025
662.839456	2546.957281
663.180693	2545.548279
663.521879	2549.273691
663.863013	2549.518187
664.204097	2549.402241
664.545129	2546.992569
664.886110	2548.802343
665.227040	2548.996428
665.567918	2550.697817
665.908746	2549.543393
666.249522	2547.962991
666.590248	2551.398538
666.930922	2549.417364
667.271545	2549.515667
667.612118	2548.217570
667.952639	2549.739998
668.293109	2547.234545
668.633528	2548.330996
668.973896	2549.450132
669.314213	2549.752601
669.654480	2549.195553
669.994695	2546.024668
670.334859	2547.796633
670.674973	2550.143290
671.015035	2551.201933
671.355047	2548.041129
671.695008	2549.283774
672.034918	2545.664225
672.374777	2548.343598
672.714585	2547.473999
673.054342	2549.316541
673.394049	2549.356870
673.733705	2549.190512
674.073310	2548.358722
674.412864	2549.639175
674.752368	2546.332178
675.091820	2549.593805
675.431223	2546.911911
675.770574	2547.922662
676.109875	2543.516694
676.449125	2545.402085
676.788324	2542.604245
677.127473	2544.701365
677.466571	2541.268339
677.805619	2548.388969
678.144616	2546.705223
678.483562	2547.259750
678.822458	2547.433670
679.161303	2548.774617
679.500098	2548.341078
679.838842	2547.179092
680.177535	2547.602549
680.516179	2545.321427
680.854771	2547.567261
681.193314	2547.625234
681.531805	2544.623227
681.870247	2547.562220
682.208638	2548.404092
682.546978	2548.091541
682.885268	2549.175389
683.223508	2545.386962
683.561697	2548.623383
683.899836	2551.189330
684.237925	2547.990718
684.575963	2547.436191
684.913951	2549.346788
685.251889	2547.620193
685.589776	2546.632127
685.927614	2549.026675
686.265401	2546.097764
686.603137	2547.852086
686.940824	2547.186654
687.278460	2549.213198
687.616046	2548.265461
687.953582	2547.935265
688.291068	2549.003990
688.628504	2548.976263
688.965889	2548.164637
689.303224	2548.746891
689.640510	2547.509287
689.977745	2545.949050
690.314930	2546.463248
690.652065	2546.581715
690.989150	2547.060625
691.326185	2547.191695
691.663170	2545.250851
692.000105	2546.753114
692.336990	2547.146324
692.673825	2546.637168
693.010610	2548.220090
693.347345	2541.585932
693.684030	2542.727753
694.020665	2543.100798
694.357251	2541.301107
694.693786	2543.826725
695.030272	2545.510470
695.366707	2546.566592
695.703093	2544.696324
696.039429	2543.539379
696.375716	2544.666077
696.711952	2544.658515
697.048139	2542.742877
697.384276	2547.015254
697.720363	2544.285470
698.056400	2543.791437
698.392388	2543.824204
698.728326	2544.923176
699.064214	2546.402754
699.400053	2543.700696
699.735842	2546.443083
700.071581	2545.792775
700.407270	2545.817980
700.742910	2543.846889
701.078501	2545.114739
701.414042	2544.167003
701.749533	2544.066179
702.084974	2542.213555
702.420366	2544.527445
702.755709	2544.358566
703.091002	2541.958977
703.426246	2544.351005
703.761440	2542.516025
704.096584	2544.822353
704.431679	2543.211704
704.766725	2544.451828
705.101721	2544.426622
705.436668	2542.505942
705.771565	2542.929399
706.106413	2545.467620
706.441212	2545.107178
706.775961	2543.975439
707.110661	2542.090047
707.445311	2542.153062
707.779913	2542.223638
708.114465	2545.475182
708.448967	2542.614327
708.783421	2546.173382
709.117825	2543.678011
709.452180	2546.057435
709.786485	2543.370500
710.120742	2546.059956
710.454949	2547.746222
710.789107	2544.371169
711.123216	2542.296734
711.457275	2542.758000
711.791286	2541.321271
712.125247	2542.531148
712.459159	2545.109698
712.793023	2546.927034
713.126837	2544.522404
713.460602	2548.386448
713.794318	2544.719009
714.127985	2544.035932
714.461602	2543.741025
714.795171	2544.477033
715.128691	2541.540561
715.462162	2543.582229
715.795584	2544.383772
716.128957	2539.997968
716.462281	2540.113915
716.795556	2545.470141
717.128782	2543.282280
717.461960	2544.232538
717.795088	2544.103988
718.128167	2540.406302
718.461198	2541.767413
718.794180	2544.535007
719.127113	2542.067362
719.459997	2542.216076
719.792833	2541.147351
720.125619	2544.189688
720.458357	2540.267670
720.791046	2543.988042
721.123686	2541.028884
721.456278	2542.800850
721.788821	2541.948895
722.121315	2542.692465
722.453761	2541.749769
722.786158	2542.407640
723.118506	2541.767413
723.450805	2544.159441
723.783056	2541.497712
724.115259	2543.234389
724.447412	2545.119781
724.779518	2541.936292
725.111574	2541.633823
725.443582	2543.496529
725.775542	2541.971580
726.107453	2542.064841
726.439315	2541.348998
726.771129	2544.235058
727.102895	2540.197094
727.434612	2544.945861
727.766281	2540.628113
728.097901	2541.722043
728.429473	2536.441434
728.760996	2541.233051
729.092471	2537.270704
729.423897	2543.599873
729.755276	2543.894780
730.086606	2542.778165
730.417887	2541.868236
730.749120	2542.349667
731.080305	2541.928730
731.411442	2544.416540
731.742530	2545.089534
732.073570	2544.809750
732.404562	2541.187681
732.735506	2544.184647
733.066401	2541.321271
733.397249	2541.948895
733.728048	2542.778165
734.058798	2542.379913
734.389501	2542.815973
734.720156	2542.029553
735.050762	2541.157434
735.381320	2541.989224
735.711831	2542.894111
736.042293	2541.210366
736.372707	2539.203987
736.703073	2542.092568
737.033391	2541.850592
737.363661	2542.589121
737.693883	2544.237579
738.024056	2542.034594
738.354182	2541.827907
738.684260	2544.832435
739.014290	2541.414533
739.344272	2540.194573
739.674207	2542.473175
740.004093	2542.090047
740.333931	2541.180119
740.663722	2543.579708
740.993464	2540.378575
741.323159	2540.252547
741.652806	2543.579708
741.982405	2542.528628
742.311956	2540.285314
742.641460	2541.618699
742.970915	2542.493339
743.300323	2542.271529
743.629683	2541.419574
743.958996	2541.316230
744.288260	2539.546785
744.617477	2541.268339
744.946647	2537.532844
745.275768	2542.563916
745.604842	2537.026208
745.933869	2537.253060
746.262847	2533.512524
746.591778	2537.777340
746.920662	2539.592155
747.249498	2538.866229
747.578286	2543.501570
747.907027	2538.495704
748.235720	2540.396219
748.564365	2538.785571
748.892963	2541.427135
749.221514	2539.055272
749.550017	2540.038297
749.878473	2538.851106
750.206881	2540.973432
750.535242	2539.718184
750.863555	2538.732639
751.191821	2540.885211
751.520039	2539.599717
751.848210	2542.460572
752.176334	2539.977804
752.504411	2543.506611
752.832440	2539.579553
753.160421	2541.006199
753.488356	2538.505787
753.816243	2540.832279
754.144082	2539.385468
754.471875	2540.081147
754.799620	2540.088709
755.127318	2538.621733
755.454969	2538.667104
755.782572	2541.444779
756.110129	2541.122146
756.437638	2542.531148
756.765100	2538.021836
757.092515	2538.941847
757.419882	2538.898997
757.747203	2539.241795
758.074477	2539.261960
758.401703	2536.549819
758.728882	2539.191384
759.056014	2539.947557
759.383099	2540.519728
759.710138	2541.008720
760.037129	2540.441590
760.364073	2540.121477
760.690970	2537.242978
761.017820	2541.157434
761.344623	2538.021836
761.671379	2541.399409
761.998088	2535.692823
762.324751	2539.201466
762.651366	2538.309182
762.977935	2544.431663
763.304456	2542.127856
763.630931	2547.771427
763.957359	2545.097095
764.283740	2543.814122
764.610074	2541.495191
764.936362	2544.315717
765.262602	2539.090561
765.588796	2541.548123
765.914943	2539.345139
766.241044	2538.357073
766.567097	2540.396219
766.893104	2540.683565
767.219064	2535.634850
767.544978	2539.607279
767.870845	2537.994110
768.196665	2536.043183
768.522438	2540.597866
768.848165	2537.915972
769.173846	2539.758513
769.499479	2539.123328
769.825066	2540.353370
770.150607	2536.106198
770.476101	2538.959491
770.801548	2540.585263
771.126949	2538.977135
771.452303	2539.629964
771.777611	2539.990407
772.102872	2537.167360
772.428087	2536.819521
772.753256	2536.847247
773.078378	2536.491846
773.403453	2538.702392
773.728482	2539.140972
774.053465	2536.534696
774.378401	2537.283307
774.703291	2534.240971
775.028135	2537.361445
775.352932	2538.462937
775.677683	2537.149716
776.002388	2536.322967
776.327046	2536.360776
776.651658	2536.408667
776.976224	2535.954963
777.300743	2539.554347
777.625216	2538.228523
777.949643	2536.028060
778.274024	2538.843544
778.598359	2535.100487
778.922647	2531.264169
779.246889	2532.983203
779.571086	2533.696526
779.895236	2535.960004
780.219339	2538.170550
780.543397	2534.896321
780.867409	2539.627443
781.191374	2535.213913
781.515294	2537.961342
781.839167	2536.007895
782.162995	2537.253060
782.486776	2536.718698
782.810511	2539.612320
783.134201	2537.908410
783.457844	2536.007895
783.781441	2537.237937
784.104993	2534.868594
784.428498	2537.850437
784.751958	2537.570653
785.075372	2540.492001
785.398739	2533.688964
785.722061	2539.549306
786.045337	2536.264994
786.368568	2538.178112
786.691752	2536.726259
787.014891	2536.852288
787.337983	2538.488143
787.661030	2533.996475
787.984031	2537.825231
788.306987	2539.246836
788.629897	2539.304810
788.952760	2538.099974
789.275579	2535.274407
789.598351	2539.186342
789.921078	2535.362627
790.243759	2536.340611
790.566395	2535.896990
790.888984	2535.710467
791.211529	2534.339273
791.534027	2538.808256
791.856480	2535.690302
792.178888	2538.727597
792.501249	2535.733152
792.823566	2537.663914
793.145836	2534.104859
793.468062	2538.021836
793.790241	2535.186187
794.112375	2537.290869
794.434464	2536.000333
794.756507	2534.830786
795.078505	2535.564273
795.400457	2535.218954
795.722364	2533.386495
796.044226	2536.101156
796.366042	2533.401618
796.687812	2533.373892
797.009538	2537.918492
797.331218	2537.452186
797.652852	2536.877494
797.974442	2536.506969
798.295986	2537.449665
798.617484	2534.709798
798.938938	2537.414377
799.260346	2539.897145
799.581709	2536.295241
799.903026	2538.294058
800.224299	2537.994110
800.545526	2537.464788
800.866708	2538.389840
801.187845	2536.330529
801.508936	2535.750796
801.829983	2536.806918
802.150984	2534.614016
802.471940	2533.205013
802.792851	2536.035621
803.113717	2535.430683
803.434538	2535.556712
803.755314	2535.017308
804.076045	2534.427493
804.396731	2537.144675
804.717372	2533.608306
805.037967	2534.435055
805.358518	2533.560415
805.679024	2535.740714
805.999485	2535.912113
806.319901	2535.244160
806.640272	2535.148378
806.960598	2533.273069
807.280879	2537.815149
807.601115	2536.844727
807.921306	2537.248019
808.241453	2535.362627
808.561554	2537.147196
808.881611	2536.038142
809.201623	2536.958152
809.521590	2537.520241
809.841513	2535.730632
810.161390	2536.012936
810.481223	2533.595703
810.801011	2535.886907
811.120755	2535.584438
811.440453	2537.737011
811.760107	2537.074099
812.079716	2534.447658
812.399281	2532.574869
812.718801	2534.626619
813.038276	2531.934643
813.357707	2536.587628
813.677093	2537.507638
813.996434	2536.610313
814.315731	2536.345652
814.634983	2535.723070
814.954191	2534.639222
815.273354	2536.217103
815.592473	2532.947915
815.911547	2533.880528
816.230577	2536.373379
816.549562	2535.357586
816.868502	2537.444624
817.187399	2538.092412
817.506250	2537.684079
817.825058	2537.908410
818.143821	2536.416228
818.462539	2536.630477
818.781213	2537.300951
819.099843	2537.013605
819.418429	2539.314892
819.736970	2539.201466
820.055466	2540.920499
820.373919	2540.363452
820.692327	2539.529141
821.010691	2541.268339
821.329011	2547.945347
821.647286	2559.812223
821.965517	2570.660787
822.283704	2579.318968
822.601847	2585.317941
822.919945	2577.242013
823.237999	2566.915209
823.556010	2562.327759
823.873976	2555.275185
824.191897	2552.316028
824.509775	2547.897456
824.827609	2545.767569
825.145398	2544.802188
825.463144	2543.614996
825.780845	2545.598690
826.098502	2546.324616
826.416116	2547.252189
826.733685	2553.974567
827.051210	2555.880123
827.368692	2554.065308
827.686129	2546.972405
828.003522	2545.087013
828.320872	2540.272711
828.638177	2538.551157
828.955439	2534.835827
829.272656	2536.222144
829.589830	2532.587472
829.906960	2538.611651
830.224046	2536.907741
830.541088	2538.157947
830.858086	2535.960004
831.175041	2537.731970
831.491952	2536.060827
831.808819	2536.703574
832.125642	2535.889428
832.442421	2537.260622
832.759157	2538.102494
833.075849	2541.845551
833.392497	2544.812270
833.709101	2545.064328
834.025662	2542.407640
834.342179	2542.619368
834.658653	2541.069213
834.975083	2541.341436
835.291469	2543.292362
835.607811	2539.670293
835.924110	2535.662576
836.240366	2537.351363
836.556578	2536.174253
836.872746	2538.775488
837.188871	2536.431352
837.504952	2535.392874
837.820990	2535.276928
838.136984	2531.876669
838.452935	2535.332380
838.768842	2535.223996
839.084706	2532.980682
839.400526	2534.873635
839.716303	2536.454037
840.032037	2538.243647
840.347727	2536.975797
840.663373	2536.728780
840.978977	2535.415559
841.294537	2533.925898
841.610054	2532.854653
841.925527	2535.264325
842.240957	2534.251053
842.556344	2535.531506
842.871687	2534.417411
843.186987	2534.608975
843.502244	2533.661238
843.817458	2535.551671
844.132629	2533.978831
844.447756	2535.498738
844.762840	2529.101514
845.077881	2532.491690
845.392879	2530.699560
845.707833	2532.123686
846.022745	2526.217974
846.337613	2534.092257
846.652438	2533.315919
846.967221	2533.880528
847.281960	2533.331042
847.596656	2534.775333
847.911309	2531.818696
848.225919	2534.248532
848.540485	2533.227699
848.855009	2532.589993
849.169490	2531.997657
849.483928	2533.860363
849.798323	2535.634850
850.112675	2531.828778
850.426984	2534.455220
850.741251	2534.898841
851.055474	2532.695857
851.369654	2534.866074
851.683792	2533.782226
851.997887	2529.434230
852.311938	2533.573018
852.625947	2530.712163
852.939914	2534.729963
853.253837	2534.737524
853.567718	2534.472864
853.881555	2530.331556
854.195350	2534.046886
854.509103	2533.777184
854.822812	2534.727442
855.136479	2533.618388
855.450103	2532.705939
855.763685	2534.097298
856.077224	2534.004036
856.390720	2532.411032
856.704173	2531.889272
857.017584	2531.019673
857.330953	2531.516227
857.644278	2533.774664
857.957561	2534.026722
858.270802	2532.234591
858.584000	2532.572349
858.897155	2533.694005
859.210268	2531.725435
859.523339	2532.842050
859.836367	2532.416073
860.149352	2530.855836
860.462295	2534.939170
860.775195	2530.490352
861.088054	2528.577234
861.400869	2530.820548
861.713642	2529.101514
862.026373	2533.008408
862.339062	2534.306506
862.651708	2531.143182
862.964312	2531.231402
863.276873	2533.681402
863.589392	2530.714683
863.901869	2530.422297
864.214303	2533.903213
864.526696	2531.364992
864.839045	2535.128214
865.151353	2531.972451
865.463619	2533.978831
865.775842	2531.612009
866.088023	2530.639066
866.400162	2534.825744
866.712258	2533.641073
867.024313	2531.952287
867.336325	2532.917668
867.648296	2532.378264
867.960224	2532.277441
868.272110	2532.736186
868.583954	2534.498069
868.895755	2534.510672
869.207515	2532.300126
869.519233	2531.783408
869.830909	2532.688295
870.142542	2533.951104
870.454134	2533.169725
870.765684	2532.290044
871.077191	2533.633512
871.388657	2534.772812
871.700081	2532.516896
872.011463	2533.714170
872.322803	2531.871628
872.634101	2532.552184
872.945357	2531.675023
873.256571	2534.475384
873.567744	2531.004550
873.878874	2534.185518
874.189963	2529.759385
874.501010	2538.626774
874.812015	2532.032945
875.122979	2534.803059
875.433900	2532.612678
875.744780	2533.930940
876.055618	2533.288192
876.366415	2534.583769
876.677169	2535.506300
876.987882	2530.969262
877.298554	2529.524971
877.609183	2529.988757
877.919771	2531.052441
878.230317	2533.457071
878.540822	2538.654501
878.851285	2533.557894
879.161707	2536.121321
879.472087	2536.829603
879.782425	2540.023174
880.092722	2535.904551
880.402977	2542.611807
880.713191	2548.414175
881.023363	2554.254351
881.333494	2560.704508
881.643583	2560.689384
881.953631	2560.994374
882.263637	2560.533108
882.573602	2556.119578
882.883526	2552.676470
883.193408	2550.012220
883.503248	2547.075748
883.813048	2545.278577
884.122806	2541.797660
884.432522	2541.656508
884.742197	2535.965045
885.051831	2539.057793
885.361424	2535.786084
885.670975	2537.283307
885.980485	2535.889428
886.289954	2533.814993
886.599382	2533.389016
886.908768	2537.197607
887.218113	2533.320960
887.527417	2536.322967
887.836680	2534.651825
888.145901	2536.849768
888.455082	2535.730632
888.764221	2534.248532
889.073319	2534.162833
889.382376	2534.296423
889.691392	2535.055117
890.000366	2534.661907
890.309300	2531.748120
890.618193	2535.460930
890.927044	2533.197452
891.235855	2532.963038
891.544625	2532.093439
891.853353	2535.138296
892.162041	2532.496731
892.470687	2534.835827
892.779293	2534.487987
893.087858	2534.339273
893.396381	2531.826258
893.704864	2533.560415
894.013306	2530.361803
894.321707	2541.069213
894.630068	2540.862526
894.938387	2544.769420
895.246665	2541.848072
895.554903	2538.962011
895.863100	2540.776827
896.171256	2535.097967
896.479371	2539.335057
896.787446	2533.593182
897.095480	2538.898997
897.403473	2535.304654
897.711425	2535.818852
898.019336	2533.593182
898.327207	2535.680220
898.635038	2535.776002
898.942827	2537.457227
899.250576	2535.534027
899.558284	2533.734335
899.865952	2532.007739
900.173579	2534.843388
900.481165	2534.430014
900.788711	2533.809952
901.096216	2532.521937
901.403681	2532.874818
901.711105	2533.144520
902.018489	2533.313398
902.325832	2534.167874
902.633135	2533.255425
902.940397	2535.428162
903.247619	2532.438758
903.554800	2536.123842
903.861941	2540.751621
904.169041	2543.451159
904.476101	2542.634492
904.783121	2548.517518
905.090100	2542.513504
905.397039	2539.539223
905.703938	2537.905889
906.010796	2537.928575
906.317614	2536.869932
906.624391	2535.942360
906.931129	2537.116949
907.237826	2533.935981
907.544483	2534.331711
907.851099	2532.784077
908.157675	2533.383974
908.464211	2533.073943
908.770707	2528.163860
909.077163	2528.075639
909.383578	2528.153777
909.689954	2527.778211
909.996289	2527.216123
910.302584	2531.506145
910.608839	2531.445651
910.915054	2530.339117
911.221229	2530.782739
911.527363	2532.446320
911.833458	2530.507996
912.139513	2532.428676
912.445527	2533.073943
912.751502	2528.836854
913.057436	2531.710311
913.363331	2533.429345
913.669186	2533.623429
913.975000	2533.310878
914.280775	2533.177287
914.586510	2535.062679
914.892205	2537.986548
915.197859	2537.870601
915.503475	2540.693647
915.809050	2542.395037
916.114585	2543.418391
916.420081	2541.651467
916.725536	2544.010727
917.030952	2541.079296
917.336328	2541.222969
917.641665	2541.233051
917.946961	2536.075951
918.252218	2537.941177
918.557435	2535.087884
918.862612	2537.149716
919.167750	2535.193749
919.472848	2533.908254
919.777906	2534.639222
920.082925	2532.179139
920.387904	2534.019160
920.692843	2534.266176
920.997743	2529.096473
921.302603	2533.454551
921.607423	2532.557225
921.912204	2534.369520
922.216946	2530.941535
922.521647	2533.389016
922.826310	2529.073788
923.130932	2532.726104
923.435516	2531.473377
923.740059	2534.354397
924.044564	2529.590506
924.349028	2532.968079
924.653454	2525.580268
924.957840	2530.492873
925.262186	2527.432892
925.566493	2528.360465
925.870761	2527.972296
926.174989	2529.817358
926.479178	2530.618902
926.783328	2530.608819
927.087438	2528.501617
927.391509	2532.549663
927.695541	2530.056813
927.999533	2532.665610
928.303486	2529.671165
928.607400	2530.951618
928.911275	2532.083357
929.215110	2531.501103
929.518906	2532.199303
929.822663	2530.160157
930.126381	2529.202337
930.430060	2531.155784
930.733699	2529.681247
931.037299	2530.712163
931.340861	2529.986237
931.644383	2529.459436
931.947866	2529.545136
932.251309	2528.761236
932.554714	2530.906247
932.858080	2531.007070
933.161407	2532.675692
933.464694	2529.857687
933.767943	2529.797193
934.071153	2531.435568
934.374323	2530.092101
934.677455	2531.995137
934.980548	2529.792152
935.283602	2529.562780
935.586617	2528.978006
935.889593	2532.221988
936.192530	2529.426669
936.495428	2530.833151
936.798287	2526.868283
937.101108	2530.139992
937.403890	2528.642769
937.706632	2532.113604
938.009336	2528.647810
938.312002	2532.811803
938.614628	2528.655372
938.917216	2531.823737
939.219765	2531.289375
939.522275	2532.665610
939.824747	2528.020187
940.127179	2531.768285
940.429573	2525.542460
940.731929	2527.180835
941.034246	2525.615556
941.336524	2526.938859
941.638763	2531.123017
941.940964	2530.311391
942.243126	2529.855167
942.545250	2528.632687
942.847335	2529.192255
943.149381	2531.591844
943.451389	2530.785260
943.753359	2530.772657
944.055290	2530.530681
944.357182	2530.223171
944.659036	2526.984230
944.960851	2531.294416
945.262628	2529.363654
945.564367	2531.496062
945.866067	2528.133613
946.167729	2528.630166
946.469352	2532.189221
946.770937	2529.928263
947.072484	2528.799045
947.373992	2530.818027
947.675462	2528.625125
947.976893	2529.252749
948.278286	2531.435568
948.579641	2529.114117
948.880958	2529.633356
949.182236	2528.305012
949.483476	2529.449354
949.784678	2530.954138
950.085841	2527.518592
950.386967	2531.286854
950.688054	2529.920702
950.989103	2529.512368
951.290114	2527.702594
951.591087	2531.523789
951.892021	2529.184693
952.192917	2527.609333
952.493776	2531.077647
952.794596	2529.265352
953.095378	2530.505476
953.396122	2529.333407
953.696828	2530.646628
953.997496	2531.420445
954.298126	2529.230064
954.598718	2529.393901
954.899272	2531.075126
955.199788	2530.593696
955.500266	2529.063706
955.800706	2526.328880
956.101108	2528.297450
956.401472	2526.838036
956.701798	2526.056657
957.002087	2527.853829
957.302337	2526.273427
957.602550	2531.029756
957.902724	2527.957172
958.202861	2528.204189
958.502960	2530.618902
958.803022	2531.453212
959.103045	2528.458767
959.403031	2530.387008
959.702979	2529.225023
960.002889	2530.225692
960.302762	2530.215609
960.602596	2530.581093
960.902393	2530.621422
961.202153	2529.920702
961.501875	2529.265352
961.801559	2529.517409
962.101205	2530.076978
962.400814	2529.038500
962.700385	2530.102183
962.999918	2530.298788
963.299414	2528.536905
963.598873	2530.800383
963.898293	2530.321473
964.197677	2529.915661
964.497022	2527.747964
964.796331	2528.536905
965.095601	2529.582944
965.394835	2531.407842
965.694030	2527.122861
965.993189	2530.134951
966.292309	2527.100176
966.591393	2529.567821
966.890439	2529.131761
967.189447	2529.041020
967.488419	2526.714528
967.787353	2528.231915
968.086249	2526.717048
968.385108	2527.785773
968.683930	2528.763757
968.982714	2529.101514
969.281462	2529.640918
969.580172	2528.516740
969.878844	2527.168232
970.177480	2527.909281
970.476078	2528.761236
970.774639	2530.006401
971.073162	2527.218643
971.371649	2524.856863
971.670098	2524.554393
971.968510	2525.366019
972.266885	2524.098169
972.565223	2527.964734
972.863524	2528.080681
973.161788	2526.374250
973.460014	2530.588655
973.758204	2531.667462
974.056356	2526.616225
974.354471	2527.228726
974.652550	2526.974147
974.950591	2528.584796
975.248595	2529.320804
975.546563	2529.025897
975.844493	2527.836185
976.142386	2529.151926
976.440243	2528.912471
976.738062	2530.117307
977.035845	2526.094466
977.333590	2530.356762
977.631299	2527.689991
977.928971	2527.092614
978.226606	2529.219981
978.524204	2528.604961
978.821765	2527.879034
979.119290	2529.678726
979.416777	2527.052285
979.714228	2528.690660
980.011642	2526.729651
980.309020	2531.543953
980.606360	2525.759229
980.903664	2526.850639
981.200931	2525.749147
981.498162	2527.747964
981.795356	2528.299971
982.092513	2529.802235
982.389633	2529.083870
982.686717	2527.223684
982.983764	2527.727800
983.280775	2528.105886
983.577749	2527.833664
983.874686	2530.303829
984.171587	2528.045393
984.468451	2530.049251
984.765279	2529.421627
985.062070	2527.238808
985.358824	2524.519105
985.655543	2528.068078
985.952224	2529.524971
986.248869	2528.829292
986.545478	2524.377953
986.842050	2525.870135
987.138586	2522.973992
987.435086	2524.781245
987.731549	2521.824609
988.027975	2527.601771
988.324366	2527.894158
988.620719	2527.150588
988.917037	2527.846267
989.213318	2526.482635
989.509563	2527.334590
989.805772	2526.853160
990.101944	2526.843077
990.398080	2528.647810
990.694180	2528.431041
990.990244	2526.840557
991.286271	2529.867770
991.582262	2527.256452
991.878217	2527.266534
992.174136	2530.944056
992.470019	2529.769467
992.765865	2527.926925
993.061676	2528.466329
993.357450	2528.153777
993.653188	2530.863397
993.948890	2529.555218
994.244556	2527.969775
994.540186	2527.221164
994.835780	2526.296112
995.131337	2529.638397
995.426859	2527.732841
995.722345	2526.197810
996.017795	2526.961544
996.313208	2528.541946
996.608586	2527.934487
996.903928	2527.591689
997.199234	2527.543798
997.494504	2528.226874
997.789738	2527.105217
998.084936	2529.086391
998.380099	2530.208047
998.675225	2526.225536
998.970316	2527.016997
999.265371	2527.306863
999.560390	2528.352903
999.855373	2528.811648
1000.150320	2530.152595
1000.445232	2524.317459
1000.740108	2525.988602
1001.034948	2527.717717
1001.329752	2524.914836
1001.624521	2528.456247
1001.919254	2523.851152
1002.213951	2527.677388
1002.508613	2524.458612
1002.803239	2523.049609
1003.097829	2521.718744
1003.392384	2527.140505
1003.686903	2528.431041
1003.981386	2529.383819
1004.275834	2526.759898
1004.570246	2525.824764
1004.864623	2526.248221
1005.158964	2527.112779
1005.453270	2528.801566
1005.747540	2525.136647
1006.041775	2526.908612
1006.335974	2526.071781
1006.630138	2526.628828
1006.924266	2527.405166
1007.218359	2528.698222
1007.512416	2526.817872
1007.806438	2526.643952
1008.100425	2526.769981
1008.394376	2525.345855
1008.688292	2524.977850
1008.982172	2527.896678
1009.276017	2526.515402
1009.569827	2525.532377
1009.863602	2528.249559
1010.157341	2525.983561
1010.451045	2530.238294
1010.744714	2525.555063
1011.038347	2530.129910
1011.331945	2524.176307
1011.625508	2527.669827
1011.919036	2525.781914
1012.212528	2529.739220
1012.505986	2524.501461
1012.799408	2527.374919
1013.092795	2526.742254
1013.386147	2527.984899
1013.679464	2527.992460
1013.972745	2525.585309
1014.265992	2527.125382
1014.559204	2527.566483
1014.852380	2527.382481
1015.145521	2529.472039
1015.438628	2523.836029
1015.731699	2529.041020
1016.024736	2527.775691
1016.317737	2528.612522
1016.610703	2527.879034
1016.903635	2525.580268
1017.196531	2522.167407
1017.489393	2523.977181
1017.782219	2525.076153
1018.075011	2526.250742
1018.367768	2528.262162
1018.660490	2526.704446
1018.953177	2526.704446
1019.245829	2526.704446
