Dividing Wavelength (nm)	Counts (n)	Blue Motor Position (mm): 0.000000	Red Motor Position (mm): 33.300000	
326.493990	2126.386419
326.888308	2126.386419
327.282561	2126.386419
327.676750	2094.153281
328.070874	2092.010791
328.464933	2093.870976
328.858929	2100.709302
329.252859	2111.497371
329.646726	2123.969185
330.040528	2135.684827
330.434265	2155.249545
330.827938	2171.971052
331.221547	2190.731706
331.615091	2207.309541
332.008571	2228.124465
332.401986	2246.290263
332.795338	2266.989241
333.188625	2287.315173
333.581847	2304.671866
333.975006	2321.900009
334.368100	2338.901300
334.761129	2358.977695
335.154095	2375.933616
335.546996	2394.389281
335.939833	2412.867630
336.332606	2426.947573
336.725315	2437.675148
337.117960	2450.401541
337.510540	2457.610391
337.903056	2471.312247
338.295508	2477.074286
338.687896	2486.191213
339.080220	2491.988540
339.472480	2499.484735
339.864676	2503.081599
340.256807	2509.864471
340.648875	2511.608710
341.040879	2513.287415
341.432818	2513.536952
341.824694	2519.626666
342.216506	2516.271778
342.608253	2521.083559
342.999937	2517.678260
343.391557	2515.306397
343.783113	2515.523166
344.174605	2516.654905
344.566033	2512.420336
344.957397	2515.029133
345.348697	2509.040243
345.739934	2509.740963
346.131106	2506.902793
346.522215	2505.728204
346.913260	2503.769716
347.304241	2502.784171
347.695159	2500.177894
348.086012	2497.732934
348.476802	2497.773264
348.867528	2496.283603
349.258191	2494.710763
349.648789	2493.296719
350.039324	2488.663899
350.429796	2488.820174
350.820203	2490.617346
351.210548	2488.096769
351.600828	2485.729947
351.991045	2486.954947
352.381198	2489.099958
352.771288	2490.098107
353.161314	2485.508136
353.551276	2486.987715
353.941175	2486.309680
354.331010	2485.079638
354.720782	2484.804895
355.110490	2488.207674
355.500135	2484.762046
355.889717	2486.942345
356.279235	2486.307159
356.668689	2488.326141
357.058080	2488.212715
357.447408	2487.247334
357.836672	2483.663074
358.225873	2485.641727
358.615010	2484.373877
359.004084	2489.213384
359.393095	2490.887047
359.782043	2490.695484
360.170927	2492.361585
360.559748	2492.858139
360.948505	2492.900988
361.337199	2494.425938
361.725830	2495.471977
362.114398	2497.432986
362.502903	2498.327791
362.891344	2497.367451
363.279722	2494.640187
363.668037	2497.254025
364.056289	2498.073212
364.444478	2499.721670
364.832603	2497.276710
365.220665	2500.931547
365.608665	2499.262925
365.996601	2501.705364
366.384474	2503.477329
366.772284	2504.777947
367.160031	2504.732577
367.547715	2505.755931
367.935336	2507.502691
368.322893	2511.800274
368.710388	2513.703310
369.097820	2524.191430
369.485189	2526.734692
369.872495	2533.041176
370.259738	2537.558050
370.646918	2548.293187
371.034035	2552.981460
371.421090	2563.542677
371.808081	2572.152968
372.195010	2584.801223
372.581875	2595.826227
372.968678	2608.096395
373.355418	2617.576285
373.742096	2639.931282
374.128710	2651.233548
374.515262	2666.727535
374.901751	2680.013496
375.288177	2696.256093
375.674540	2717.663353
376.060841	2734.468040
376.447079	2754.655340
376.833254	2776.607045
377.219367	2786.762449
377.605417	2824.460197
377.991404	2835.752382
378.377329	2855.158304
378.763191	2874.337374
379.148991	2912.781213
379.534727	2936.323401
379.920402	2966.459419
380.306013	2975.848568
380.691563	3030.973585
381.077049	3048.960422
381.462474	3068.172260
381.847835	3106.800101
382.233134	3130.753143
382.618371	3126.125364
383.003545	3195.355530
383.388657	3201.581355
383.773706	3236.370358
384.158693	3252.169334
384.543618	3276.820576
384.928480	3314.374652
385.313280	3360.763349
385.698017	3357.773945
386.082692	3410.098602
386.467305	3418.681166
386.851856	3445.973973
387.236344	3469.402735
387.620770	3504.973117
388.005133	3528.941283
388.389435	3556.670150
388.773674	3566.331521
389.157851	3613.143676
389.541965	3626.966519
389.926018	3590.461004
390.310008	3662.723424
390.693936	3681.549613
391.077802	3719.449007
391.461606	3712.782081
391.845348	3776.913120
392.229027	3770.520937
392.612645	3786.471148
392.996200	3861.634752
393.379694	3905.061771
393.763125	3967.698108
394.146494	3935.601081
394.529801	3999.921163
394.913047	4044.406825
395.296230	4011.331815
395.679351	4067.853232
396.062410	4089.194957
396.445408	4072.354982
396.828343	4104.643573
397.211217	4128.692397
397.594028	4047.219789
397.976778	4114.178915
398.359466	4141.411228
398.742092	4169.649252
399.124656	4092.224690
399.507158	4172.820137
399.889598	4199.029096
400.271977	4259.018827
400.654294	4236.419334
401.036549	4239.159201
401.418742	4207.684757
401.800874	4311.409018
402.182944	4334.694108
402.564952	4396.060074
402.946898	4382.930388
403.328783	4382.297724
403.710606	4293.160041
404.092367	4488.509794
404.474067	4448.669555
404.855705	4457.826811
405.237282	4386.131521
405.618797	4497.687215
406.000250	4528.488665
406.381642	4608.448926
406.762972	4571.938370
407.144240	4585.378086
407.525447	4582.010595
407.906593	4642.718690
408.287677	4688.313406
408.668700	4617.517962
409.049661	4668.602495
409.430560	4707.099266
409.811399	4632.613697
410.192176	4796.489006
410.572891	4735.710335
410.953545	4839.605995
411.334138	4718.361204
411.714669	4784.473416
412.095139	4680.731511
412.475547	4820.021112
412.855894	4800.569820
413.236180	4810.468126
413.616405	4760.782513
413.996568	4854.734497
414.376670	4794.611176
414.756711	4748.431686
415.136691	4779.694402
415.516609	4859.299262
415.896466	4897.105396
416.276262	4932.101086
416.655997	4913.884876
417.035670	5092.853399
417.415283	5186.603738
417.794834	5127.259274
418.174324	5080.537861
418.553753	4984.458509
418.933121	5175.130071
419.312428	5238.759515
419.691674	5177.930432
420.070859	5305.476666
420.449983	5220.470209
420.829045	5331.670501
421.208047	5240.632304
421.586988	5314.321370
421.965867	5321.810004
422.344686	5457.898473
422.723444	5307.334331
423.102141	5133.532990
423.480777	5427.752373
423.859352	5195.367783
424.237866	5454.321774
424.616319	5449.958656
424.994712	5556.551333
425.373044	5432.801088
425.751314	5575.702677
426.129524	5379.710177
426.507673	5575.596812
426.885762	5654.727804
427.263789	5585.840437
427.641756	5470.186285
428.019662	5597.689669
428.397508	5600.245534
428.775292	5544.634045
429.153016	5641.832533
429.530679	5573.126647
429.908282	5656.310727
430.285824	5526.279204
430.663305	5801.069980
431.040726	5533.931676
431.418086	5532.913363
431.795385	5645.013501
432.172624	5655.370551
432.549802	5644.927801
432.926920	5661.165358
433.303977	5663.786758
433.680974	5705.547676
434.057910	5724.096602
434.434786	5732.590946
434.811601	5700.012489
435.188355	5936.603922
435.565050	5806.383356
435.941683	5791.867353
436.318257	6003.195043
436.694770	5986.276931
437.071222	6021.814545
437.447614	5953.872394
437.823946	5862.914855
438.200218	6021.854874
438.576429	5888.118104
438.952580	5985.369523
439.328670	6027.934506
439.704700	5936.447646
440.080670	5922.249236
440.456580	6193.619589
440.832429	6073.990487
441.208218	5923.386016
441.583947	6075.112144
441.959616	6083.402322
442.335224	6011.160066
442.710773	6145.834491
443.086261	6169.066649
443.461689	5968.194312
443.837057	6117.994719
444.212365	6270.701352
444.587612	6164.864847
444.962800	6321.047355
445.337927	6299.274612
445.712995	5911.428399
446.088002	6488.620350
446.462949	6313.657023
446.837837	6246.672692
447.212664	6414.288537
447.587431	6566.158337
447.962139	7100.490398
448.336786	8030.810135
448.711374	7774.354036
449.085901	6845.029927
449.460369	6769.354646
449.834776	6703.681014
450.209124	7091.854902
450.583412	7246.535146
450.957640	7394.147692
451.331808	7152.958727
451.705917	6706.816612
452.079965	6629.235775
452.453954	6844.863569
452.827883	6720.382357
453.201752	6812.307797
453.575562	6611.730368
453.949311	6818.722666
454.323001	6704.235541
454.696632	6775.986284
455.070202	6915.023827
455.443713	7071.024854
455.817164	7169.856675
456.190556	7253.759119
456.563888	7330.306520
456.937160	7367.608538
457.310373	7029.899121
457.683526	7052.062554
458.056619	6944.408713
458.429653	6929.454130
458.802628	6867.014399
459.175542	6979.129660
459.548398	7331.380285
459.921194	7488.686971
460.293930	7499.046542
460.666607	8026.857870
461.039224	8338.058379
461.411782	8461.765774
461.784280	8479.392168
462.156719	8370.102474
462.529099	8250.574195
462.901419	7837.214703
463.273680	7728.562715
463.645882	7739.728870
464.018024	7604.373890
464.390106	7771.422605
464.762130	8166.603696
465.134094	8636.149368
465.505999	9655.894132
465.877845	10880.828982
466.249631	11527.505677
466.621358	11139.457818
466.993026	10510.702426
467.364634	10255.236913
467.736184	9894.882633
468.107674	9564.109844
468.479105	9586.205222
468.850477	9358.317342
469.221790	9123.875961
469.593043	8793.657699
469.964238	8660.742637
470.335373	8667.167587
470.706449	8729.294767
471.077467	8712.908497
471.448425	10023.212766
471.819324	11096.315624
472.190164	11121.934768
472.560945	9868.708963
472.931667	9077.646060
473.302330	8937.101211
473.672934	8587.971061
474.043479	8945.454403
474.413965	8888.161690
474.784393	8768.288092
475.154761	8922.716279
475.525070	9013.036112
475.895321	8841.069751
476.265513	9015.599538
476.635645	9183.505250
477.005719	9177.027367
477.375734	9291.789234
477.745691	9533.389053
478.115588	9666.467953
478.485427	9915.037167
478.855207	10455.068252
479.224928	11269.131419
479.594591	11892.399516
479.964194	11697.122860
480.333739	11639.222687
480.703226	11553.565922
481.072653	11652.617033
481.442022	11889.805842
481.811333	12072.280488
482.180584	11878.927032
482.549777	11584.581621
482.918912	11407.269117
483.287988	11424.991293
483.657005	11440.248345
484.025964	11127.240582
484.394864	11255.394275
484.763706	11225.744728
485.132489	10975.156532
485.501213	10939.167735
485.869879	11014.722028
486.238487	10852.001144
486.607036	10961.444594
486.975527	10742.966027
487.343959	10926.857237
487.712333	10974.032355
488.080648	10898.752805
488.448905	10941.158991
488.817104	10874.734227
489.185244	11138.789866
489.553326	11285.568101
489.921350	11818.672641
490.289315	12859.738966
490.657222	13205.310062
491.025070	13108.161986
491.392861	12975.138539
491.760593	12589.414652
492.128267	12243.861200
492.495883	11907.873338
492.863440	11575.298336
493.230939	11233.114895
493.598380	11160.938175
493.965763	11024.343070
494.333088	10911.159084
494.700354	10826.397123
495.067563	10879.906451
495.434713	10709.548218
495.801805	10818.573253
496.168839	10738.005532
496.535815	10662.423512
496.902733	10648.562860
497.269593	10571.130737
497.636395	10663.424181
498.003139	10634.608946
498.369825	10493.191978
498.736453	10628.773810
499.103023	10546.202231
499.469535	10558.825280
499.835989	10537.012208
500.202385	10480.397529
500.568723	10327.990846
500.935003	10521.692141
501.301226	10311.720522
501.667390	10549.569722
502.033497	10621.244847
502.399546	10472.354368
502.765537	10359.833294
503.131470	10415.797663
503.497345	10561.665970
503.863163	10167.735085
504.228923	10440.151477
504.594625	10472.170366
504.960269	10217.433301
505.325856	10402.917515
505.691385	10180.895018
506.056856	10297.363315
506.422270	10292.329723
506.787625	10158.839969
507.152924	10242.621426
507.518164	10198.332369
507.883347	10092.125339
508.248472	9986.981994
508.613540	10162.043623
508.978550	10025.070432
509.343503	9977.900355
509.708398	10043.677330
510.073236	10106.338873
510.438016	10077.591693
510.802738	9988.373352
511.167403	10000.449436
511.532010	9858.467859
511.896561	10028.548828
512.261053	10052.176716
512.625488	9896.929342
512.989866	9832.011883
513.354186	9780.781157
513.718449	9651.563781
514.082655	9766.728941
514.446803	9641.423500
514.810894	9688.608700
515.174927	9526.172641
515.538904	9506.849898
515.902822	9572.198376
516.266684	9438.766595
516.630488	9333.930760
516.994235	9331.778187
517.357925	9319.084562
517.721558	9337.628446
518.085133	9293.856107
518.448651	9246.880115
518.812112	9108.989434
519.175516	9055.187720
519.538863	9088.061084
519.902152	8973.977252
520.265385	9022.954582
520.628560	8909.102643
520.991678	8820.806833
521.354739	8814.054208
521.717743	8708.076551
522.080690	8639.095922
522.443580	8660.974530
522.806413	8566.591527
523.169189	8530.728759
523.531908	8508.464503
523.894569	8324.951379
524.257174	8259.307994
524.619722	8268.402236
524.982213	8185.460132
525.344647	8141.614696
525.707025	8054.062457
526.069345	8053.170172
526.431608	7922.309380
526.793815	7931.844723
527.155964	7731.975576
527.518057	7708.929941
527.880093	7616.568441
528.242072	7593.268228
528.603995	7463.496325
528.965860	7353.636980
529.327669	7321.464336
529.689421	7228.303813
530.051117	7148.913201
530.412755	7133.323433
530.774337	7025.195724
531.135862	6940.985770
531.497331	6900.104533
531.858743	6751.685402
532.220098	6775.169617
532.581396	6646.612632
532.942638	6590.701195
533.303824	6509.589029
533.664953	6446.395645
534.026025	6347.311767
534.387040	6331.497667
534.747999	6276.312156
535.108902	6233.984107
535.469748	6080.460808
535.830537	6062.680659
536.191270	5994.562067
536.551947	5943.989212
536.912567	5883.843205
537.273131	5808.417462
537.633638	5741.700311
537.994089	5675.746895
538.354483	5605.379949
538.714821	5606.282316
539.075103	5554.590324
539.435328	5482.249767
539.795497	5380.264704
540.155609	5367.989494
540.515665	5349.039797
540.875665	5214.080547
541.235609	5172.957334
541.595496	5132.885202
541.955328	5116.556905
542.315102	5035.994225
542.674821	4971.510306
543.034483	4922.512811
543.394090	4876.053537
543.753640	4809.364113
544.113134	4815.282427
544.472571	4738.682095
544.831953	4720.181060
545.191278	4626.236638
545.550548	4591.238427
545.909761	4579.699226
546.268918	4527.772821
546.628019	4504.288606
546.987064	4422.374897
547.346053	4373.609295
547.704986	4341.630736
548.063863	4301.024241
548.422684	4265.927728
548.781449	4203.513203
549.140158	4185.150800
549.498811	4122.690903
549.857408	4071.253490
550.215949	4054.065676
550.574434	3997.440916
550.932864	3973.613902
551.291237	3953.020788
551.649555	3906.564035
552.007817	3881.900190
552.366022	3843.632791
552.724173	3810.855209
553.082267	3775.494035
553.440305	3757.761777
553.798288	3707.037687
554.156215	3692.156200
554.514086	3662.468845
554.871902	3615.364304
555.229661	3591.136518
555.587365	3558.933628
555.945014	3526.433309
556.302606	3506.906399
556.660143	3475.235350
557.017625	3460.784883
557.375050	3427.205757
557.732421	3416.344591
558.089735	3380.486864
558.446994	3359.876106
558.804197	3338.063034
559.161345	3313.686534
559.518437	3284.478089
559.875474	3269.868825
560.232455	3249.532810
560.589381	3228.841394
560.946251	3202.808876
561.303065	3194.725386
561.659825	3167.311591
562.016528	3146.594969
562.373177	3122.737709
562.729770	3107.941922
563.086307	3090.751588
563.442789	3078.204156
563.799216	3056.002914
564.155587	3043.069834
564.511904	3023.910929
564.868164	3005.840913
565.224370	2999.557115
565.580520	2978.706902
565.936615	2971.283803
566.292654	2946.655246
566.648638	2943.738939
567.004567	2926.117585
567.360441	2915.700041
567.716260	2899.694378
568.072023	2896.899058
568.427732	2874.886859
568.783385	2867.254553
569.138982	2857.199971
569.494525	2850.280987
569.850013	2837.065603
570.205445	2832.331959
570.560823	2820.228149
570.916145	2809.891263
571.271412	2804.308185
571.626625	2796.993471
571.981782	2787.533746
572.336884	2781.007972
572.691931	2775.440017
573.046923	2765.382916
573.401860	2759.835126
573.756743	2754.259610
574.111570	2747.297776
574.466342	2744.290728
574.821059	2735.751013
575.175722	2730.472925
575.530330	2726.054354
575.884882	2716.980277
576.239380	2712.977601
576.593823	2709.473999
576.948211	2705.587269
577.302544	2700.883873
577.656823	2697.397915
578.011047	2693.927080
578.365216	2686.554393
578.719330	2685.294104
579.073389	2681.374607
579.427394	2677.503001
579.781344	2675.592404
580.135239	2672.759275
580.489080	2668.214675
580.842866	2665.031187
581.196597	2664.698470
581.550273	2663.995229
581.903895	2658.137409
582.257463	2662.911381
582.610975	2656.483910
582.964434	2656.630104
583.317837	2652.380411
583.671186	2650.908394
584.024481	2649.486789
584.377721	2647.366983
584.730906	2644.307003
585.084037	2644.533855
585.437113	2640.024543
585.790135	2641.514204
586.143103	2638.648308
586.496016	2637.819038
586.848874	2632.460292
587.201679	2635.200159
587.554428	2629.554066
587.907124	2631.936012
588.259765	2627.734210
588.612352	2630.711011
588.964884	2630.297637
589.317362	2627.393932
589.669786	2627.799745
590.022155	2628.888634
590.374470	2628.301340
590.726731	2625.942080
591.078937	2622.120885
591.431090	2621.732716
591.783188	2622.231790
592.135232	2621.604167
592.487222	2618.352622
592.839157	2623.247583
593.191038	2618.524022
593.542866	2616.741974
593.894639	2616.835235
594.246358	2617.838425
594.598022	2615.849690
594.949633	2612.971191
595.301190	2609.933896
595.652692	2612.693927
596.004141	2610.369955
596.355535	2612.076386
596.706876	2610.712754
597.058162	2610.165789
597.409395	2607.831734
597.760573	2609.288628
598.111698	2609.023967
598.462768	2606.798298
598.813785	2607.015067
599.164748	2604.885180
599.515657	2607.718308
599.866511	2609.172681
600.217312	2607.493977
600.568060	2606.621857
600.918753	2607.758638
601.269392	2605.406939
601.619978	2603.594645
601.970510	2605.787547
602.320988	2604.396188
602.671412	2601.374016
603.021783	2600.106166
603.372100	2603.266970
603.722363	2600.035590
604.072572	2600.645570
604.422728	2604.376023
604.772830	2600.970724
605.122878	2599.213882
605.472872	2597.784715
605.822813	2595.667430
606.172701	2598.729931
606.522534	2602.041969
606.872314	2601.830241
607.222041	2599.060127
607.571714	2601.865529
607.921333	2602.422576
608.270899	2601.878132
608.620411	2602.382247
608.969870	2600.418718
609.319276	2603.420725
609.668627	2604.784357
610.017926	2606.788216
610.367171	2608.179574
610.716362	2607.738473
611.065500	2604.829727
611.414585	2604.318050
611.763616	2605.419542
612.112594	2599.571804
612.461518	2601.358893
612.810389	2601.159767
613.159207	2600.532144
613.507971	2598.866042
613.856682	2601.668924
614.205340	2599.917123
614.553945	2600.864860
614.902496	2601.500045
615.250994	2602.868718
615.599439	2602.140272
615.947830	2601.613471
616.296169	2599.181114
616.644454	2599.075250
616.992686	2599.445775
617.340864	2600.824531
617.688990	2598.571135
618.037063	2600.816969
618.385082	2598.220775
618.733048	2601.273193
619.080961	2597.091556
619.428821	2599.849067
619.776628	2599.602051
620.124382	2599.581886
620.472083	2596.663058
620.819731	2597.814962
621.167326	2597.028542
621.514868	2596.995774
621.862357	2598.281268
622.209793	2593.913109
622.557176	2597.860332
622.904506	2594.719693
623.251783	2590.911102
623.599007	2592.264651
623.946179	2590.439754
624.293297	2590.543097
624.640363	2592.297419
624.987376	2593.058633
625.334336	2594.041658
625.681243	2593.552666
626.028097	2592.476380
626.374899	2591.813468
626.721647	2589.313056
627.068343	2591.621904
627.414987	2586.961357
627.761577	2589.696183
628.108115	2591.107707
628.454600	2590.611153
628.801032	2591.745412
629.147412	2592.730958
629.493739	2589.275247
629.840014	2587.866245
630.186236	2589.219794
630.532405	2587.823395
630.878521	2590.419589
631.224585	2588.350195
631.570597	2585.517067
631.916556	2588.133426
632.262462	2588.277099
632.608316	2589.618046
632.954117	2585.179310
633.299866	2589.781883
633.645562	2585.827098
633.991206	2586.086717
634.336797	2583.505647
634.682336	2585.958168
635.027823	2584.062694
635.373257	2582.623445
635.718639	2580.647312
636.063968	2584.433219
636.409245	2581.274936
636.754470	2579.376942
637.099642	2580.627148
637.444762	2584.178641
637.789829	2580.654874
638.134845	2580.707806
638.479808	2582.474731
638.824719	2582.489854
639.169577	2581.335430
639.514383	2578.940882
639.859137	2578.910635
640.203839	2582.721747
640.548489	2577.239492
640.893086	2575.351580
641.237632	2574.976014
641.582125	2575.565829
641.926566	2573.443503
642.270955	2580.354925
642.615292	2577.892322
642.959576	2579.064390
643.303809	2577.685634
643.647990	2579.560944
643.992118	2578.643454
644.336195	2578.015830
644.680219	2579.336612
645.024192	2577.794019
645.368112	2578.724112
645.711981	2579.634040
646.055797	2582.341140
646.399562	2579.230748
646.743274	2578.315779
647.086935	2580.828794
647.430544	2580.722930
647.774101	2578.746797
648.117606	2583.044381
648.461059	2584.070256
648.804460	2582.631006
649.147810	2580.949782
649.491108	2580.826273
649.834354	2580.556572
650.177548	2578.910635
650.520690	2578.978690
650.863781	2577.690676
651.206820	2581.973136
651.549807	2576.818556
651.892742	2578.845100
652.235626	2576.682445
652.578458	2577.907445
652.921238	2575.880901
653.263967	2577.778896
653.606644	2576.165727
653.949269	2576.112794
654.291843	2571.374110
654.634365	2575.802763
654.976836	2574.965932
655.319255	2576.213618
655.661622	2573.647670
656.003938	2576.755542
656.346203	2571.868143
656.688416	2572.876374
657.030577	2574.479461
657.372687	2573.209090
657.714746	2573.148596
658.056753	2573.466189
658.398708	2567.114335
658.740612	2571.686661
659.082465	2570.466702
659.424266	2571.537947
659.766016	2571.454768
660.107715	2573.070458
660.449362	2572.188256
660.790958	2574.640777
661.132503	2575.361662
661.473996	2574.481981
661.815438	2573.940057
662.156829	2574.204718
662.498168	2572.306723
662.839456	2574.829821
663.180693	2572.498287
663.521879	2574.164388
663.863013	2571.835375
664.204097	2574.023236
664.545129	2574.262691
664.886110	2575.192784
665.227040	2571.744635
665.567918	2576.629513
665.908746	2574.325705
666.249522	2575.782599
666.590248	2571.840417
666.930922	2574.605489
667.271545	2573.498956
667.612118	2574.318144
667.952639	2575.822928
668.293109	2574.280335
668.633528	2572.231106
668.973896	2575.192784
669.314213	2574.532393
669.654480	2573.456106
669.994695	2572.069789
670.334859	2574.741601
670.674973	2572.205900
671.015035	2577.186560
671.355047	2570.060889
671.695008	2576.198494
672.034918	2574.610531
672.374777	2574.487022
672.714585	2574.572722
673.054342	2574.605489
673.394049	2573.312433
673.733705	2575.913669
674.073310	2571.885787
674.412864	2575.487691
674.752368	2572.919223
675.091820	2573.567012
675.431223	2572.352094
675.770574	2572.278997
676.109875	2566.557287
676.449125	2571.119532
676.788324	2568.856053
677.127473	2570.267577
677.466571	2566.534602
677.805619	2572.044583
678.144616	2569.551733
678.483562	2570.610375
678.822458	2570.880077
679.161303	2571.875705
679.500098	2571.230437
679.838842	2569.173646
680.177535	2569.362689
680.516179	2573.004923
680.854771	2571.003585
681.193314	2573.554409
681.531805	2571.091805
681.870247	2574.529872
682.208638	2575.419636
682.546978	2576.924420
682.885268	2575.142372
683.223508	2573.448545
683.561697	2572.962073
683.899836	2575.754873
684.237925	2574.587845
684.575963	2572.778071
684.913951	2574.257650
685.251889	2573.143555
685.589776	2572.460478
685.927614	2571.737073
686.265401	2571.492577
686.603137	2573.675397
686.940824	2573.725808
687.278460	2573.677917
687.616046	2575.991807
687.953582	2577.592373
688.291068	2577.602455
688.628504	2573.824111
688.965889	2573.017526
689.303224	2574.867629
689.640510	2573.801425
689.977745	2572.520972
690.314930	2571.333781
690.652065	2571.790005
690.989150	2567.782288
691.326185	2569.513924
691.663170	2569.566856
692.000105	2567.845302
692.336990	2569.345045
692.673825	2567.804973
693.010610	2571.336301
693.347345	2563.658624
693.684030	2560.797769
694.020665	2560.351627
694.357251	2562.395815
694.693786	2562.879766
695.030272	2562.693243
695.366707	2563.310784
695.703093	2565.324725
696.039429	2563.109138
696.375716	2562.668037
696.711952	2562.814231
697.048139	2561.120403
697.384276	2564.200548
697.720363	2562.453788
698.056400	2561.279199
698.392388	2566.083419
698.728326	2560.724672
699.064214	2563.577965
699.400053	2559.774415
699.735842	2561.059909
700.071581	2562.804148
700.407270	2560.928839
700.742910	2561.586710
701.078501	2562.504200
701.414042	2562.907492
701.749533	2561.160732
702.084974	2560.144940
702.420366	2560.107131
702.755709	2559.119065
703.091002	2559.408931
703.426246	2556.734599
703.761440	2560.535629
704.096584	2558.572100
704.431679	2558.367933
704.766725	2555.018086
705.101721	2556.185113
705.436668	2560.712069
705.771565	2558.962789
706.106413	2556.424568
706.441212	2559.988664
706.775961	2559.890361
707.110661	2558.619991
707.445311	2559.285423
707.779913	2557.780638
708.114465	2561.800959
708.448967	2559.174517
708.783421	2562.607543
709.117825	2560.560835
709.452180	2563.149467
709.786485	2561.080074
710.120742	2562.574776
710.454949	2561.042265
710.789107	2562.191648
711.123216	2560.603685
711.457275	2559.459343
711.791286	2558.501523
712.125247	2563.187276
712.459159	2565.748182
712.793023	2567.767164
713.126837	2561.901782
713.460602	2563.172152
713.794318	2563.192317
714.127985	2561.627039
714.461602	2560.555794
714.795171	2564.528223
715.128691	2562.163922
715.462162	2560.603685
715.795584	2559.570248
716.128957	2559.567727
716.462281	2560.039075
716.795556	2557.006821
717.128782	2560.326421
717.461960	2559.149312
717.795088	2559.202244
718.128167	2556.820299
718.461198	2557.967161
718.794180	2560.079405
719.127113	2558.284754
719.459997	2558.080587
719.792833	2556.754764
720.125619	2558.204095
720.458357	2556.716955
720.791046	2556.424568
721.123686	2555.307952
721.456278	2556.497665
721.788821	2552.840308
722.121315	2557.049671
722.453761	2554.037582
722.786158	2554.082952
723.118506	2553.745195
723.450805	2554.962633
723.783056	2554.367777
724.115259	2554.158569
724.447412	2554.183775
724.779518	2554.919784
725.111574	2555.706204
725.443582	2553.815771
725.775542	2556.361554
726.107453	2556.394321
726.439315	2555.595298
726.771129	2559.396328
727.102895	2555.489434
727.434612	2557.422717
727.766281	2558.907336
728.097901	2553.256203
728.429473	2555.358364
728.760996	2553.528425
729.092471	2554.347613
729.423897	2555.645710
729.755276	2555.391132
730.086606	2559.799621
730.417887	2556.734599
730.749120	2558.569579
731.080305	2558.448591
731.411442	2560.215516
731.742530	2561.120403
732.073570	2559.809703
732.404562	2562.761298
732.735506	2560.013870
733.066401	2557.039589
733.397249	2560.848181
733.728048	2555.582695
734.058798	2560.583520
734.389501	2556.996739
734.720156	2555.333158
735.050762	2554.892057
735.381320	2555.370967
735.711831	2552.227807
736.042293	2552.230328
736.372707	2556.311142
736.703073	2555.008004
737.033391	2554.430792
737.363661	2554.304763
737.693883	2554.957592
738.024056	2557.117727
738.354182	2552.744526
738.684260	2555.176882
739.014290	2551.539690
739.344272	2554.725699
739.674207	2555.325597
740.004093	2555.428940
740.333931	2554.052705
740.663722	2557.798283
740.993464	2555.749053
741.323159	2554.755946
741.652806	2558.884651
741.982405	2554.355174
742.311956	2553.803168
742.641460	2554.108158
742.970915	2554.433312
743.300323	2553.248641
743.629683	2554.103117
743.958996	2552.742005
744.288260	2551.925338
744.617477	2552.724361
744.946647	2549.931562
745.275768	2548.666232
745.604842	2546.385110
745.933869	2548.991387
746.262847	2547.368135
746.591778	2548.993907
746.920662	2551.496840
747.249498	2551.063301
747.578286	2550.599515
747.907027	2553.533466
748.235720	2550.554144
748.564365	2554.592109
748.892963	2551.784186
749.221514	2549.833259
749.550017	2554.327448
749.878473	2550.997766
750.206881	2551.028013
750.535242	2549.674463
750.863555	2550.738147
751.191821	2551.824515
751.520039	2549.913918
751.848210	2554.208981
752.176334	2550.579350
752.504411	2549.979453
752.832440	2551.194371
753.160421	2551.209494
753.488356	2549.334185
753.816243	2550.786037
754.144082	2548.983825
754.471875	2552.462221
754.799620	2550.176058
755.127318	2548.706562
755.454969	2548.711603
755.782572	2550.496171
756.110129	2549.820657
756.437638	2547.925183
756.765100	2546.601880
757.092515	2547.441232
757.419882	2549.074566
757.747203	2549.704710
758.074477	2549.394679
758.401703	2550.723023
758.728882	2550.533980
759.056014	2549.465255
759.383099	2551.307797
759.710138	2553.747715
760.037129	2549.029195
760.364073	2551.428785
760.690970	2549.724875
761.017820	2553.954403
761.344623	2552.857952
761.671379	2551.154042
761.998088	2548.651109
762.324751	2553.167983
762.651366	2556.732078
762.977935	2566.282544
763.304456	2571.422001
763.630931	2576.024574
763.957359	2570.007957
764.283740	2564.636608
764.610074	2560.124775
764.936362	2558.675443
765.262602	2556.245607
765.588796	2558.083108
765.914943	2550.992725
766.241044	2552.537838
766.567097	2553.167983
766.893104	2550.614638
767.219064	2550.171017
767.544978	2549.971891
767.870845	2547.239586
768.196665	2548.963660
768.522438	2545.376879
768.848165	2543.904862
769.173846	2544.235058
769.499479	2545.336550
769.825066	2543.909904
770.150607	2546.606921
770.476101	2547.395862
770.801548	2545.485264
771.126949	2547.612631
771.452303	2546.160779
771.777611	2546.140614
772.102872	2542.531148
772.428087	2543.577188
772.753256	2543.393185
773.078378	2542.778165
773.403453	2543.657846
773.728482	2546.357384
774.053465	2544.325799
774.378401	2542.246323
774.703291	2542.405119
775.028135	2545.029040
775.352932	2540.028215
775.677683	2541.006199
776.002388	2542.916796
776.327046	2542.319420
776.651658	2543.252033
776.976224	2542.979811
777.300743	2539.826569
777.625216	2541.948895
777.949643	2542.372352
778.274024	2542.634492
778.598359	2537.172402
778.922647	2538.604089
779.246889	2541.270860
779.571086	2541.031405
779.895236	2540.549975
780.219339	2542.435366
780.543397	2543.665408
780.867409	2542.561395
781.191374	2539.052752
781.515294	2541.124666
781.839167	2539.536703
782.162995	2541.691796
782.486776	2541.200283
782.810511	2541.081816
783.134201	2542.420243
783.457844	2540.618030
783.781441	2544.600542
784.104993	2541.596014
784.428498	2541.782537
784.751958	2540.592824
785.075372	2542.982331
785.398739	2542.339584
785.722061	2541.701878
786.045337	2540.436549
786.368568	2542.856303
786.691752	2543.657846
787.014891	2543.196580
787.337983	2541.961498
787.661030	2545.754966
787.984031	2546.528783
788.306987	2543.302445
788.629897	2545.908721
788.952760	2544.466951
789.275579	2545.276056
789.598351	2543.408309
789.921078	2544.862682
790.243759	2541.696837
790.566395	2543.506611
790.888984	2543.620037
791.211529	2542.568957
791.534027	2541.094419
791.856480	2540.741538
792.178888	2541.452341
792.501249	2540.497043
792.823566	2542.949564
793.145836	2541.089378
793.468062	2538.858668
793.790241	2542.647095
794.112375	2542.427804
794.434464	2539.196425
794.756507	2541.769934
795.078505	2544.789585
795.400457	2541.911086
795.722364	2539.887063
796.044226	2541.164995
796.366042	2538.929244
796.687812	2541.875798
797.009538	2541.500232
797.331218	2543.957795
797.652852	2542.432846
797.974442	2543.047866
798.295986	2544.093906
798.617484	2542.528627
798.938938	2540.549975
799.260346	2541.369162
799.581709	2542.316899
799.903026	2542.546272
800.224299	2542.571477
800.545526	2540.474357
800.866708	2541.311189
801.187845	2542.911755
801.508936	2541.507794
801.829983	2542.339584
802.150984	2539.660211
802.471940	2541.853113
802.792851	2539.861857
803.113717	2541.855633
803.434538	2538.102494
803.755314	2541.676673
804.076045	2539.428318
804.396731	2540.401261
804.717372	2541.288504
805.037967	2541.890922
805.358518	2537.989068
805.679024	2540.131559
805.999485	2539.882022
806.319901	2541.475026
806.640272	2539.445962
806.960598	2540.902855
807.280879	2541.464944
807.601115	2540.466796
807.921306	2541.991745
808.241453	2539.745911
808.561554	2540.418905
808.881611	2544.134235
809.201623	2539.587114
809.521590	2539.216589
809.841513	2537.885725
810.161390	2539.917310
810.481223	2541.376724
810.801011	2539.561908
811.120755	2541.611137
811.440453	2541.154913
811.760107	2540.045859
812.079716	2536.443955
812.399281	2535.975128
812.718801	2535.960004
813.038276	2533.741896
813.357707	2541.590973
813.677093	2538.266332
813.996434	2541.449821
814.315731	2540.998637
814.634983	2539.831610
814.954191	2540.101312
815.273354	2539.178781
815.592473	2540.819676
815.911547	2539.259439
816.230577	2539.307330
816.549562	2541.666590
816.868502	2541.006199
817.187399	2540.839841
817.506250	2541.444779
817.825058	2545.200439
818.143821	2540.912938
818.462539	2542.339584
818.781213	2545.691952
819.099843	2546.206149
819.418429	2542.770603
819.736970	2550.372663
820.055466	2551.373332
820.373919	2552.326110
820.692327	2558.514126
821.010691	2562.650393
821.329011	2582.278126
821.647286	2615.857251
821.965517	2655.954589
822.283704	2671.846827
822.601847	2678.788495
822.919945	2662.984478
823.237999	2641.027732
823.556010	2620.754732
823.873976	2604.691096
824.191897	2592.615012
824.509775	2583.183013
824.827609	2576.100192
825.145398	2569.957546
825.463144	2570.350756
825.780845	2569.478636
826.098502	2573.695561
826.416116	2580.140676
826.733685	2593.262800
827.051210	2596.219437
827.368692	2594.185331
827.686129	2584.655030
828.003522	2571.734552
828.320872	2558.640155
828.638177	2558.133519
828.955439	2552.489948
829.272656	2548.416695
829.589830	2544.177085
829.906960	2546.929555
830.224046	2544.842517
830.541088	2543.761190
830.858086	2542.594163
831.175041	2541.066693
831.491952	2543.408309
831.808819	2545.986859
832.125642	2545.865871
832.442421	2543.183977
832.759157	2550.039947
833.075849	2558.786349
833.392497	2563.497307
833.709101	2569.098029
834.025662	2568.780436
834.342179	2566.113666
834.658653	2557.400031
834.975083	2555.582695
835.291469	2556.595967
835.607811	2548.247817
835.924110	2545.462579
836.240366	2541.079296
836.556578	2541.228010
836.872746	2541.311189
837.188871	2541.401930
837.504952	2539.569470
837.820990	2538.079809
838.136984	2534.193080
838.452935	2537.429500
838.768842	2537.575694
839.084706	2541.659028
839.400526	2541.364121
839.716303	2547.511808
840.032037	2551.322920
840.347727	2552.983981
840.663373	2548.184802
840.978977	2547.947868
841.294537	2542.132897
841.610054	2540.396219
841.925527	2535.534027
842.240957	2536.063348
842.556344	2538.450334
842.871687	2536.166691
843.186987	2537.560570
843.502244	2533.762061
843.817458	2535.733152
844.132629	2535.821372
844.447756	2537.202648
844.762840	2532.821886
845.077881	2535.125693
845.392879	2528.645290
845.707833	2534.772812
846.022745	2532.494211
846.337613	2533.555374
846.652438	2533.779705
846.967221	2534.127545
847.281960	2535.034952
847.596656	2536.328008
847.911309	2534.457740
848.225919	2532.884900
848.540485	2534.253573
848.855009	2535.108049
849.169490	2535.392874
849.483928	2533.326001
849.798323	2536.141486
850.112675	2533.205013
850.426984	2533.346166
850.741251	2532.519417
851.055474	2535.080323
851.369654	2533.217616
851.683792	2533.842719
851.997887	2533.527647
852.311938	2532.698378
852.625947	2534.863553
852.939914	2533.099149
853.253837	2535.710467
853.567718	2533.910775
853.881555	2535.831455
854.195350	2533.968748
854.509103	2534.578728
854.822812	2534.336752
855.136479	2532.869777
855.450103	2531.493542
855.763685	2534.677030
856.077224	2531.513706
856.390720	2534.409849
856.704173	2534.283820
857.017584	2534.460261
857.330953	2532.025383
857.644278	2538.122659
857.957561	2535.518903
858.270802	2537.391692
858.584000	2533.409180
858.897155	2535.171063
859.210268	2531.647297
859.523339	2534.689633
859.836367	2532.146371
860.149352	2535.642411
860.462295	2537.086702
860.775195	2531.037317
861.088054	2530.495393
861.400869	2534.175436
861.713642	2527.914323
862.026373	2532.746268
862.339062	2533.089067
862.651708	2534.699716
862.964312	2533.179808
863.276873	2535.445806
863.589392	2533.089067
863.901869	2533.782226
864.214303	2533.951104
864.526696	2532.975641
864.839045	2536.602751
865.151353	2532.476567
865.463619	2533.225178
865.775842	2534.319108
866.088023	2536.650642
866.400162	2534.167874
866.712258	2534.072092
867.024313	2534.185518
867.336325	2536.640560
867.648296	2535.755837
867.960224	2533.966228
868.272110	2534.926567
868.583954	2536.610313
868.895755	2536.544778
869.207515	2533.746938
869.519233	2536.088553
869.830909	2536.456558
870.142542	2534.815662
870.454134	2533.767102
870.765684	2535.919675
871.077191	2534.301464
871.388657	2535.491177
871.700081	2534.326670
872.011463	2538.410005
872.322803	2535.400436
872.634101	2535.181146
872.945357	2535.579397
873.256571	2537.626105
873.567744	2536.436393
873.878874	2539.445962
874.189963	2539.115766
874.501010	2535.639891
874.812015	2537.437062
875.122979	2538.241126
875.433900	2536.106197
875.744780	2537.694161
876.055618	2537.379089
876.366415	2536.287679
876.677169	2538.601569
876.987882	2537.414377
877.298554	2535.662576
877.609183	2536.484284
877.919771	2537.535365
878.230317	2536.698533
878.540822	2542.979811
878.851285	2543.458720
879.161707	2544.179605
879.472087	2546.712785
879.782425	2547.655481
880.092722	2557.248797
880.402977	2566.980744
880.713191	2582.905749
881.023363	2603.153544
881.333494	2618.123250
881.643583	2619.859927
881.953631	2616.502519
882.263637	2613.714761
882.573602	2606.851230
882.883526	2598.477873
883.193408	2589.756677
883.503248	2581.141345
883.813048	2573.241857
884.122806	2566.295147
884.432522	2562.337842
884.742197	2558.824157
885.051831	2552.101779
885.361424	2549.566078
885.670975	2547.103475
885.980485	2544.426622
886.289954	2544.973587
886.599382	2542.528628
886.908768	2543.395706
887.218113	2540.562577
887.527417	2541.601055
887.836680	2539.889583
888.145901	2540.413863
888.455082	2538.823379
888.764221	2537.933616
889.073319	2537.956301
889.382376	2536.423790
889.691392	2537.018646
890.000366	2538.470499
890.309300	2535.947401
890.618193	2538.064686
890.927044	2539.304810
891.235855	2540.701209
891.544625	2539.970242
891.853353	2539.297248
892.162041	2538.651980
892.470687	2542.324461
892.779293	2540.829759
893.087858	2539.819007
893.396381	2543.466282
893.704864	2544.671118
894.013306	2546.856458
894.321707	2558.541853
894.630068	2561.695094
894.938387	2566.857236
895.246665	2568.977041
895.554903	2560.351627
895.863100	2556.290978
896.171256	2553.137736
896.479371	2548.467107
896.787446	2549.820657
897.095480	2544.892929
897.403473	2544.933258
897.711425	2540.300438
898.019336	2540.227341
898.327207	2542.132897
898.635038	2541.727084
898.942827	2538.571322
899.250576	2538.861188
899.558284	2538.765406
899.865952	2539.256919
900.173579	2536.817000
900.481165	2536.204500
900.788711	2537.258101
901.096216	2537.628626
901.403681	2537.091743
901.711105	2538.636857
902.018489	2538.538554
902.325832	2539.282124
902.633135	2537.626105
902.940397	2536.345652
903.247619	2540.668442
903.554800	2549.535831
903.861941	2559.653427
904.169041	2568.256156
904.476101	2572.236147
904.783121	2575.407033
905.090100	2568.344376
905.397039	2563.220043
905.703938	2552.308466
906.010796	2554.035061
906.317614	2545.427291
906.624391	2542.571477
906.931129	2541.172557
907.237826	2539.768596
907.544483	2538.132741
907.851099	2539.713143
908.157675	2535.604603
908.464211	2534.997144
908.770707	2530.439941
909.077163	2531.574200
909.383578	2528.816689
909.689954	2533.154602
909.996289	2530.054292
910.302584	2535.899510
910.608839	2534.982020
910.915054	2533.348686
911.221229	2533.174767
911.527363	2532.398429
911.833458	2537.114428
912.139513	2535.808769
912.445527	2535.352545
912.751502	2535.571835
913.057436	2534.316588
913.363331	2535.113090
913.669186	2536.927906
913.975000	2535.213913
914.280775	2540.139121
914.586510	2542.589121
914.892205	2548.520039
915.197859	2552.139587
915.503475	2557.127809
915.809050	2567.074006
916.114585	2571.527865
916.420081	2574.227403
916.725536	2572.644481
917.030952	2567.636094
917.336328	2561.246432
917.641665	2558.514126
917.946961	2553.941800
918.252218	2550.942313
918.557435	2548.530121
918.862612	2546.581715
919.167750	2546.175902
919.472848	2542.924358
919.777906	2541.588452
920.082925	2539.075437
920.387904	2535.629808
920.692843	2536.401105
920.997743	2536.582587
921.302603	2537.394212
921.607423	2534.694674
921.912204	2536.217103
922.216946	2533.794828
922.521647	2535.052596
922.826310	2536.239788
923.130932	2536.436393
923.435516	2532.635363
923.740059	2533.073943
924.044564	2533.376413
924.349028	2532.957997
924.653454	2526.684281
924.957840	2529.464477
925.262186	2530.697039
925.566493	2529.086391
925.870761	2527.228726
926.174989	2533.134437
926.479178	2534.649304
926.783328	2530.248377
927.087438	2531.864067
927.391509	2528.531864
927.695541	2530.581093
927.999533	2526.822913
928.303486	2530.772657
928.607400	2529.260311
928.911275	2529.262831
929.215110	2530.891124
929.518906	2534.679551
929.822663	2531.364992
930.126381	2530.576052
930.430060	2528.738551
930.733699	2528.541946
931.037299	2532.912627
931.340861	2528.095804
931.644383	2532.862215
931.947866	2528.247039
932.251309	2530.933974
932.554714	2529.129241
932.858080	2532.894982
933.161407	2529.693850
933.464694	2527.130423
933.767943	2531.748120
934.071153	2529.769467
934.374323	2530.215609
934.677455	2530.296268
934.980548	2528.151257
935.283602	2528.879703
935.586617	2530.276103
935.889593	2530.818027
936.192530	2530.255938
936.495428	2528.486493
936.798287	2527.294261
937.101108	2528.282327
937.403890	2528.778880
937.706632	2530.913809
938.009336	2530.969262
938.312002	2532.060672
938.614628	2531.548994
938.917216	2533.583100
939.219765	2530.379447
939.522275	2532.206865
939.824747	2534.571166
940.127179	2528.897348
940.429573	2529.875331
940.731929	2527.947090
941.034246	2530.024045
941.336524	2533.779705
941.638763	2533.114273
941.940964	2532.327853
942.243126	2531.788449
942.545250	2528.350382
942.847335	2529.782070
943.149381	2530.936494
943.451389	2531.601927
943.753359	2530.555887
944.055290	2529.953469
944.357182	2531.833820
944.659036	2529.691329
944.960851	2530.850795
945.262628	2530.427338
945.564367	2532.859694
945.866067	2529.124199
946.167729	2531.206196
946.469352	2529.761905
946.770937	2531.823737
947.072484	2531.301978
947.373992	2527.332069
947.675462	2530.122348
947.976893	2533.676361
948.278286	2530.533202
948.579641	2532.080836
948.880958	2526.933818
949.182236	2528.400794
949.483476	2530.205527
949.784678	2527.942049
950.085841	2528.032790
950.386967	2533.434386
950.688054	2528.965403
950.989103	2530.865918
951.290114	2529.386339
951.591087	2529.162008
951.892021	2530.225692
952.192917	2531.589324
952.493776	2529.381298
952.794596	2531.634694
953.095378	2528.902389
953.396122	2533.333563
953.696828	2530.684437
953.997496	2531.884231
954.298126	2529.577903
954.598718	2530.956659
954.899272	2531.072605
955.199788	2526.966586
955.500266	2529.204858
955.800706	2523.924249
956.101108	2526.212933
956.401472	2524.388035
956.701798	2524.292253
957.002087	2526.391894
957.302337	2529.232584
957.602550	2526.338962
957.902724	2527.150588
958.202861	2527.321987
958.502960	2529.368695
958.803022	2525.381143
959.103045	2526.376771
959.403031	2530.283665
959.702979	2527.422810
960.002889	2528.426000
960.302762	2528.499096
960.602596	2527.642100
960.902393	2527.563962
961.202153	2525.930628
961.501875	2527.397604
961.801559	2526.525485
962.101205	2527.662265
962.400814	2526.948942
962.700385	2528.433561
962.999918	2528.504137
963.299414	2527.427851
963.598873	2526.875845
963.898293	2527.392563
964.197677	2527.150588
964.497022	2529.688809
964.796331	2528.199148
965.095601	2528.153777
965.394835	2526.918695
965.694030	2527.198479
965.993189	2528.277286
966.292309	2527.014477
966.591393	2529.219981
966.890439	2526.510361
967.189447	2528.216792
967.488419	2525.713859
967.787353	2528.115969
968.086249	2524.758560
968.385108	2527.019518
968.683930	2525.514733
968.982714	2526.379291
969.281462	2527.102697
969.580172	2529.535053
969.878844	2525.285361
970.177480	2523.939373
970.476078	2528.736031
970.774639	2528.214271
971.073162	2526.722090
971.371649	2525.487007
971.670098	2523.848632
971.968510	2525.282840
972.266885	2521.633045
972.565223	2528.231915
972.863524	2526.545649
973.161788	2527.458098
973.460014	2529.764426
973.758204	2525.363499
974.056356	2525.444157
974.354471	2526.316277
974.652550	2525.673530
974.950591	2526.031452
975.248595	2528.415917
975.546563	2525.197141
975.844493	2526.457429
976.142386	2525.897861
976.440243	2527.266534
976.738062	2528.267203
977.035845	2527.042203
977.333590	2527.357275
977.631299	2525.814682
977.928971	2527.964734
978.226606	2525.512213
978.524204	2529.572862
978.821765	2527.415248
979.119290	2526.880886
979.416777	2528.030269
979.714228	2526.659075
980.011642	2526.732172
980.309020	2529.769467
980.606360	2526.855680
980.903664	2526.969106
981.200931	2525.706297
981.498162	2526.966586
981.795356	2528.378109
982.092513	2528.574714
982.389633	2524.380474
982.686717	2532.022863
982.983764	2527.243849
983.280775	2526.757378
983.577749	2528.027748
983.874686	2529.398942
984.171587	2526.104548
984.468451	2529.862728
984.765279	2528.683098
985.062070	2528.000022
985.358824	2526.712007
985.655543	2525.010618
985.952224	2523.455422
986.248869	2525.487007
986.545478	2523.468025
986.842050	2523.536080
987.138586	2523.092459
987.435086	2524.130937
987.731549	2519.160359
988.027975	2525.900382
988.324366	2529.799714
988.620719	2526.091945
988.917037	2527.417769
989.213318	2525.366019
989.509563	2526.787625
989.805772	2523.946934
990.101944	2525.035824
990.398080	2525.676050
990.694180	2526.185207
990.990244	2527.044723
991.286271	2524.161183
991.582262	2524.932480
991.878217	2525.487007
992.174136	2525.182017
992.470019	2524.410721
992.765865	2527.735362
993.061676	2525.068591
993.357450	2525.920546
993.653188	2525.829805
993.948890	2527.334590
994.244556	2527.483304
994.540186	2527.347193
994.835780	2526.059178
995.131337	2525.537418
995.426859	2525.915505
995.722345	2526.003725
996.017795	2524.377953
996.313208	2525.766791
996.608586	2524.088087
996.903928	2528.362985
997.199234	2524.932480
997.494504	2524.965247
997.789738	2523.810823
998.084936	2525.353416
998.380099	2526.989271
998.675225	2526.039013
998.970316	2525.131606
999.265371	2524.564476
999.560390	2524.294774
999.855373	2523.442819
1000.150320	2527.200999
1000.445232	2525.741585
1000.740108	2529.640918
1001.034948	2525.320649
1001.329752	2524.120854
1001.624521	2526.641431
1001.919254	2518.741943
1002.213951	2522.860566
1002.508613	2521.756553
1002.803239	2524.062881
1003.097829	2523.979702
1003.392384	2526.175124
1003.686903	2525.550021
1003.981386	2526.409538
1004.275834	2527.155629
1004.570246	2524.819054
1004.864623	2523.533560
1005.158964	2524.851822
1005.453270	2522.684125
1005.747540	2525.789476
1006.041775	2524.907274
1006.335974	2524.690505
1006.630138	2523.596574
1006.924266	2524.861904
1007.218359	2525.126564
1007.512416	2525.154291
1007.806438	2523.140350
1008.100425	2524.070443
1008.394376	2526.273427
1008.688292	2523.868797
1008.982172	2524.372912
1009.276017	2526.114631
1009.569827	2524.095648
1009.863602	2522.691687
1010.157341	2522.779907
1010.451045	2526.112110
1010.744714	2525.000536
1011.038347	2524.231760
1011.331945	2523.160514
1011.625508	2526.041534
1011.919036	2522.787469
1012.212528	2526.391894
1012.505986	2520.229083
1012.799408	2525.028262
1013.092795	2521.892664
1013.386147	2525.668488
1013.679464	2524.899713
1013.972745	2523.838550
1014.265992	2524.405679
1014.559204	2524.909795
1014.852380	2524.035155
1015.145521	2525.655886
1015.438628	2525.466842
1015.731699	2528.398273
1016.024736	2523.304187
1016.317737	2524.531708
1016.610703	2525.726462
1016.903635	2522.613549
1017.196531	2521.469207
1017.489393	2524.191430
1017.782219	2520.297139
1018.075011	2524.430885
1018.367768	2522.842922
1018.660490	2525.184538
1018.953177	2525.184538
1019.245829	2525.184538
