Dividing Wavelength (nm)	Counts (n)	Blue Motor Position (mm): 0.000000	Red Motor Position (mm): 45.800000	
326.493990	2127.646707
326.888308	2127.646707
327.282561	2127.646707
327.676750	2093.981882
328.070874	2093.936511
328.464933	2096.613364
328.858929	2104.351535
329.252859	2111.464603
329.646726	2124.405245
330.040528	2137.149282
330.434265	2155.859525
330.827938	2171.482060
331.221547	2190.409073
331.615091	2209.686445
332.008571	2227.436348
332.401986	2247.159862
332.795338	2264.665269
333.188625	2285.903650
333.581847	2305.707823
333.975006	2323.800524
334.368100	2341.754593
334.761129	2358.788652
335.154095	2374.446476
335.546996	2397.345917
335.939833	2420.492375
336.332606	2438.002823
336.725315	2450.603187
337.117960	2459.916719
337.510540	2467.090281
337.903056	2479.708289
338.295508	2486.201295
338.687896	2493.798314
339.080220	2500.707215
339.472480	2510.411436
339.864676	2511.850686
340.256807	2516.072652
340.648875	2522.565658
341.040879	2522.767304
341.432818	2526.616225
341.824694	2526.737213
342.216506	2526.192768
342.608253	2525.277799
342.999937	2529.293078
343.391557	2529.189734
343.783113	2527.889117
344.174605	2523.800741
344.566033	2523.349558
344.957397	2522.525329
345.348697	2520.831501
345.739934	2517.635410
346.131106	2515.545852
346.522215	2513.662981
346.913260	2515.152642
347.304241	2513.655419
347.695159	2509.967815
348.086012	2507.699296
348.476802	2506.038235
348.867528	2504.319202
349.258191	2501.183604
349.648789	2505.985303
350.039324	2499.850219
350.429796	2501.765857
350.820203	2498.383243
351.210548	2496.195383
351.600828	2498.501710
351.991045	2497.667399
352.381198	2497.407780
352.771288	2496.981803
353.161314	2496.815444
353.551276	2495.144302
353.941175	2495.240084
354.331010	2493.916781
354.720782	2493.447954
355.110490	2497.075064
355.500135	2494.723366
355.889717	2495.386277
356.279235	2494.282265
356.668689	2500.379540
357.058080	2497.110352
357.447408	2497.490959
357.836672	2493.790752
358.225873	2495.993736
358.615010	2492.066677
359.004084	2502.890035
359.393095	2497.503562
359.782043	2500.140085
360.170927	2499.542709
360.559748	2503.789881
360.948505	2501.649911
361.337199	2504.286434
361.725830	2504.092350
362.114398	2506.184429
362.502903	2505.249295
362.891344	2507.384223
363.279722	2505.410612
363.668037	2505.851713
364.056289	2508.745335
364.444478	2506.948164
364.832603	2508.846158
365.220665	2508.074862
365.608665	2510.424039
365.996601	2511.364214
366.384474	2511.593587
366.772284	2512.044770
367.160031	2514.099040
367.547715	2514.804802
367.935336	2517.181706
368.322893	2522.308559
368.710388	2523.263858
369.097820	2528.678057
369.485189	2532.915147
369.872495	2540.862526
370.259738	2546.811088
370.646918	2556.094372
371.034035	2563.895558
371.421090	2572.979717
371.808081	2581.930286
372.195010	2592.935125
372.581875	2605.888370
372.968678	2618.622324
373.355418	2627.328397
373.742096	2643.752476
374.128710	2663.360044
374.515262	2677.787826
374.901751	2691.613191
375.288177	2703.926209
375.674540	2724.826833
376.060841	2744.167220
376.447079	2763.963831
376.833254	2784.352777
377.219367	2795.798717
377.605417	2833.927484
377.991404	2845.756552
378.377329	2866.929398
378.763191	2884.381873
379.148991	2920.511822
379.534727	2945.440328
379.920402	2976.004844
380.306013	2983.233858
380.691563	3034.046169
381.077049	3056.375960
381.462474	3073.820872
381.847835	3115.178499
382.233134	3135.829585
382.618371	3137.087353
383.003545	3204.532951
383.388657	3213.286914
383.773706	3243.639702
384.158693	3258.380035
384.543618	3286.791978
384.928480	3320.030826
385.313280	3368.231819
385.698017	3368.821634
386.082692	3420.107813
386.467305	3428.319852
386.851856	3455.388328
387.236344	3477.697954
387.620770	3511.844210
388.005133	3539.031152
388.389435	3565.834967
388.773674	3576.693613
389.157851	3617.625261
389.541965	3634.142602
389.926018	3599.058692
390.310008	3668.855987
390.693936	3689.040767
391.077802	3730.821850
391.461606	3715.254767
391.845348	3786.128349
392.229027	3781.235909
392.612645	3794.267292
392.996200	3872.427862
393.379694	3911.040580
393.763125	3978.851661
394.146494	3942.061320
394.529801	4005.988192
394.913047	4055.812436
395.296230	4017.698792
395.679351	4073.615271
396.062410	4098.626956
396.445408	4076.645004
396.828343	4112.046507
397.211217	4140.208913
397.594028	4056.336716
397.976778	4125.201398
398.359466	4149.472033
398.742092	4178.438503
399.124656	4101.195423
399.507158	4181.458154
399.889598	4206.399263
400.271977	4265.320269
400.654294	4238.902103
401.036549	4248.036673
401.418742	4213.935788
401.800874	4321.146007
402.182944	4341.146785
402.564952	4406.452412
402.946898	4390.156882
403.328783	4387.812746
403.710606	4300.426865
404.092367	4495.025485
404.474067	4456.349753
404.855705	4467.273933
405.237282	4397.552255
405.618797	4505.231301
406.000250	4541.094070
406.381642	4618.072489
406.762972	4578.625460
407.144240	4594.311010
407.525447	4593.000310
407.906593	4655.218231
408.287677	4692.666442
408.668700	4622.390237
409.049661	4674.445192
409.430560	4715.911203
409.811399	4639.242815
410.192176	4802.881189
410.572891	4742.243670
410.953545	4849.332901
411.334138	4723.760279
411.714669	4794.046567
412.095139	4687.174105
412.475547	4831.978729
412.855894	4811.567097
413.236180	4819.393488
413.616405	4771.585706
413.996568	4860.642730
414.376670	4803.471004
414.756711	4758.556844
415.136691	4789.403664
415.516609	4861.903018
415.896466	4904.435233
416.276262	4939.824133
416.655997	4919.760341
417.035670	5103.321355
417.415283	5191.143297
417.794834	5136.083814
418.174324	5091.116722
418.553753	4998.296477
418.933121	5184.103325
419.312428	5246.535495
419.691674	5186.762534
420.070859	5313.093849
420.449983	5223.063883
420.829045	5341.430175
421.208047	5247.107666
421.586988	5317.328418
421.965867	5329.830480
422.344686	5461.671777
422.723444	5320.148944
423.102141	5138.329648
423.480777	5435.112457
423.859352	5199.481365
424.237866	5461.765038
424.616319	5451.793636
424.994712	5561.839503
425.373044	5436.851656
425.751314	5580.751392
426.129524	5381.827461
426.507673	5581.696608
426.885762	5666.939999
427.263789	5593.697075
427.641756	5475.555114
428.019662	5597.336788
428.397508	5604.903560
428.775292	5550.789294
429.153016	5651.662783
429.530679	5583.342545
429.908282	5664.295914
430.285824	5536.215318
430.663305	5807.104241
431.040726	5544.167739
431.418086	5541.324528
431.795385	5649.089274
432.172624	5660.991438
432.549802	5658.493546
432.926920	5665.455380
433.303977	5678.098593
433.680974	5711.188727
434.057910	5731.978446
434.434786	5739.885496
434.811601	5704.995670
435.188355	5942.401248
435.565050	5812.314273
435.941683	5796.202746
436.318257	6011.797772
436.694770	5996.155072
437.071222	6024.224217
437.447614	5959.846161
437.823946	5875.948758
438.200218	6028.937695
438.576429	5894.510287
438.952580	5988.553012
439.328670	6033.885588
439.704700	5946.194717
440.080670	5928.578405
440.456580	6199.222831
440.832429	6085.078505
441.208218	5929.654691
441.583947	6087.281489
441.959616	6094.084527
442.335224	6018.527713
442.710773	6154.409494
443.086261	6183.275141
443.461689	5977.704449
443.837057	6125.513600
444.212365	6281.360871
444.587612	6173.795251
444.962800	6327.590773
445.337927	6308.842722
445.712995	5913.709521
446.088002	6496.182081
446.462949	6325.644887
446.837837	6255.817345
447.212664	6423.861688
447.587431	6569.246044
447.962139	7109.945082
448.336786	8036.244498
448.711374	7782.460211
449.085901	6850.797007
449.460369	6772.807836
449.834776	6707.187137
450.209124	7099.887980
450.583412	7249.378356
450.957640	7396.209524
451.331808	7163.018350
451.705917	6713.697787
452.079965	6636.351363
452.453954	6850.544949
452.827883	6724.223716
453.201752	6821.006308
453.575562	6619.486183
453.949311	6822.594272
454.323001	6710.965482
454.696632	6786.960876
455.070202	6924.710405
455.443713	7083.320228
455.817164	7175.918662
456.190556	7261.867815
456.563888	7335.730801
456.937160	7384.549335
457.310373	7036.273660
457.683526	7061.912968
458.056619	6949.931297
458.429653	6941.298321
458.802628	6874.263578
459.175542	6984.006977
459.548398	7338.599218
459.921194	7503.195411
460.293930	7500.677355
460.666607	8033.550002
461.039224	8341.400664
461.411782	8469.866908
461.784280	8485.827201
462.156719	8381.651757
462.529099	8257.614167
462.901419	7843.831218
463.273680	7734.962459
463.645882	7747.789675
464.018024	7617.064994
464.390106	7779.155735
464.762130	8170.838265
465.134094	8633.366651
465.505999	9666.465432
465.877845	10885.431556
466.249631	11533.439115
466.621358	11147.962245
466.993026	10515.920020
467.364634	10266.589592
467.736184	9898.217357
468.107674	9566.857273
468.479105	9598.329197
468.850477	9363.784473
469.221790	9139.110328
469.593043	8805.779154
469.964238	8671.495418
470.335373	8680.753497
470.706449	8735.775171
471.077467	8720.717244
471.448425	10027.969095
471.819324	11105.548497
472.190164	11136.796089
472.560945	9881.153051
472.931667	9093.888658
473.302330	8951.339950
473.672934	8601.501518
474.043479	8958.364798
474.413965	8897.109738
474.784393	8779.504660
475.154761	8940.461140
475.525070	9025.507926
475.895321	8853.302111
476.265513	9027.844501
476.635645	9197.227270
477.005719	9199.006798
477.375734	9311.162388
477.745691	9543.186535
478.115588	9675.867184
478.485427	9924.262478
478.855207	10462.715682
479.224928	11278.916298
479.594591	11908.332082
479.964194	11718.709081
480.333739	11661.570122
480.703226	11569.531256
481.072653	11664.027685
481.442022	11899.346226
481.811333	12089.750607
482.180584	11903.311093
482.549777	11608.776639
482.918912	11439.477048
483.287988	11455.404574
483.657005	11464.390431
484.025964	11142.114507
484.394864	11276.093252
484.763706	11246.352965
485.132489	11005.642910
485.501213	10965.351488
485.869879	11038.614577
486.238487	10889.106557
486.607036	10993.657567
486.975527	10773.447364
487.343959	10960.504419
487.712333	11013.169353
488.080648	10941.476583
488.448905	10985.017029
488.817104	10923.877915
489.185244	11192.147958
489.553326	11351.166115
489.921350	11883.665717
490.289315	12948.516205
490.657222	13289.033545
491.025070	13192.099718
491.392861	13068.092375
491.760593	12690.920806
492.128267	12337.553565
492.495883	12020.734690
492.863440	11680.240036
493.230939	11347.246618
493.598380	11275.705083
493.965763	11147.430403
494.333088	11043.459126
494.700354	10968.255193
495.067563	11031.604853
495.434713	10854.057935
495.801805	10984.631381
496.168839	10910.193703
496.535815	10837.172590
496.902733	10846.967552
497.269593	10771.478793
497.636395	10874.348579
498.003139	10868.029493
498.369825	10730.816847
498.736453	10884.463654
499.103023	10808.947169
499.469535	10836.393732
499.835989	10826.825622
500.202385	10796.392176
500.568723	10644.524896
500.935003	10867.064112
501.301226	10671.737044
501.667390	10923.285580
502.033497	11030.190809
502.399546	10876.453261
502.765537	10793.196084
503.131470	10870.270285
503.497345	11044.789990
503.863163	10652.343725
504.228923	10959.150869
504.594625	11031.216684
504.960269	10775.809145
505.325856	11002.119144
505.691385	10791.691300
506.056856	10942.872983
506.422270	10970.690070
506.787625	10868.301715
507.152924	10978.145937
507.518164	10956.005189
507.883347	10873.781449
508.248472	10802.292846
508.613540	11032.391273
508.978550	10908.638507
509.343503	10888.804088
509.708398	11011.498210
510.073236	11112.089394
510.438016	11129.909873
510.802738	11071.369474
511.167403	11129.390634
511.532010	11024.884994
511.896561	11250.179201
512.261053	11329.020327
512.625488	11192.347084
512.989866	11179.134220
513.354186	11165.991932
513.718449	11072.375184
514.082655	11260.616910
514.446803	11159.599749
514.810894	11283.781012
515.174927	11145.754220
515.538904	11172.996615
515.902822	11323.908597
516.266684	11210.112110
516.630488	11148.080712
516.994235	11208.670340
517.357925	11267.331727
517.721558	11364.830163
518.085133	11375.958510
518.448651	11389.118442
518.812112	11268.408013
519.175516	11284.975765
519.538863	11399.992211
519.902152	11318.282669
520.265385	11474.044240
520.628560	11387.926209
520.991678	11369.727644
521.354739	11426.775861
521.717743	11363.348064
522.080690	11342.719662
522.443580	11481.706794
522.806413	11436.356574
523.169189	11461.905142
523.531908	11520.072496
523.894569	11336.042654
524.257174	11338.878303
524.619722	11464.624844
524.982213	11413.346228
525.344647	11465.502005
525.707025	11408.065619
526.069345	11512.082267
526.431608	11424.335943
526.793815	11541.389015
527.155964	11323.520428
527.518057	11378.564787
527.880093	11323.911117
528.242072	11392.604400
528.603995	11295.534462
528.965860	11214.092101
529.327669	11270.752150
529.689421	11225.885881
530.051117	11192.548730
530.412755	11299.118723
530.774337	11192.619306
531.135862	11168.482262
531.497331	11189.705519
531.858743	11044.437110
532.220098	11208.927439
532.581396	11076.982799
532.942638	11069.075749
533.303824	11022.971877
533.664953	11034.448063
534.026025	10950.449837
534.387040	11050.415918
534.747999	11054.579911
535.108902	11112.782553
535.469748	10869.733402
535.830537	10974.680143
536.191270	10953.333377
536.551947	10978.818931
536.912567	10965.948865
537.273131	10897.701724
537.633638	10879.233457
537.994089	10873.947807
538.354483	10816.692902
538.714821	10961.842845
539.075103	10966.117743
539.435328	10939.868455
539.795497	10762.039233
540.155609	10921.387585
540.515665	11004.478404
540.875665	10740.170708
541.235609	10811.064454
541.595496	10809.375667
541.955328	10965.263268
542.315102	10848.215237
542.674821	10797.246651
543.034483	10796.001486
543.394090	10803.452312
543.753640	10735.638710
544.113134	10944.770978
544.472571	10808.001953
544.831953	10948.025042
545.191278	10754.669066
545.550548	10785.329364
545.909761	10918.342728
546.268918	10897.303473
546.628019	10977.188117
546.987064	10840.051089
547.346053	10761.598132
547.704986	10856.076917
548.063863	10849.052069
548.422684	10838.291726
548.781449	10758.245765
549.140158	10857.306958
549.498811	10731.966230
549.857408	10591.948182
550.215949	10826.424850
550.574434	10674.255100
550.932864	10767.708010
551.291237	10827.231434
551.649555	10775.592375
552.007817	10788.129725
552.366022	10748.957439
552.724173	10745.206820
553.082267	10728.543286
553.440305	10865.947496
553.798288	10668.029275
554.156215	10821.386217
554.514086	10804.566407
554.871902	10650.347428
555.229661	10691.180774
555.587365	10664.578606
555.945014	10561.784438
556.302606	10683.861019
556.660143	10568.872300
557.017625	10734.731303
557.375050	10622.762234
557.732421	10761.552762
558.089735	10679.013950
558.446994	10674.280306
558.804197	10717.553571
559.161345	10716.893180
559.518437	10567.034799
559.875474	10653.823304
560.232455	10685.648108
560.589381	10628.297421
560.946251	10629.066197
561.303065	10743.661707
561.659825	10668.641776
562.016528	10601.818761
562.373177	10478.683537
562.729770	10595.771897
563.086307	10507.299647
563.442789	10606.920408
563.799216	10476.450306
564.155587	10532.311332
564.511904	10486.088992
564.868164	10472.477877
565.224370	10491.518315
565.580520	10418.434187
565.936615	10419.669269
566.292654	10290.550196
566.648638	10417.741028
567.004567	10376.408608
567.360441	10365.484427
567.716260	10266.884499
568.072023	10368.806548
568.427732	10326.165948
568.783385	10222.713909
569.138982	10289.998190
569.494525	10316.968363
569.850013	10190.057315
570.205445	10270.705694
570.560823	10162.194857
570.916145	10086.771634
571.271412	10150.948043
571.626625	10103.956927
571.981782	10075.308050
572.336884	10045.789574
572.691931	10052.494308
573.046923	10000.177214
573.401860	9957.173651
573.756743	9887.842662
574.111570	9939.282596
574.466342	9920.655533
574.821059	9949.531262
575.175722	9842.442031
575.530330	9846.820273
575.884882	9841.350621
576.239380	9767.717007
576.593823	9756.906253
576.948211	9766.151729
577.302544	9648.846599
577.656823	9657.519905
578.011047	9660.998301
578.365216	9633.372778
578.719330	9564.523219
579.073389	9571.311133
579.427394	9515.034212
579.781344	9494.776335
580.135239	9441.098129
580.489080	9451.389644
580.842866	9351.766362
581.196597	9358.057722
581.550273	9395.694977
581.903895	9367.802272
582.257463	9426.740923
582.610975	9312.684817
582.964434	9336.564763
583.317837	9256.992670
583.671186	9235.910564
584.024481	9235.328311
584.377721	9156.832505
584.730906	9130.316035
585.084037	9164.918515
585.437113	9093.964275
585.790135	9123.167679
586.143103	9021.172534
586.496016	8991.071804
586.848874	9052.168068
587.201679	9036.916057
587.554428	8919.109333
587.907124	8968.494997
588.259765	8943.758055
588.612352	8944.037839
588.964884	8818.760125
589.317362	8840.278290
589.669786	8835.206889
590.022155	8885.066421
590.374470	8897.276096
590.726731	8838.647477
591.078937	8687.221297
591.431090	8801.453844
591.783188	8676.511366
592.135232	8671.961725
592.487222	8670.509872
592.839157	8719.477120
593.191038	8656.497985
593.542866	8600.425231
593.894639	8499.206424
594.246358	8552.320021
594.598022	8559.748161
594.949633	8464.737534
595.301190	8434.903986
595.652692	8463.149571
596.004141	8577.233403
596.355535	8348.251592
596.706876	8334.789191
597.058162	8269.846527
597.409395	8343.056683
597.760573	8405.574553
598.111698	8313.187847
598.462768	8299.612019
598.813785	8266.272348
599.164748	8233.983758
599.515657	8227.664672
599.866511	8131.255125
600.217312	8261.553828
600.568060	8120.063763
600.918753	8220.344916
601.269392	8192.169907
601.619978	8107.932227
601.970510	8168.405908
602.320988	8164.264600
602.671412	8220.556645
603.021783	8157.461563
603.372100	8129.747820
603.722363	8135.784602
604.072572	8110.016744
604.422728	8116.184596
604.772830	8045.643730
605.122878	8057.077067
605.472872	8056.784680
605.822813	8081.264523
606.172701	8025.032972
606.522534	8106.785364
606.872314	8098.051565
607.222041	8072.928975
607.571714	8126.294630
607.921333	8085.254596
608.270899	8085.010100
608.620411	8177.258174
608.969870	8085.211746
609.319276	8075.946106
609.668627	8091.414886
610.017926	8126.226574
610.367171	8177.870675
610.716362	8152.306983
611.065500	8141.186198
611.414585	8170.077051
611.763616	8157.955596
612.112594	8139.888101
612.461518	8154.005852
612.810389	8212.213535
613.159207	8151.036613
613.507971	8105.157072
613.856682	8218.005821
614.205340	8172.756424
614.553945	8258.594671
614.902496	8155.331676
615.250994	8201.427987
615.599439	8187.159001
615.947830	8199.414046
616.296169	8174.636774
616.644454	8189.654372
616.992686	8187.181686
617.340864	8246.523628
617.688990	8146.489492
618.037063	8241.517762
618.385082	8187.111110
618.733048	8271.255529
619.080961	8212.760500
619.428821	8230.482677
619.776628	8229.035866
620.124382	8181.833022
620.472083	8166.507914
620.819731	8196.868263
621.167326	8092.060154
621.514868	8100.423428
621.862357	7986.193402
622.209793	8001.889035
622.557176	7936.361597
622.904506	7913.867968
623.251783	7835.795619
623.599007	7795.421018
623.946179	7794.836244
624.293297	7757.680419
624.640363	7675.512132
624.987376	7654.714852
625.334336	7605.959333
625.681243	7557.342445
626.028097	7543.212091
626.374899	7521.015890
626.721647	7516.539346
627.068343	7441.375742
627.414987	7415.829695
627.761577	7370.822273
628.108115	7405.971718
628.454600	7298.174205
628.801032	7352.961465
629.147412	7306.058570
629.493739	7294.504245
629.840014	7238.779330
630.186236	7292.213041
630.532405	7175.180133
630.878521	7228.951601
631.224585	7188.453492
631.570597	7106.685976
631.916556	7146.493447
632.262462	7135.385265
632.608316	7094.922444
632.954117	7071.874288
633.299866	7060.841723
633.645562	7053.055661
633.991206	6968.180274
634.336797	6910.418733
634.682336	6868.299893
635.027823	6840.893660
635.373257	6831.698596
635.718639	6762.581856
636.063968	6777.216325
636.409245	6666.331105
636.754470	6665.274984
637.099642	6627.599920
637.444762	6574.839204
637.789829	6583.603250
638.134845	6523.953797
638.479808	6503.015365
638.824719	6510.975347
639.169577	6440.431960
639.514383	6462.547502
639.859137	6391.482357
640.203839	6398.275311
640.548489	6380.810234
640.893086	6359.768458
641.237632	6332.435322
641.582125	6351.926943
641.926566	6324.021636
642.270955	6335.684345
642.615292	6327.920968
642.959576	6346.694225
643.303809	6333.831721
643.647990	6340.090314
643.992118	6334.812226
644.336195	6281.628052
644.680219	6308.368853
645.024192	6290.578621
645.368112	6389.813735
645.711981	6405.113637
646.055797	6490.185628
646.399562	6446.193999
646.743274	6573.810809
647.086935	6626.236288
647.430544	6616.955524
647.774101	6647.036089
648.117606	6646.206819
648.461059	6632.600745
648.804460	6597.244613
649.147810	6508.253124
649.491108	6480.897302
649.834354	6450.965451
650.177548	6372.033585
650.520690	6280.806344
650.863781	6259.668786
651.206820	6284.176356
651.549807	6202.247523
651.892742	6141.862062
652.235626	6151.127703
652.578458	6135.575743
652.921238	6045.666764
653.263967	6085.842240
653.606644	6019.472929
653.949269	6023.563825
654.291843	5964.637778
654.634365	6014.283061
654.976836	5968.789168
655.319255	5969.893181
655.661622	5945.604902
656.003938	5942.686074
656.346203	5905.207615
656.688416	5936.661895
657.030577	5885.355552
657.372687	5853.056879
657.714746	5842.815775
658.056753	5884.299430
658.398708	5829.423950
658.740612	5815.626312
659.082465	5864.437284
659.424266	5860.043918
659.766016	5853.956725
660.107715	5831.488302
660.449362	5845.474983
660.790958	5842.588923
661.132503	5831.021995
661.473996	5867.986256
661.815438	5851.428586
662.156829	5846.808369
662.498168	5841.217729
662.839456	5819.611344
663.180693	5851.521848
663.521879	5854.952353
663.863013	5842.694787
664.204097	5862.690524
664.545129	5900.138735
664.886110	5897.746708
665.227040	5929.228713
665.567918	5894.991717
665.908746	5923.875008
666.249522	5925.833496
666.590248	5909.043933
666.930922	5938.242297
667.271545	5949.920129
667.612118	5950.522547
667.952639	5927.716367
668.293109	5953.300223
668.633528	5901.610752
668.973896	5908.189458
669.314213	5902.760135
669.654480	5879.974120
669.994695	5871.406679
670.334859	5862.345205
670.674973	5857.165419
671.015035	5860.958888
671.355047	5857.402353
671.695008	5845.583368
672.034918	5821.521941
672.374777	5827.692313
672.714585	5808.835877
673.054342	5818.056148
673.394049	5809.692873
673.733705	5834.578529
674.073310	5822.343649
674.412864	5783.836795
674.752368	5773.920846
675.091820	5782.541219
675.431223	5714.662082
675.770574	5715.556887
676.109875	5666.425802
676.449125	5669.626934
676.788324	5638.069311
677.127473	5578.576134
677.466571	5572.740999
677.805619	5561.718516
678.144616	5545.851484
678.483562	5525.187794
678.822458	5492.732846
679.161303	5489.304861
679.500098	5476.502851
679.838842	5459.567095
680.177535	5462.541376
680.516179	5480.074509
680.854771	5490.923072
681.193314	5566.626079
681.531805	5679.986506
681.870247	5822.336087
682.208638	5926.836686
682.546978	5935.240289
682.885268	5915.123565
683.223508	5826.910934
683.561697	5770.263489
683.899836	5746.686012
684.237925	5698.459814
684.575963	5665.609135
684.913951	5626.537672
685.251889	5679.628584
685.589776	5651.231764
685.927614	5616.813286
686.265401	5687.281055
686.603137	5676.364437
686.940824	5745.859263
687.278460	5772.378253
687.616046	5775.539056
687.953582	5843.491289
688.291068	5821.716025
688.628504	5882.955962
688.965889	5846.896589
689.303224	5791.839627
689.640510	5738.007666
689.977745	5661.588815
690.314930	5568.478703
690.652065	5514.719838
690.989150	5418.887504
691.326185	5343.998643
691.663170	5290.396054
692.000105	5215.290423
692.336990	5143.491790
692.673825	5117.146720
693.010610	5044.798600
693.347345	4982.106811
693.684030	4963.535200
694.020665	4921.383592
694.357251	4833.864121
694.693786	4844.304350
695.030272	4808.378567
695.366707	4773.650058
695.703093	4741.724431
696.039429	4761.894088
696.375716	4739.992795
696.711952	4720.024784
697.048139	4702.070715
697.384276	4685.061862
697.720363	4691.839693
698.056400	4703.371333
698.392388	4652.178415
698.728326	4635.046054
699.064214	4611.745841
699.400053	4602.941466
699.735842	4566.897216
700.071581	4545.437024
700.407270	4520.311913
700.742910	4501.500848
701.078501	4449.803815
701.414042	4442.952887
701.749533	4413.300820
702.084974	4353.477447
702.420366	4405.723966
702.755709	4346.883618
703.091002	4295.499137
703.426246	4338.442206
703.761440	4300.893171
704.096584	4264.591823
704.431679	4280.045480
704.766725	4265.796658
705.101721	4254.990945
705.436668	4280.534472
705.771565	4228.429105
706.106413	4256.331892
706.441212	4283.657466
706.775961	4290.309269
707.110661	4273.444089
707.445311	4299.305208
707.779913	4318.827076
708.114465	4328.357378
708.448967	4353.376624
708.783421	4405.986106
709.117825	4447.270635
709.452180	4445.329791
709.786485	4491.955423
710.120742	4579.994133
710.454949	4556.754414
710.789107	4619.907469
711.123216	4690.642419
711.457275	4681.160009
711.791286	4746.211058
712.125247	4757.558695
712.459159	4672.012835
712.793023	4744.008074
713.126837	4695.212225
713.460602	4688.278118
713.794318	4615.945122
714.127985	4622.470896
714.461602	4538.825551
714.795171	4516.712529
715.128691	4446.816931
715.462162	4397.126278
715.795584	4342.157536
716.128957	4323.653981
716.462281	4280.995737
716.795556	4251.736880
717.128782	4216.363104
717.461960	4147.805932
717.795088	4154.818177
718.128167	4120.500522
718.461198	4059.973908
718.794180	4057.770924
719.127113	4037.084549
719.459997	4013.978421
719.792833	3979.005416
720.125619	3965.633755
720.458357	3932.520936
720.791046	3931.709311
721.123686	3906.775764
721.456278	3867.474928
721.788821	3879.669479
722.121315	3858.143752
722.453761	3831.907067
722.786158	3838.095084
723.118506	3864.150287
723.450805	3820.617403
723.783056	3840.464426
724.115259	3850.980273
724.447412	3856.447404
724.779518	3850.541693
725.111574	3854.277187
725.443582	3878.905745
725.775542	3860.434957
726.107453	3907.715939
726.439315	3904.217378
726.771129	3921.448042
727.102895	3955.584215
727.434612	3993.604597
727.766281	4005.839478
728.097901	4008.619674
728.429473	4008.702853
728.760996	4015.969677
729.092471	4012.798791
729.423897	3996.122654
729.755276	3996.946882
730.086606	3999.696832
730.417887	4036.565311
730.749120	4092.708641
731.080305	4145.446672
731.411442	4169.893748
731.742530	4146.175119
732.073570	4149.046056
732.404562	4193.070452
732.735506	4186.436294
733.066401	4149.829955
733.397249	4091.624793
733.728048	4022.704658
734.058798	3935.507820
734.389501	3871.522975
734.720156	3820.163699
735.050762	3780.757000
735.381320	3763.813682
735.711831	3723.411354
736.042293	3696.206768
736.372707	3709.764951
736.703073	3687.833411
737.033391	3678.850075
737.363661	3693.537477
737.693883	3714.223851
738.024056	3721.651992
738.354182	3719.267526
738.684260	3772.028242
739.014290	3792.883495
739.344272	3792.086993
739.674207	3828.355574
740.004093	3828.446315
740.333931	3827.024710
740.663722	3825.290553
740.993464	3814.862926
741.323159	3794.978095
741.652806	3765.792335
741.982405	3738.466760
742.311956	3712.020867
742.641460	3701.996533
742.970915	3678.562729
743.300323	3642.500835
743.629683	3617.111064
743.958996	3601.619598
744.288260	3579.425918
744.617477	3549.562123
744.946647	3535.900596
745.275768	3513.520393
745.604842	3501.721573
745.933869	3470.045482
746.262847	3459.980819
746.591778	3483.815394
746.920662	3461.072229
747.249498	3437.222530
747.578286	3473.433138
747.907027	3490.615911
748.235720	3494.333762
748.564365	3512.247502
748.892963	3504.355576
749.221514	3493.386025
749.550017	3471.908189
749.878473	3470.274855
750.206881	3443.506328
750.535242	3437.177159
750.863555	3438.699588
751.191821	3434.946449
751.520039	3416.566402
751.848210	3401.470667
752.176334	3425.597629
752.504411	3427.346909
752.832440	3395.368350
753.160421	3383.801423
753.488356	3387.178996
753.816243	3393.916498
754.144082	3358.467104
754.471875	3349.859334
754.799620	3361.191848
755.127318	3353.206660
755.454969	3351.510312
755.782572	3354.996269
756.110129	3336.464988
756.437638	3330.271930
756.765100	3339.013291
757.092515	3342.685772
757.419882	3346.995958
757.747203	3324.799758
758.074477	3330.818896
758.401703	3338.423476
758.728882	3356.508616
759.056014	3364.944987
759.383099	3367.372302
759.710138	3366.848022
760.037129	3383.856875
760.364073	3403.167015
760.690970	3390.881723
761.017820	3373.837582
761.344623	3391.121178
761.671379	3423.664347
761.998088	3465.896613
762.324751	3575.566915
762.651366	3795.265441
762.977935	4217.782188
763.304456	4595.157924
763.630931	4660.067821
763.957359	4354.042056
764.283740	4055.981315
764.610074	3879.125035
764.936362	3705.905948
765.262602	3573.850402
765.588796	3472.611430
765.914943	3399.981006
766.241044	3323.247083
766.567097	3297.285140
766.893104	3253.832915
767.219064	3230.620922
767.544978	3210.935216
767.870845	3162.731703
768.196665	3147.048673
768.522438	3148.172851
768.848165	3142.751090
769.173846	3113.111626
769.499479	3100.465891
769.825066	3084.548448
770.150607	3069.808114
770.476101	3077.455544
770.801548	3073.543609
771.126949	3039.465409
771.452303	3027.026362
771.777611	3025.914788
772.102872	3028.437885
772.428087	3009.533558
772.753256	2999.909995
773.078378	2992.663337
773.403453	2966.061168
773.728482	2956.530867
774.053465	2970.071406
774.378401	2959.016155
774.703291	2938.453289
775.028135	2937.598813
775.352932	2931.965324
775.677683	2923.118099
776.002388	2920.247162
776.327046	2918.076945
776.651658	2912.720719
776.976224	2899.578431
777.300743	2899.585993
777.625216	2893.115672
777.949643	2886.736092
778.274024	2888.414796
778.598359	2880.321223
778.922647	2880.611090
779.246889	2879.670914
779.571086	2870.886704
779.895236	2864.643235
780.219339	2871.625233
780.543397	2881.762993
780.867409	2883.328272
781.191374	2881.263919
781.515294	2873.712271
781.839167	2876.144627
782.162995	2869.452496
782.486776	2877.470451
782.810511	2874.178577
783.134201	2860.542256
783.457844	2863.723224
783.781441	2857.721731
784.104993	2842.348732
784.428498	2845.176819
784.751958	2852.385669
785.075372	2847.397447
785.398739	2836.566528
785.722061	2846.371573
786.045337	2855.853983
786.368568	2848.319979
786.691752	2841.786643
787.014891	2875.012888
787.337983	2903.639080
787.661030	2930.944490
787.984031	2986.003973
788.306987	3019.777183
788.629897	3018.118643
788.952760	2999.637773
789.275579	2982.543220
789.598351	2936.429266
789.921078	2901.113462
790.243759	2889.697769
790.566395	2873.190511
790.888984	2855.110413
791.211529	2845.499453
791.534027	2832.664675
791.856480	2825.090342
792.178888	2819.035916
792.501249	2810.831438
792.823566	2805.926395
793.145836	2801.810293
793.468062	2796.159160
793.790241	2798.654531
794.112375	2800.318112
794.434464	2811.212045
794.756507	2814.808908
795.078505	2821.604384
795.400457	2833.289778
795.722364	2862.031917
796.044226	2878.859289
796.366042	2884.704507
796.687812	2875.895090
797.009538	2889.443191
797.331218	2877.296531
797.652852	2866.291692
797.974442	2854.838191
798.295986	2847.916686
798.617484	2841.849658
798.938938	2828.858604
799.260346	2821.722851
799.581709	2815.348312
799.903026	2807.214410
800.224299	2803.955304
800.545526	2794.848460
800.866708	2783.037036
801.187845	2776.748197
801.508936	2776.929678
801.829983	2783.531069
802.150984	2771.664193
802.471940	2763.784870
802.792851	2760.976947
803.113717	2765.105652
803.434538	2762.864859
803.755314	2760.853439
804.076045	2758.315218
804.396731	2755.351019
804.717372	2753.447984
805.037967	2755.098962
805.358518	2755.570310
805.679024	2762.907709
805.999485	2758.234559
806.319901	2765.904675
806.640272	2759.023500
806.960598	2765.695467
807.280879	2767.096908
807.601115	2773.897424
807.921306	2765.874428
808.241453	2761.907040
808.561554	2765.554315
808.881611	2769.004985
809.201623	2763.789911
809.521590	2761.445774
809.841513	2756.427306
810.161390	2758.025352
810.481223	2756.757501
810.801011	2750.143507
811.120755	2744.494895
811.440453	2749.105030
811.760107	2746.556727
812.079716	2742.236458
812.399281	2735.826631
812.718801	2732.176835
813.038276	2727.375136
813.357707	2731.176166
813.677093	2735.554408
813.996434	2731.987792
814.315731	2728.532081
814.634983	2726.198027
814.954191	2726.056874
815.273354	2734.823441
815.592473	2742.891808
815.911547	2744.888105
816.230577	2749.074783
816.549562	2753.397572
816.868502	2756.381935
817.187399	2762.222112
817.506250	2769.771240
817.825058	2769.683020
818.143821	2777.211983
818.462539	2786.034002
818.781213	2807.985707
819.099843	2832.921774
819.418429	2878.130842
819.736970	2930.944490
820.055466	2983.894250
820.373919	3055.183727
820.692327	3159.003770
821.010691	3290.240128
821.329011	3658.382990
821.647286	4409.900562
821.965517	5550.222164
822.283704	6175.352968
822.601847	6151.525954
822.919945	5578.618984
823.237999	5091.479685
823.556010	4614.223568
823.873976	4169.286288
824.191897	3846.576825
824.509775	3618.746918
824.827609	3421.368101
825.145398	3324.184737
825.463144	3316.267605
825.780845	3381.419477
826.098502	3472.271152
826.416116	3693.235007
826.733685	3953.691262
827.051210	4000.090042
827.368692	3899.950041
827.686129	3669.045031
828.003522	3425.327927
828.320872	3226.358626
828.638177	3084.656833
828.955439	2989.532780
829.272656	2929.094387
829.589830	2878.385420
829.906960	2844.037518
830.224046	2810.075265
830.541088	2786.641461
830.858086	2774.003289
831.175041	2762.396032
831.491952	2763.278234
831.808819	2766.885179
832.125642	2784.176337
832.442421	2814.113229
832.759157	2884.308776
833.075849	3016.220649
833.392497	3230.663772
833.709101	3375.859085
834.025662	3333.296623
834.342179	3207.653425
834.658653	3074.229206
834.975083	2966.940849
835.291469	2898.040879
835.607811	2831.427072
835.924110	2788.274795
836.240366	2756.192892
836.556578	2727.160887
836.872746	2714.240410
837.188871	2698.229705
837.504952	2684.772345
837.820990	2679.789164
838.136984	2669.653925
838.452935	2664.101094
838.768842	2664.441372
839.084706	2677.465192
839.400526	2735.244377
839.716303	2834.212310
840.032037	2895.497617
840.347727	2881.503374
840.663373	2830.444047
840.978977	2770.358534
841.294537	2720.582181
841.610054	2689.054805
841.925527	2669.865653
842.240957	2656.642707
842.556344	2642.381282
842.871687	2635.179994
843.186987	2623.376132
843.502244	2619.086110
843.817458	2616.449587
844.132629	2609.059255
844.447756	2603.521548
844.762840	2595.634663
845.077881	2601.384099
845.392879	2597.089036
845.707833	2597.527616
846.022745	2591.997470
846.337613	2596.776484
846.652438	2593.446802
846.967221	2593.212388
847.281960	2591.011925
847.596656	2592.209199
847.911309	2592.360433
848.225919	2589.592840
848.540485	2585.214598
848.855009	2589.224836
849.169490	2586.255596
849.483928	2585.060843
849.798323	2586.941193
850.112675	2585.305338
850.426984	2585.935483
850.741251	2584.445822
851.055474	2585.138980
851.369654	2586.245514
851.683792	2585.532190
851.997887	2583.165369
852.311938	2582.764597
852.625947	2583.402303
852.939914	2583.919021
853.253837	2585.491861
853.567718	2584.889443
853.881555	2581.363156
854.195350	2585.121336
854.509103	2582.247879
854.822812	2580.939699
855.136479	2582.061356
855.450103	2584.334916
855.763685	2581.463979
856.077224	2582.759556
856.390720	2580.629668
856.704173	2584.160997
857.017584	2586.558065
857.330953	2585.872468
857.644278	2588.365319
857.957561	2589.736513
858.270802	2585.887592
858.584000	2583.089751
858.897155	2587.379773
859.210268	2586.043867
859.523339	2584.153435
859.836367	2582.999011
860.149352	2583.172930
860.462295	2582.144535
860.775195	2581.393403
861.088054	2578.829976
861.400869	2578.580439
861.713642	2576.599266
862.026373	2580.158320
862.339062	2581.600090
862.651708	2584.251737
862.964312	2582.419278
863.276873	2584.453383
863.589392	2583.606470
863.901869	2590.701894
864.214303	2590.059147
864.526696	2592.307501
864.839045	2592.415886
865.151353	2597.202462
865.463619	2595.637183
865.775842	2594.664241
866.088023	2593.431678
866.400162	2594.747420
866.712258	2596.673140
867.024313	2591.659713
867.336325	2589.849939
867.648296	2593.071236
867.960224	2593.353541
868.272110	2595.140630
868.583954	2589.343303
868.895755	2590.510330
869.207515	2590.442274
869.519233	2598.155240
869.830909	2595.773294
870.142542	2593.028386
870.454134	2594.414703
870.765684	2595.463263
871.077191	2598.276227
871.388657	2599.037442
871.700081	2598.361927
872.011463	2598.835795
872.322803	2599.866711
872.634101	2603.816455
872.945357	2607.788885
873.256571	2613.361880
873.567744	2610.251488
873.878874	2612.328444
874.189963	2610.125459
874.501010	2611.355501
874.812015	2616.252982
875.122979	2614.420522
875.433900	2608.270315
875.744780	2607.410798
876.055618	2611.005141
876.366415	2614.438167
876.677169	2612.361211
876.987882	2608.897938
877.298554	2607.975407
877.609183	2611.844493
877.919771	2618.163579
878.230317	2618.970164
878.540822	2627.867800
878.851285	2637.113277
879.161707	2649.491830
879.472087	2672.749193
879.782425	2700.490663
880.092722	2774.424225
880.402977	2898.892834
880.713191	3102.802466
881.023363	3345.360104
881.333494	3514.642050
881.643583	3627.944503
881.953631	3593.183227
882.263637	3454.823718
882.573602	3286.010600
882.883526	3180.622758
883.193408	3091.636310
883.503248	3012.356604
883.813048	2931.491455
884.122806	2861.424458
884.432522	2804.285500
884.742197	2763.086670
885.051831	2740.114132
885.361424	2714.280739
885.670975	2694.809282
885.980485	2675.705830
886.289954	2664.436330
886.599382	2655.185813
886.908768	2649.844711
887.218113	2640.508494
887.527417	2629.826289
887.836680	2623.723972
888.145901	2618.322376
888.455082	2615.763990
888.764221	2610.707713
889.073319	2608.298041
889.382376	2603.945005
889.691392	2601.056424
890.000366	2605.215376
890.309300	2605.374172
890.618193	2605.825355
890.927044	2605.593462
891.235855	2607.998092
891.544625	2608.902980
891.853353	2607.834255
892.162041	2614.599483
892.470687	2624.228087
892.779293	2631.515075
893.087858	2638.970942
893.396381	2653.214722
893.704864	2681.132632
894.013306	2725.280537
894.321707	2787.296811
894.630068	2819.424085
894.938387	2834.222392
895.246665	2818.637665
895.554903	2788.297480
895.863100	2756.329003
896.171256	2724.055536
896.479371	2688.127233
896.787446	2664.469098
897.095480	2653.363436
897.403473	2645.385810
897.711425	2636.926754
898.019336	2623.998715
898.327207	2619.103754
898.635038	2616.517642
898.942827	2618.297170
899.250576	2610.722836
899.558284	2606.531117
899.865952	2600.224633
900.173579	2600.378388
900.481165	2597.986361
900.788711	2592.307501
901.096216	2591.130392
901.403681	2586.679053
901.711105	2588.695514
902.018489	2587.357088
902.325832	2590.565782
902.633135	2590.475042
902.940397	2599.324787
903.247619	2621.543673
903.554800	2666.886331
903.861941	2749.803230
904.169041	2840.274297
904.476101	2877.578836
904.783121	2871.405943
905.090100	2824.767708
905.397039	2774.270470
905.703938	2725.257852
906.010796	2686.987932
906.317614	2656.839312
906.624391	2635.056486
906.931129	2619.176851
907.237826	2605.827876
907.544483	2594.109714
907.851099	2584.314752
908.157675	2581.469020
908.464211	2574.686148
908.770707	2569.241702
909.077163	2567.207596
909.383578	2564.203068
909.689954	2561.803479
909.996289	2560.437327
910.302584	2560.979251
910.608839	2560.901113
910.915054	2560.608726
911.221229	2564.326577
911.527363	2568.261197
911.833458	2564.213151
912.139513	2564.999571
912.445527	2563.961093
912.751502	2566.521999
913.057436	2573.672876
913.363331	2576.155644
913.669186	2580.740574
913.975000	2588.602253
914.280775	2600.189345
914.586510	2613.986983
914.892205	2638.580252
915.197859	2679.282528
915.503475	2729.578120
915.809050	2773.184101
916.114585	2788.027779
916.420081	2796.663275
916.725536	2794.931639
917.030952	2773.902466
917.336328	2744.419277
917.641665	2715.054556
917.946961	2686.138498
918.252218	2664.078408
918.557435	2645.093423
918.862612	2634.943060
919.167750	2622.272120
919.472848	2612.280553
919.777906	2602.856116
920.082925	2594.918819
920.387904	2588.670309
920.692843	2587.218456
920.997743	2585.489341
921.302603	2578.837538
921.607423	2576.432908
921.912204	2574.429049
922.216946	2573.738411
922.521647	2571.391754
922.826310	2568.369582
923.130932	2564.855898
923.435516	2561.198541
923.740059	2562.015208
924.044564	2563.131823
924.349028	2561.052347
924.653454	2553.669578
924.957840	2549.397200
925.262186	2548.630944
925.566493	2552.046326
925.870761	2548.273022
926.174989	2548.076417
926.479178	2548.933413
926.783328	2547.078269
927.087438	2545.966694
927.391509	2547.693290
927.695541	2546.027188
927.999533	2547.040460
928.303486	2545.830583
928.607400	2546.155738
928.911275	2543.738504
929.215110	2545.601211
929.518906	2545.449976
929.822663	2546.352343
930.126381	2546.150697
930.430060	2546.642209
930.733699	2543.231868
931.037299	2547.899977
931.340861	2545.628937
931.644383	2545.361756
931.947866	2547.506767
932.251309	2546.619524
932.554714	2545.550799
932.858080	2546.281767
933.161407	2544.615665
933.464694	2544.477033
933.767943	2541.691796
934.071153	2544.048535
934.374323	2541.449821
934.677455	2544.784544
934.980548	2542.483257
935.283602	2544.595501
935.586617	2543.529297
935.889593	2545.013916
936.192530	2545.565923
936.495428	2544.630789
936.798287	2547.859648
937.101108	2543.345294
937.403890	2546.972405
937.706632	2551.247303
938.009336	2552.699155
938.312002	2553.472972
938.614628	2552.724361
938.917216	2555.781821
939.219765	2553.750236
939.522275	2557.054712
939.824747	2554.612273
940.127179	2551.292673
940.429573	2548.199926
940.731929	2550.095399
941.034246	2546.274205
941.336524	2550.498692
941.638763	2549.102292
941.940964	2553.707386
942.243126	2551.786707
942.545250	2552.467262
942.847335	2546.213711
943.149381	2547.141283
943.451389	2544.076262
943.753359	2547.111036
944.055290	2546.732950
944.357182	2547.335368
944.659036	2547.489123
944.960851	2545.901159
945.262628	2543.176416
945.564367	2546.637168
945.866067	2545.112219
946.167729	2546.503577
946.469352	2545.268495
946.770937	2544.323278
947.072484	2543.340253
947.373992	2543.957795
947.675462	2546.319575
947.976893	2543.534338
948.278286	2545.974256
948.579641	2542.463092
948.880958	2544.640871
949.182236	2544.151879
949.483476	2541.011240
949.784678	2543.113401
950.085841	2541.701878
950.386967	2541.694317
950.688054	2540.423946
950.989103	2543.567105
951.290114	2543.867054
951.591087	2546.206149
951.892021	2545.177754
952.192917	2544.290511
952.493776	2547.600028
952.794596	2545.611293
953.095378	2548.552806
953.396122	2545.815460
953.696828	2546.052394
953.997496	2543.468803
954.298126	2543.025181
954.598718	2543.904863
954.899272	2543.882177
955.199788	2541.205325
955.500266	2541.374203
955.800706	2540.910417
956.101108	2535.801208
956.401472	2539.768596
956.701798	2536.345652
957.002087	2535.299613
957.302337	2540.073586
957.602550	2536.723739
957.902724	2537.449665
958.202861	2537.333718
958.502960	2537.926054
958.803022	2537.585776
959.103045	2535.793646
959.403031	2534.798018
959.702979	2536.227185
960.002889	2536.975797
960.302762	2532.390867
960.602596	2534.916485
960.902393	2535.521424
961.202153	2536.567463
961.501875	2533.699047
961.801559	2532.549663
962.101205	2536.421270
962.400814	2534.709798
962.700385	2532.620240
962.999918	2535.148378
963.299414	2533.933460
963.598873	2532.587472
963.898293	2535.133255
964.197677	2533.235260
964.497022	2533.111752
964.796331	2535.758358
965.095601	2532.063192
965.394835	2534.102339
965.694030	2532.345497
965.993189	2534.336753
966.292309	2533.242822
966.591393	2532.708460
966.890439	2532.874818
967.189447	2535.392874
967.488419	2530.046731
967.787353	2532.733666
968.086249	2534.200641
968.385108	2530.833151
968.683930	2533.270548
968.982714	2531.851464
969.281462	2532.867256
969.580172	2532.138809
969.878844	2534.238450
970.177480	2534.049407
970.476078	2533.295754
970.774639	2532.668131
971.073162	2533.724252
971.371649	2530.376926
971.670098	2530.581093
971.968510	2530.051772
972.266885	2531.304498
972.565223	2536.023018
972.863524	2533.751979
973.161788	2534.213244
973.460014	2533.406660
973.758204	2531.881711
974.056356	2534.077133
974.354471	2534.853471
974.652550	2533.983872
974.950591	2535.700385
975.248595	2534.140147
975.546563	2532.544622
975.844493	2530.515558
976.142386	2533.192411
976.440243	2531.881711
976.738062	2532.794159
977.035845	2533.812473
977.333590	2532.547143
977.631299	2530.419776
977.928971	2533.673841
978.226606	2533.472195
978.524204	2531.044879
978.821765	2533.507483
979.119290	2532.975641
979.416777	2531.143182
979.714228	2531.254087
980.011642	2531.889272
980.309020	2532.771474
980.606360	2530.865918
980.903664	2532.847092
981.200931	2531.632173
981.498162	2533.704088
981.795356	2536.610313
982.092513	2538.238606
982.389633	2535.672658
982.686717	2539.118287
982.983764	2536.811959
983.280775	2540.570139
983.577749	2540.751621
983.874686	2538.185673
984.171587	2537.706764
984.468451	2535.455889
984.765279	2537.714326
985.062070	2535.050076
985.358824	2533.290713
985.655543	2532.925229
985.952224	2533.036135
986.248869	2529.020856
986.545478	2528.786442
986.842050	2530.230733
987.138586	2527.367357
987.435086	2527.432892
987.731549	2529.111597
988.027975	2532.458923
988.324366	2531.382636
988.620719	2528.957841
988.917037	2530.838192
989.213318	2529.043541
989.509563	2529.323325
989.805772	2530.984385
990.101944	2529.827440
990.398080	2529.794673
990.694180	2529.661082
990.990244	2529.527492
991.286271	2526.669157
991.582262	2531.244005
991.878217	2529.648479
992.174136	2529.343490
992.470019	2531.911958
992.765865	2528.103366
993.061676	2529.348531
993.357450	2531.770805
993.653188	2529.792152
993.948890	2532.884900
994.244556	2531.838861
994.540186	2533.709129
994.835780	2531.180990
995.131337	2532.960518
995.426859	2531.296937
995.722345	2532.947915
996.017795	2532.153933
996.313208	2532.438758
996.608586	2532.461443
996.903928	2531.740558
997.199234	2532.083357
997.494504	2530.329035
997.789738	2530.986906
998.084936	2531.279293
998.380099	2531.218799
998.675225	2531.377595
998.970316	2531.039838
999.265371	2532.254756
999.560390	2531.183511
999.855373	2532.786598
1000.150320	2529.923222
1000.445232	2530.581093
1000.740108	2531.251566
1001.034948	2530.724766
1001.329752	2526.611184
1001.624521	2530.470188
1001.919254	2523.069774
1002.213951	2527.778211
1002.508613	2525.058509
1002.803239	2525.000536
1003.097829	2524.929959
1003.392384	2530.049251
1003.686903	2527.818541
1003.981386	2531.445651
1004.275834	2530.218130
1004.570246	2531.513706
1004.864623	2529.351051
1005.158964	2528.569673
1005.453270	2529.703932
1005.747540	2529.890455
1006.041775	2528.650331
1006.335974	2531.624612
1006.630138	2529.754344
1006.924266	2531.634694
1007.218359	2528.292409
1007.512416	2529.817358
1007.806438	2527.717717
1008.100425	2528.158818
1008.394376	2529.068747
1008.688292	2528.040351
1008.982172	2524.078004
1009.276017	2527.841226
1009.569827	2528.874662
1009.863602	2526.424662
1010.157341	2529.933305
1010.451045	2526.749816
1010.744714	2529.673685
1011.038347	2530.306350
1011.331945	2528.171421
1011.625508	2530.114786
1011.919036	2527.397604
1012.212528	2529.192255
1012.505986	2526.001205
1012.799408	2527.513551
1013.092795	2528.950280
1013.386147	2527.937008
1013.679464	2529.378778
1013.972745	2528.347862
1014.265992	2527.599250
1014.559204	2530.818027
1014.852380	2526.815351
1015.145521	2529.706453
1015.438628	2527.435413
1015.731699	2529.754344
1016.024736	2526.845598
1016.317737	2526.679240
1016.610703	2525.779394
1016.903635	2525.368540
1017.196531	2523.009280
1017.489393	2526.122192
1017.782219	2525.124044
1018.075011	2526.578417
1018.367768	2528.965403
1018.660490	2525.635721
1018.953177	2525.635721
1019.245829	2525.635721
