Dividing Wavelength (nm)	Counts (n)	Blue Motor Position (mm): 0.000000	Red Motor Position (mm): 33.900000	
326.493990	2128.201234
326.888308	2128.201234
327.282561	2128.201234
327.676750	2096.197469
328.070874	2094.380133
328.464933	2098.491194
328.858929	2104.946391
329.252859	2113.506271
329.646726	2123.031531
330.040528	2136.987965
330.434265	2153.560758
330.827938	2168.870743
331.221547	2190.812365
331.615091	2207.186033
332.008571	2228.290823
332.401986	2248.193298
332.795338	2265.557553
333.188625	2285.303753
333.581847	2303.204890
333.975006	2323.566110
334.368100	2340.824500
334.761129	2361.314270
335.154095	2377.226672
335.546996	2395.127810
335.939833	2412.643299
336.332606	2429.082501
336.725315	2442.660849
337.117960	2450.459514
337.510540	2459.964610
337.903056	2468.658080
338.295508	2477.747280
338.687896	2488.363950
339.080220	2493.634476
339.472480	2499.383912
339.864676	2504.470437
340.256807	2509.655263
340.648875	2512.148114
341.040879	2516.213804
341.432818	2516.962416
341.824694	2519.057015
342.216506	2517.761439
342.608253	2519.412417
342.999937	2515.911335
343.391557	2518.721778
343.783113	2519.273785
344.174605	2518.227745
344.566033	2515.762621
344.957397	2513.985614
345.348697	2515.485358
345.739934	2511.223062
346.131106	2507.217865
346.522215	2507.787516
346.913260	2506.769203
347.304241	2502.910199
347.695159	2502.829541
348.086012	2500.130003
348.476802	2498.799138
348.867528	2498.627739
349.258191	2494.635145
349.648789	2495.691267
350.039324	2493.185814
350.429796	2491.169352
350.820203	2490.955103
351.210548	2491.580206
351.600828	2487.330513
351.991045	2489.193220
352.381198	2485.704741
352.771288	2489.263796
353.161314	2488.021152
353.551276	2486.534011
353.941175	2486.135760
354.331010	2488.502582
354.720782	2488.522746
355.110490	2486.927221
355.500135	2487.575009
355.889717	2486.526449
356.279235	2487.630462
356.668689	2488.253045
357.058080	2489.626759
357.447408	2486.269351
357.836672	2484.633496
358.225873	2488.668940
358.615010	2485.911429
359.004084	2491.824702
359.393095	2490.609784
359.782043	2493.770588
360.170927	2491.991060
360.559748	2494.647748
360.948505	2494.672954
361.337199	2494.894765
361.725830	2495.197234
362.114398	2496.361741
362.502903	2495.948366
362.891344	2497.496000
363.279722	2494.824189
363.668037	2499.918275
364.056289	2500.296361
364.444478	2498.410970
364.832603	2500.066989
365.220665	2500.576145
365.608665	2501.360045
365.996601	2499.298213
366.384474	2504.566218
366.772284	2504.964470
367.160031	2505.009840
367.547715	2513.002589
367.935336	2507.394306
368.322893	2517.547190
368.710388	2516.710358
369.097820	2525.915505
369.485189	2525.285361
369.872495	2532.242153
370.259738	2539.461085
370.646918	2546.826211
371.034035	2555.562531
371.421090	2564.419838
371.808081	2575.480130
372.195010	2585.232242
372.581875	2597.129365
372.968678	2611.516818
373.355418	2618.397993
373.742096	2637.559419
374.128710	2650.830256
374.515262	2665.684016
374.901751	2681.906449
375.288177	2695.676361
375.674540	2718.517829
376.060841	2737.616240
376.447079	2757.228849
376.833254	2776.788526
377.219367	2787.352264
377.605417	2826.700990
377.991404	2835.346569
378.377329	2859.826412
378.763191	2876.300903
379.148991	2913.887746
379.534727	2937.828186
379.920402	2965.776343
380.306013	2980.647747
380.691563	3030.063657
381.077049	3047.506049
381.462474	3066.657393
381.847835	3106.258177
382.233134	3128.403966
382.618371	3127.826754
383.003545	3198.082794
383.388657	3202.881973
383.773706	3235.271386
384.158693	3252.449118
384.543618	3278.831997
384.928480	3315.909683
385.313280	3361.148998
385.698017	3359.072042
386.082692	3414.323088
386.467305	3419.878440
386.851856	3451.877164
387.236344	3474.191832
387.620770	3503.087725
388.005133	3530.662837
388.389435	3559.457908
388.773674	3568.854618
389.157851	3612.120321
389.541965	3627.400059
389.926018	3590.720623
390.310008	3665.934639
390.693936	3680.942154
391.077802	3725.024523
391.461606	3712.673697
391.845348	3773.601082
392.229027	3773.769961
392.612645	3785.853606
392.996200	3863.595760
393.379694	3904.232502
393.763125	3969.240701
394.146494	3938.154426
394.529801	3998.265144
394.913047	4046.090571
395.296230	4013.305427
395.679351	4065.620001
396.062410	4089.762087
396.445408	4072.579314
396.828343	4102.727934
397.211217	4127.389259
397.594028	4052.202970
397.976778	4114.622537
398.359466	4138.598264
398.742092	4174.483718
399.124656	4094.152932
399.507158	4174.924819
399.889598	4200.049930
400.271977	4261.254579
400.654294	4232.948500
401.036549	4242.587186
401.418742	4210.376733
401.800874	4310.930109
402.182944	4334.152184
402.564952	4399.908995
402.946898	4384.528434
403.328783	4381.208834
403.710606	4293.013848
404.092367	4487.620030
404.474067	4453.067962
404.855705	4460.866627
405.237282	4388.515987
405.618797	4497.838449
406.000250	4529.209550
406.381642	4613.348928
406.762972	4573.221343
407.144240	4585.133590
407.525447	4583.641408
407.906593	4643.487466
408.287677	4684.963559
408.668700	4613.510245
409.049661	4668.229449
409.430560	4706.360737
409.811399	4633.876506
410.192176	4795.725271
410.572891	4735.566662
410.953545	4836.624152
411.334138	4720.417994
411.714669	4789.038181
412.095139	4681.349052
412.475547	4824.308613
412.855894	4808.386129
413.236180	4814.012057
413.616405	4762.907360
413.996568	4853.194425
414.376670	4791.707472
414.756711	4754.844034
415.136691	4781.400832
415.516609	4859.568964
415.896466	4898.847114
416.276262	4933.351292
416.655997	4915.351852
417.035670	5098.149132
417.415283	5188.501732
417.794834	5129.058966
418.174324	5082.849230
418.553753	4992.844469
418.933121	5178.794990
419.312428	5240.922170
419.691674	5180.796328
420.070859	5311.707532
420.449983	5222.032967
420.829045	5335.403476
421.208047	5240.944855
421.586988	5315.821113
421.965867	5323.216486
422.344686	5457.797650
422.723444	5316.231967
423.102141	5134.659688
423.480777	5427.863278
423.859352	5200.129153
424.237866	5458.311847
424.616319	5447.838850
424.994712	5559.427311
425.373044	5438.724444
425.751314	5579.959931
426.129524	5387.115632
426.507673	5575.622018
426.885762	5663.171737
427.263789	5588.895376
427.641756	5472.875741
428.019662	5596.479792
428.397508	5604.278457
428.775292	5547.925919
429.153016	5648.280168
429.530679	5572.224280
429.908282	5656.131766
430.285824	5525.399523
430.663305	5805.859076
431.040726	5540.028951
431.418086	5537.301687
431.795385	5644.458974
432.172624	5656.769472
432.549802	5648.512062
432.926920	5660.905738
433.303977	5672.392007
433.680974	5708.816864
434.057910	5727.827056
434.434786	5733.621862
434.811601	5702.870823
435.188355	5939.520229
435.565050	5812.291588
435.941683	5797.899094
436.318257	6008.679819
436.694770	5993.334546
437.071222	6023.122724
437.447614	5956.221572
437.823946	5869.291915
438.200218	6024.211614
438.576429	5887.929061
438.952580	5984.139482
439.328670	6026.351583
439.704700	5936.482934
440.080670	5924.300986
440.456580	6194.985741
440.832429	6082.220171
441.208218	5926.519093
441.583947	6083.039358
441.959616	6085.275110
442.335224	6009.564541
442.710773	6150.384133
443.086261	6179.015366
443.461689	5971.523994
443.837057	6121.168126
444.212365	6272.271671
444.587612	6168.486916
444.962800	6325.720505
445.337927	6302.097658
445.712995	5913.298667
446.088002	6486.795452
446.462949	6318.809083
446.837837	6249.775522
447.212664	6424.522079
447.587431	6569.992135
447.962139	7111.820391
448.336786	8038.134931
448.711374	7775.069879
449.085901	6849.473704
449.460369	6772.008813
449.834776	6707.419030
450.209124	7099.164575
450.583412	7244.463231
450.957640	7393.774647
451.331808	7163.035994
451.705917	6711.741819
452.079965	6632.003368
452.453954	6845.619742
452.827883	6724.269087
453.201752	6816.010525
453.575562	6615.700277
453.949311	6815.055226
454.323001	6702.133380
454.696632	6783.875690
455.070202	6920.087667
455.443713	7073.096768
455.817164	7176.246338
456.190556	7257.933194
456.563888	7331.244174
456.937160	7374.547686
457.310373	7034.174019
457.683526	7055.175466
458.056619	6948.701256
458.429653	6934.003772
458.802628	6868.216714
459.175542	6975.830225
459.548398	7336.708785
459.921194	7494.610326
460.293930	7502.968559
460.666607	8032.110752
461.039224	8336.490580
461.411782	8469.879511
461.784280	8482.202612
462.156719	8370.205817
462.529099	8252.885564
462.901419	7839.899118
463.273680	7727.100780
463.645882	7749.896878
464.018024	7612.134746
464.390106	7780.882330
464.762130	8171.649891
465.134094	8635.181466
465.505999	9657.935800
465.877845	10886.820393
466.249631	11533.035823
466.621358	11146.981741
466.993026	10516.005719
467.364634	10264.265620
467.736184	9894.275174
468.107674	9563.663702
468.479105	9601.583262
468.850477	9360.348927
469.221790	9133.610429
469.593043	8801.569790
469.964238	8663.295981
470.335373	8673.889966
470.706449	8736.806087
471.077467	8715.963436
471.448425	10027.943889
471.819324	11104.242838
472.190164	11132.637137
472.560945	9881.884018
472.931667	9086.720137
473.302330	8950.155279
473.672934	8602.769368
474.043479	8952.716185
474.413965	8894.236280
474.784393	8771.350593
475.154761	8930.900592
475.525070	9018.445270
475.895321	8844.230555
476.265513	9018.823356
476.635645	9192.511271
477.005719	9194.028658
477.375734	9302.352972
477.745691	9536.796873
478.115588	9675.816772
478.485427	9922.742570
478.855207	10450.765627
479.224928	11275.127871
479.594591	11905.435940
479.964194	11711.674150
480.333739	11650.121662
480.703226	11565.800802
481.072653	11663.684886
481.442022	11890.130997
481.811333	12082.478742
482.180584	11887.640667
482.549777	11596.108219
482.918912	11425.361818
483.287988	11442.882348
483.657005	11457.973042
484.025964	11139.725000
484.394864	11266.777200
484.763706	11232.714123
485.132489	10998.560089
485.501213	10957.260436
485.869879	11031.572085
486.238487	10875.316480
486.607036	10981.669703
486.975527	10765.961251
487.343959	10954.134921
487.712333	11001.191571
488.080648	10924.634088
488.448905	10972.189813
488.817104	10909.432489
489.185244	11173.457881
489.553326	11326.882877
489.921350	11863.604445
490.289315	12926.246908
490.657222	13264.523455
491.025070	13179.953058
491.392861	13040.897870
491.760593	12662.463492
492.128267	12311.455512
492.495883	11978.978812
492.863440	11648.725262
493.230939	11306.796400
493.598380	11236.817623
493.965763	11105.782911
494.333088	10997.713175
494.700354	10921.498491
495.067563	10973.172838
495.434713	10807.149998
495.801805	10929.098030
496.168839	10842.783394
496.535815	10775.100862
496.902733	10771.514082
497.269593	10695.606908
497.636395	10789.160641
498.003139	10775.952818
498.369825	10637.691612
498.736453	10786.221648
499.103023	10706.107631
499.469535	10729.647299
499.835989	10713.641635
500.202385	10669.750829
500.568723	10512.701243
500.935003	10726.720909
501.301226	10524.716833
501.667390	10769.263206
502.033497	10855.605569
502.399546	10703.130830
502.765537	10609.909813
503.131470	10668.924080
503.497345	10832.081024
503.863163	10436.884810
504.228923	10724.969108
504.594625	10776.351069
504.960269	10519.549651
505.325856	10728.699562
505.691385	10508.491880
506.056856	10645.013888
506.422270	10648.739300
506.787625	10528.943841
507.152924	10621.025557
507.518164	10590.072872
507.883347	10499.944603
508.248472	10402.037834
508.613540	10605.534091
508.978550	10466.733482
509.343503	10426.326113
509.708398	10514.140492
510.073236	10600.152659
510.438016	10579.786398
510.802738	10511.403146
511.167403	10538.378360
511.532010	10413.680379
511.896561	10613.133631
512.261053	10648.169650
512.625488	10495.117698
512.989866	10454.783427
513.354186	10416.168188
513.718449	10290.545155
514.082655	10442.316653
514.446803	10308.214399
514.810894	10389.923941
515.174927	10231.175486
515.538904	10228.836391
515.902822	10326.513787
516.266684	10200.784890
516.630488	10099.825702
516.994235	10119.471078
517.357925	10132.235280
517.721558	10170.419500
518.085133	10148.119956
518.448651	10114.896231
518.812112	9974.376588
519.175516	9945.077402
519.538863	9999.511782
519.902152	9891.086645
520.265385	9974.119490
520.628560	9862.783086
520.991678	9789.252816
521.354739	9804.381319
521.717743	9701.340134
522.080690	9644.730497
522.443580	9685.878916
522.806413	9606.390002
523.169189	9587.969626
523.531908	9573.589734
523.894569	9380.591680
524.257174	9332.524278
524.619722	9364.757416
524.982213	9292.613463
525.344647	9254.086445
525.707025	9174.458899
526.069345	9191.092186
526.431608	9061.955469
526.793815	9093.205581
527.155964	8878.016368
527.518057	8869.348104
527.880093	8777.410060
528.242072	8773.326726
528.603995	8644.673959
528.965860	8534.151702
529.327669	8508.093978
529.689421	8420.345133
530.051117	8344.906787
530.412755	8341.325047
530.774337	8219.500523
531.135862	8134.509190
531.497331	8099.296730
531.858743	7939.509797
532.220098	7989.865883
532.581396	7844.874737
532.942638	7783.697814
533.303824	7698.061213
533.664953	7639.409909
534.026025	7532.882766
534.387040	7526.077209
534.747999	7480.905950
535.108902	7445.234745
535.469748	7252.375322
535.830537	7250.825167
536.191270	7190.001126
536.551947	7135.778475
536.912567	7079.143632
537.273131	6990.913358
537.633638	6917.645227
537.994089	6852.384970
538.354483	6769.616786
538.714821	6790.535054
539.075103	6732.249233
539.435328	6658.146792
539.795497	6525.672831
540.155609	6531.734818
540.515665	6527.558222
540.875665	6345.300346
541.235609	6316.230532
541.595496	6264.140290
541.955328	6264.830928
542.315102	6165.008520
542.674821	6092.400781
543.034483	6036.774169
543.394090	5984.154605
543.753640	5894.931223
544.113134	5925.856182
544.472571	5824.392878
544.831953	5816.442978
545.191278	5697.111305
545.550548	5653.913658
545.909761	5654.150592
546.268918	5585.290951
546.628019	5566.116922
546.987064	5461.747394
547.346053	5397.916304
547.704986	5364.140573
548.063863	5314.633922
548.422684	5271.501809
548.781449	5192.141445
549.140158	5170.141850
549.498811	5084.908541
549.857408	5006.604298
550.215949	5007.859546
550.574434	4929.353657
550.932864	4902.320469
551.291237	4887.406216
551.649555	4816.825021
552.007817	4780.634577
552.366022	4732.476434
552.724173	4686.042366
553.082267	4641.100480
553.440305	4620.517449
553.798288	4549.296027
554.156215	4528.914642
554.514086	4482.886387
554.871902	4415.503804
555.229661	4382.396026
555.587365	4344.796580
555.945014	4287.256850
556.302606	4264.102831
556.660143	4217.051221
557.017625	4196.475752
557.375050	4143.359634
557.732421	4134.726658
558.089735	4077.655756
558.446994	4046.261970
558.804197	4019.974873
559.161345	3985.329543
559.518437	3932.009259
559.875474	3908.888007
560.232455	3879.046897
560.589381	3850.342567
560.946251	3803.832882
561.303065	3802.189465
561.659825	3748.975045
562.016528	3716.152093
562.373177	3674.887728
562.729770	3654.690345
563.086307	3620.191209
563.442789	3607.316102
563.799216	3553.912638
564.155587	3540.067109
564.511904	3507.455885
564.868164	3486.381342
565.224370	3465.044658
565.580520	3425.537135
565.936615	3414.801998
566.292654	3373.429248
566.648638	3368.448588
567.004567	3334.574555
567.360441	3315.561843
567.716260	3283.812657
568.072023	3277.491050
568.427732	3240.352869
568.783385	3220.347050
569.138982	3204.328784
569.494525	3191.877134
569.850013	3163.883607
570.205445	3153.098058
570.560823	3132.678864
570.916145	3109.164402
571.271412	3098.141919
571.626625	3077.377407
571.981782	3065.036662
572.336884	3047.397665
572.691931	3037.945501
573.046923	3014.554547
573.401860	2999.204234
573.756743	2986.596308
574.111570	2974.313537
574.466342	2962.613019
574.821059	2951.063735
575.175722	2936.209975
575.530330	2921.499888
575.884882	2910.870616
576.239380	2897.050292
576.593823	2887.696431
576.948211	2879.219731
577.302544	2866.228678
577.656823	2852.554548
578.011047	2846.187571
578.365216	2836.077537
578.719330	2827.303408
579.073389	2817.422747
579.427394	2810.276911
579.781344	2801.069244
580.135239	2795.042544
580.489080	2787.470731
580.842866	2775.124945
581.196597	2773.214348
581.550273	2767.301075
581.903895	2758.637852
582.257463	2756.349168
582.610975	2748.863054
582.964434	2748.011099
583.317837	2737.762434
583.671186	2735.224213
584.024481	2731.060220
584.377721	2722.306256
584.730906	2718.096892
585.084037	2715.362067
585.437113	2711.308979
585.790135	2705.625078
586.143103	2696.271217
586.496016	2698.675847
586.848874	2690.494055
587.201679	2688.059177
587.554428	2682.362673
587.907124	2681.210770
588.259765	2678.445697
588.612352	2674.969821
588.964884	2674.291786
589.317362	2672.668535
589.669786	2667.836589
590.022155	2667.690395
590.374470	2664.136382
590.726731	2662.460198
591.078937	2657.499703
591.431090	2659.281751
591.783188	2653.091214
592.135232	2648.102992
592.487222	2650.827736
592.839157	2648.188692
593.191038	2646.467137
593.542866	2645.169040
593.894639	2641.937661
594.246358	2639.346508
594.598022	2639.570839
594.949633	2636.765437
595.301190	2634.507000
595.652692	2636.420118
596.004141	2634.360807
596.355535	2634.096146
596.706876	2627.961062
597.058162	2629.914509
597.409395	2627.272944
597.760573	2629.049951
598.111698	2627.860239
598.462768	2625.526184
598.813785	2623.872686
599.164748	2622.690535
599.515657	2623.015690
599.866511	2619.953189
600.217312	2621.374794
600.568060	2620.611059
600.918753	2621.508385
601.269392	2619.375977
601.619978	2617.049484
601.970510	2618.266923
602.320988	2617.334309
602.671412	2618.118209
603.021783	2615.401027
603.372100	2615.501850
603.722363	2615.486727
604.072572	2613.452621
604.422728	2613.833228
604.772830	2608.882815
605.122878	2606.576487
605.472872	2610.344750
605.822813	2605.346446
606.172701	2608.446755
606.522534	2607.093205
606.872314	2611.778958
607.222041	2608.645881
607.571714	2612.005810
607.921333	2610.243927
608.270899	2607.602362
608.620411	2610.634616
608.969870	2609.167640
609.319276	2610.851386
609.668627	2612.376335
610.017926	2615.930348
610.367171	2616.121912
610.716362	2616.875564
611.065500	2609.767537
611.414585	2611.494133
611.763616	2612.101592
612.112594	2606.684872
612.461518	2608.479523
612.810389	2609.195367
613.159207	2607.919955
613.507971	2609.308792
613.856682	2607.506580
614.205340	2606.911724
614.553945	2606.241250
614.902496	2605.321240
615.250994	2607.675459
615.599439	2606.621857
615.947830	2606.165633
616.296169	2606.750407
616.644454	2607.972887
616.992686	2603.536671
617.340864	2605.875767
617.688990	2604.524737
618.037063	2605.744697
618.385082	2602.099942
618.733048	2607.922475
619.080961	2604.648246
619.428821	2606.836107
619.776628	2604.721342
620.124382	2606.503390
620.472083	2604.307968
620.819731	2603.352669
621.167326	2600.905189
621.514868	2605.192690
621.862357	2601.583224
622.209793	2600.481732
622.557176	2603.093050
622.904506	2597.386464
623.251783	2594.558376
623.599007	2594.346648
623.946179	2594.472677
624.293297	2596.093408
624.640363	2597.018459
624.987376	2598.258583
625.334336	2596.254725
625.681243	2594.056782
626.028097	2596.335383
626.374899	2597.731783
626.721647	2594.397059
627.068343	2597.194900
627.414987	2595.095259
627.761577	2592.640217
628.108115	2596.973089
628.454600	2592.657861
628.801032	2591.458067
629.147412	2591.543766
629.493739	2593.824888
629.840014	2592.609970
630.186236	2591.175762
630.532405	2592.153746
630.878521	2592.862028
631.224585	2590.180134
631.570597	2591.067377
631.916556	2589.739033
632.262462	2590.437233
632.608316	2593.688777
632.954117	2588.803899
633.299866	2590.308684
633.645562	2591.115268
633.991206	2588.461101
634.336797	2586.774835
634.682336	2586.356419
635.027823	2586.928590
635.373257	2587.541090
635.718639	2586.540421
636.063968	2585.665781
636.409245	2580.362487
636.754470	2584.488672
637.099642	2585.675863
637.444762	2583.079669
637.789829	2580.929617
638.134845	2584.239134
638.479808	2583.440112
638.824719	2582.812488
639.169577	2582.358784
639.514383	2582.389031
639.859137	2582.220152
640.203839	2582.704103
640.548489	2579.112281
640.893086	2578.986252
641.237632	2574.640777
641.582125	2580.274267
641.926566	2575.202866
642.270955	2580.027250
642.615292	2580.032292
642.959576	2580.813670
643.303809	2581.264854
643.647990	2580.871644
643.992118	2581.640420
644.336195	2580.173444
644.680219	2578.308217
645.024192	2582.129412
645.368112	2581.574885
645.711981	2583.006572
646.055797	2580.463310
646.399562	2585.943044
646.743274	2583.419947
647.086935	2582.560430
647.430544	2581.935327
647.774101	2584.334916
648.117606	2583.041860
648.461059	2585.736357
648.804460	2586.336254
649.147810	2580.175964
649.491108	2580.337281
649.834354	2579.742425
650.177548	2583.228383
650.520690	2580.178485
650.863781	2578.310737
651.206820	2580.967426
651.549807	2580.470872
651.892742	2578.517425
652.235626	2578.688824
652.578458	2579.089596
652.921238	2577.375603
653.263967	2578.232600
653.606644	2580.110429
653.949269	2577.146231
654.291843	2580.223855
654.634365	2575.717064
654.976836	2578.111612
655.319255	2575.911148
655.661622	2574.534913
656.003938	2577.632702
656.346203	2574.754203
656.688416	2575.548185
657.030577	2575.873340
657.372687	2575.661611
657.714746	2575.462486
658.056753	2577.090778
658.398708	2570.323029
658.740612	2571.842937
659.082465	2570.494428
659.424266	2573.589697
659.766016	2570.156671
660.107715	2576.382496
660.449362	2574.923082
660.790958	2577.756211
661.132503	2574.348391
661.473996	2574.660942
661.815438	2575.359142
662.156829	2579.253433
662.498168	2574.056004
662.839456	2572.715057
663.180693	2576.989955
663.521879	2574.224882
663.863013	2574.907959
664.204097	2575.177660
664.545129	2576.316961
664.886110	2575.389389
665.227040	2575.434759
665.567918	2576.874009
665.908746	2578.832497
666.249522	2577.365521
666.590248	2574.625654
666.930922	2576.140521
667.271545	2578.129256
667.612118	2577.189081
667.952639	2576.717733
668.293109	2578.230079
668.633528	2575.890984
668.973896	2574.960891
669.314213	2575.114646
669.654480	2576.271591
669.994695	2574.537434
670.334859	2575.074317
670.674973	2576.916858
671.015035	2574.232444
671.355047	2574.557598
671.695008	2573.430901
672.034918	2576.422825
672.374777	2576.904256
672.714585	2574.219841
673.054342	2574.867629
673.394049	2576.175809
673.733705	2575.374265
674.073310	2580.329720
674.412864	2573.841755
674.752368	2573.521641
675.091820	2575.195304
675.431223	2574.328226
675.770574	2574.199677
676.109875	2566.953018
676.449125	2575.054152
676.788324	2569.203893
677.127473	2570.456620
677.466571	2570.186918
677.805619	2570.277659
678.144616	2571.558112
678.483562	2573.415777
678.822458	2572.362176
679.161303	2570.718760
679.500098	2570.875036
679.838842	2573.758576
680.177535	2571.772361
680.516179	2571.888307
680.854771	2572.957032
681.193314	2573.120870
681.531805	2572.931826
681.870247	2575.883422
682.208638	2574.771847
682.546978	2578.537589
682.885268	2575.679255
683.223508	2575.941395
683.561697	2572.636919
683.899836	2575.762434
684.237925	2573.408215
684.575963	2575.076837
684.913951	2573.642629
685.251889	2577.148752
685.589776	2574.660942
685.927614	2574.272773
686.265401	2575.568350
686.603137	2574.297979
686.940824	2577.894842
687.278460	2576.085068
687.616046	2576.856365
687.953582	2576.599266
688.291068	2575.656570
688.628504	2575.880901
688.965889	2576.432908
689.303224	2575.064234
689.640510	2574.222362
689.977745	2574.280335
690.314930	2575.739749
690.652065	2574.184553
690.989150	2571.853019
691.326185	2571.968966
691.663170	2570.683472
692.000105	2571.517783
692.336990	2568.984603
692.673825	2569.128276
693.010610	2567.668862
693.347345	2565.145764
693.684030	2564.986968
694.020665	2564.641649
694.357251	2563.202399
694.693786	2567.210117
695.030272	2563.777091
695.366707	2564.480332
695.703093	2565.241546
696.039429	2564.240877
696.375716	2564.757595
696.711952	2562.612584
697.048139	2566.073337
697.384276	2562.473953
697.720363	2563.860270
698.056400	2564.669375
698.392388	2563.787173
698.728326	2563.910682
699.064214	2566.640466
699.400053	2565.002091
699.735842	2561.203582
700.071581	2563.988819
700.407270	2563.222564
700.742910	2563.010836
701.078501	2563.499827
701.414042	2562.249621
701.749533	2561.493448
702.084974	2562.181566
702.420366	2559.653427
702.755709	2561.533778
703.091002	2560.021431
703.426246	2560.129816
703.761440	2563.356155
704.096584	2560.979251
704.431679	2559.885320
704.766725	2560.023952
705.101721	2558.645196
705.436668	2559.376164
705.771565	2561.301884
706.106413	2560.558314
706.441212	2560.396997
706.775961	2560.442368
707.110661	2559.403890
707.445311	2562.116031
707.779913	2558.899775
708.114465	2564.971844
708.448967	2560.860783
708.783421	2563.547718
709.117825	2563.557801
709.452180	2561.695094
709.786485	2562.070660
710.120742	2566.491752
710.454949	2562.723490
710.789107	2563.424210
711.123216	2560.838098
711.457275	2562.655434
711.791286	2563.575445
712.125247	2565.917061
712.459159	2563.361196
712.793023	2568.296485
713.126837	2562.350444
713.460602	2566.458985
713.794318	2566.388409
714.127985	2565.380178
714.461602	2558.935063
714.795171	2566.083419
715.128691	2563.678788
715.462162	2565.309602
715.795584	2565.644838
716.128957	2562.418500
716.462281	2560.192831
716.795556	2557.495813
717.128782	2563.099056
717.461960	2557.210988
717.795088	2558.037737
718.128167	2559.214847
718.461198	2558.010011
718.794180	2559.955896
719.127113	2557.090000
719.459997	2559.240053
719.792833	2557.105124
720.125619	2558.141081
720.458357	2554.455997
720.791046	2554.289639
721.123686	2554.748384
721.456278	2557.770556
721.788821	2554.284598
722.121315	2558.448591
722.453761	2554.123281
722.786158	2555.882644
723.118506	2555.300391
723.450805	2555.406255
723.783056	2556.323745
724.115259	2556.059084
724.447412	2555.663354
724.779518	2559.068653
725.111574	2554.153528
725.443582	2559.300546
725.775542	2555.393652
726.107453	2557.571431
726.439315	2557.773077
726.771129	2562.846998
727.102895	2558.539332
727.434612	2558.700649
727.766281	2557.276523
728.097901	2558.065464
728.429473	2556.585885
728.760996	2555.706204
729.092471	2554.846687
729.423897	2558.854404
729.755276	2558.141081
730.086606	2559.872717
730.417887	2556.164949
730.749120	2559.663509
731.080305	2560.061761
731.411442	2560.107131
731.742530	2565.291958
732.073570	2563.666186
732.404562	2560.770043
732.735506	2563.903120
733.066401	2562.685681
733.397249	2562.247101
733.728048	2558.763663
734.058798	2558.993036
734.389501	2558.476318
734.720156	2559.257697
735.050762	2557.064795
735.381320	2556.394321
735.711831	2555.030689
736.042293	2556.406924
736.372707	2554.491286
736.703073	2557.755433
737.033391	2552.885678
737.363661	2556.520350
737.693883	2555.181924
738.024056	2556.283416
738.354182	2557.440361
738.684260	2555.471790
739.014290	2556.195196
739.344272	2555.915412
739.674207	2558.443550
740.004093	2557.929353
740.333931	2555.776780
740.663722	2561.264076
740.993464	2557.531101
741.323159	2559.255176
741.652806	2553.147818
741.982405	2557.997408
742.311956	2556.099414
742.641460	2558.844322
742.970915	2556.064126
743.300323	2556.180072
743.629683	2554.642520
743.958996	2554.511450
744.288260	2552.126984
744.617477	2555.756615
744.946647	2547.660522
745.275768	2551.277550
745.604842	2550.085317
745.933869	2546.818649
746.262847	2550.735626
746.591778	2552.454659
746.920662	2550.050029
747.249498	2551.816953
747.578286	2550.619679
747.907027	2552.777293
748.235720	2551.756460
748.564365	2552.220246
748.892963	2552.472303
749.221514	2554.163611
749.550017	2552.825184
749.878473	2553.515822
750.206881	2553.528425
750.535242	2551.146480
750.863555	2550.458362
751.191821	2553.127653
751.520039	2549.311500
751.848210	2551.942982
752.176334	2551.025492
752.504411	2554.269475
752.832440	2552.079093
753.160421	2552.709238
753.488356	2549.167827
753.816243	2552.411810
754.144082	2550.440718
754.471875	2551.315359
754.799620	2555.325597
755.127318	2550.813764
755.454969	2550.153373
755.782572	2553.578837
756.110129	2549.319062
756.437638	2553.493137
756.765100	2550.410472
757.092515	2548.540203
757.419882	2551.070863
757.747203	2551.474155
758.074477	2549.465255
758.401703	2552.721841
758.728882	2551.085986
759.056014	2551.950544
759.383099	2551.453990
759.710138	2552.126984
760.037129	2552.865513
760.364073	2553.309135
760.690970	2551.237221
761.017820	2552.033723
761.344623	2550.954916
761.671379	2553.072201
761.998088	2551.448949
762.324751	2553.823333
762.651366	2557.021945
762.977935	2569.327401
763.304456	2572.412587
763.630931	2576.183371
763.957359	2572.296641
764.283740	2571.232957
764.610074	2562.542008
764.936362	2562.731052
765.262602	2557.238714
765.588796	2556.215360
765.914943	2554.887016
766.241044	2552.593291
766.567097	2551.980791
766.893104	2550.539021
767.219064	2548.099103
767.544978	2548.706562
767.870845	2546.657332
768.196665	2550.395348
768.522438	2546.982487
768.848165	2548.136911
769.173846	2549.326623
769.499479	2547.577343
769.825066	2546.778320
770.150607	2548.109185
770.476101	2544.681200
770.801548	2546.397713
771.126949	2546.508618
771.452303	2546.957281
771.777611	2545.011396
772.102872	2546.798485
772.428087	2546.049873
772.753256	2549.467776
773.078378	2546.417878
773.403453	2544.792106
773.728482	2543.625078
774.053465	2544.313196
774.378401	2544.272867
774.703291	2547.816798
775.028135	2543.448638
775.352932	2544.469472
775.677683	2545.797816
776.002388	2543.683052
776.327046	2543.514173
776.651658	2545.344112
776.976224	2543.047866
777.300743	2544.146838
777.625216	2542.972249
777.949643	2542.715150
778.274024	2542.992414
778.598359	2542.856303
778.922647	2541.502753
779.246889	2539.972762
779.571086	2538.805735
779.895236	2542.410160
780.219339	2541.661549
780.543397	2543.884698
780.867409	2540.101312
781.191374	2541.187681
781.515294	2544.235058
781.839167	2541.843031
782.162995	2545.245809
782.486776	2545.838145
782.810511	2542.256405
783.134201	2546.798485
783.457844	2543.642722
783.781441	2543.983000
784.104993	2544.920655
784.428498	2543.562064
784.751958	2543.743546
785.075372	2543.075593
785.398739	2542.536189
785.722061	2545.893598
786.045337	2543.562064
786.368568	2542.183308
786.691752	2544.666077
787.014891	2540.923020
787.337983	2544.134235
787.661030	2547.509288
787.984031	2546.548948
788.306987	2548.777138
788.629897	2548.729247
788.952760	2549.888712
789.275579	2548.847714
789.598351	2547.163968
789.921078	2544.668597
790.243759	2545.601211
790.566395	2543.662887
790.888984	2544.666077
791.211529	2542.604245
791.534027	2544.703885
791.856480	2543.667928
792.178888	2543.267157
792.501249	2542.553833
792.823566	2544.378731
793.145836	2541.510314
793.468062	2544.451828
793.790241	2541.449821
794.112375	2542.059800
794.434464	2540.428987
794.756507	2542.153062
795.078505	2545.127342
795.400457	2539.491332
795.722364	2542.178267
796.044226	2539.866898
796.366042	2540.555016
796.687812	2543.199101
797.009538	2542.725232
797.331218	2546.004503
797.652852	2543.224307
797.974442	2544.328319
798.295986	2543.340253
798.617484	2546.233876
798.938938	2540.187012
799.260346	2542.442928
799.581709	2543.183977
799.903026	2543.549461
800.224299	2543.763710
800.545526	2543.062990
800.866708	2541.079296
801.187845	2541.860675
801.508936	2541.109543
801.829983	2542.745397
802.150984	2541.500232
802.471940	2543.141128
802.792851	2542.566436
803.113717	2541.464944
803.434538	2540.055942
803.755314	2540.955787
804.076045	2539.582073
804.396731	2538.583925
804.717372	2539.451003
805.037967	2540.121477
805.358518	2542.029553
805.679024	2542.193391
805.999485	2541.883360
806.319901	2543.463762
806.640272	2539.239275
806.960598	2541.855633
807.280879	2540.857485
807.601115	2543.922507
807.921306	2538.916641
808.241453	2540.703730
808.561554	2541.898483
808.881611	2543.153731
809.201623	2543.163813
809.521590	2542.410160
809.841513	2542.064841
810.161390	2539.718184
810.481223	2541.774975
810.801011	2539.312371
811.120755	2540.663401
811.440453	2543.176416
811.760107	2539.745911
812.079716	2538.024357
812.399281	2537.563091
812.718801	2539.219110
813.038276	2537.169881
813.357707	2539.982845
813.677093	2540.494522
813.996434	2540.078627
814.315731	2540.842362
814.634983	2541.341436
814.954191	2539.350180
815.273354	2541.328833
815.592473	2542.947043
815.911547	2540.668442
816.230577	2544.235058
816.549562	2539.740869
816.868502	2544.285470
817.187399	2544.267826
817.506250	2541.936292
817.825058	2544.386293
818.143821	2541.928730
818.462539	2543.584749
818.781213	2544.719009
819.099843	2547.423588
819.418429	2545.447456
819.736970	2549.853424
820.055466	2552.903322
820.373919	2555.023127
820.692327	2561.334652
821.010691	2567.615930
821.329011	2583.467838
821.647286	2616.610904
821.965517	2653.786893
822.283704	2675.685665
822.601847	2680.857889
822.919945	2665.401711
823.237999	2644.238947
823.556010	2624.722120
823.873976	2606.213524
824.191897	2595.153232
824.509775	2581.965574
824.827609	2576.059862
825.145398	2572.647001
825.463144	2569.632391
825.780845	2570.459140
826.098502	2577.325192
826.416116	2584.818867
826.733685	2597.315887
827.051210	2601.794953
827.368692	2598.646752
827.686129	2583.019175
828.003522	2576.138000
828.320872	2562.476473
828.638177	2557.357182
828.955439	2551.698486
829.272656	2548.464586
829.589830	2544.575336
829.906960	2549.266130
830.224046	2546.690100
830.541088	2544.862682
830.858086	2545.157589
831.175041	2545.379400
831.491952	2543.647764
831.808819	2545.104657
832.125642	2545.699513
832.442421	2548.699000
832.759157	2551.378373
833.075849	2557.231153
833.392497	2564.412276
833.709101	2571.313616
834.025662	2571.921075
834.342179	2568.331773
834.658653	2561.057388
834.975083	2556.059084
835.291469	2557.584033
835.607811	2545.205480
835.924110	2544.865202
836.240366	2544.535007
836.556578	2542.881508
836.872746	2541.263298
837.188871	2543.241951
837.504952	2543.519214
837.820990	2540.635674
838.136984	2538.135262
838.452935	2541.291024
838.768842	2539.539223
839.084706	2542.805891
839.400526	2541.260777
839.716303	2547.962991
840.032037	2550.846531
840.347727	2554.594629
840.663373	2548.204967
840.978977	2546.453166
841.294537	2542.437887
841.610054	2542.211035
841.925527	2541.359080
842.240957	2541.114584
842.556344	2539.755993
842.871687	2537.336239
843.186987	2538.702392
843.502244	2536.496887
843.817458	2538.092412
844.132629	2537.114428
844.447756	2536.943029
844.762840	2530.772657
845.077881	2530.991947
845.392879	2532.710980
845.707833	2534.976979
846.022745	2529.154446
846.337613	2537.822710
846.652438	2535.302133
846.967221	2536.310364
847.281960	2533.240302
847.596656	2535.070240
847.911309	2534.563604
848.225919	2534.845909
848.540485	2535.826413
848.855009	2534.019160
849.169490	2535.445806
849.483928	2536.093595
849.798323	2534.677030
850.112675	2535.531506
850.426984	2536.706095
850.741251	2536.411187
851.055474	2535.181146
851.369654	2535.707946
851.683792	2535.413039
851.997887	2533.620909
852.311938	2531.357431
852.625947	2533.769623
852.939914	2536.665766
853.253837	2539.082999
853.567718	2533.404139
853.881555	2536.237267
854.195350	2535.891948
854.509103	2535.024870
854.822812	2533.686444
855.136479	2536.065868
855.450103	2534.697195
855.763685	2531.808614
856.077224	2534.051927
856.390720	2537.787422
856.704173	2535.758358
857.017584	2536.300282
857.330953	2535.879346
857.644278	2534.898841
857.957561	2537.326157
858.270802	2533.935981
858.584000	2536.743903
858.897155	2537.694161
859.210268	2533.194931
859.523339	2537.464788
859.836367	2533.683923
860.149352	2534.170394
860.462295	2537.220293
860.775195	2534.440096
861.088054	2533.457071
861.400869	2534.699716
861.713642	2530.755013
862.026373	2532.642925
862.339062	2534.929088
862.651708	2533.797349
862.964312	2536.448996
863.276873	2536.194418
863.589392	2533.167205
863.901869	2534.409849
864.214303	2532.562266
864.526696	2538.485622
864.839045	2533.988913
865.151353	2535.138296
865.463619	2535.609644
865.775842	2537.111908
866.088023	2536.144006
866.400162	2534.455220
866.712258	2535.153419
867.024313	2537.890766
867.336325	2536.872453
867.648296	2535.155940
867.960224	2535.350024
868.272110	2537.550488
868.583954	2535.367668
868.895755	2536.141486
869.207515	2536.237268
869.519233	2537.472350
869.830909	2535.891948
870.142542	2538.034439
870.454134	2535.196269
870.765684	2538.268852
871.077191	2535.279448
871.388657	2538.876312
871.700081	2537.553009
872.011463	2537.474871
872.322803	2538.898997
872.634101	2538.717515
872.945357	2536.403626
873.256571	2538.553678
873.567744	2538.329346
873.878874	2539.816487
874.189963	2537.739531
874.501010	2541.535520
874.812015	2538.331867
875.122979	2541.283463
875.433900	2536.144006
875.744780	2538.846065
876.055618	2537.200128
876.366415	2540.340767
876.677169	2538.752803
876.987882	2536.892617
877.298554	2537.300951
877.609183	2536.575025
877.919771	2536.181815
878.230317	2537.792463
878.540822	2543.675490
878.851285	2541.490150
879.161707	2543.350336
879.472087	2544.381252
879.782425	2550.912066
880.092722	2559.179559
880.402977	2566.819427
880.713191	2583.409865
881.023363	2605.875767
881.333494	2617.301542
881.643583	2624.195320
881.953631	2619.771707
882.263637	2615.564864
882.573602	2608.272835
882.883526	2597.983840
883.193408	2590.908581
883.503248	2581.945409
883.813048	2575.686817
884.122806	2568.800601
884.432522	2563.099056
884.742197	2556.928683
885.051831	2554.662685
885.361424	2552.041285
885.670975	2549.392158
885.980485	2547.796633
886.289954	2547.123639
886.599382	2545.480223
886.908768	2545.364277
887.218113	2544.159441
887.527417	2542.044677
887.836680	2542.223638
888.145901	2541.427135
888.455082	2539.786240
888.764221	2542.644574
889.073319	2542.800850
889.382376	2537.729449
889.691392	2540.867567
890.000366	2537.474871
890.309300	2538.657021
890.618193	2540.050900
890.927044	2538.450334
891.235855	2542.493339
891.544625	2539.975283
891.853353	2540.935623
892.162041	2539.508976
892.470687	2541.976621
892.779293	2541.769934
893.087858	2541.706919
893.396381	2541.724563
893.704864	2546.385110
894.013306	2548.762014
894.321707	2559.124106
894.630068	2565.312122
894.938387	2568.044428
895.246665	2567.031156
895.554903	2561.770712
895.863100	2556.805175
896.171256	2556.595967
896.479371	2550.412992
896.787446	2551.612787
897.095480	2547.058104
897.403473	2546.281767
897.711425	2543.582229
898.019336	2544.109029
898.327207	2543.589790
898.635038	2543.932589
898.942827	2541.270860
899.250576	2541.326312
899.558284	2539.750952
899.865952	2540.015612
900.173579	2539.118287
900.481165	2538.485622
900.788711	2540.018133
901.096216	2539.382947
901.403681	2539.715664
901.711105	2539.259439
902.018489	2538.954449
902.325832	2539.715664
902.633135	2534.558563
902.940397	2541.341436
903.247619	2543.428473
903.554800	2548.963660
903.861941	2558.985474
904.169041	2569.539130
904.476101	2575.540623
904.783121	2576.755542
905.090100	2570.267577
905.397039	2564.568552
905.703938	2558.758622
906.010796	2554.140925
906.317614	2546.354863
906.624391	2546.664894
906.931129	2543.806560
907.237826	2541.916127
907.544483	2537.815149
907.851099	2540.260108
908.157675	2537.479912
908.464211	2538.304141
908.770707	2531.536392
909.077163	2535.216434
909.383578	2531.604447
909.689954	2532.481608
909.996289	2530.918850
910.302584	2531.947246
910.608839	2533.396577
910.915054	2534.578728
911.221229	2534.959335
911.527363	2533.003367
911.833458	2535.158461
912.139513	2533.091587
912.445527	2535.549150
912.751502	2540.217258
913.057436	2532.322812
913.363331	2537.545447
913.669186	2537.389171
913.975000	2536.857329
914.280775	2542.246323
914.586510	2541.621220
914.892205	2548.429298
915.197859	2551.580019
915.503475	2559.507234
915.809050	2567.857905
916.114585	2574.305541
916.420081	2573.057855
916.725536	2574.297979
917.030952	2569.047617
917.336328	2567.941084
917.641665	2561.405228
917.946961	2554.299722
918.252218	2551.368291
918.557435	2548.963660
918.862612	2550.533980
919.167750	2545.273536
919.472848	2546.566592
919.777906	2540.552495
920.082925	2544.038453
920.387904	2539.834131
920.692843	2540.945705
920.997743	2539.897145
921.302603	2537.245498
921.607423	2540.330684
921.912204	2537.689120
922.216946	2537.651311
922.521647	2536.385982
922.826310	2534.964376
923.130932	2535.549150
923.435516	2536.322967
923.740059	2536.900179
924.044564	2533.240302
924.349028	2532.955476
924.653454	2527.405166
924.957840	2531.417924
925.262186	2528.788963
925.566493	2532.055630
925.870761	2526.555732
926.174989	2530.197965
926.479178	2532.847092
926.783328	2531.299457
927.087438	2533.716691
927.391509	2529.928263
927.695541	2532.526978
927.999533	2531.569159
928.303486	2532.872297
928.607400	2530.805424
928.911275	2528.705784
929.215110	2530.767616
929.518906	2532.048069
929.822663	2529.661082
930.126381	2534.165353
930.430060	2533.850281
930.733699	2531.032276
931.037299	2532.101001
931.340861	2528.771319
931.644383	2529.507327
931.947866	2531.886752
932.251309	2529.865249
932.554714	2531.387678
932.858080	2533.409180
933.161407	2530.608819
933.464694	2528.562111
933.767943	2528.032790
934.071153	2531.324663
934.374323	2530.228212
934.677455	2530.482790
934.980548	2530.785260
935.283602	2534.099818
935.586617	2529.751823
935.889593	2530.621422
936.192530	2529.824920
936.495428	2530.187883
936.798287	2531.480939
937.101108	2529.734179
937.403890	2532.589993
937.706632	2530.686957
938.009336	2533.489839
938.312002	2531.947246
938.614628	2534.261135
938.917216	2534.898841
939.219765	2533.467153
939.522275	2536.577545
939.824747	2534.608975
940.127179	2530.470187
940.429573	2532.279962
940.731929	2530.039169
941.034246	2528.231915
941.336524	2531.002029
941.638763	2532.176618
941.940964	2532.519417
942.243126	2531.274252
942.545250	2533.439427
942.847335	2532.927750
943.149381	2530.137471
943.451389	2532.385826
943.753359	2531.617050
944.055290	2533.424304
944.357182	2530.581093
944.659036	2532.191742
944.960851	2532.567307
945.262628	2529.973634
945.564367	2533.757020
945.866067	2529.492204
946.167729	2528.544467
946.469352	2532.300126
946.770937	2532.572349
947.072484	2533.268028
947.373992	2530.026566
947.675462	2530.639066
947.976893	2532.920188
948.278286	2528.219312
948.579641	2531.407842
948.880958	2531.289375
949.182236	2533.303316
949.483476	2528.925074
949.784678	2529.179652
950.085841	2530.286185
950.386967	2533.295754
950.688054	2528.783922
950.989103	2531.203675
951.290114	2531.601927
951.591087	2529.923222
951.892021	2532.390867
952.192917	2535.309695
952.493776	2530.240815
952.794596	2531.428007
953.095378	2531.712832
953.396122	2531.793490
953.696828	2531.380116
953.997496	2532.872297
954.298126	2529.653521
954.598718	2529.585465
954.899272	2528.287368
955.199788	2531.533871
955.500266	2532.411032
955.800706	2529.522451
956.101108	2525.439116
956.401472	2525.968437
956.701798	2522.979033
957.002087	2526.091945
957.302337	2529.628315
957.602550	2529.761905
957.902724	2527.916843
958.202861	2528.536905
958.502960	2528.746113
958.803022	2527.813499
959.103045	2527.629497
959.403031	2530.361803
959.702979	2526.906092
960.002889	2529.393901
960.302762	2526.769981
960.602596	2528.017666
960.902393	2527.576565
961.202153	2529.262831
961.501875	2530.117307
961.801559	2528.587317
962.101205	2526.880886
962.400814	2528.158818
962.700385	2527.528674
962.999918	2527.619415
963.299414	2528.118489
963.598873	2528.574714
963.898293	2527.508510
964.197677	2527.717718
964.497022	2526.298633
964.796331	2526.911133
965.095601	2527.143026
965.394835	2528.761236
965.694030	2527.856349
965.993189	2529.406504
966.292309	2526.525485
966.591393	2526.651513
966.890439	2528.443644
967.189447	2526.971627
967.488419	2527.132944
967.787353	2528.080681
968.086249	2529.149405
968.385108	2525.429034
968.683930	2527.813499
968.982714	2527.324508
969.281462	2529.524971
969.580172	2529.940866
969.878844	2528.395753
970.177480	2525.096317
970.476078	2527.211082
970.774639	2527.087573
971.073162	2529.703932
971.371649	2526.820392
971.670098	2523.732685
971.968510	2527.924405
972.266885	2522.590864
972.565223	2528.390712
972.863524	2528.841895
973.161788	2526.379291
973.460014	2530.845753
973.758204	2526.769981
974.056356	2527.541277
974.354471	2527.216123
974.652550	2525.804600
974.950591	2527.165711
975.248595	2527.211082
975.546563	2528.965403
975.844493	2527.868952
976.142386	2528.647810
976.440243	2527.632018
976.738062	2525.257634
977.035845	2526.865762
977.333590	2527.556401
977.631299	2529.459436
977.928971	2529.149405
978.226606	2528.342821
978.524204	2526.969106
978.821765	2528.864580
979.119290	2527.327028
979.416777	2526.197810
979.714228	2525.242511
980.011642	2529.272913
980.309020	2527.952131
980.606360	2528.262162
980.903664	2529.751823
981.200931	2526.028931
981.498162	2528.700742
981.795356	2526.601102
982.092513	2527.810979
982.389633	2528.241998
982.686717	2529.474560
982.983764	2526.633869
983.280775	2530.482790
983.577749	2531.362472
983.874686	2528.849457
984.171587	2528.741072
984.468451	2529.091432
984.765279	2527.856349
985.062070	2526.959024
985.358824	2526.906092
985.655543	2526.714528
985.952224	2525.875176
986.248869	2526.961544
986.545478	2519.437622
986.842050	2523.460463
987.138586	2524.519105
987.435086	2522.916018
987.731549	2520.171110
988.027975	2526.878365
988.324366	2527.871473
988.620719	2527.495907
988.917037	2526.606143
989.213318	2528.491535
989.509563	2528.070598
989.805772	2529.547656
990.101944	2525.333252
990.398080	2527.006915
990.694180	2525.045906
990.990244	2526.830474
991.286271	2527.125382
991.582262	2526.901051
991.878217	2528.060516
992.174136	2526.659075
992.470019	2524.262007
992.765865	2526.832995
993.061676	2524.940042
993.357450	2527.296781
993.653188	2528.761236
993.948890	2526.459950
994.244556	2527.788294
994.540186	2528.829292
994.835780	2528.612522
995.131337	2529.000691
995.426859	2529.363654
995.722345	2524.776204
996.017795	2526.777542
996.313208	2527.919364
996.608586	2527.546318
996.903928	2525.431554
997.199234	2527.054806
997.494504	2526.228057
997.789738	2527.137985
998.084936	2526.873324
998.380099	2526.585978
998.675225	2526.855680
998.970316	2525.726462
999.265371	2525.721421
999.560390	2525.048427
999.855373	2528.773839
1000.150320	2526.709487
1000.445232	2527.158149
1000.740108	2527.702594
1001.034948	2527.067409
1001.329752	2527.276617
1001.624521	2526.185207
1001.919254	2521.181862
1002.213951	2525.063550
1002.508613	2522.275792
1002.803239	2524.945083
1003.097829	2521.244876
1003.392384	2526.596061
1003.686903	2524.597243
1003.981386	2526.931298
1004.275834	2526.119672
1004.570246	2524.604805
1004.864623	2525.678571
1005.158964	2525.658406
1005.453270	2524.093128
1005.747540	2527.919364
1006.041775	2527.011956
1006.335974	2523.936852
1006.630138	2523.203364
1006.924266	2526.452388
1007.218359	2526.230577
1007.512416	2529.177132
1007.806438	2524.123375
1008.100425	2524.771163
1008.394376	2524.808972
1008.688292	2526.878365
1008.982172	2525.998684
1009.276017	2525.076153
1009.569827	2523.951976
1009.863602	2524.488858
1010.157341	2527.261493
1010.451045	2529.333407
1010.744714	2523.397449
1011.038347	2526.961544
1011.331945	2525.570186
1011.625508	2525.207223
1011.919036	2525.882738
1012.212528	2529.351051
1012.505986	2527.354754
1012.799408	2522.663961
1013.092795	2525.126564
1013.386147	2526.278468
1013.679464	2523.445340
1013.972745	2527.190917
1014.265992	2525.718900
1014.559204	2524.435926
1014.852380	2527.077491
1015.145521	2525.736544
1015.438628	2525.529857
1015.731699	2526.187727
1016.024736	2524.264527
1016.317737	2526.966586
1016.610703	2527.193438
1016.903635	2522.414424
1017.196531	2521.950637
1017.489393	2523.236132
1017.782219	2519.868641
1018.075011	2523.924249
1018.367768	2524.549352
1018.660490	2527.392563
1018.953177	2527.392563
1019.245829	2527.392563
