Dividing Wavelength (nm)	Counts (n)	Blue Motor Position (mm): 0.000000	Red Motor Position (mm): 30.400000	
326.493990	2128.191152
326.888308	2128.191152
327.282561	2128.191152
327.676750	2092.285533
328.070874	2093.974320
328.464933	2096.426841
328.858929	2101.641915
329.252859	2111.696496
329.646726	2125.726028
330.040528	2137.020733
330.434265	2155.136119
330.827938	2171.116577
331.221547	2186.136695
331.615091	2209.656198
332.008571	2229.014229
332.401986	2248.944430
332.795338	2268.937647
333.188625	2287.847015
333.581847	2303.167081
333.975006	2322.575523
334.368100	2341.154696
334.761129	2357.326718
335.154095	2375.752135
335.546996	2394.152346
335.939833	2413.991807
336.332606	2426.032603
336.725315	2440.951898
337.117960	2449.738629
337.510540	2456.826492
337.903056	2469.436938
338.295508	2476.139152
338.687896	2483.393372
339.080220	2492.795124
339.472480	2498.884838
339.864676	2501.728049
340.256807	2507.696775
340.648875	2509.859430
341.040879	2511.094513
341.432818	2513.799092
341.824694	2518.079031
342.216506	2516.226407
342.608253	2517.058198
342.999937	2515.770183
343.391557	2518.300842
343.783113	2514.111643
344.174605	2515.238341
344.566033	2512.881602
344.957397	2512.138032
345.348697	2510.582836
345.739934	2509.647702
346.131106	2507.442197
346.522215	2504.266270
346.913260	2503.467247
347.304241	2502.010353
347.695159	2500.102277
348.086012	2501.833913
348.476802	2496.969200
348.867528	2497.191010
349.258191	2493.198417
349.648789	2495.436689
350.039324	2491.597850
350.429796	2490.266986
350.820203	2487.723723
351.210548	2488.608446
351.600828	2486.191213
351.991045	2486.591984
352.381198	2487.126347
352.771288	2485.392190
353.161314	2486.050060
353.551276	2487.605256
353.941175	2486.833960
354.331010	2484.953609
354.720782	2484.877992
355.110490	2483.842035
355.500135	2484.300780
355.889717	2485.598877
356.279235	2483.095944
356.668689	2487.723723
357.058080	2488.046357
357.447408	2485.755153
357.836672	2483.826912
358.225873	2485.843373
358.615010	2483.905049
359.004084	2491.587768
359.393095	2490.259424
359.782043	2489.190699
360.170927	2491.754126
360.559748	2492.611122
360.948505	2493.168170
361.337199	2493.745382
361.725830	2492.656493
362.114398	2495.235043
362.502903	2494.322594
362.891344	2495.887872
363.279722	2496.828047
363.668037	2497.042296
364.056289	2495.696308
364.444478	2497.846360
364.832603	2497.977430
365.220665	2501.546567
365.608665	2499.053717
365.996601	2498.836947
366.384474	2501.223933
366.772284	2505.297186
367.160031	2502.746362
367.547715	2505.708040
367.935336	2508.110150
368.322893	2511.495284
368.710388	2512.213649
369.097820	2521.628004
369.485189	2523.838550
369.872495	2532.000178
370.259738	2537.318595
370.646918	2543.791437
371.034035	2551.789227
371.421090	2564.218192
371.808081	2571.074161
372.195010	2580.992631
372.581875	2593.991247
372.968678	2608.212342
373.355418	2617.359515
373.742096	2638.436579
374.128710	2651.397386
374.515262	2665.759633
374.901751	2682.453414
375.288177	2693.430527
375.674540	2718.338868
376.060841	2733.744634
376.447079	2753.286667
376.833254	2774.673762
377.219367	2788.315124
377.605417	2825.544046
377.991404	2834.305571
378.377329	2857.804910
378.763191	2874.412991
379.148991	2910.056469
379.534727	2934.286775
379.920402	2966.527475
380.306013	2975.823362
380.691563	3025.216588
381.077049	3049.187274
381.462474	3066.977506
381.847835	3105.754062
382.233134	3128.149387
382.618371	3128.784573
383.003545	3195.531970
383.388657	3200.857949
383.773706	3232.902044
384.158693	3252.244951
384.543618	3277.377624
384.928480	3313.023623
385.313280	3358.391487
385.698017	3357.811754
386.082692	3411.129518
386.467305	3414.993562
386.851856	3447.849282
387.236344	3472.271152
387.620770	3503.075123
388.005133	3528.825336
388.389435	3556.798699
388.773674	3566.419741
389.157851	3609.110752
389.541965	3624.902167
389.926018	3589.367073
390.310008	3662.705780
390.693936	3681.511804
391.077802	3718.176116
391.461606	3712.769478
391.845348	3771.584620
392.229027	3771.052779
392.612645	3786.450983
392.996200	3864.714897
393.379694	3899.531626
393.763125	3969.853201
394.146494	3935.384312
394.529801	3995.129547
394.913047	4041.629150
395.296230	4011.218389
395.679351	4063.414496
396.062410	4091.745781
396.445408	4070.031010
396.828343	4106.329839
397.211217	4127.840442
397.594028	4045.248698
397.976778	4111.986013
398.359466	4138.540291
398.742092	4170.256711
399.124656	4093.429526
399.507158	4171.567411
399.889598	4190.882592
400.271977	4256.888939
400.654294	4226.936924
401.036549	4236.227770
401.418742	4205.038152
401.800874	4305.392401
402.182944	4331.182944
402.564952	4394.900608
402.946898	4385.035070
403.328783	4378.337897
403.710606	4294.987460
404.092367	4485.217921
404.474067	4452.198363
404.855705	4457.794044
405.237282	4382.411150
405.618797	4492.494826
406.000250	4529.809447
406.381642	4611.773567
406.762972	4572.490376
407.144240	4583.646449
407.525447	4577.952466
407.906593	4643.253052
408.287677	4686.475906
408.668700	4611.234164
409.049661	4657.756452
409.430560	4701.526270
409.811399	4631.552534
410.192176	4795.790806
410.572891	4733.033482
410.953545	4835.799924
411.334138	4713.955235
411.714669	4780.430410
412.095139	4683.521789
412.475547	4820.603365
412.855894	4804.106189
413.236180	4811.219257
413.616405	4761.342081
413.996568	4848.493549
414.376670	4795.102689
414.756711	4746.674844
415.136691	4778.562663
415.516609	4858.666598
415.896466	4890.877050
416.276262	4925.812246
416.655997	4909.040327
417.035670	5088.157565
417.415283	5182.144837
417.794834	5128.620386
418.174324	5079.065844
418.553753	4990.462524
418.933121	5171.119833
419.312428	5243.651955
419.691674	5178.099311
420.070859	5303.364422
420.449983	5218.567173
420.829045	5330.921890
421.208047	5238.371346
421.586988	5309.796935
421.965867	5319.276824
422.344686	5449.315908
422.723444	5309.121420
423.102141	5126.624089
423.480777	5425.098205
423.859352	5194.702351
424.237866	5451.453358
424.616319	5446.303819
424.994712	5555.575870
425.373044	5428.783289
425.751314	5577.048665
426.129524	5375.541142
426.507673	5568.329989
426.885762	5651.675386
427.263789	5587.078040
427.641756	5468.782324
428.019662	5586.001754
428.397508	5594.178505
428.775292	5542.042892
429.153016	5643.128109
429.530679	5568.894598
429.908282	5653.497763
430.285824	5522.846178
430.663305	5802.794054
431.040726	5530.186098
431.418086	5532.202560
431.795385	5636.751050
432.172624	5653.709491
432.549802	5643.937214
432.926920	5658.077651
433.303977	5661.586294
433.680974	5703.102717
434.057910	5721.722218
434.434786	5728.182457
434.811601	5698.265729
435.188355	5931.892963
435.565050	5802.599970
435.941683	5786.029697
436.318257	6001.541545
436.694770	5983.302650
437.071222	6017.305233
437.447614	5948.919460
437.823946	5866.010124
438.200218	6014.031003
438.576429	5882.986209
438.952580	5980.351055
439.328670	6027.264032
439.704700	5932.691986
440.080670	5916.537609
440.456580	6191.469537
440.832429	6072.087452
441.208218	5920.898207
441.583947	6073.015024
441.959616	6076.367391
442.335224	6000.838304
442.710773	6142.038502
443.086261	6167.733264
443.461689	5961.663497
443.837057	6111.189162
444.212365	6266.186998
444.587612	6163.259240
444.962800	6316.890924
445.337927	6295.828983
445.712995	5899.816101
446.088002	6484.930225
446.462949	6311.053267
446.837837	6241.422330
447.212664	6417.729124
447.587431	6562.080044
447.962139	7098.736077
448.336786	8024.702777
448.711374	7768.569312
449.085901	6842.844587
449.460369	6760.262925
449.834776	6692.431679
450.209124	7088.482370
450.583412	7236.170533
450.957640	7384.604788
451.331808	7145.260885
451.705917	6707.522373
452.079965	6624.391226
452.453954	6836.959040
452.827883	6714.161573
453.201752	6805.640871
453.575562	6603.609069
453.949311	6809.351161
454.323001	6697.780344
454.696632	6771.272805
455.070202	6911.888230
455.443713	7063.465644
455.817164	7165.286869
456.190556	7244.274188
456.563888	7320.370405
456.937160	7366.880091
457.310373	7022.687750
457.683526	7045.680453
458.056619	6933.666014
458.429653	6923.281237
458.802628	6859.616506
459.175542	6965.188349
459.548398	7319.357133
459.921194	7483.555076
460.293930	7482.516598
460.666607	8012.440170
461.039224	8321.296543
461.411782	8445.535779
461.784280	8463.598233
462.156719	8354.122016
462.529099	8233.862770
462.901419	7823.069226
463.273680	7714.306332
463.645882	7720.759008
464.018024	7590.104904
464.390106	7754.234791
464.762130	8138.234602
465.134094	8599.096887
465.505999	9612.615827
465.877845	10829.595736
466.249631	11465.743981
466.621358	11080.143602
466.993026	10452.852665
467.364634	10196.081493
467.736184	9826.149021
468.107674	9489.180654
468.479105	9522.608545
468.850477	9281.570815
469.221790	9045.183550
469.593043	8716.016368
469.964238	8574.221313
470.335373	8579.290194
470.706449	8630.621743
471.077467	8603.797763
471.448425	9875.174243
471.819324	10920.878429
472.190164	10934.870151
472.560945	9708.720384
472.931667	8914.950381
473.302330	8778.423332
473.672934	8422.558200
474.043479	8748.015092
474.413965	8689.184827
474.784393	8553.595433
475.154761	8692.509468
475.525070	8760.615456
475.895321	8585.304290
476.265513	8733.541940
476.635645	8884.761432
477.005719	8858.922997
477.375734	8956.176938
477.745691	9162.828957
478.115588	9264.067929
478.485427	9467.851532
478.855207	9940.900806
479.224928	10647.244598
479.594591	11206.817716
479.964194	11004.566624
480.333739	10930.988463
480.703226	10810.517489
481.072653	10864.052022
481.442022	11021.552792
481.811333	11155.430714
482.180584	10942.815010
482.549777	10634.440067
482.918912	10443.387898
483.287988	10413.468650
483.657005	10375.770902
484.025964	10052.322909
484.394864	10117.678948
484.763706	10047.415346
485.132489	9798.702459
485.501213	9714.845386
485.869879	9730.099917
486.238487	9537.124548
486.607036	9585.943082
486.975527	9340.753962
487.343959	9447.576012
487.712333	9430.753681
488.080648	9315.797729
488.448905	9278.281463
488.817104	9181.750928
489.185244	9329.247528
489.553326	9374.388540
489.921350	9707.565959
490.289315	10401.594212
490.657222	10589.541031
491.025070	10438.923957
491.392861	10269.218553
491.760593	9939.670765
492.128267	9614.556671
492.495883	9300.943970
492.863440	8987.535435
493.230939	8672.307044
493.598380	8544.992703
493.965763	8368.446455
494.333088	8246.725274
494.700354	8104.516845
495.067563	8092.455884
495.434713	7891.717138
495.801805	7904.844303
496.168839	7780.458873
496.535815	7654.167887
496.902733	7591.201355
497.269593	7460.736293
497.636395	7457.951056
498.003139	7355.408945
498.369825	7217.321659
498.736453	7225.140489
499.103023	7106.507015
499.469535	7047.371760
499.835989	6974.164124
500.202385	6874.775255
500.568723	6720.306740
500.935003	6771.461848
501.301226	6571.892650
501.667390	6644.790255
502.033497	6616.322859
502.399546	6474.875644
502.765537	6357.015988
503.131470	6309.974461
503.497345	6312.174924
503.863163	6070.050826
504.228923	6125.158199
504.594625	6087.248722
504.960269	5904.499333
505.325856	5918.191107
505.691385	5763.510863
506.056856	5753.199183
506.422270	5684.079922
506.787625	5584.907823
507.152924	5549.150919
507.518164	5479.202389
507.883347	5376.836719
508.248472	5288.487977
508.613540	5293.740860
508.978550	5185.640877
509.343503	5112.718066
509.708398	5081.886369
510.073236	5050.669024
510.438016	4987.793233
510.802738	4906.287857
511.167403	4865.210015
511.532010	4768.853401
511.896561	4779.651552
512.261053	4733.701435
512.625488	4634.534377
512.989866	4569.190941
513.354186	4511.835213
513.718449	4429.757667
514.082655	4423.184002
514.446803	4342.908668
514.810894	4316.508145
515.174927	4232.691401
515.538904	4191.588353
515.902822	4162.503416
516.266684	4098.417748
516.630488	4032.698746
516.994235	4001.189013
517.357925	3958.702169
517.721558	3929.463477
518.085133	3884.193915
518.448651	3846.410467
518.812112	3783.501908
519.175516	3742.406422
519.538863	3716.704099
519.902152	3667.331038
520.265385	3639.934888
520.628560	3598.872169
520.991678	3550.356104
521.354739	3525.460366
521.717743	3483.855723
522.080690	3448.360959
522.443580	3424.992691
522.806413	3385.109602
523.169189	3358.388966
523.531908	3332.691684
523.894569	3288.150569
524.257174	3256.950868
524.619722	3236.579566
524.982213	3213.178529
525.344647	3185.268181
525.707025	3159.228101
526.069345	3140.840492
526.431608	3110.361676
526.793815	3093.781321
527.155964	3059.435940
527.518057	3042.419525
527.880093	3019.356246
528.242072	3002.707836
528.603995	2982.533138
528.965860	2961.884572
529.327669	2944.774896
529.689421	2924.496854
530.051117	2909.988414
530.412755	2896.750344
530.774337	2880.258209
531.135862	2864.537371
531.497331	2851.828622
531.858743	2831.048986
532.220098	2826.625373
532.581396	2811.035605
532.942638	2800.623102
533.303824	2794.026752
533.664953	2784.864455
534.026025	2773.907507
534.387040	2767.800149
534.747999	2761.153387
535.108902	2753.689959
535.469748	2740.167064
535.830537	2737.439800
536.191270	2730.823285
536.551947	2724.756257
536.912567	2717.360884
537.273131	2711.858465
537.633638	2708.458206
537.994089	2701.929912
538.354483	2692.447502
538.714821	2694.025383
539.075103	2691.124199
539.435328	2684.525328
539.795497	2679.854699
540.155609	2677.818073
540.515665	2678.612055
540.875665	2669.091836
541.235609	2669.631239
541.595496	2667.362720
541.955328	2664.065806
542.315102	2661.121772
542.674821	2659.932059
543.034483	2655.768066
543.394090	2654.961482
543.753640	2651.213384
544.113134	2651.818322
544.472571	2650.694145
544.831953	2647.563588
545.191278	2644.947230
545.550548	2644.377579
545.909761	2643.974287
546.268918	2643.588639
546.628019	2643.475213
546.987064	2640.841210
547.346053	2638.013122
547.704986	2636.730149
548.063863	2638.068575
548.422684	2635.560601
548.781449	2634.915333
549.140158	2631.809983
549.498811	2633.788636
549.857408	2630.085908
550.215949	2628.457615
550.574434	2625.931997
550.932864	2627.595578
551.291237	2625.468211
551.649555	2625.909312
552.007817	2626.746144
552.366022	2627.537605
552.724173	2625.831174
553.082267	2622.463683
553.440305	2622.710700
553.798288	2623.648355
554.156215	2623.822274
554.514086	2623.870165
554.871902	2620.792541
555.229661	2623.320680
555.587365	2620.946296
555.945014	2618.148456
556.302606	2622.375463
556.660143	2620.583333
557.017625	2619.552417
557.375050	2620.984105
557.732421	2619.726337
558.089735	2618.768518
558.446994	2618.060236
558.804197	2617.588888
559.161345	2618.728188
559.518437	2616.542848
559.875474	2617.046964
560.232455	2619.769187
560.589381	2616.618466
560.946251	2619.108796
561.303065	2615.569906
561.659825	2614.932200
562.016528	2616.063939
562.373177	2613.843310
562.729770	2612.877929
563.086307	2614.470934
563.442789	2619.544855
563.799216	2610.432970
564.155587	2612.797271
564.511904	2613.883640
564.868164	2612.696448
565.224370	2614.906994
565.580520	2612.653598
565.936615	2612.363732
566.292654	2610.012033
566.648638	2609.376848
567.004567	2612.976232
567.360441	2611.599997
567.716260	2610.760645
568.072023	2611.481530
568.427732	2607.194028
568.783385	2608.363576
569.138982	2607.718308
569.494525	2608.698813
569.850013	2604.401229
570.205445	2610.795933
570.560823	2608.981117
570.916145	2609.245778
571.271412	2608.993720
571.626625	2608.267794
571.981782	2610.027157
572.336884	2609.331478
572.691931	2609.255860
573.046923	2608.960953
573.401860	2606.039604
573.756743	2604.834768
574.111570	2603.398040
574.466342	2607.582197
574.821059	2606.591611
575.175722	2604.325612
575.530330	2605.109511
575.884882	2608.930706
576.239380	2606.231168
576.593823	2605.553133
576.948211	2605.800149
577.302544	2604.494491
577.656823	2603.645056
578.011047	2605.996754
578.365216	2604.365941
578.719330	2601.926023
579.073389	2603.773606
579.427394	2600.587596
579.781344	2601.986517
580.135239	2603.750920
580.489080	2600.675817
580.842866	2600.335539
581.196597	2601.497525
581.550273	2604.139089
581.903895	2600.446444
582.257463	2599.894438
582.610975	2601.182452
582.964434	2602.062134
583.317837	2601.197576
583.671186	2604.043307
584.024481	2600.262442
584.377721	2599.259252
584.730906	2600.070878
585.084037	2598.203131
585.437113	2600.683378
585.790135	2600.015425
586.143103	2599.276896
586.496016	2598.064499
586.848874	2595.140630
587.201679	2597.825044
587.554428	2594.046699
587.907124	2595.294385
588.259765	2594.255907
588.612352	2598.409818
588.964884	2594.651638
589.317362	2596.068202
589.669786	2597.343614
590.022155	2599.234047
590.374470	2599.775971
590.726731	2599.191197
591.078937	2596.106011
591.431090	2595.279261
591.783188	2593.961000
592.135232	2595.753130
592.487222	2598.029211
592.839157	2597.139447
593.191038	2594.381936
593.542866	2595.609457
593.894639	2595.266658
594.246358	2593.635845
594.598022	2595.725403
594.949633	2594.016452
595.301190	2593.507296
595.652692	2597.089036
596.004141	2593.703901
596.355535	2593.741709
596.706876	2595.370002
597.058162	2592.289857
597.409395	2592.557038
597.760573	2592.221802
598.111698	2590.817840
598.462768	2593.141812
598.813785	2592.325145
599.164748	2592.751123
599.515657	2590.238107
599.866511	2590.573344
600.217312	2591.669795
600.568060	2591.437902
600.918753	2592.322625
601.269392	2591.596698
601.619978	2588.413210
601.970510	2590.971595
602.320988	2592.418407
602.671412	2592.206678
603.021783	2590.908581
603.372100	2593.177100
603.722363	2593.300608
604.072572	2591.679877
604.422728	2591.258941
604.772830	2586.285843
605.122878	2586.656368
605.472872	2589.789445
605.822813	2585.607808
606.172701	2588.309866
606.522534	2588.025041
606.872314	2588.146029
607.222041	2590.497727
607.571714	2591.367326
607.921333	2591.594178
608.270899	2589.005545
608.620411	2594.691967
608.969870	2592.647779
609.319276	2592.529312
609.668627	2594.868407
610.017926	2594.757502
610.367171	2598.344283
610.716362	2598.797987
611.065500	2596.237081
611.414585	2595.029724
611.763616	2595.306988
612.112594	2593.429158
612.461518	2592.093252
612.810389	2593.545104
613.159207	2595.334714
613.507971	2591.362285
613.856682	2592.277254
614.205340	2592.267172
614.553945	2593.061154
614.902496	2593.860177
615.250994	2591.042172
615.599439	2595.538881
615.947830	2594.192893
616.296169	2591.810947
616.644454	2593.124168
616.992686	2592.206678
617.340864	2596.128696
617.688990	2592.809096
618.037063	2594.240784
618.385082	2590.112079
618.733048	2591.538725
619.080961	2592.904878
619.428821	2591.886565
619.776628	2592.433530
620.124382	2592.491503
620.472083	2593.197265
620.819731	2592.312542
621.167326	2590.749785
621.514868	2591.947059
621.862357	2590.933787
622.209793	2588.153590
622.557176	2590.517892
622.904506	2588.884558
623.251783	2581.915162
623.599007	2587.246183
623.946179	2586.759711
624.293297	2584.402972
624.640363	2587.180648
624.987376	2585.801892
625.334336	2587.173086
625.681243	2587.218456
626.028097	2585.998497
626.374899	2586.369022
626.721647	2587.170565
627.068343	2587.261306
627.414987	2584.828949
627.761577	2584.357602
628.108115	2586.500092
628.454600	2583.762745
628.801032	2584.118147
629.147412	2586.439598
629.493739	2583.432550
629.840014	2586.298446
630.186236	2587.445308
630.532405	2583.069587
630.878521	2583.714854
631.224585	2584.680235
631.570597	2583.684607
631.916556	2583.467838
632.262462	2579.669328
632.608316	2584.619742
632.954117	2581.617734
633.299866	2581.506829
633.645562	2579.961715
633.991206	2580.488516
634.336797	2581.774010
634.682336	2579.097158
635.027823	2579.757549
635.373257	2580.304514
635.718639	2578.509863
636.063968	2580.579257
636.409245	2578.431725
636.754470	2577.743608
637.099642	2576.541292
637.444762	2579.949112
637.789829	2577.650346
638.134845	2578.610686
638.479808	2575.643967
638.824719	2578.144379
639.169577	2574.033318
639.514383	2576.453072
639.859137	2574.376117
640.203839	2573.728329
640.548489	2575.268401
640.893086	2572.851168
641.237632	2572.757907
641.582125	2574.608010
641.926566	2567.938563
642.270955	2576.768144
642.615292	2574.799574
642.959576	2577.151272
643.303809	2577.201684
643.647990	2576.095150
643.992118	2573.935016
644.336195	2573.856878
644.680219	2575.177660
645.024192	2574.330747
645.368112	2576.949626
645.711981	2575.669173
646.055797	2576.211097
646.399562	2577.642785
646.743274	2576.145562
647.086935	2579.762590
647.430544	2577.206725
647.774101	2576.626992
648.117606	2573.453586
648.461059	2578.043556
648.804460	2580.745615
649.147810	2576.523648
649.491108	2573.516600
649.834354	2576.334605
650.177548	2576.816035
650.520690	2576.511046
650.863781	2571.653894
651.206820	2574.895356
651.549807	2575.752352
651.892742	2573.713205
652.235626	2573.604820
652.578458	2572.558781
652.921238	2571.132134
653.263967	2572.674728
653.606644	2574.194635
653.949269	2574.061045
654.291843	2571.147258
654.634365	2571.192628
654.976836	2572.941909
655.319255	2573.980386
655.661622	2571.399316
656.003938	2573.428380
656.346203	2571.301013
656.688416	2572.072310
657.030577	2569.385375
657.372687	2571.048955
657.714746	2571.553071
658.056753	2568.972000
658.398708	2566.186762
658.740612	2569.975190
659.082465	2565.566701
659.424266	2565.591906
659.766016	2568.997206
660.107715	2570.224727
660.449362	2569.234140
660.790958	2572.342011
661.132503	2569.110632
661.473996	2570.650704
661.815438	2569.874367
662.156829	2569.902093
662.498168	2570.857392
662.839456	2571.265725
663.180693	2570.943091
663.521879	2571.384192
663.863013	2571.792526
664.204097	2571.106929
664.545129	2570.010478
664.886110	2571.114490
665.227040	2572.132803
665.567918	2570.993503
665.908746	2569.791187
666.249522	2572.616754
666.590248	2569.781105
666.930922	2573.786302
667.271545	2572.702454
667.612118	2570.706157
667.952639	2572.221024
668.293109	2570.305385
668.633528	2569.178687
668.973896	2569.203893
669.314213	2572.987279
669.654480	2570.358317
669.994695	2571.815211
670.334859	2572.939388
670.674973	2568.646846
671.015035	2569.418142
671.355047	2569.276990
671.695008	2569.529048
672.034918	2570.270097
672.374777	2568.626681
672.714585	2568.616599
673.054342	2567.747000
673.394049	2570.446537
673.733705	2571.341342
674.073310	2570.547361
674.412864	2572.831003
674.752368	2570.771692
675.091820	2570.123904
675.431223	2569.418142
675.770574	2566.801783
676.109875	2564.147616
676.449125	2566.393450
676.788324	2565.715415
677.127473	2567.147102
677.466571	2561.818603
677.805619	2568.883780
678.144616	2566.690878
678.483562	2567.346228
678.822458	2568.636763
679.161303	2567.338666
679.500098	2568.326732
679.838842	2566.481670
680.177535	2564.228274
680.516179	2568.304047
680.854771	2566.229612
681.193314	2569.710529
681.531805	2570.501990
681.870247	2573.181363
682.208638	2572.904100
682.546978	2573.524162
682.885268	2571.295972
683.223508	2569.524006
683.561697	2572.478122
683.899836	2569.909655
684.237925	2570.023081
684.575963	2569.012329
684.913951	2566.872359
685.251889	2571.641291
685.589776	2570.229768
685.927614	2572.710016
686.265401	2567.676423
686.603137	2569.791188
686.940824	2568.818245
687.278460	2570.617937
687.616046	2572.183215
687.953582	2569.166084
688.291068	2572.783112
688.628504	2569.846640
688.965889	2571.936198
689.303224	2570.650704
689.640510	2572.710016
689.977745	2568.893862
690.314930	2569.198852
690.652065	2570.718760
690.989150	2566.857236
691.326185	2564.560990
691.663170	2569.571897
692.000105	2564.981927
692.336990	2563.736762
692.673825	2564.621484
693.010610	2568.087277
693.347345	2560.785166
693.684030	2558.100752
694.020665	2562.428582
694.357251	2559.373643
694.693786	2558.957748
695.030272	2563.827502
695.366707	2559.736606
695.703093	2560.868345
696.039429	2560.031514
696.375716	2563.550239
696.711952	2559.509754
697.048139	2563.245249
697.384276	2562.249621
697.720363	2561.309446
698.056400	2561.707697
698.392388	2561.828685
698.728326	2559.540001
699.064214	2561.856411
699.400053	2560.911195
699.735842	2560.646534
700.071581	2559.484548
700.407270	2558.229301
700.742910	2557.137891
701.078501	2558.030176
701.414042	2560.283571
701.749533	2558.511606
702.084974	2557.674774
702.420366	2559.608057
702.755709	2558.521688
703.091002	2557.906667
703.426246	2557.573951
703.761440	2558.635114
704.096584	2555.645710
704.431679	2556.895916
704.766725	2557.508416
705.101721	2555.164280
705.436668	2556.328786
705.771565	2555.963302
706.106413	2558.526729
706.441212	2557.450443
706.775961	2557.392470
707.110661	2556.391801
707.445311	2558.710731
707.779913	2558.032696
708.114465	2561.188458
708.448967	2558.897254
708.783421	2557.894064
709.117825	2559.114024
709.452180	2560.162584
709.786485	2558.985474
710.120742	2562.655434
710.454949	2558.652758
710.789107	2559.199723
711.123216	2558.065464
711.457275	2560.097049
711.791286	2557.107644
712.125247	2562.708366
712.459159	2562.002605
712.793023	2564.089643
713.126837	2559.567727
713.460602	2563.401525
713.794318	2560.727193
714.127985	2560.822975
714.461602	2559.361040
714.795171	2562.448747
715.128691	2560.467573
715.462162	2561.569066
715.795584	2557.069836
716.128957	2556.931204
716.462281	2557.410114
716.795556	2557.210988
717.128782	2555.580175
717.461960	2557.833571
717.795088	2555.000442
718.128167	2556.447253
718.461198	2555.751574
718.794180	2555.615463
719.127113	2557.982285
719.459997	2554.191337
719.792833	2553.188147
720.125619	2554.957592
720.458357	2553.420040
720.791046	2556.411965
721.123686	2552.104299
721.456278	2555.315514
721.788821	2552.333672
722.121315	2552.368960
722.453761	2554.138405
722.786158	2552.789896
723.118506	2553.813250
723.450805	2553.523384
723.783056	2552.497509
724.115259	2553.646892
724.447412	2554.256872
724.779518	2551.892571
725.111574	2554.183775
725.443582	2555.391132
725.775542	2551.418702
726.107453	2553.551110
726.439315	2555.998591
726.771129	2557.868859
727.102895	2556.588406
727.434612	2555.199568
727.766281	2555.547407
728.097901	2553.518343
728.429473	2553.571275
728.760996	2554.231666
729.092471	2552.457180
729.423897	2555.232335
729.755276	2557.455484
730.086606	2553.588919
730.417887	2555.166800
730.749120	2559.106462
731.080305	2557.226112
731.411442	2557.785680
731.742530	2559.295505
732.073570	2559.938252
732.404562	2559.799621
732.735506	2558.163766
733.066401	2558.894733
733.397249	2559.517316
733.728048	2559.628221
734.058798	2555.691080
734.389501	2552.948692
734.720156	2553.024310
735.050762	2553.412479
735.381320	2551.837118
735.711831	2551.156562
736.042293	2553.399876
736.372707	2553.069680
736.703073	2552.464742
737.033391	2552.898281
737.363661	2552.439536
737.693883	2552.245452
738.024056	2554.168652
738.354182	2554.108158
738.684260	2552.600853
739.014290	2553.402396
739.344272	2553.193188
739.674207	2555.807027
740.004093	2556.391801
740.333931	2553.813250
740.663722	2556.449774
740.993464	2553.997252
741.323159	2558.176369
741.652806	2553.430123
741.982405	2555.058415
742.311956	2552.401727
742.641460	2554.098076
742.970915	2551.280071
743.300323	2554.496327
743.629683	2553.987170
743.958996	2552.313507
744.288260	2551.295194
744.617477	2551.010369
744.946647	2545.981818
745.275768	2552.023641
745.604842	2548.222611
745.933869	2550.322251
746.262847	2542.712630
746.591778	2548.043650
746.920662	2548.227652
747.249498	2550.899463
747.578286	2549.729916
747.907027	2552.661347
748.235720	2548.525080
748.564365	2550.796120
748.892963	2549.104813
749.221514	2553.079763
749.550017	2550.660009
749.878473	2553.230997
750.206881	2550.609597
750.535242	2549.334185
750.863555	2549.679504
751.191821	2550.269319
751.520039	2550.818805
751.848210	2552.731923
752.176334	2549.916438
752.504411	2548.557847
752.832440	2548.071376
753.160421	2550.203784
753.488356	2550.980122
753.816243	2549.566078
754.144082	2548.658671
754.471875	2550.591953
754.799620	2547.710934
755.127318	2549.767724
755.454969	2549.145142
755.782572	2549.586243
756.110129	2549.314021
756.437638	2550.811243
756.765100	2546.896787
757.092515	2549.687066
757.419882	2546.725388
757.747203	2548.555327
758.074477	2548.053732
758.401703	2550.362581
758.728882	2549.949206
759.056014	2550.029864
759.383099	2548.756973
759.710138	2550.967519
760.037129	2549.475337
760.364073	2552.431974
760.690970	2547.690769
761.017820	2552.016079
761.344623	2551.456511
761.671379	2552.109340
761.998088	2547.133722
762.324751	2553.783003
762.651366	2554.110678
762.977935	2563.981258
763.304456	2567.757082
763.630931	2572.407546
763.957359	2568.984603
764.283740	2564.046793
764.610074	2561.674930
764.936362	2555.648230
765.262602	2555.194527
765.588796	2553.684701
765.914943	2550.896943
766.241044	2546.937117
766.567097	2548.431819
766.893104	2548.847714
767.219064	2547.516849
767.544978	2548.479710
767.870845	2546.110367
768.196665	2549.407282
768.522438	2545.497867
768.848165	2545.376879
769.173846	2545.346632
769.499479	2544.847558
769.825066	2546.422919
770.150607	2544.391334
770.476101	2545.157589
770.801548	2544.822352
771.126949	2543.446118
771.452303	2545.535676
771.777611	2546.125491
772.102872	2544.388813
772.428087	2544.592980
772.753256	2542.122815
773.078378	2544.015768
773.403453	2544.683721
773.728482	2542.258926
774.053465	2542.790768
774.378401	2543.010058
774.703291	2541.621220
775.028135	2542.798329
775.352932	2541.079296
775.677683	2542.654656
776.002388	2541.444779
776.327046	2543.400747
776.651658	2542.319420
776.976224	2544.046015
777.300743	2541.414533
777.625216	2541.359080
777.949643	2542.251364
778.274024	2543.219266
778.598359	2538.286497
778.922647	2539.030067
779.246889	2538.634336
779.571086	2536.128883
779.895236	2539.526620
780.219339	2542.974770
780.543397	2543.766231
780.867409	2539.955118
781.191374	2542.571477
781.515294	2541.669111
781.839167	2541.419574
782.162995	2543.602393
782.486776	2542.803370
782.810511	2541.709440
783.134201	2541.490150
783.457844	2540.260108
783.781441	2543.365459
784.104993	2539.077958
784.428498	2543.035263
784.751958	2539.680376
785.075372	2540.983514
785.398739	2540.252547
785.722061	2539.735828
786.045337	2540.091230
786.368568	2542.689944
786.691752	2539.808925
787.014891	2543.189019
787.337983	2539.824048
787.661030	2546.952240
787.984031	2544.421581
788.306987	2545.283618
788.629897	2544.043494
788.952760	2546.541386
789.275579	2545.099616
789.598351	2544.683721
789.921078	2543.879657
790.243759	2544.552651
790.566395	2540.940664
790.888984	2542.276570
791.211529	2540.139121
791.534027	2543.103319
791.856480	2543.342774
792.178888	2540.383617
792.501249	2542.142979
792.823566	2541.326312
793.145836	2542.253885
793.468062	2540.658359
793.790241	2540.718853
794.112375	2540.391178
794.434464	2538.319264
794.756507	2542.531148
795.078505	2542.715150
795.400457	2539.486291
795.722364	2539.163657
796.044226	2541.243133
796.366042	2539.161137
796.687812	2539.849254
797.009538	2541.477547
797.331218	2545.946530
797.652852	2542.256405
797.974442	2541.341436
798.295986	2541.873277
798.617484	2543.917465
798.938938	2538.480581
799.260346	2544.282949
799.581709	2537.835313
799.903026	2542.102650
800.224299	2540.076106
800.545526	2541.570808
800.866708	2541.711961
801.187845	2542.195911
801.508936	2537.832793
801.829983	2539.730787
802.150984	2542.349667
802.471940	2541.923689
802.792851	2536.950591
803.113717	2540.227341
803.434538	2539.589635
803.755314	2538.281455
804.076045	2540.431508
804.396731	2539.854295
804.717372	2540.633154
805.037967	2537.893287
805.358518	2538.311702
805.679024	2538.490663
805.999485	2540.260108
806.319901	2540.817156
806.640272	2538.536034
806.960598	2541.701878
807.280879	2540.925541
807.601115	2539.788760
807.921306	2540.683565
808.241453	2540.658359
808.561554	2537.507638
808.881611	2541.427135
809.201623	2539.982845
809.521590	2541.449821
809.841513	2542.286652
810.161390	2541.059131
810.481223	2540.373534
810.801011	2541.714481
811.120755	2541.298586
811.440453	2537.986548
811.760107	2539.176260
812.079716	2533.968748
812.399281	2537.046373
812.718801	2537.001002
813.038276	2535.476053
813.357707	2540.958308
813.677093	2539.259439
813.996434	2540.605427
814.315731	2540.088709
814.634983	2539.156096
814.954191	2536.985879
815.273354	2541.432177
815.592473	2539.922351
815.911547	2538.097453
816.230577	2542.626930
816.549562	2539.198945
816.868502	2540.471837
817.187399	2541.167516
817.506250	2544.343443
817.825058	2541.243133
818.143821	2543.451159
818.462539	2545.054246
818.781213	2543.793957
819.099843	2543.554502
819.418429	2545.770089
819.736970	2548.114226
820.055466	2551.358208
820.373919	2552.689073
820.692327	2555.557490
821.010691	2562.395815
821.329011	2577.746128
821.647286	2606.329471
821.965517	2642.345994
822.283704	2662.377019
822.601847	2666.629232
822.919945	2652.818991
823.237999	2631.991464
823.556010	2613.044287
823.873976	2599.173553
824.191897	2584.460945
824.509775	2577.650346
824.827609	2570.272618
825.145398	2566.980744
825.463144	2562.347924
825.780845	2565.407904
826.098502	2571.641291
826.416116	2581.524473
826.733685	2588.929928
827.051210	2594.359251
827.368692	2585.847262
827.686129	2578.391396
828.003522	2569.085426
828.320872	2559.567727
828.638177	2556.406924
828.955439	2549.540872
829.272656	2544.189688
829.589830	2541.802701
829.906960	2545.003834
830.224046	2542.478216
830.541088	2544.585418
830.858086	2539.564429
831.175041	2543.662887
831.491952	2543.105840
831.808819	2544.653474
832.125642	2543.627599
832.442421	2547.902497
832.759157	2549.079607
833.075849	2555.620504
833.392497	2562.121072
833.709101	2565.574262
834.025662	2567.729356
834.342179	2562.773901
834.658653	2560.540670
834.975083	2552.973898
835.291469	2555.098745
835.607811	2544.608103
835.924110	2541.613658
836.240366	2542.942002
836.556578	2540.464275
836.872746	2542.102650
837.188871	2539.277083
837.504952	2541.386806
837.820990	2538.326826
838.136984	2537.807587
838.452935	2535.365148
838.768842	2539.443441
839.084706	2537.313554
839.400526	2540.880170
839.716303	2544.618186
840.032037	2547.950388
840.347727	2549.994576
840.663373	2547.214380
840.978977	2540.912938
841.294537	2538.601569
841.610054	2540.401261
841.925527	2539.899666
842.240957	2536.393543
842.556344	2539.493853
842.871687	2535.299613
843.186987	2539.503935
843.502244	2536.834644
843.817458	2535.619726
844.132629	2536.688451
844.447756	2535.342463
844.762840	2533.265507
845.077881	2533.782226
845.392879	2533.076464
845.707833	2535.057637
846.022745	2530.477749
846.337613	2534.581248
846.652438	2533.041176
846.967221	2534.480425
847.281960	2536.940508
847.596656	2537.777340
847.911309	2533.996475
848.225919	2535.352545
848.540485	2532.925229
848.855009	2534.182997
849.169490	2531.949766
849.483928	2536.481763
849.798323	2535.516383
850.112675	2533.250384
850.426984	2530.399611
850.741251	2539.403112
851.055474	2534.175436
851.369654	2535.534027
851.683792	2533.502442
851.997887	2534.740045
852.311938	2534.200641
852.625947	2533.021011
852.939914	2532.416073
853.253837	2538.142824
853.567718	2531.153264
853.881555	2533.663758
854.195350	2534.495549
854.509103	2535.854140
854.822812	2533.275590
855.136479	2537.333718
855.450103	2535.833975
855.763685	2534.893800
856.077224	2532.665610
856.390720	2534.982020
856.704173	2534.230888
857.017584	2535.594520
857.330953	2532.456402
857.644278	2535.352545
857.957561	2534.850950
858.270802	2533.797349
858.584000	2535.360107
858.897155	2534.016639
859.210268	2534.624098
859.523339	2535.072761
859.836367	2533.215096
860.149352	2533.331042
860.462295	2531.836340
860.775195	2532.426155
861.088054	2528.458767
861.400869	2532.920188
861.713642	2530.306350
862.026373	2533.104190
862.339062	2532.262318
862.651708	2532.826927
862.964312	2533.976310
863.276873	2530.755013
863.589392	2538.611651
863.901869	2532.514375
864.214303	2531.153264
864.526696	2537.739531
864.839045	2535.153419
865.151353	2536.335570
865.463619	2532.965559
865.775842	2536.806918
866.088023	2535.665097
866.400162	2536.270035
866.712258	2536.416228
867.024313	2537.926054
867.336325	2534.858512
867.648296	2535.723070
867.960224	2534.240971
868.272110	2535.317257
868.583954	2536.186856
868.895755	2537.058976
869.207515	2538.334387
869.519233	2537.822710
869.830909	2532.716022
870.142542	2533.583100
870.454134	2535.849099
870.765684	2536.446475
871.077191	2534.989582
871.388657	2535.705426
871.700081	2537.905889
872.011463	2534.258615
872.322803	2536.335570
872.634101	2534.838347
872.945357	2536.335570
873.256571	2534.271217
873.567744	2535.259284
873.878874	2537.240457
874.189963	2537.147196
874.501010	2538.299099
874.812015	2534.737524
875.122979	2537.923533
875.433900	2537.737011
875.744780	2534.954294
876.055618	2537.855478
876.366415	2537.648791
876.677169	2537.638708
876.987882	2537.038811
877.298554	2534.462781
877.609183	2538.810777
877.919771	2535.110570
878.230317	2535.576876
878.540822	2540.809594
878.851285	2540.686086
879.161707	2540.136600
879.472087	2544.217414
879.782425	2547.930224
880.092722	2552.530277
880.402977	2562.143757
880.713191	2579.807960
881.023363	2594.316401
881.333494	2607.733432
881.643583	2609.167640
881.953631	2606.599172
882.263637	2603.445931
882.573602	2596.703387
882.883526	2590.505289
883.193408	2581.809298
883.503248	2570.688513
883.813048	2567.530230
884.122806	2559.771894
884.432522	2559.189641
884.742197	2556.164949
885.051831	2551.206974
885.361424	2547.463917
885.670975	2547.375697
885.980485	2541.676673
886.289954	2545.087013
886.599382	2541.437218
886.908768	2544.217414
887.218113	2541.840510
887.527417	2539.282124
887.836680	2539.703061
888.145901	2537.295910
888.455082	2537.353883
888.764221	2541.903524
889.073319	2535.183666
889.382376	2536.484284
889.691392	2536.413708
890.000366	2537.545447
890.309300	2540.683565
890.618193	2539.292207
890.927044	2539.438400
891.235855	2535.609644
891.544625	2536.524613
891.853353	2536.214582
892.162041	2540.333205
892.470687	2540.239944
892.779293	2538.364634
893.087858	2537.966383
893.396381	2541.023843
893.704864	2547.022816
894.013306	2545.429812
894.321707	2553.341902
894.630068	2558.776266
894.938387	2563.318346
895.246665	2561.624518
895.554903	2557.379867
895.863100	2553.909032
896.171256	2550.518856
896.479371	2548.908208
896.787446	2548.053732
897.095480	2546.211190
897.403473	2541.280942
897.711425	2540.320602
898.019336	2543.486447
898.327207	2540.282793
898.635038	2542.079965
898.942827	2541.008720
899.250576	2537.651311
899.558284	2540.522248
899.865952	2540.325643
900.173579	2537.114428
900.481165	2537.910931
900.788711	2535.365148
901.096216	2534.740045
901.403681	2536.464119
901.711105	2538.339429
902.018489	2537.963863
902.325832	2539.082999
902.633135	2538.445293
902.940397	2538.639377
903.247619	2541.510314
903.554800	2543.768751
903.861941	2554.254351
904.169041	2565.377657
904.476101	2571.079202
904.783121	2571.303534
905.090100	2566.910168
905.397039	2557.417675
905.703938	2553.624207
906.010796	2548.641027
906.317614	2545.823022
906.624391	2542.306817
906.931129	2539.655170
907.237826	2538.473019
907.544483	2539.950077
907.851099	2537.641229
908.157675	2535.776002
908.464211	2536.632998
908.770707	2530.933974
909.077163	2532.113604
909.383578	2528.244518
909.689954	2530.543284
909.996289	2530.323994
910.302584	2535.014788
910.608839	2530.918850
910.915054	2533.807431
911.221229	2534.659386
911.527363	2533.512524
911.833458	2532.600075
912.139513	2535.594520
912.445527	2531.944725
912.751502	2533.356248
913.057436	2535.019829
913.363331	2535.942360
913.669186	2536.998482
913.975000	2538.256250
914.280775	2536.504449
914.586510	2543.854451
914.892205	2544.275387
915.197859	2547.547096
915.503475	2556.054043
915.809050	2562.148798
916.114585	2563.315825
916.420081	2569.125755
916.725536	2568.871177
917.030952	2561.995043
917.336328	2557.586554
917.641665	2556.802655
917.946961	2550.826367
918.252218	2548.840152
918.557435	2546.632127
918.862612	2544.494677
919.167750	2542.571477
919.472848	2543.781354
919.777906	2539.808925
920.082925	2538.594007
920.387904	2535.642411
920.692843	2539.259439
920.997743	2536.166691
921.302603	2538.130221
921.607423	2536.244829
921.912204	2535.844058
922.216946	2536.512010
922.521647	2536.922864
922.826310	2534.656866
923.130932	2536.874973
923.435516	2532.784077
923.740059	2535.216434
924.044564	2532.494211
924.349028	2533.094108
924.653454	2529.996319
924.957840	2529.519930
925.262186	2529.351051
925.566493	2529.928263
925.870761	2526.442306
926.174989	2530.893644
926.479178	2527.974816
926.783328	2532.988244
927.087438	2529.759385
927.391509	2533.290713
927.695541	2529.925743
927.999533	2533.636032
928.303486	2530.719725
928.607400	2530.634025
928.911275	2529.555218
929.215110	2528.846936
929.518906	2527.899199
929.822663	2532.282482
930.126381	2534.309026
930.430060	2530.891124
930.733699	2530.669313
931.037299	2530.419776
931.340861	2531.700229
931.644383	2529.908099
931.947866	2530.707122
932.251309	2533.177287
932.554714	2532.678213
932.858080	2533.971269
933.161407	2531.453212
933.464694	2532.889941
933.767943	2529.081350
934.071153	2529.073788
934.374323	2528.297450
934.677455	2532.297606
934.980548	2527.226205
935.283602	2529.910619
935.586617	2530.581093
935.889593	2529.018335
936.192530	2532.037986
936.495428	2533.290713
936.798287	2530.787780
937.101108	2532.824406
937.403890	2529.056144
937.706632	2530.419776
938.009336	2533.661238
938.312002	2534.001516
938.614628	2531.228881
938.917216	2533.603265
939.219765	2533.560415
939.522275	2533.192411
939.824747	2533.618388
940.127179	2529.761905
940.429573	2528.683098
940.731929	2530.029087
941.034246	2527.115300
941.336524	2531.042358
941.638763	2529.996319
941.940964	2532.957997
942.243126	2532.627801
942.545250	2532.829447
942.847335	2532.670651
943.149381	2533.464633
943.451389	2532.973120
943.753359	2530.558408
944.055290	2531.687626
944.357182	2533.033614
944.659036	2531.435568
944.960851	2530.719725
945.262628	2530.888603
945.564367	2532.542102
945.866067	2529.961031
946.167729	2531.125538
946.469352	2531.455733
946.770937	2529.688809
947.072484	2531.629653
947.373992	2528.451205
947.675462	2529.454395
947.976893	2531.123017
948.278286	2530.001360
948.579641	2528.526823
948.880958	2530.661751
949.182236	2530.835671
949.483476	2531.561597
949.784678	2531.531350
950.085841	2530.797863
950.386967	2530.260980
950.688054	2528.882224
950.989103	2530.785260
951.290114	2530.850795
951.591087	2527.800897
951.892021	2530.223171
952.192917	2529.391381
952.493776	2532.169056
952.794596	2532.716022
953.095378	2529.320804
953.396122	2531.717873
953.696828	2530.376926
953.997496	2529.832482
954.298126	2530.318953
954.598718	2532.436237
954.899272	2529.456916
955.199788	2529.590506
955.500266	2528.786442
955.800706	2528.539426
956.101108	2525.723941
956.401472	2526.684281
956.701798	2523.372243
957.002087	2526.091945
957.302337	2530.218130
957.602550	2528.463808
957.902724	2527.301822
958.202861	2527.445495
958.502960	2527.097656
958.803022	2527.022038
959.103045	2529.769467
959.403031	2525.847449
959.702979	2527.261493
960.002889	2528.201668
960.302762	2526.691843
960.602596	2526.044054
960.902393	2525.660927
961.202153	2531.634694
961.501875	2529.245187
961.801559	2529.784591
962.101205	2527.458098
962.400814	2527.629497
962.700385	2527.120341
962.999918	2527.881555
963.299414	2524.927439
963.598873	2528.688140
963.898293	2527.584127
964.197677	2527.090094
964.497022	2525.930628
964.796331	2529.514889
965.095601	2526.041534
965.394835	2524.249404
965.694030	2526.560773
965.993189	2528.284847
966.292309	2524.304856
966.591393	2528.935156
966.890439	2527.722759
967.189447	2530.792821
967.488419	2526.152439
967.787353	2528.206709
968.086249	2526.535567
968.385108	2526.580937
968.683930	2526.265865
968.982714	2529.280475
969.281462	2527.037162
969.580172	2527.972296
969.878844	2527.458098
970.177480	2527.997502
970.476078	2527.453057
970.774639	2528.814168
971.073162	2526.797707
971.371649	2523.198323
971.670098	2526.656555
971.968510	2526.407018
972.266885	2523.284023
972.565223	2528.587317
972.863524	2527.689991
973.161788	2528.375588
973.460014	2527.778211
973.758204	2527.407687
974.056356	2527.684950
974.354471	2528.098325
974.652550	2527.430372
974.950591	2527.810979
975.248595	2526.631349
975.546563	2527.788294
975.844493	2526.724610
976.142386	2527.611853
976.440243	2526.991791
976.738062	2528.942718
977.035845	2525.910464
977.333590	2528.531864
977.631299	2529.071267
977.928971	2527.337110
978.226606	2528.420958
978.524204	2526.729651
978.821765	2528.587317
979.119290	2525.043385
979.416777	2523.825947
979.714228	2528.678057
980.011642	2526.165042
980.309020	2529.706453
980.606360	2527.997502
980.903664	2523.684794
981.200931	2526.996832
981.498162	2525.416431
981.795356	2527.805938
982.092513	2529.237625
982.389633	2524.183869
982.686717	2528.186545
982.983764	2527.750485
983.280775	2529.035979
983.577749	2528.362985
983.874686	2527.818541
984.171587	2526.270906
984.468451	2531.289375
984.765279	2525.275278
985.062070	2528.362985
985.358824	2524.498941
985.655543	2523.798220
985.952224	2528.889786
986.248869	2527.957172
986.545478	2522.399300
986.842050	2523.820906
987.138586	2523.329393
987.435086	2527.074970
987.731549	2523.679753
988.027975	2526.928777
988.324366	2529.356093
988.620719	2530.434899
988.917037	2526.240659
989.213318	2526.563293
989.509563	2527.962213
989.805772	2527.904240
990.101944	2527.795855
990.398080	2524.254445
990.694180	2527.440454
990.990244	2525.076153
991.286271	2525.292922
991.582262	2524.070443
991.878217	2528.622605
992.174136	2524.458612
992.470019	2526.744775
992.765865	2528.093283
993.061676	2527.500948
993.357450	2525.494569
993.653188	2525.572707
993.948890	2527.122861
994.244556	2528.068078
994.540186	2526.686802
994.835780	2527.909281
995.131337	2525.774353
995.426859	2525.509692
995.722345	2526.676719
996.017795	2524.546832
996.313208	2527.674868
996.608586	2529.184693
996.903928	2525.817202
997.199234	2528.103366
997.494504	2526.396935
997.789738	2527.200999
998.084936	2525.348375
998.380099	2529.497245
998.675225	2526.013808
998.970316	2526.684281
999.265371	2525.885258
999.560390	2527.032121
999.855373	2526.434744
1000.150320	2524.650175
1000.445232	2527.170752
1000.740108	2526.023890
1001.034948	2526.737213
1001.329752	2527.553880
1001.624521	2524.619928
1001.919254	2521.401152
1002.213951	2524.456091
1002.508613	2521.905267
1002.803239	2523.120185
1003.097829	2522.288395
1003.392384	2526.732172
1003.686903	2526.444826
1003.981386	2527.221164
1004.275834	2526.245701
1004.570246	2524.173786
1004.864623	2528.264683
1005.158964	2526.558252
1005.453270	2527.548839
1005.747540	2528.398273
1006.041775	2526.676719
1006.335974	2526.361647
1006.630138	2525.305525
1006.924266	2525.429034
1007.218359	2527.087573
1007.512416	2524.130937
1007.806438	2525.179497
1008.100425	2525.842408
1008.394376	2524.103210
1008.688292	2527.626977
1008.982172	2527.117820
1009.276017	2526.772501
1009.569827	2525.441637
1009.863602	2528.398273
1010.157341	2524.425844
1010.451045	2525.328211
1010.744714	2524.808972
1011.038347	2526.195289
1011.331945	2526.520443
1011.625508	2527.125382
1011.919036	2526.124713
1012.212528	2523.558766
1012.505986	2527.556401
1012.799408	2525.192099
1013.092795	2526.149919
1013.386147	2525.232429
1013.679464	2526.752337
1013.972745	2526.822913
1014.265992	2524.677902
1014.559204	2526.162522
1014.852380	2528.791483
1015.145521	2526.462470
1015.438628	2528.088242
1015.731699	2526.956503
1016.024736	2524.103210
1016.317737	2524.191430
1016.610703	2527.006915
1016.903635	2522.243024
1017.196531	2523.399969
1017.489393	2523.823426
1017.782219	2522.101872
1018.075011	2524.219157
1018.367768	2526.081863
1018.660490	2525.887779
1018.953177	2525.887779
1019.245829	2525.887779
