Dividing Wavelength (nm)	Counts (n)	Blue Motor Position (mm): 0.000000	Red Motor Position (mm): 43.200000	
326.493990	2129.620319
326.888308	2129.620319
327.282561	2129.620319
327.676750	2094.329721
328.070874	2094.828796
328.464933	2096.288210
328.858929	2100.058993
329.252859	2113.012238
329.646726	2124.569083
330.040528	2136.486370
330.434265	2153.865748
330.827938	2172.858295
331.221547	2190.643486
331.615091	2210.624099
332.008571	2227.552294
332.401986	2246.461662
332.795338	2268.247008
333.188625	2285.152518
333.581847	2306.116156
333.975006	2325.378405
334.368100	2341.202587
334.761129	2359.323014
335.154095	2375.192567
335.546996	2397.184600
335.939833	2420.764597
336.332606	2434.521906
336.725315	2449.058073
337.117960	2456.594598
337.510540	2466.412246
337.903056	2478.458083
338.295508	2483.847076
338.687896	2492.815289
339.080220	2500.482884
339.472480	2506.623009
339.864676	2510.696262
340.256807	2517.491737
340.648875	2517.393434
341.040879	2522.479959
341.432818	2523.175638
341.824694	2525.350896
342.216506	2525.257634
342.608253	2526.772501
342.999937	2524.814013
343.391557	2525.333252
343.783113	2523.372243
344.174605	2522.961389
344.566033	2518.802437
344.957397	2521.166738
345.348697	2517.688342
345.739934	2517.514422
346.131106	2515.868485
346.522215	2513.090810
346.913260	2510.197187
347.304241	2509.751045
347.695159	2507.863133
348.086012	2509.037722
348.476802	2506.834738
348.867528	2503.028667
349.258191	2499.784684
349.648789	2500.520692
350.039324	2495.797131
350.429796	2498.721001
350.820203	2495.945845
351.210548	2497.753099
351.600828	2495.902996
351.991045	2494.927532
352.381198	2494.274703
352.771288	2491.814620
353.161314	2493.780670
353.551276	2493.266472
353.941175	2494.448623
354.331010	2496.674292
354.720782	2494.695639
355.110490	2493.384939
355.500135	2493.775629
355.889717	2493.281596
356.279235	2495.098932
356.668689	2494.362923
357.058080	2495.247646
357.447408	2495.592965
357.836672	2491.295381
358.225873	2494.451143
358.615010	2493.145484
359.004084	2497.538850
359.393095	2497.127996
359.782043	2499.726711
360.170927	2500.417349
360.559748	2500.684530
360.948505	2501.239057
361.337199	2499.288130
361.725830	2502.154026
362.114398	2502.993378
362.502903	2505.834069
362.891344	2503.134531
363.279722	2503.429438
363.668037	2505.448420
364.056289	2503.860457
364.444478	2504.266270
364.832603	2505.322392
365.220665	2507.235509
365.608665	2507.041425
365.996601	2509.425891
366.384474	2508.405057
366.772284	2513.105933
367.160031	2509.504029
367.547715	2514.358660
367.935336	2518.817560
368.322893	2518.613394
368.710388	2525.623118
369.097820	2530.147554
369.485189	2531.107893
369.872495	2537.076620
370.259738	2545.437373
370.646918	2554.362736
371.034035	2558.781307
371.421090	2569.715570
371.808081	2580.705286
372.195010	2588.317428
372.581875	2604.058431
372.968678	2617.120060
373.355418	2627.126751
373.742096	2645.292549
374.128710	2658.061791
374.515262	2673.434790
374.901751	2689.072449
375.288177	2702.285313
375.674540	2722.492779
376.060841	2741.258474
376.447079	2763.888213
376.833254	2782.217849
377.219367	2794.707307
377.605417	2833.443534
377.991404	2842.804956
378.377329	2867.095756
378.763191	2881.029505
379.148991	2918.339085
379.534727	2941.646860
379.920402	2971.286324
380.306013	2985.494816
380.691563	3037.209493
381.077049	3054.447718
381.462474	3073.493198
381.847835	3109.870164
382.233134	3134.783546
382.618371	3133.125006
383.003545	3202.987837
383.388657	3208.530586
383.773706	3242.840679
384.158693	3255.811568
384.543618	3283.928603
384.928480	3321.838080
385.313280	3365.754092
385.698017	3364.508927
386.082692	3419.200405
386.467305	3424.417999
386.851856	3455.163996
387.236344	3477.259374
387.620770	3510.898993
388.005133	3534.400853
388.389435	3562.805234
388.773674	3573.217737
389.157851	3617.353039
389.541965	3632.244607
389.926018	3598.148763
390.310008	3668.843384
390.693936	3684.649922
391.077802	3729.324628
391.461606	3716.013461
391.845348	3777.467647
392.229027	3779.716002
392.612645	3791.726551
392.996200	3869.798900
393.379694	3910.607041
393.763125	3975.337977
394.146494	3938.615691
394.529801	4004.216226
394.913047	4052.276067
395.296230	4018.132332
395.679351	4069.426072
396.062410	4096.466821
396.445408	4077.491918
396.828343	4109.505766
397.211217	4134.532574
397.594028	4052.613824
397.976778	4121.191160
398.359466	4143.846106
398.742092	4175.048327
399.124656	4098.591667
399.507158	4179.131662
399.889598	4204.130744
400.271977	4266.273047
400.654294	4237.336824
401.036549	4244.979213
401.418742	4213.066189
401.800874	4316.006551
402.182944	4336.871886
402.564952	4400.680291
402.946898	4389.372983
403.328783	4387.205287
403.710606	4300.343686
404.092367	4492.174713
404.474067	4457.171461
404.855705	4466.059015
405.237282	4394.698962
405.618797	4501.921784
406.000250	4534.109551
406.381642	4616.229947
406.762972	4577.108073
407.144240	4585.655349
407.525447	4590.131894
407.906593	4650.300586
408.287677	4691.902708
408.668700	4618.032160
409.049661	4671.642310
409.430560	4710.907858
409.811399	4639.850274
410.192176	4798.107216
410.572891	4739.473556
410.953545	4841.652703
411.334138	4723.982090
411.714669	4791.795692
412.095139	4684.691337
412.475547	4826.166279
412.855894	4810.652128
413.236180	4818.095391
413.616405	4771.371457
413.996568	4860.201629
414.376670	4800.156445
414.756711	4756.018623
415.136691	4789.532214
415.516609	4866.477865
415.896466	4898.327875
416.276262	4932.733750
416.655997	4916.370165
417.035670	5100.762970
417.415283	5189.638512
417.794834	5135.131036
418.174324	5091.888018
418.553753	4995.165920
418.933121	5176.627294
419.312428	5245.043313
419.691674	5184.352862
420.070859	5308.778622
420.449983	5224.218307
420.829045	5337.493034
421.208047	5246.669086
421.586988	5316.294982
421.965867	5325.603472
422.344686	5465.845852
422.723444	5319.221372
423.102141	5136.222446
423.480777	5430.131797
423.859352	5202.521181
424.237866	5460.998782
424.616319	5453.285817
424.994712	5562.877981
425.373044	5442.270896
425.751314	5581.215178
426.129524	5383.372575
426.507673	5575.806020
426.885762	5665.586450
427.263789	5592.552733
427.641756	5475.660978
428.019662	5598.410554
428.397508	5605.931956
428.775292	5551.515220
429.153016	5649.963914
429.530679	5573.945834
429.908282	5658.584287
430.285824	5532.779772
430.663305	5808.011649
431.040726	5544.964241
431.418086	5539.300505
431.795385	5647.229088
432.172624	5658.637219
432.549802	5652.156816
432.926920	5667.068549
433.303977	5673.279250
433.680974	5714.364654
434.057910	5733.102623
434.434786	5738.703345
434.811601	5705.043561
435.188355	5939.197595
435.565050	5815.371733
435.941683	5795.181912
436.318257	6008.861300
436.694770	5991.612992
437.071222	6030.732346
437.447614	5958.389268
437.823946	5873.145877
438.200218	6023.432755
438.576429	5892.849227
438.952580	5988.542930
439.328670	6034.329209
439.704700	5944.642041
440.080670	5929.747952
440.456580	6202.136618
440.832429	6083.130099
441.208218	5930.436070
441.583947	6086.086736
441.959616	6085.897693
442.335224	6011.868348
442.710773	6150.318598
443.086261	6181.477970
443.461689	5975.892154
443.837057	6125.725329
444.212365	6275.487927
444.587612	6171.738460
444.962800	6321.700184
445.337927	6302.896681
445.712995	5914.780767
446.088002	6493.646380
446.462949	6320.291182
446.837837	6253.425317
447.212664	6428.186998
447.587431	6565.253450
447.962139	7106.247396
448.336786	8038.770117
448.711374	7776.693131
449.085901	6856.128027
449.460369	6773.503516
449.834776	6705.458021
450.209124	7096.593586
450.583412	7251.939262
450.957640	7393.630974
451.331808	7163.560274
451.705917	6716.089814
452.079965	6639.539893
452.453954	6852.916812
452.827883	6729.151444
453.201752	6821.205434
453.575562	6614.679443
453.949311	6822.611916
454.323001	6710.206788
454.696632	6782.592716
455.070202	6921.781494
455.443713	7075.813950
455.817164	7180.128026
456.190556	7259.553925
456.563888	7332.857343
456.937160	7377.002728
457.310373	7038.234669
457.683526	7060.279634
458.056619	6951.398273
458.429653	6936.771365
458.802628	6873.487240
459.175542	6980.687377
459.548398	7336.199628
459.921194	7500.178281
460.293930	7502.855133
460.666607	8029.481791
461.039224	8342.686158
461.411782	8461.801062
461.784280	8483.220925
462.156719	8374.115232
462.529099	8256.379084
462.901419	7839.052204
463.273680	7735.479178
463.645882	7748.543328
464.018024	7612.510312
464.390106	7779.720344
464.762130	8170.994541
465.134094	8636.083833
465.505999	9653.423967
465.877845	10885.875177
466.249631	11533.565144
466.621358	11146.132306
466.993026	10520.774651
467.364634	10264.434498
467.736184	9896.810875
468.107674	9566.148991
468.479105	9601.588303
468.850477	9361.112661
469.221790	9135.498342
469.593043	8806.575656
469.964238	8665.526692
470.335373	8679.034464
470.706449	8739.752641
471.077467	8719.532573
471.448425	10026.978508
471.819324	11102.818712
472.190164	11130.149328
472.560945	9883.343432
472.931667	9091.012679
473.302330	8956.600394
473.672934	8601.400694
474.043479	8959.902350
474.413965	8899.716014
474.784393	8776.439638
475.154761	8938.474926
475.525070	9020.292853
475.895321	8855.232873
476.265513	9028.900623
476.635645	9199.687353
477.005719	9198.840440
477.375734	9309.105598
477.745691	9549.929079
478.115588	9677.329119
478.485427	9929.482593
478.855207	10459.625455
479.224928	11274.298602
479.594591	11904.392421
479.964194	11713.710777
480.333739	11655.044349
480.703226	11573.337327
481.072653	11665.933241
481.442022	11898.564847
481.811333	12089.748086
482.180584	11896.195505
482.549777	11603.727923
482.918912	11427.211921
483.287988	11450.338214
483.657005	11465.244906
484.025964	11152.766465
484.394864	11271.704928
484.763706	11245.372461
485.132489	11003.787766
485.501213	10964.809564
485.869879	11047.842409
486.238487	10885.764272
486.607036	10997.899698
486.975527	10773.863259
487.343959	10957.696496
487.712333	11008.970072
488.080648	10944.297109
488.448905	10981.455454
488.817104	10919.897924
489.185244	11188.788029
489.553326	11344.468942
489.921350	11883.910213
490.289315	12945.025206
490.657222	13285.073718
491.025070	13192.545860
491.392861	13065.160944
491.760593	12691.435003
492.128267	12339.479286
492.495883	12015.691015
492.863440	11683.824296
493.230939	11346.258552
493.598380	11273.839857
493.965763	11141.814558
494.333088	11038.271778
494.700354	10967.120933
495.067563	11023.236537
495.434713	10853.528613
495.801805	10982.829168
496.168839	10908.514999
496.535815	10833.399286
496.902733	10841.661737
497.269593	10772.466860
497.636395	10869.231808
498.003139	10854.125990
498.369825	10728.311393
498.736453	10886.202852
499.103023	10808.458178
499.469535	10840.043527
499.835989	10826.208080
500.202385	10793.496033
500.568723	10642.342076
500.935003	10862.320386
501.301226	10667.326034
501.667390	10925.440673
502.033497	11028.174347
502.399546	10890.734849
502.765537	10792.026537
503.131470	10868.273988
503.497345	11042.934846
503.863163	10652.653756
504.228923	10968.219905
504.594625	11034.380008
504.960269	10782.735690
505.325856	10991.719243
505.691385	10787.363469
506.056856	10953.174581
506.422270	10972.605708
506.787625	10857.937103
507.152924	10976.305915
507.518164	10961.071548
507.883347	10878.552901
508.248472	10799.684049
508.613540	11030.964626
508.978550	10908.429299
509.343503	10884.864426
509.708398	11011.052068
510.073236	11121.279418
510.438016	11121.470982
510.802738	11070.963661
511.167403	11128.770572
511.532010	11025.318534
511.896561	11247.802297
512.261053	11320.218472
512.625488	11194.597959
512.989866	11176.903509
513.354186	11169.646768
513.718449	11070.278064
514.082655	11256.904100
514.446803	11157.800057
514.810894	11278.323963
515.174927	11148.085753
515.538904	11172.260607
515.902822	11315.386526
516.266684	11203.293950
516.630488	11146.643983
516.994235	11208.251924
517.357925	11269.544793
517.721558	11354.130314
518.085133	11367.683456
518.448651	11382.370858
518.812112	11264.329720
519.175516	11278.694488
519.538863	11402.497664
519.902152	11314.592544
520.265385	11479.735703
520.628560	11386.355890
520.991678	11364.414268
521.354739	11430.652509
521.717743	11359.594925
522.080690	11348.411125
522.443580	11471.064918
522.806413	11426.407857
523.169189	11458.724174
523.531908	11515.414469
523.894569	11339.279075
524.257174	11341.852584
524.619722	11459.608896
524.982213	11402.626214
525.344647	11460.271808
525.707025	11410.860939
526.069345	11506.957934
526.431608	11421.117166
526.793815	11531.349557
527.155964	11316.777884
527.518057	11375.260310
527.880093	11313.420476
528.242072	11392.080120
528.603995	11290.228648
528.965860	11217.867925
529.327669	11268.029927
529.689421	11222.286497
530.051117	11191.883298
530.412755	11291.083123
530.774337	11184.049345
531.135862	11160.542444
531.497331	11185.087823
531.858743	11031.630058
532.220098	11202.973836
532.581396	11077.905330
532.942638	11059.152238
533.303824	11017.373675
533.664953	11033.764987
534.026025	10942.036152
534.387040	11044.613550
534.747999	11054.564788
535.108902	11103.083373
535.469748	10861.415499
535.830537	10965.442229
536.191270	10944.125710
536.551947	10972.729217
536.912567	10968.061108
537.273131	10893.189891
537.633638	10867.308608
537.994089	10861.349964
538.354483	10806.807200
538.714821	10954.875970
539.075103	10960.693462
539.435328	10927.578122
539.795497	10751.898952
540.155609	10909.818137
540.515665	10995.303504
540.875665	10729.735519
541.235609	10803.056581
541.595496	10796.785386
541.955328	10954.875970
542.315102	10834.263844
542.674821	10783.708633
543.034483	10787.199632
543.394090	10791.318254
543.753640	10717.931657
544.113134	10942.565473
544.472571	10793.690117
544.831953	10942.099166
545.191278	10744.654814
545.550548	10775.199165
545.909761	10910.513817
546.268918	10887.432894
546.628019	10964.461724
546.987064	10831.713020
547.346053	10757.212328
547.704986	10847.322953
548.063863	10835.209060
548.422684	10825.910652
548.781449	10737.806406
549.140158	10852.863181
549.498811	10729.317103
549.857408	10579.105842
550.215949	10812.823817
550.574434	10660.321351
550.932864	10761.126784
551.291237	10820.372945
551.649555	10761.512432
552.007817	10776.613209
552.366022	10743.018959
552.724173	10733.244162
553.082267	10716.827645
553.440305	10856.230672
553.798288	10654.183746
554.156215	10812.072685
554.514086	10784.820207
554.871902	10626.855651
555.229661	10676.304329
555.587365	10651.189301
555.945014	10549.368076
556.302606	10671.742085
556.660143	10570.253576
557.017625	10715.315298
557.375050	10619.634198
557.732421	10745.819320
558.089735	10663.867803
558.446994	10668.954327
558.804197	10703.957579
559.161345	10707.599813
559.518437	10550.827490
559.875474	10644.824844
560.232455	10668.848463
560.589381	10621.980856
560.946251	10619.576225
561.303065	10731.010931
561.659825	10658.516618
562.016528	10586.153375
562.373177	10467.973606
562.729770	10582.667417
563.086307	10501.146918
563.442789	10596.374315
563.799216	10474.640532
564.155587	10519.597542
564.511904	10476.793104
564.868164	10467.156939
565.224370	10481.226799
565.580520	10399.388708
565.936615	10410.086036
566.292654	10278.476632
566.648638	10410.259956
567.004567	10369.260252
567.360441	10353.544454
567.716260	10260.386452
568.072023	10359.132573
568.427732	10306.026538
568.783385	10210.889883
569.138982	10287.210432
569.494525	10302.331372
569.850013	10180.847127
570.205445	10262.412996
570.560823	10156.826028
570.916145	10072.651362
571.271412	10148.626592
571.626625	10090.630637
571.981782	10067.789169
572.336884	10040.874449
572.691931	10046.230675
573.046923	9994.095062
573.401860	9954.022930
573.756743	9880.752279
574.111570	9925.321120
574.466342	9910.779912
574.821059	9943.643194
575.175722	9834.464405
575.530330	9845.197021
575.884882	9839.863480
576.239380	9756.407178
576.593823	9736.396318
576.948211	9758.458928
577.302544	9637.072985
577.656823	9652.839193
578.011047	9654.732147
578.365216	9630.300194
578.719330	9549.586280
579.073389	9563.842663
579.427394	9506.416359
579.781344	9484.676383
580.135239	9435.303323
580.489080	9443.752296
580.842866	9342.823355
581.196597	9347.279735
581.550273	9392.503926
581.903895	9359.721303
582.257463	9422.183720
582.610975	9301.904309
582.964434	9331.533691
583.317837	9249.441021
583.671186	9237.271676
584.024481	9228.704235
584.377721	9149.721957
584.730906	9124.715313
585.084037	9159.731168
585.437113	9082.082275
585.790135	9110.373231
586.143103	9012.032922
586.496016	8987.238007
586.848874	9041.609372
587.201679	9028.704018
587.554428	8914.100947
587.907124	8963.423596
588.259765	8934.852857
588.612352	8933.917723
588.964884	8813.287952
589.317362	8827.448553
589.669786	8825.225405
590.022155	8880.357984
590.374470	8896.124192
590.726731	8835.285027
591.078937	8683.117798
591.431090	8796.329511
591.783188	8667.099532
592.135232	8660.334303
592.487222	8656.631576
592.839157	8709.828352
593.191038	8648.490112
593.542866	8584.107016
593.894639	8484.506419
594.246358	8543.908855
594.598022	8558.591216
594.949633	8451.045760
595.301190	8426.197913
595.652692	8451.607849
596.004141	8574.428001
596.355535	8342.161878
596.706876	8323.736461
597.058162	8259.358406
597.409395	8338.819593
597.760573	8402.895179
598.111698	8300.365672
598.462768	8291.727655
598.813785	8255.050740
599.164748	8223.725010
599.515657	8216.866520
599.866511	8130.148592
600.217312	8250.995132
600.568060	8110.702341
600.918753	8214.310655
601.269392	8185.949124
601.619978	8095.384795
601.970510	8159.694794
602.320988	8151.412179
602.671412	8213.685552
603.021783	8144.972105
603.372100	8119.579813
603.722363	8121.460163
604.072572	8099.838654
604.422728	8109.852906
604.772830	8041.782206
605.122878	8045.616003
605.472872	8048.118936
605.822813	8075.275632
606.172701	8012.931683
606.522534	8091.452695
606.872314	8089.050585
607.222041	8059.837098
607.571714	8112.101261
607.921333	8073.037360
608.270899	8075.663801
608.620411	8166.018922
608.969870	8074.728667
609.319276	8066.549395
609.668627	8085.047909
610.017926	8116.928166
610.367171	8161.678488
610.716362	8137.987586
611.065500	8127.764126
611.414585	8153.080801
611.763616	8140.480437
612.112594	8124.048796
612.461518	8135.552709
612.810389	8194.521606
613.159207	8136.931464
613.507971	8086.635872
613.856682	8202.680713
614.205340	8149.700707
614.553945	8232.000064
614.902496	8126.518961
615.250994	8190.796193
615.599439	8162.653952
615.947830	8176.522166
616.296169	8151.024010
616.644454	8161.207141
616.992686	8155.568610
617.340864	8211.948875
617.688990	8118.601829
618.037063	8214.189668
618.385082	8157.421234
618.733048	8237.625992
619.080961	8179.395624
619.428821	8191.443981
619.776628	8197.561422
620.124382	8151.455028
620.472083	8125.316646
620.819731	8156.665061
621.167326	8046.354532
621.514868	8056.552787
621.862357	7945.473482
622.209793	7958.729196
622.557176	7896.649907
622.904506	7864.073971
623.251783	7796.739279
623.599007	7750.234635
623.946179	7758.338290
624.293297	7713.378759
624.640363	7629.748538
624.987376	7611.761701
625.334336	7555.290695
625.681243	7501.829259
626.028097	7494.943043
626.374899	7466.248795
626.721647	7457.646066
627.068343	7390.926395
627.414987	7360.082095
627.761577	7309.524363
628.108115	7348.028696
628.454600	7237.577015
628.801032	7281.677029
629.147412	7248.793582
629.493739	7234.118784
629.840014	7169.387848
630.186236	7224.323822
630.532405	7103.736901
630.878521	7151.302708
631.224585	7105.713033
631.570597	7028.424583
631.916556	7059.067237
632.262462	7051.961731
632.608316	7009.800040
632.954117	6983.517985
633.299866	6968.260933
633.645562	6959.559901
633.991206	6878.074690
634.336797	6819.635114
634.682336	6778.574916
635.027823	6742.961685
635.373257	6738.623772
635.718639	6666.560478
636.063968	6680.053126
636.409245	6569.505663
636.754470	6567.227062
637.099642	6522.809455
637.444762	6464.828624
637.789829	6471.510674
638.134845	6411.836015
638.479808	6397.498974
638.824719	6398.194653
639.169577	6323.701522
639.514383	6340.100396
639.859137	6263.605927
640.203839	6274.666219
640.548489	6257.884218
640.893086	6234.130301
641.237632	6199.787440
641.582125	6222.197890
641.926566	6182.760943
642.270955	6195.323499
642.615292	6189.322005
642.959576	6194.549682
643.303809	6184.537950
643.647990	6187.250091
643.992118	6176.479666
644.336195	6120.517817
644.680219	6139.883409
645.024192	6128.644157
645.368112	6209.708431
645.711981	6229.270629
646.055797	6294.309075
646.399562	6245.876189
646.743274	6358.074630
647.086935	6403.954171
647.430544	6391.270628
647.774101	6407.553555
648.117606	6408.718062
648.461059	6392.455299
648.804460	6353.898034
649.147810	6267.409478
649.491108	6237.061732
649.834354	6204.337082
650.177548	6125.322036
650.520690	6037.752153
650.863781	6016.488566
651.206820	6026.704464
651.549807	5950.343586
651.892742	5891.024329
652.235626	5890.608434
652.578458	5875.500096
652.921238	5784.988699
653.263967	5818.149409
653.606644	5758.744452
653.949269	5752.478298
654.291843	5698.013672
654.634365	5734.403241
654.976836	5681.211506
655.319255	5681.813924
655.661622	5652.499614
656.003938	5645.371423
656.346203	5603.003045
656.688416	5627.283763
657.030577	5578.364406
657.372687	5548.898862
657.714746	5536.384197
658.056753	5567.483075
658.398708	5508.746071
658.740612	5500.445811
659.082465	5533.034350
659.424266	5523.567063
659.766016	5520.633112
660.107715	5487.550540
660.449362	5494.242672
660.790958	5481.687678
661.132503	5468.736954
661.473996	5489.564481
661.815438	5478.519313
662.156829	5469.024299
662.498168	5457.850582
662.839456	5432.939720
663.180693	5453.636177
663.521879	5453.532834
663.863013	5437.018014
664.204097	5440.261996
664.545129	5477.702646
664.886110	5462.349812
665.227040	5480.094673
665.567918	5452.479232
665.908746	5464.797292
666.249522	5464.867868
666.590248	5453.109377
666.930922	5466.481037
667.271545	5471.005473
667.612118	5464.925841
667.952639	5443.589158
668.293109	5449.993944
668.633528	5403.491820
668.973896	5408.679167
669.314213	5393.422115
669.654480	5363.772569
669.994695	5357.924830
670.334859	5349.044838
670.674973	5325.154810
671.015035	5325.250592
671.355047	5312.090660
671.695008	5298.862672
672.034918	5273.477942
672.374777	5272.951141
672.714585	5252.960446
673.054342	5246.870732
673.394049	5236.354885
673.733705	5256.020426
674.073310	5230.504626
674.412864	5202.934555
674.752368	5180.110731
675.091820	5178.318601
675.431223	5126.878667
675.770574	5119.387513
676.109875	5075.345472
676.449125	5070.392538
676.788324	5037.856932
677.127473	4988.982945
677.466571	4977.695802
677.805619	4958.025219
678.144616	4941.512920
678.483562	4916.891924
678.822458	4892.633892
679.161303	4872.418865
679.500098	4858.533007
679.838842	4849.252243
680.177535	4840.871324
680.516179	4851.107387
680.854771	4850.993961
681.193314	4903.137136
681.531805	4980.844002
681.870247	5083.663376
682.208638	5153.924458
682.546978	5160.276312
682.885268	5130.755315
683.223508	5057.373759
683.561697	5015.391029
683.899836	4981.920288
684.237925	4942.750523
684.575963	4914.809928
684.913951	4879.710894
685.251889	4904.362137
685.589776	4889.730187
685.927614	4864.554665
686.265401	4899.923401
686.603137	4886.219024
686.940824	4926.949026
687.278460	4941.507879
687.616046	4934.644348
687.953582	4982.419363
688.291068	4962.368173
688.628504	4988.788861
688.965889	4964.102330
689.303224	4927.460703
689.640510	4876.807190
689.977745	4817.046831
690.314930	4742.891458
690.652065	4697.647102
690.989150	4634.809120
691.326185	4572.195468
691.663170	4517.743445
692.000105	4463.034323
692.336990	4409.270417
692.673825	4376.245818
693.010610	4327.563396
693.347345	4286.964463
693.684030	4251.338629
694.020665	4225.205288
694.357251	4160.358405
694.693786	4160.953261
695.030272	4132.793376
695.366707	4103.869756
695.703093	4078.051486
696.039429	4084.869647
696.375716	4059.613466
696.711952	4043.673337
697.048139	4034.997512
697.384276	4011.447762
697.720363	4017.973535
698.056400	4005.839478
698.392388	3972.751865
698.728326	3962.803147
699.064214	3942.192390
699.400053	3930.554886
699.735842	3896.333013
700.071581	3885.663411
700.407270	3862.678270
700.742910	3844.189839
701.078501	3805.655259
701.414042	3798.022952
701.749533	3769.288375
702.084974	3738.607913
702.420366	3756.967795
702.755709	3722.123339
703.091002	3685.244778
703.426246	3700.834547
703.761440	3680.843851
704.096584	3658.614883
704.431679	3659.232425
704.766725	3646.586690
705.101721	3633.502375
705.436668	3641.507728
705.771565	3617.990745
706.106413	3628.859473
706.441212	3634.331645
706.775961	3634.992036
707.110661	3631.811068
707.445311	3646.027122
707.779913	3641.863129
708.114465	3652.570540
708.448967	3672.188190
708.783421	3700.582489
709.117825	3718.360118
709.452180	3723.340778
709.786485	3744.997575
710.120742	3792.787713
710.454949	3785.188174
710.789107	3820.377948
711.123216	3850.985314
711.457275	3851.761652
711.791286	3889.232548
712.125247	3890.003845
712.459159	3849.513297
712.793023	3889.920666
713.126837	3835.987881
713.460602	3828.710976
713.794318	3800.936739
714.127985	3790.239410
714.461602	3725.763052
714.795171	3714.972463
715.128691	3667.701563
715.462162	3626.933752
715.795584	3595.897888
716.128957	3580.192173
716.462281	3553.874830
716.795556	3530.541849
717.128782	3503.160822
717.461960	3466.236891
717.795088	3463.234884
718.128167	3439.412911
718.461198	3408.613982
718.794180	3400.903537
719.127113	3380.953171
719.459997	3364.390460
719.792833	3339.154443
720.125619	3339.509845
720.458357	3315.450938
720.791046	3311.087819
721.123686	3295.883699
721.456278	3275.212448
721.788821	3275.214969
722.121315	3262.959924
722.453761	3249.429467
722.786158	3248.960639
723.118506	3254.581526
723.450805	3239.047210
723.783056	3245.588108
724.115259	3243.188518
724.447412	3239.155595
724.779518	3241.892942
725.111574	3241.262797
725.443582	3254.682349
725.775542	3244.574836
726.107453	3267.844802
726.439315	3264.018566
726.771129	3274.665483
727.102895	3294.676343
727.434612	3310.863488
727.766281	3313.081596
728.097901	3317.767348
728.429473	3312.325423
728.760996	3311.019764
729.092471	3311.705361
729.423897	3297.393525
729.755276	3291.235756
730.086606	3286.222328
730.417887	3311.070175
730.749120	3337.937005
731.080305	3354.333358
731.411442	3370.157540
731.742530	3353.373018
732.073570	3354.872761
732.404562	3372.158878
732.735506	3363.246118
733.066401	3353.733460
733.397249	3313.938592
733.728048	3273.276645
734.058798	3222.355950
734.389501	3183.269364
734.720156	3159.691887
735.050762	3137.162971
735.381320	3124.615539
735.711831	3102.865480
736.042293	3089.950044
736.372707	3092.528594
736.703073	3080.276070
737.033391	3078.715833
737.363661	3085.559199
737.693883	3089.103130
738.024056	3095.424737
738.354182	3101.554780
738.684260	3120.857358
739.014290	3131.322794
739.344272	3130.344810
739.674207	3145.937099
740.004093	3153.007317
740.333931	3145.826193
740.663722	3140.200266
740.993464	3140.316212
741.323159	3128.681229
741.652806	3109.915534
741.982405	3092.906681
742.311956	3076.462437
742.641460	3067.370716
742.970915	3053.177348
743.300323	3034.000798
743.629683	3019.021010
743.958996	3009.009278
744.288260	2997.054182
744.617477	2977.953250
744.946647	2970.731797
745.275768	2956.619087
745.604842	2949.795885
745.933869	2937.737445
746.262847	2928.532298
746.591778	2936.083947
746.920662	2923.153387
747.249498	2920.221956
747.578286	2931.698143
747.907027	2935.529420
748.235720	2942.110646
748.564365	2946.776234
748.892963	2938.556633
749.221514	2931.433482
749.550017	2929.941301
749.878473	2921.119281
750.206881	2909.088568
750.535242	2905.479102
750.863555	2902.832496
751.191821	2899.235633
751.520039	2892.871176
751.848210	2887.822460
752.176334	2891.363871
752.504411	2890.547204
752.832440	2878.496326
753.160421	2878.105636
753.488356	2875.028012
753.816243	2875.121273
754.144082	2867.211703
754.471875	2858.145187
754.799620	2860.007894
755.127318	2857.018490
755.454969	2856.388345
755.782572	2855.924559
756.110129	2850.477592
756.437638	2845.892663
756.765100	2845.254957
757.092515	2850.550689
757.419882	2848.652695
757.747203	2841.650532
758.074477	2843.087261
758.401703	2845.950636
758.728882	2852.133612
759.056014	2854.036647
759.383099	2855.170907
759.710138	2857.920856
760.037129	2862.306660
760.364073	2865.351517
760.690970	2859.077801
761.017820	2856.239631
761.344623	2855.874148
761.671379	2868.587938
761.998088	2879.310472
762.324751	2917.603077
762.651366	3009.102539
762.977935	3185.061494
763.304456	3321.044098
763.630931	3330.070284
763.957359	3210.733570
764.283740	3092.896599
764.610074	3018.968078
764.936362	2950.436112
765.262602	2905.874832
765.588796	2868.285468
765.914943	2840.833865
766.241044	2813.709937
766.567097	2800.658390
766.893104	2788.156328
767.219064	2777.441356
767.544978	2766.733945
767.870845	2751.005545
768.196665	2746.503794
768.522438	2746.092940
768.848165	2740.020871
769.173846	2730.115003
769.499479	2727.627194
769.825066	2721.045967
770.150607	2715.175544
770.476101	2712.370142
770.801548	2711.634133
771.126949	2700.402442
771.452303	2698.685930
771.777611	2693.823737
772.102872	2694.116124
772.428087	2690.322655
772.753256	2683.650688
773.078378	2680.378979
773.403453	2674.042249
773.728482	2670.198369
774.053465	2672.066117
774.378401	2668.355827
774.703291	2661.978768
775.028135	2659.206133
775.352932	2657.086328
775.677683	2655.591626
776.002388	2652.463590
776.327046	2654.716986
776.651658	2649.423774
776.976224	2646.081489
777.300743	2646.300779
777.625216	2642.121663
777.949643	2645.244658
778.274024	2642.676190
778.598359	2636.536064
778.922647	2636.341980
779.246889	2637.083030
779.571086	2631.966258
779.895236	2634.481794
780.219339	2637.193935
780.543397	2639.303658
780.867409	2639.893473
781.191374	2639.522948
781.515294	2637.395581
781.839167	2633.561784
782.162995	2631.976341
782.486776	2634.741414
782.810511	2633.695374
783.134201	2629.317132
783.457844	2627.020887
783.781441	2629.952317
784.104993	2621.909157
784.428498	2625.576596
784.751958	2622.027624
785.075372	2621.989815
785.398739	2619.368415
785.722061	2619.791872
786.045337	2623.638272
786.368568	2620.646347
786.691752	2620.399331
787.014891	2627.550208
787.337983	2636.962042
787.661030	2649.925369
787.984031	2664.322904
788.306987	2675.632733
788.629897	2671.415808
788.952760	2663.044972
789.275579	2654.101965
789.598351	2642.741725
789.921078	2633.723101
790.243759	2625.616925
790.566395	2621.795731
790.888984	2619.607870
791.211529	2616.492437
791.534027	2611.804164
791.856480	2608.373658
792.178888	2606.528596
792.501249	2604.534820
792.823566	2603.844182
793.145836	2602.556167
793.468062	2598.903851
793.790241	2598.752616
794.112375	2601.608430
794.434464	2602.301589
794.756507	2603.796291
795.078505	2605.124635
795.400457	2609.402054
795.722364	2615.451438
796.044226	2623.716410
796.366042	2621.878910
796.687812	2622.922428
797.009538	2624.921246
797.331218	2622.309928
797.652852	2616.368928
797.974442	2612.421705
798.295986	2611.630244
798.617484	2610.828700
798.938938	2603.445931
799.260346	2604.812083
799.581709	2601.265632
799.903026	2602.296547
800.224299	2597.565425
800.545526	2596.955445
800.866708	2595.054930
801.187845	2594.303798
801.508936	2592.499065
801.829983	2593.172059
802.150984	2589.945721
802.471940	2589.355906
802.792851	2591.107707
803.113717	2588.229208
803.434538	2587.931780
803.755314	2588.153590
804.076045	2589.136615
804.396731	2588.357757
804.717372	2586.353898
805.037967	2589.718869
805.358518	2589.381111
805.679024	2592.030238
805.999485	2587.667119
806.319901	2588.216605
806.640272	2589.938159
806.960598	2589.827253
807.280879	2590.414548
807.601115	2593.678695
807.921306	2589.865062
808.241453	2589.610484
808.561554	2589.469332
808.881611	2590.016297
809.201623	2586.583271
809.521590	2587.233580
809.841513	2585.670822
810.161390	2587.611666
810.481223	2583.992118
810.801011	2585.290215
811.120755	2583.051943
811.440453	2584.818867
811.760107	2582.759556
812.079716	2578.487178
812.399281	2578.252764
812.718801	2576.251426
813.038276	2574.562640
813.357707	2579.608835
813.677093	2578.514904
813.996434	2579.253433
814.315731	2578.575398
814.634983	2577.239492
814.954191	2575.195304
815.273354	2579.082034
815.592473	2580.511201
815.911547	2578.207394
816.230577	2583.719896
816.549562	2585.569999
816.868502	2582.336099
817.187399	2584.402972
817.506250	2580.173444
817.825058	2585.408682
818.143821	2587.929259
818.462539	2588.350195
818.781213	2592.922522
819.099843	2599.574324
819.418429	2607.977928
819.736970	2619.726337
820.055466	2627.880403
820.373919	2642.098978
820.692327	2657.993736
821.010691	2689.765608
821.329011	2775.724843
821.647286	2984.605052
821.965517	3310.833241
822.283704	3479.991679
822.601847	3454.480920
822.919945	3272.391923
823.237999	3122.505816
823.556010	2994.538646
823.873976	2890.597615
824.191897	2815.048363
824.509775	2762.136412
824.827609	2722.447408
825.145398	2701.743389
825.463144	2700.626774
825.780845	2708.513659
826.098502	2728.211968
826.416116	2780.541665
826.733685	2833.985458
827.051210	2846.023733
827.368692	2817.049701
827.686129	2764.770415
828.003522	2715.719988
828.320872	2673.782630
828.638177	2647.245996
828.955439	2627.139354
829.272656	2613.790378
829.589830	2601.865529
829.906960	2599.115579
830.224046	2591.246338
830.541088	2588.584609
830.858086	2585.091089
831.175041	2584.864237
831.491952	2579.250913
831.808819	2584.350040
832.125642	2583.828280
832.442421	2590.061667
832.759157	2606.286621
833.075849	2632.488018
833.392497	2673.291117
833.709101	2697.765919
834.025662	2691.280475
834.342179	2666.029335
834.658653	2643.722229
834.975083	2620.699280
835.291469	2607.287290
835.607811	2594.001329
835.924110	2586.250555
836.240366	2577.292424
836.556578	2574.088771
836.872746	2570.847309
837.188871	2567.494942
837.504952	2563.600651
837.820990	2563.295661
838.136984	2560.749878
838.452935	2560.525547
838.768842	2561.858932
839.084706	2564.598799
839.400526	2574.827300
839.716303	2593.983685
840.032037	2610.558999
840.347727	2603.720673
840.663373	2593.978644
840.978977	2581.995821
841.294537	2572.498287
841.610054	2565.274314
841.925527	2563.981258
842.240957	2558.645196
842.556344	2557.992367
842.871687	2554.934907
843.186987	2552.739485
843.502244	2555.048333
843.817458	2552.575647
844.132629	2549.611449
844.447756	2551.703528
844.762840	2545.702034
845.077881	2547.098433
845.392879	2546.559030
845.707833	2546.715306
846.022745	2543.940151
846.337613	2546.841335
846.652438	2546.727909
846.967221	2549.371994
847.281960	2548.477189
847.596656	2551.252344
847.911309	2547.083310
848.225919	2548.678835
848.540485	2547.496685
848.855009	2548.083979
849.169490	2548.373845
849.483928	2547.998279
849.798323	2546.919472
850.112675	2546.455686
850.426984	2547.980635
850.741251	2548.308310
851.055474	2547.781510
851.369654	2547.675646
851.683792	2545.765048
851.997887	2547.685728
852.311938	2547.257230
852.625947	2547.370656
852.939914	2546.259081
853.253837	2547.053063
853.567718	2545.785213
853.881555	2545.104657
854.195350	2543.884698
854.509103	2546.339740
854.822812	2545.787733
855.136479	2545.253371
855.450103	2546.135573
855.763685	2548.956099
856.077224	2545.714637
856.390720	2545.775131
856.704173	2547.733619
857.017584	2545.220604
857.330953	2546.606921
857.644278	2547.161448
857.957561	2548.635985
858.270802	2548.436860
858.584000	2546.959802
858.897155	2546.291849
859.210268	2546.901828
859.523339	2546.324616
859.836367	2546.221273
860.149352	2546.889226
860.462295	2547.151366
860.775195	2542.914276
861.088054	2543.204142
861.400869	2546.140614
861.713642	2541.122146
862.026373	2541.843031
862.339062	2546.062476
862.651708	2543.940151
862.964312	2548.376366
863.276873	2545.880995
863.589392	2544.197249
863.901869	2545.923845
864.214303	2548.091541
864.526696	2548.028526
864.839045	2545.659184
865.151353	2551.368291
865.463619	2549.664381
865.775842	2547.234545
866.088023	2550.165976
866.400162	2550.833928
866.712258	2547.022816
867.024313	2550.493651
867.336325	2546.579195
867.648296	2546.392672
867.960224	2547.184133
868.272110	2547.252189
868.583954	2547.090872
868.895755	2548.358722
869.207515	2548.119267
869.519233	2546.740512
869.830909	2548.615821
870.142542	2549.130018
870.454134	2549.498023
870.765684	2547.085831
871.077191	2546.198587
871.388657	2552.618497
871.700081	2550.523897
872.011463	2552.578168
872.322803	2549.797971
872.634101	2550.327292
872.945357	2552.263096
873.256571	2551.746377
873.567744	2551.806871
873.878874	2555.098745
874.189963	2554.216543
874.501010	2550.723023
874.812015	2550.362581
875.122979	2553.654454
875.433900	2551.592622
875.744780	2551.262427
876.055618	2553.057077
876.366415	2552.409289
876.677169	2551.423743
876.987882	2551.637992
877.298554	2549.508105
877.609183	2551.774104
877.919771	2550.730585
878.230317	2554.735782
878.540822	2556.797613
878.851285	2560.444888
879.161707	2562.814231
879.472087	2569.627350
879.782425	2576.017013
880.092722	2588.957654
880.402977	2616.164762
880.713191	2660.385763
881.023363	2724.027810
881.333494	2761.559200
881.643583	2778.469751
881.953631	2763.805034
882.263637	2737.802763
882.573602	2712.788557
882.883526	2685.173117
883.193408	2663.569252
883.503248	2643.737353
883.813048	2627.633387
884.122806	2615.620317
884.432522	2605.447269
884.742197	2591.475711
885.051831	2585.935483
885.361424	2577.826787
885.670975	2574.728998
885.980485	2569.236661
886.289954	2566.935374
886.599382	2565.831361
886.908768	2562.967986
887.218113	2561.296843
887.527417	2558.637635
887.836680	2559.033365
888.145901	2556.422047
888.455082	2554.433312
888.764221	2554.859290
889.073319	2552.585729
889.382376	2555.325597
889.691392	2554.645041
890.000366	2553.372149
890.309300	2551.370811
890.618193	2555.002963
890.927044	2554.486244
891.235855	2555.418858
891.544625	2553.185627
891.853353	2553.558672
892.162041	2553.329300
892.470687	2559.540001
892.779293	2559.199723
893.087858	2557.223591
893.396381	2560.941442
893.704864	2567.714232
894.013306	2577.070614
894.321707	2594.767584
894.630068	2602.704881
894.938387	2607.713267
895.246665	2604.986003
895.554903	2597.061309
895.863100	2588.864393
896.171256	2584.599577
896.479371	2575.477609
896.787446	2570.070972
897.095480	2568.404870
897.403473	2560.719631
897.711425	2558.355330
898.019336	2562.146278
898.327207	2561.453119
898.635038	2555.401214
898.942827	2556.013714
899.250576	2558.070505
899.558284	2555.154197
899.865952	2553.911553
900.173579	2552.023641
900.481165	2550.450801
900.788711	2551.247303
901.096216	2550.128167
901.403681	2550.032385
901.711105	2551.290153
902.018489	2551.791748
902.325832	2556.795093
902.633135	2553.909032
902.940397	2555.330638
903.247619	2560.737275
903.554800	2571.558112
903.861941	2590.832964
904.169041	2613.810543
904.476101	2622.982922
904.783121	2621.594084
905.090100	2613.729884
905.397039	2599.975096
905.703938	2585.549834
906.010796	2577.063052
906.317614	2569.138358
906.624391	2562.947821
906.931129	2559.527398
907.237826	2558.420865
907.544483	2553.719989
907.851099	2553.853580
908.157675	2549.901315
908.464211	2546.692621
908.770707	2545.087013
909.077163	2544.267826
909.383578	2541.727084
909.689954	2541.265818
909.996289	2543.085675
910.302584	2544.971067
910.608839	2542.735315
910.915054	2546.246478
911.221229	2543.821683
911.527363	2543.947712
911.833458	2544.814791
912.139513	2546.463248
912.445527	2545.964174
912.751502	2546.450645
913.057436	2547.905018
913.363331	2547.292518
913.669186	2549.475337
913.975000	2553.636810
914.280775	2555.307952
914.586510	2560.651576
914.892205	2565.281875
915.197859	2576.962229
915.503475	2590.084352
915.809050	2599.201279
916.114585	2608.968515
916.420081	2611.645367
916.725536	2607.977928
917.030952	2603.758482
917.336328	2594.810434
917.641665	2585.401120
917.946961	2579.271077
918.252218	2573.491394
918.557435	2568.180539
918.862612	2563.860270
919.167750	2561.934549
919.472848	2556.275854
919.777906	2555.088662
920.082925	2557.692418
920.387904	2553.152859
920.692843	2552.048847
920.997743	2549.966850
921.302603	2550.778476
921.607423	2550.097920
921.912204	2548.325954
922.216946	2547.413506
922.521647	2550.609597
922.826310	2546.075079
923.130932	2544.557692
923.435516	2549.019113
923.740059	2542.205994
924.044564	2545.084493
924.349028	2543.350336
924.653454	2537.573173
924.957840	2541.588452
925.262186	2535.292051
925.566493	2537.888245
925.870761	2537.830272
926.174989	2539.140972
926.479178	2539.259439
926.783328	2541.202804
927.087438	2537.739531
927.391509	2539.566950
927.695541	2539.317413
927.999533	2539.526620
928.303486	2539.824048
928.607400	2541.722043
928.911275	2540.421425
929.215110	2538.586445
929.518906	2537.053934
929.822663	2537.805066
930.126381	2538.611651
930.430060	2537.210210
930.733699	2536.443955
931.037299	2538.006713
931.340861	2539.642567
931.644383	2538.551157
931.947866	2539.695499
932.251309	2539.801363
932.554714	2536.615354
932.858080	2536.428831
933.161407	2541.311189
933.464694	2536.315405
933.767943	2539.057793
934.071153	2539.274563
934.374323	2537.071578
934.677455	2536.872453
934.980548	2538.397402
935.283602	2537.096784
935.586617	2537.830272
935.889593	2535.869263
936.192530	2537.162319
936.495428	2535.413039
936.798287	2536.779192
937.101108	2538.518390
937.403890	2538.397402
937.706632	2537.192566
938.009336	2540.517207
938.312002	2540.565098
938.614628	2545.102137
938.917216	2546.894267
939.219765	2542.228679
939.522275	2545.712116
939.824747	2545.356715
940.127179	2543.138607
940.429573	2537.013605
940.731929	2538.311702
941.034246	2537.797505
941.336524	2539.428318
941.638763	2540.000489
941.940964	2542.319420
942.243126	2539.219110
942.545250	2539.251877
942.847335	2540.514687
943.149381	2537.250539
943.451389	2540.975952
943.753359	2539.934954
944.055290	2538.200797
944.357182	2538.407484
944.659036	2539.972762
944.960851	2540.867567
945.262628	2539.476209
945.564367	2540.338246
945.866067	2537.227854
946.167729	2538.599048
946.469352	2540.020653
946.770937	2540.784388
947.072484	2535.934798
947.373992	2540.975952
947.675462	2535.047555
947.976893	2538.437731
948.278286	2538.402443
948.579641	2536.310364
948.880958	2536.554860
949.182236	2539.292207
949.483476	2536.809438
949.784678	2538.450334
950.085841	2539.193904
950.386967	2538.024357
950.688054	2536.751465
950.989103	2535.743234
951.290114	2536.559901
951.591087	2535.483615
951.892021	2539.163657
952.192917	2545.376879
952.493776	2540.262629
952.794596	2539.380427
953.095378	2540.630633
953.396122	2539.665252
953.696828	2539.559388
953.997496	2540.658359
954.298126	2538.704912
954.598718	2538.601569
954.899272	2538.828421
955.199788	2537.966383
955.500266	2535.561753
955.800706	2533.111752
956.101108	2532.262318
956.401472	2537.343801
956.701798	2530.510517
957.002087	2535.317257
957.302337	2534.475384
957.602550	2535.047555
957.902724	2535.551671
958.202861	2533.590662
958.502960	2534.498069
958.803022	2535.423121
959.103045	2533.331042
959.403031	2534.495549
959.702979	2534.588810
960.002889	2534.850950
960.302762	2530.172759
960.602596	2534.316588
960.902393	2531.896834
961.202153	2536.466640
961.501875	2533.552853
961.801559	2533.973789
962.101205	2529.585465
962.400814	2532.514375
962.700385	2534.533357
962.999918	2535.350024
963.299414	2532.166536
963.598873	2534.606454
963.898293	2532.726104
964.197677	2535.413039
964.497022	2530.949097
964.796331	2533.605785
965.095601	2533.628470
965.394835	2536.963194
965.694030	2533.348686
965.993189	2533.630991
966.292309	2532.093439
966.591393	2533.232740
966.890439	2533.328522
967.189447	2533.351207
967.488419	2528.788963
967.787353	2535.400436
968.086249	2530.465146
968.385108	2536.103677
968.683930	2533.139478
968.982714	2533.774664
969.281462	2532.257277
969.580172	2531.760723
969.878844	2533.391536
970.177480	2532.037986
970.476078	2533.736855
970.774639	2531.082688
971.073162	2531.095291
971.371649	2529.240146
971.670098	2527.664785
971.968510	2529.676206
972.266885	2528.093283
972.565223	2531.130579
972.863524	2532.675692
973.161788	2532.806762
973.460014	2532.690816
973.758204	2532.017822
974.056356	2532.214427
974.354471	2532.272400
974.652550	2533.293234
974.950591	2529.353572
975.248595	2532.688295
975.546563	2530.767616
975.844493	2532.040507
976.142386	2531.135620
976.440243	2532.509334
976.738062	2532.158974
977.035845	2534.172915
977.333590	2532.791639
977.631299	2531.027235
977.928971	2532.529499
978.226606	2530.402132
978.524204	2533.157123
978.821765	2533.010929
979.119290	2532.668131
979.416777	2533.341125
979.714228	2530.301309
980.011642	2532.728624
980.309020	2535.274407
980.606360	2534.079654
980.903664	2532.211906
981.200931	2530.795342
981.498162	2532.864736
981.795356	2532.743748
982.092513	2534.243491
982.389633	2531.027235
982.686717	2535.468492
982.983764	2533.656197
983.280775	2534.145189
983.577749	2534.603934
983.874686	2533.794828
984.171587	2531.579241
984.468451	2532.433717
984.765279	2533.487318
985.062070	2533.071423
985.358824	2533.711649
985.655543	2530.203006
985.952224	2531.019673
986.248869	2534.029242
986.545478	2527.483304
986.842050	2529.739220
987.138586	2524.209074
987.435086	2526.039013
987.731549	2525.494569
988.027975	2531.526309
988.324366	2530.707122
988.620719	2533.048738
988.917037	2529.865249
989.213318	2532.068233
989.509563	2531.075126
989.805772	2531.039838
990.101944	2529.446833
990.398080	2532.516896
990.694180	2527.402645
990.990244	2530.641587
991.286271	2529.887934
991.582262	2530.160157
991.878217	2529.461957
992.174136	2530.727286
992.470019	2529.666123
992.765865	2530.432379
993.061676	2529.406504
993.357450	2531.541433
993.653188	2529.842564
993.948890	2529.986237
994.244556	2527.846267
994.540186	2530.530681
994.835780	2532.559746
995.131337	2528.665454
995.426859	2528.438603
995.722345	2531.793490
996.017795	2530.918850
996.313208	2530.477749
996.608586	2530.991947
996.903928	2529.197296
997.199234	2531.846423
997.494504	2532.040507
997.789738	2529.340969
998.084936	2531.652338
998.380099	2530.336597
998.675225	2531.503624
998.970316	2528.698222
999.265371	2531.165867
999.560390	2528.955321
999.855373	2529.035979
1000.150320	2531.395239
1000.445232	2529.182173
1000.740108	2529.242667
1001.034948	2528.988088
1001.329752	2529.366175
1001.624521	2530.238294
1001.919254	2527.241328
1002.213951	2527.831143
1002.508613	2526.671678
1002.803239	2528.867101
1003.097829	2521.247397
1003.392384	2529.386339
1003.686903	2529.169570
1003.981386	2531.017153
1004.275834	2528.751154
1004.570246	2527.672347
1004.864623	2528.451205
1005.158964	2529.807276
1005.453270	2530.003881
1005.747540	2531.397760
1006.041775	2527.480783
1006.335974	2530.714683
1006.630138	2530.848274
1006.924266	2530.013963
1007.218359	2530.659231
1007.512416	2528.332738
1007.806438	2529.416586
1008.100425	2528.468849
1008.394376	2528.660413
1008.688292	2530.157636
1008.982172	2527.485824
1009.276017	2527.758047
1009.569827	2526.651513
1009.863602	2531.317101
1010.157341	2529.620753
1010.451045	2530.457585
1010.744714	2528.138654
1011.038347	2528.612522
1011.331945	2529.025897
1011.625508	2528.534384
1011.919036	2525.151770
1012.212528	2529.416586
1012.505986	2525.469363
1012.799408	2528.985568
1013.092795	2526.767460
1013.386147	2526.870804
1013.679464	2527.901720
1013.972745	2530.729807
1014.265992	2529.340969
1014.559204	2529.305681
1014.852380	2526.742254
1015.145521	2529.131761
1015.438628	2530.230733
1015.731699	2527.155629
1016.024736	2527.057326
1016.317737	2531.223840
1016.610703	2529.567821
1016.903635	2526.011287
1017.196531	2525.534898
1017.489393	2526.873324
1017.782219	2522.900895
1018.075011	2525.711338
1018.367768	2528.620084
1018.660490	2526.951462
1018.953177	2526.951462
1019.245829	2526.951462
