Dividing Wavelength (nm)	Counts (n)	Blue Motor Position (mm): 0.000000	Red Motor Position (mm): 49.600000	
326.493990	2129.970679
326.888308	2129.970679
327.282561	2129.970679
327.676750	2093.442478
328.070874	2093.006418
328.464933	2095.433734
328.858929	2104.187698
329.252859	2114.302773
329.646726	2125.012704
330.040528	2136.788840
330.434265	2153.490182
330.827938	2171.696309
331.221547	2189.148784
331.615091	2207.362473
332.008571	2227.927860
332.401986	2247.974008
332.795338	2266.011257
333.188625	2284.998763
333.581847	2304.379479
333.975006	2325.968220
334.368100	2342.488081
334.761129	2361.470546
335.154095	2376.478061
335.546996	2399.024622
335.939833	2424.290885
336.332606	2439.333688
336.725315	2450.976233
337.117960	2459.213478
337.510540	2467.491053
337.903056	2482.059987
338.295508	2487.827067
338.687896	2495.149343
339.080220	2504.961949
339.472480	2510.088802
339.864676	2516.591891
340.256807	2517.786644
340.648875	2522.853004
341.040879	2524.277130
341.432818	2526.822913
341.824694	2527.679909
342.216506	2529.953469
342.608253	2526.013807
342.999937	2531.309540
343.391557	2528.834333
343.783113	2528.221833
344.174605	2524.710669
344.566033	2525.585309
344.957397	2522.545494
345.348697	2520.670184
345.739934	2520.367715
346.131106	2516.324710
346.522215	2516.276819
346.913260	2514.623320
347.304241	2512.432939
347.695159	2508.911693
348.086012	2510.943278
348.476802	2508.894049
348.867528	2504.999758
349.258191	2505.670231
349.648789	2504.417504
350.039324	2500.863491
350.429796	2500.555981
350.820203	2500.755106
351.210548	2500.384581
351.600828	2496.999447
351.991045	2497.674961
352.381198	2490.662716
352.771288	2497.937101
353.161314	2497.551453
353.551276	2496.817965
353.941175	2496.008860
354.331010	2496.490290
354.720782	2498.365599
355.110490	2494.415855
355.500135	2496.094559
355.889717	2496.303767
356.279235	2497.090187
356.668689	2497.942142
357.058080	2497.826196
357.447408	2496.878459
357.836672	2493.112717
358.225873	2495.275372
358.615010	2495.116576
359.004084	2500.203100
359.393095	2501.060096
359.782043	2502.786691
360.170927	2502.254849
360.559748	2504.999758
360.948505	2502.511948
361.337199	2507.031343
361.725830	2505.173677
362.114398	2506.421363
362.502903	2506.887670
362.891344	2505.405571
363.279722	2506.310458
363.668037	2508.649553
364.056289	2510.108967
364.444478	2512.979904
364.832603	2510.310613
365.220665	2510.890346
365.608665	2511.402023
365.996601	2512.939575
366.384474	2515.485358
366.772284	2511.628875
367.160031	2514.802281
367.547715	2520.191275
367.935336	2519.369567
368.322893	2523.261338
368.710388	2523.858714
369.097820	2535.128214
369.485189	2533.424304
369.872495	2542.362269
370.259738	2548.603218
370.646918	2558.201575
371.034035	2563.812379
371.421090	2572.667166
371.808081	2585.658219
372.195010	2589.441605
372.581875	2606.962135
372.968678	2617.755246
373.355418	2630.426186
373.742096	2647.427477
374.128710	2660.282420
374.515262	2675.363031
374.901751	2690.909950
375.288177	2703.389326
375.674540	2727.912019
376.060841	2745.450193
376.447079	2767.893410
376.833254	2783.014351
377.219367	2795.851649
377.605417	2834.247598
377.991404	2845.726305
378.377329	2866.649614
378.763191	2882.758621
379.148991	2921.636000
379.534727	2946.130966
379.920402	2974.318578
380.306013	2990.319200
380.691563	3037.517003
381.077049	3060.343348
381.462474	3074.720718
381.847835	3115.770834
382.233134	3138.032570
382.618371	3136.807569
383.003545	3206.395657
383.388657	3212.029146
383.773706	3248.171699
384.158693	3263.516971
384.543618	3286.333233
384.928480	3324.023420
385.313280	3368.370451
385.698017	3368.947663
386.082692	3423.465221
386.467305	3426.099224
386.851856	3460.071560
387.236344	3485.852020
387.620770	3513.532996
388.005133	3541.317316
388.389435	3564.531829
388.773674	3577.699323
389.157851	3619.119963
389.541965	3636.222078
389.926018	3602.274948
390.310008	3672.687264
390.693936	3687.795602
391.077802	3732.293867
391.461606	3717.881208
391.845348	3782.365128
392.229027	3783.214562
392.612645	3798.801810
392.996200	3873.539436
393.379694	3914.670211
393.763125	3979.161692
394.146494	3948.413174
394.529801	4007.757637
394.913047	4055.847724
395.296230	4022.729864
395.679351	4077.933019
396.062410	4101.311370
396.445408	4084.420984
396.828343	4114.274697
397.211217	4139.495590
397.594028	4056.387127
397.976778	4121.828866
398.359466	4152.116118
398.742092	4177.800797
399.124656	4102.533850
399.507158	4180.409594
399.889598	4208.032597
400.271977	4267.626597
400.654294	4241.979727
401.036549	4247.227568
401.418742	4219.854103
401.800874	4319.938651
402.182944	4340.945139
402.564952	4404.690529
402.946898	4395.308942
403.328783	4388.198394
403.710606	4303.280158
404.092367	4496.741998
404.474067	4460.017192
404.855705	4468.259479
405.237282	4398.250455
405.618797	4507.832537
406.000250	4539.216240
406.381642	4622.493581
406.762972	4581.756017
407.144240	4595.599025
407.525447	4591.223304
407.906593	4653.632788
408.287677	4698.486455
408.668700	4622.864106
409.049661	4672.128782
409.430560	4717.284917
409.811399	4644.568794
410.192176	4804.887568
410.572891	4743.304833
410.953545	4846.628322
411.334138	4729.267740
411.714669	4798.369356
412.095139	4692.419426
412.475547	4833.438143
412.855894	4812.242612
413.236180	4820.973890
413.616405	4775.084267
413.996568	4865.968709
414.376670	4805.053926
414.756711	4761.140435
415.136691	4791.384838
415.516609	4868.648082
415.896466	4904.457918
416.276262	4942.558959
416.655997	4922.573305
417.035670	5100.843628
417.415283	5195.282084
417.794834	5136.900481
418.174324	5096.387248
418.553753	4998.611549
418.933121	5186.991906
419.312428	5251.369962
419.691674	5191.544068
420.070859	5313.295495
420.449983	5227.308534
420.829045	5346.078119
421.208047	5250.538171
421.586988	5328.706303
421.965867	5335.257282
422.344686	5463.640347
422.723444	5319.637267
423.102141	5141.034227
423.480777	5438.321152
423.859352	5208.197520
424.237866	5464.436849
424.616319	5456.832269
424.994712	5565.948044
425.373044	5444.927584
425.751314	5586.445375
426.129524	5392.706271
426.507673	5583.929840
426.885762	5668.192726
427.263789	5597.064566
427.641756	5481.425538
428.019662	5602.745946
428.397508	5613.029900
428.775292	5549.246701
429.153016	5650.203369
429.530679	5583.718111
429.908282	5666.871944
430.285824	5537.795720
430.663305	5810.239839
431.040726	5545.022214
431.418086	5548.210744
431.795385	5651.720756
432.172624	5666.438405
432.549802	5655.678062
432.926920	5670.400752
433.303977	5680.921640
433.680974	5718.538730
434.057910	5735.229990
434.434786	5742.416155
434.811601	5709.023552
435.188355	5945.153718
435.565050	5817.678061
435.941683	5799.844979
436.318257	6017.859760
436.694770	5997.143138
437.071222	6034.198139
437.447614	5963.685000
437.823946	5875.603439
438.200218	6033.812491
438.576429	5892.660183
438.952580	5996.465103
439.328670	6037.789962
439.704700	5948.460715
440.080670	5932.399599
440.456580	6202.993614
440.832429	6087.873825
441.208218	5932.472696
441.583947	6088.539257
441.959616	6098.447645
442.335224	6017.343042
442.710773	6159.385113
443.086261	6184.278331
443.461689	5980.310725
443.837057	6129.864116
444.212365	6283.682323
444.587612	6173.051681
444.962800	6327.071534
445.337927	6315.234905
445.712995	5924.618578
446.088002	6495.297358
446.462949	6330.471792
446.837837	6261.667604
447.212664	6436.015910
447.587431	6577.657209
447.962139	7116.596885
448.336786	8038.439921
448.711374	7784.101107
449.085901	6856.281782
449.460369	6779.169773
449.834776	6709.352312
450.209124	7103.255471
450.583412	7251.460353
450.957640	7400.996099
451.331808	7162.683113
451.705917	6715.487397
452.079965	6638.357743
452.453954	6849.478745
452.827883	6732.332412
453.201752	6820.960938
453.575562	6621.187573
453.949311	6826.170970
454.323001	6712.429937
454.696632	6787.835516
455.070202	6930.878256
455.443713	7082.944662
455.817164	7183.243459
456.190556	7263.843947
456.563888	7336.887746
456.937160	7380.985239
457.310373	7037.687703
457.683526	7070.364463
458.056619	6954.060002
458.429653	6943.486182
458.802628	6876.380863
459.175542	6987.319015
459.548398	7338.833631
459.921194	7502.101481
460.293930	7507.354363
460.666607	8036.655352
461.039224	8342.991148
461.411782	8469.982855
461.784280	8488.393149
462.156719	8381.223259
462.529099	8254.269361
462.901419	7848.257351
463.273680	7743.234993
463.645882	7754.494410
464.018024	7619.154553
464.390106	7783.473483
464.762130	8168.332812
465.134094	8641.175398
465.505999	9660.605091
465.877845	10884.756041
466.249631	11535.248889
466.621358	11144.430917
466.993026	10524.346308
467.364634	10265.409962
467.736184	9903.790352
468.107674	9572.059744
468.479105	9602.188200
468.850477	9369.216316
469.221790	9137.464392
469.593043	8812.254516
469.964238	8671.515583
470.335373	8687.843880
470.706449	8744.115760
471.077467	8727.749654
471.448425	10035.419920
471.819324	11107.743920
472.190164	11130.466921
472.560945	9885.531293
472.931667	9094.342362
473.302330	8962.579203
473.672934	8604.455634
474.043479	8963.123648
474.413965	8904.464781
474.784393	8781.127911
475.154761	8942.444834
475.525070	9027.216878
475.895321	8853.705403
476.265513	9033.346921
476.635645	9196.277013
477.005719	9202.384371
477.375734	9314.678593
477.745691	9551.196929
478.115588	9686.809008
478.485427	9928.209702
478.855207	10470.796652
479.224928	11278.749940
479.594591	11907.623800
479.964194	11723.094884
480.333739	11661.784371
480.703226	11579.878224
481.072653	11665.608087
481.442022	11903.096844
481.811333	12095.994076
482.180584	11902.544838
482.549777	11611.970210
482.918912	11432.444639
483.287988	11457.630243
483.657005	11474.558438
484.025964	11148.431072
484.394864	11277.676175
484.763706	11254.174315
485.132489	11015.160609
485.501213	10977.258693
485.869879	11046.430886
486.238487	10886.613706
486.607036	10997.521611
486.975527	10774.833681
487.343959	10966.742847
487.712333	11016.131031
488.080648	10948.660228
488.448905	10994.522125
488.817104	10928.858575
489.185244	11197.766324
489.553326	11347.367606
489.921350	11889.074875
490.289315	12952.662554
490.657222	13298.820945
491.025070	13204.074979
491.392861	13079.734919
491.760593	12695.228472
492.128267	12344.288547
492.495883	12027.305834
492.863440	11680.429079
493.230939	11349.948677
493.598380	11278.699529
493.965763	11152.854685
494.333088	11049.188397
494.700354	10964.870058
495.067563	11033.996880
495.434713	10860.218225
495.801805	10990.368214
496.168839	10905.041644
496.535815	10850.299754
496.902733	10845.840854
497.269593	10778.942222
497.636395	10879.616585
498.003139	10867.207784
498.369825	10728.240817
498.736453	10885.703778
499.103023	10817.055865
499.469535	10837.684267
499.835989	10836.040851
500.202385	10795.230190
500.568723	10654.239199
500.935003	10873.395801
501.301226	10678.537561
501.667390	10941.083373
502.033497	11031.882116
502.399546	10901.772456
502.765537	10796.470314
503.131470	10874.900585
503.497345	11046.839219
503.863163	10655.325568
504.228923	10971.862138
504.594625	11037.291274
504.960269	10782.844075
505.325856	11004.223825
505.691385	10802.675974
506.056856	10949.872625
506.422270	10976.434465
506.787625	10865.080418
507.152924	10986.148768
507.518164	10967.186468
507.883347	10883.919209
508.248472	10805.191510
508.613540	11043.814527
508.978550	10919.850033
509.343503	10897.316076
509.708398	11012.508962
510.073236	11125.924841
510.438016	11135.936572
510.802738	11077.499517
511.167403	11129.451128
511.532010	11026.472958
511.896561	11260.654719
512.261053	11331.954278
512.625488	11204.322345
512.989866	11181.196052
513.354186	11170.458394
513.718449	11076.720659
514.082655	11267.901377
514.446803	11163.456231
514.810894	11290.142948
515.174927	11146.021401
515.538904	11178.735969
515.902822	11333.224649
516.266684	11219.002185
516.630488	11149.648511
516.994235	11216.640404
517.357925	11274.875814
517.721558	11365.130112
518.085133	11378.239632
518.448651	11390.988710
518.812112	11275.871442
519.175516	11285.411825
519.538863	11403.452963
519.902152	11325.546972
520.265385	11487.000006
520.628560	11395.480378
520.991678	11370.700587
521.354739	11435.935638
521.717743	11369.228570
522.080690	11353.301044
522.443580	11479.866773
522.806413	11439.744230
523.169189	11467.561317
523.531908	11528.065245
523.894569	11347.158398
524.257174	11354.029491
524.619722	11470.076852
524.982213	11415.327401
525.344647	11474.263531
525.707025	11417.565673
526.069345	11505.778304
526.431608	11431.426326
526.793815	11541.923377
527.155964	11330.714154
527.518057	11376.646627
527.880093	11332.624752
528.242072	11399.427602
528.603995	11306.231791
528.965860	11226.977290
529.327669	11276.176431
529.689421	11230.659853
530.051117	11201.945441
530.412755	11300.227776
530.774337	11191.598473
531.135862	11176.306132
531.497331	11198.852693
531.858743	11050.622605
532.220098	11217.651156
532.581396	11091.516445
532.942638	11071.440050
533.303824	11028.504543
533.664953	11041.218333
534.026025	10963.680346
534.387040	11058.569984
534.747999	11061.151055
535.108902	11118.234561
535.469748	10880.970134
535.830537	10985.279169
536.191270	10953.340939
536.551947	10979.214661
536.912567	10981.921761
537.273131	10901.202805
537.633638	10881.774198
537.994089	10870.776921
538.354483	10822.691875
538.714821	10973.732406
539.075103	10970.523712
539.435328	10936.014493
539.795497	10769.185068
540.155609	10923.799778
540.515665	11014.452327
540.875665	10747.883673
541.235609	10821.237503
541.595496	10813.277521
541.955328	10973.195523
542.315102	10855.091371
542.674821	10803.101952
543.034483	10807.132354
543.394090	10809.665534
543.753640	10742.529968
544.113134	10961.941148
544.472571	10811.850874
544.831953	10955.682555
545.191278	10760.093348
545.550548	10791.497215
545.909761	10932.304204
546.268918	10902.720193
546.628019	10986.184056
546.987064	10851.983500
547.346053	10769.152301
547.704986	10870.918074
548.063863	10864.742660
548.422684	10851.121462
548.781449	10768.814544
549.140158	10869.902281
549.498811	10747.651780
549.857408	10599.325910
550.215949	10826.681949
550.574434	10679.439927
550.932864	10784.603437
551.291237	10840.860194
551.649555	10792.971753
552.007817	10797.702876
552.366022	10762.997052
552.724173	10758.752401
553.082267	10747.185473
553.440305	10876.044927
553.798288	10679.036635
554.156215	10835.453556
554.514086	10818.792543
554.871902	10655.330609
555.229661	10694.588594
555.587365	10680.869094
555.945014	10567.140663
556.302606	10691.934427
556.660143	10587.935423
557.017625	10740.140461
557.375050	10634.777825
557.732421	10770.732703
558.089735	10681.703405
558.446994	10686.137100
558.804197	10719.691020
559.161345	10724.447349
559.518437	10567.559079
559.875474	10663.802268
560.232455	10691.589108
560.589381	10645.152519
560.946251	10633.628442
561.303065	10741.962838
561.659825	10682.598210
562.016528	10610.108938
562.373177	10490.167285
562.729770	10600.495458
563.086307	10518.070072
563.442789	10610.376119
563.799216	10488.710392
564.155587	10532.273523
564.511904	10497.386218
564.868164	10485.229475
565.224370	10498.651547
565.580520	10421.567264
565.936615	10430.560682
566.292654	10294.242841
566.648638	10424.627244
567.004567	10382.251305
567.360441	10368.161280
567.716260	10283.159864
568.072023	10377.996571
568.427732	10324.635958
568.783385	10238.454912
569.138982	10306.157608
569.494525	10323.884826
569.850013	10188.970946
570.205445	10274.088308
570.560823	10175.657259
570.916145	10098.204971
571.271412	10159.323920
571.626625	10111.387588
571.981782	10083.691489
572.336884	10062.397655
572.691931	10067.963089
573.046923	10004.797431
573.401860	9960.720103
573.756743	9906.545343
574.111570	9947.103946
574.466342	9929.585937
574.821059	9959.792530
575.175722	9847.919244
575.530330	9859.839052
575.884882	9847.294141
576.239380	9778.774778
576.593823	9755.923228
576.948211	9773.574828
577.302544	9646.288214
577.656823	9662.344289
578.011047	9665.220267
578.365216	9639.051637
578.719330	9564.505575
579.073389	9571.716946
579.427394	9520.471096
579.781344	9497.014607
580.135239	9447.928892
580.489080	9459.584040
580.842866	9356.457156
581.196597	9364.349082
581.550273	9406.777953
581.903895	9372.898879
582.257463	9434.272407
582.610975	9308.220875
582.964434	9345.769910
583.317837	9262.774873
583.671186	9248.606710
584.024481	9245.118232
584.377721	9160.867948
584.730906	9142.911358
585.084037	9169.692488
585.437113	9097.861087
585.790135	9123.520560
586.143103	9022.548769
586.496016	8999.326694
586.848874	9055.822905
587.201679	9043.504846
587.554428	8930.993853
587.907124	8972.666552
588.259765	8946.651677
588.612352	8944.690668
588.964884	8829.250766
589.317362	8841.856171
589.669786	8837.941715
590.022155	8887.788644
590.374470	8905.473012
590.726731	8840.633691
591.078937	8698.422741
591.431090	8815.634609
591.783188	8675.523300
592.135232	8670.875356
592.487222	8672.637239
592.839157	8725.990291
593.191038	8660.372112
593.542866	8601.446065
593.894639	8502.886466
594.246358	8559.385198
594.598022	8568.101353
594.949633	8464.833316
595.301190	8446.518804
595.652692	8474.560223
596.004141	8577.571160
596.355535	8356.453550
596.706876	8331.761978
597.058162	8273.284593
597.409395	8346.318310
597.760573	8415.505626
598.111698	8319.822005
598.462768	8305.890777
598.813785	8273.632433
599.164748	8241.772341
599.515657	8230.704488
599.866511	8139.862895
600.217312	8262.864528
600.568060	8121.404710
600.918753	8228.698108
601.269392	8197.677368
601.619978	8111.435829
601.970510	8177.479985
602.320988	8170.755086
602.671412	8223.803148
603.021783	8166.886000
603.372100	8138.194273
603.722363	8139.560426
604.072572	8109.063966
604.422728	8127.018035
604.772830	8054.637148
605.122878	8058.327273
605.472872	8055.531953
605.822813	8086.335924
606.172701	8032.360289
606.522534	8109.099254
606.872314	8104.232020
607.222041	8077.564316
607.571714	8128.404352
607.921333	8089.312725
608.270899	8092.324814
608.620411	8182.064915
608.969870	8084.488341
609.319276	8085.090759
609.668627	8102.802853
610.017926	8132.830486
610.367171	8176.691045
610.716362	8152.601891
611.065500	8144.583936
611.414585	8176.978390
611.763616	8169.603182
612.112594	8143.127042
612.461518	8163.397522
612.810389	8221.675781
613.159207	8157.073394
613.507971	8104.874767
613.856682	8224.970175
614.205340	8179.892177
614.553945	8262.763705
614.902496	8157.529619
615.250994	8211.996766
615.599439	8195.613016
615.947830	8211.989204
616.296169	8175.327413
616.644454	8196.422121
616.992686	8192.303498
617.340864	8249.107220
617.688990	8154.331007
618.037063	8245.162517
618.385082	8194.887089
618.733048	8279.437322
619.080961	8214.479534
619.428821	8239.077844
619.776628	8239.655056
620.124382	8184.862755
620.472083	8174.581322
620.819731	8204.500570
621.167326	8092.811286
621.514868	8101.535002
621.862357	7990.962334
622.209793	8008.739963
622.557176	7941.133049
622.904506	7913.499964
623.251783	7843.654777
623.599007	7798.922099
623.946179	7807.209756
624.293297	7763.429855
624.640363	7680.001280
624.987376	7662.032087
625.334336	7607.900177
625.681243	7556.495531
626.028097	7545.899026
626.374899	7522.616457
626.721647	7515.147987
627.068343	7446.857997
627.414987	7423.308246
627.761577	7375.818057
628.108115	7411.459014
628.454600	7308.400186
628.801032	7353.732762
629.147412	7315.041906
629.493739	7304.233672
629.840014	7239.812767
630.186236	7293.916951
630.532405	7179.303797
630.878521	7237.859320
631.224585	7188.534150
631.570597	7109.975329
631.916556	7142.916749
632.262462	7143.173848
632.608316	7105.987776
632.954117	7079.700680
633.299866	7061.918009
633.645562	7062.908596
633.991206	6976.556151
634.336797	6923.112359
634.682336	6878.767849
635.027823	6842.416089
635.373257	6838.247054
635.718639	6768.963957
636.063968	6783.497603
636.409245	6674.512898
636.754470	6673.393762
637.099642	6633.167875
637.444762	6576.850625
637.789829	6585.297078
638.134845	6530.224993
638.479808	6512.759915
638.824719	6517.906933
639.169577	6445.485717
639.514383	6463.643953
639.859137	6390.811883
640.203839	6399.195322
640.548489	6389.717953
640.893086	6369.152566
641.237632	6335.684345
641.582125	6363.083016
641.926566	6328.450289
642.270955	6341.153997
642.615292	6340.788513
642.959576	6347.687332
643.303809	6344.521488
643.647990	6349.754206
643.992118	6336.677452
644.336195	6287.805987
644.680219	6309.132588
645.024192	6298.624303
645.368112	6397.700620
645.711981	6414.250728
646.055797	6493.669066
646.399562	6446.783814
646.743274	6578.799031
647.086935	6632.394058
647.430544	6626.468181
647.774101	6643.966026
648.117606	6654.517161
648.461059	6648.684546
648.804460	6607.619307
649.147810	6514.337796
649.491108	6487.228992
649.834354	6459.759744
650.177548	6377.435181
650.520690	6291.218848
650.863781	6267.621207
651.206820	6289.255318
651.549807	6205.569644
651.892742	6152.040152
652.235626	6155.339587
652.578458	6145.128730
652.921238	6049.861004
653.263967	6092.315082
653.606644	6029.973652
653.949269	6031.783427
654.291843	5971.327389
654.634365	6026.071799
654.976836	5976.885261
655.319255	5978.359799
655.661622	5956.549247
656.003938	5954.500018
656.346203	5909.452267
656.688416	5938.887564
657.030577	5898.570936
657.372687	5863.933168
657.714746	5858.007292
658.056753	5894.888373
658.398708	5835.327141
658.740612	5826.696685
659.082465	5870.292584
659.424266	5866.347881
659.766016	5866.247058
660.107715	5845.290981
660.449362	5854.130645
660.790958	5849.487742
661.132503	5840.222101
661.473996	5873.735692
661.815438	5864.051635
662.156829	5859.817066
662.498168	5858.934864
662.839456	5824.927240
663.180693	5861.495770
663.521879	5866.458786
663.863013	5851.504203
664.204097	5869.039857
664.545129	5917.424852
664.886110	5908.023100
665.227040	5941.705569
665.567918	5906.697276
665.908746	5935.356236
666.249522	5940.777997
666.590248	5926.098157
666.930922	5952.687723
667.271545	5973.255631
667.612118	5968.945444
667.952639	5944.137926
668.293109	5963.511080
668.633528	5924.185039
668.973896	5922.765954
669.314213	5912.396301
669.654480	5897.746708
669.994695	5888.808742
670.334859	5884.301950
670.674973	5873.529005
671.015035	5873.042533
671.355047	5873.811309
671.695008	5861.931830
672.034918	5836.078273
672.374777	5846.062278
672.714585	5828.544268
673.054342	5832.312531
673.394049	5827.941850
673.733705	5857.477971
674.073310	5844.756619
674.412864	5805.100382
674.752368	5795.428929
675.091820	5805.213808
675.431223	5736.999435
675.770574	5735.910546
676.109875	5696.897056
676.449125	5697.927972
676.788324	5662.221479
677.127473	5602.498930
677.466571	5594.198670
677.805619	5585.543009
678.144616	5576.418520
678.483562	5554.986055
678.822458	5521.878277
679.161303	5516.340569
679.500098	5503.984701
679.838842	5490.998689
680.177535	5491.490202
680.516179	5506.099465
680.854771	5520.686044
681.193314	5601.102530
681.531805	5707.289395
681.870247	5858.173650
682.208638	5958.364062
682.546978	5974.165559
682.885268	5951.873577
683.223508	5866.589856
683.561697	5813.183873
683.899836	5784.242608
684.237925	5737.193519
684.575963	5703.362336
684.913951	5662.534031
685.251889	5725.593824
685.589776	5692.927148
685.927614	5663.154093
686.265401	5733.949537
686.603137	5718.233740
686.940824	5795.370955
687.278460	5818.209903
687.616046	5829.013096
687.953582	5900.204270
688.291068	5880.611826
688.628504	5941.299756
688.965889	5903.692749
689.303224	5849.086970
689.640510	5799.424043
689.977745	5725.548454
690.314930	5625.090861
690.652065	5566.225307
690.989150	5477.992512
691.326185	5399.431171
691.663170	5346.627605
692.000105	5269.306387
692.336990	5190.689593
692.673825	5169.269730
693.010610	5099.595943
693.347345	5030.834604
693.684030	5014.297099
694.020665	4971.222960
694.357251	4882.012181
694.693786	4892.275970
695.030272	4861.335888
695.366707	4824.442204
695.703093	4793.111433
696.039429	4811.206655
696.375716	4796.602432
696.711952	4768.273668
697.048139	4754.531482
697.384276	4732.746136
697.720363	4746.495883
698.056400	4755.713633
698.392388	4710.106314
698.728326	4690.080331
699.064214	4666.520498
699.400053	4655.760155
699.735842	4625.861072
700.071581	4604.600005
700.407270	4579.434565
700.742910	4557.732398
701.078501	4500.054036
701.414042	4505.208616
701.749533	4470.230570
702.084974	4403.825971
702.420366	4463.205722
702.755709	4402.908481
703.091002	4347.440665
703.426246	4393.491606
703.761440	4355.166234
704.096584	4317.551664
704.431679	4337.013039
704.766725	4321.458558
705.101721	4309.773164
705.436668	4342.487732
705.771565	4285.666366
706.106413	4316.084688
706.441212	4346.140048
706.775961	4352.998537
707.110661	4337.091177
707.445311	4365.034292
707.779913	4388.503384
708.114465	4399.830857
708.448967	4421.603600
708.783421	4486.949557
709.117825	4529.675856
709.452180	4533.139129
709.786485	4571.620777
710.120742	4665.817257
710.454949	4644.944360
710.789107	4708.210840
711.123216	4783.966780
711.457275	4780.803456
711.791286	4854.880691
712.125247	4868.809399
712.459159	4770.327938
712.793023	4847.150082
713.126837	4804.930418
713.460602	4799.833812
713.794318	4719.026636
714.127985	4727.122729
714.461602	4639.731807
714.795171	4612.680975
715.128691	4545.159760
715.462162	4487.975432
715.795584	4439.166980
716.128957	4420.116460
716.462281	4368.084190
716.795556	4341.436651
717.128782	4301.929128
717.461960	4235.511927
717.795088	4245.601796
718.128167	4204.902040
718.461198	4142.316115
718.794180	4144.443482
719.127113	4123.570585
719.459997	4102.012090
719.792833	4057.171027
720.125619	4047.993606
720.458357	4014.636291
720.791046	4019.180892
721.123686	3992.283815
721.456278	3948.456024
721.788821	3965.169969
722.121315	3941.418573
722.453761	3911.131321
722.786158	3925.801078
723.118506	3951.097588
723.450805	3900.529774
723.783056	3923.981222
724.115259	3939.089560
724.447412	3947.225982
724.779518	3938.225002
725.111574	3940.909416
725.443582	3971.184066
725.775542	3954.638999
726.107453	4007.492976
726.439315	4006.812421
726.771129	4018.374307
727.102895	4056.208167
727.434612	4100.837502
727.766281	4120.515646
728.097901	4121.138228
728.429473	4125.377838
728.760996	4130.817243
729.092471	4127.817757
729.423897	4109.352010
729.755276	4116.671766
730.086606	4116.155048
730.417887	4154.651819
730.749120	4220.242272
731.080305	4280.615130
731.411442	4311.426662
731.742530	4279.632105
732.073570	4282.009009
732.404562	4335.765353
732.735506	4332.113037
733.066401	4293.207932
733.397249	4231.796596
733.728048	4149.149399
734.058798	4067.429775
734.389501	3998.348323
734.720156	3933.357768
735.050762	3888.057959
735.381320	3884.511508
735.711831	3830.132581
736.042293	3801.178714
736.372707	3824.763752
736.703073	3798.176707
737.033391	3786.340078
737.363661	3803.028818
737.693883	3832.108713
738.024056	3838.566432
738.354182	3832.917819
738.684260	3896.585071
739.014290	3920.223042
739.344272	3913.117535
739.674207	3954.533135
740.004093	3960.176706
740.333931	3955.160758
740.663722	3957.371304
740.993464	3950.883339
741.323159	3931.036317
741.652806	3900.151687
741.982405	3875.402143
742.311956	3840.141792
742.641460	3832.181810
742.970915	3808.574087
743.300323	3766.482973
743.629683	3732.883682
743.958996	3723.381107
744.288260	3698.485369
744.617477	3663.162004
744.946647	3652.048780
745.275768	3624.377887
745.604842	3621.811940
745.933869	3571.844023
746.262847	3562.815316
746.591778	3602.685802
746.920662	3575.942481
747.249498	3541.730690
747.578286	3584.734253
747.907027	3609.748458
748.235720	3606.902727
748.564365	3631.009525
748.892963	3631.725369
749.221514	3613.126032
749.550017	3590.266919
749.878473	3589.518308
750.206881	3559.959503
750.535242	3555.457752
750.863555	3554.751991
751.191821	3552.927093
751.520039	3531.895399
751.848210	3512.320599
752.176334	3544.808315
752.504411	3549.413409
752.832440	3507.919671
753.160421	3494.018690
753.488356	3500.612519
753.816243	3516.507277
754.144082	3470.804176
754.471875	3455.658029
754.799620	3476.974548
755.127318	3468.404587
755.454969	3468.207982
755.782572	3472.137561
756.110129	3448.529838
756.437638	3441.557922
756.765100	3452.056125
757.092515	3461.379739
757.419882	3469.304433
757.747203	3443.198818
758.074477	3444.239816
758.401703	3459.839667
758.728882	3481.793892
759.056014	3488.780931
759.383099	3492.866786
759.710138	3485.978049
760.037129	3507.554188
760.364073	3536.127448
760.690970	3522.130684
761.017820	3499.516068
761.344623	3517.011392
761.671379	3562.031417
761.998088	3615.938995
762.324751	3742.043459
762.651366	3986.904904
762.977935	4463.374601
763.304456	4909.627622
763.630931	5006.120348
763.957359	4648.037108
764.283740	4304.051454
764.610074	4107.552318
764.936362	3910.357503
765.262602	3751.974532
765.588796	3637.845329
765.914943	3544.883932
766.241044	3459.000314
766.567097	3430.532919
766.893104	3383.188922
767.219064	3353.849407
767.544978	3324.451918
767.870845	3266.544184
768.196665	3250.518356
768.522438	3258.213677
768.848165	3250.853593
769.173846	3216.903942
769.499479	3201.606561
769.825066	3182.737522
770.150607	3167.586334
770.476101	3182.699713
770.801548	3176.027746
771.126949	3133.485449
771.452303	3115.405351
771.777611	3123.198974
772.102872	3125.810292
772.428087	3103.062085
772.753256	3089.014910
773.078378	3087.313521
773.403453	3052.406051
773.728482	3037.048176
774.053465	3056.653223
774.378401	3047.259033
774.703291	3016.414733
775.028135	3015.550175
775.352932	3011.290400
775.677683	2998.753051
776.002388	2994.533605
776.327046	2997.777587
776.651658	2988.950527
776.976224	2976.488795
777.300743	2977.345791
777.625216	2965.788946
777.949643	2960.533543
778.274024	2963.530509
778.598359	2952.145063
778.922647	2957.138326
779.246889	2957.269396
779.571086	2939.287600
779.895236	2935.080757
780.219339	2945.649536
780.543397	2959.008594
780.867409	2961.700570
781.191374	2957.004735
781.515294	2948.091975
781.839167	2951.414095
782.162995	2941.964453
782.486776	2953.581792
782.810511	2949.506019
783.134201	2936.320881
783.457844	2946.123404
783.781441	2936.787188
784.104993	2912.261974
784.428498	2915.561409
784.751958	2927.733275
785.075372	2922.009045
785.398739	2905.143865
785.722061	2924.612801
786.045337	2934.579162
786.368568	2919.881678
786.691752	2910.003537
787.014891	2958.998511
787.337983	2988.673263
787.661030	3017.619569
787.984031	3084.921493
788.306987	3130.251549
788.629897	3122.725106
788.952760	3106.059051
789.275579	3093.879624
789.598351	3032.611960
789.921078	2989.573109
790.243759	2977.933085
790.566395	2963.555714
790.888984	2936.623350
791.211529	2920.912594
791.534027	2911.314237
791.856480	2902.605644
792.178888	2886.904970
792.501249	2876.162271
792.823566	2874.844010
793.145836	2873.117414
793.468062	2866.483256
793.790241	2865.739686
794.112375	2871.728577
794.434464	2883.928169
794.756507	2887.146946
795.078505	2895.316135
795.400457	2907.402302
795.722364	2947.958384
796.044226	2971.382106
796.366042	2974.623568
796.687812	2959.648820
797.009538	2983.556492
797.331218	2971.306488
797.652852	2954.411061
797.974442	2935.899944
798.295986	2932.751744
798.617484	2929.086825
798.938938	2915.763055
799.260346	2897.453585
799.581709	2893.506361
799.903026	2884.996893
800.224299	2878.992879
800.545526	2871.279914
800.866708	2853.565299
801.187845	2844.468537
801.508936	2846.187571
801.829983	2854.495392
802.150984	2838.184739
802.471940	2825.559169
802.792851	2826.000270
803.113717	2824.634117
803.434538	2830.817092
803.755314	2824.568582
804.076045	2820.213025
804.396731	2815.307983
804.717372	2815.575164
805.037967	2813.853610
805.358518	2820.979281
805.679024	2831.346414
805.999485	2826.617811
806.319901	2831.853050
806.640272	2823.580516
806.960598	2828.258707
807.280879	2837.035356
807.601115	2848.085565
807.921306	2832.100066
808.241453	2826.945486
808.561554	2834.401353
808.881611	2837.421004
809.201623	2832.475632
809.521590	2828.142760
809.841513	2827.056392
810.161390	2828.384736
810.481223	2823.933397
810.801011	2816.235555
811.120755	2808.492343
811.440453	2813.127684
811.760107	2814.249340
812.079716	2813.682211
812.399281	2799.090591
812.718801	2794.651855
813.038276	2789.567851
813.357707	2795.919705
813.677093	2803.529327
813.996434	2795.992802
814.315731	2792.516926
814.634983	2787.309414
814.954191	2790.606329
815.273354	2805.172743
815.592473	2814.196408
815.911547	2815.955771
816.230577	2822.536997
816.549562	2831.865652
816.868502	2827.860456
817.187399	2840.143227
817.506250	2862.215919
817.825058	2850.528004
818.143821	2863.314891
818.462539	2878.617313
818.781213	2905.716036
819.099843	2939.907662
819.418429	2999.448730
819.736970	3061.354099
820.055466	3135.852271
820.373919	3241.693816
820.692327	3384.671022
821.010691	3552.120508
821.329011	3994.484279
821.647286	4903.875665
821.965517	6295.435773
822.283704	7062.931281
822.601847	7052.964920
822.919945	6407.540952
823.237999	5895.687396
823.556010	5308.576975
823.873976	4745.412035
824.191897	4327.848221
824.509775	4033.046585
824.827609	3757.376128
825.145398	3633.877941
825.463144	3619.777834
825.780845	3711.622616
826.098502	3814.255467
826.416116	4098.190896
826.733685	4420.328188
827.051210	4490.685052
827.368692	4371.393708
827.686129	4105.417390
828.003522	3772.330711
828.320872	3514.667256
828.638177	3317.248109
828.955439	3177.444310
829.272656	3091.525405
829.589830	3024.183151
829.906960	2972.385295
830.224046	2926.077256
830.541088	2892.752709
830.858086	2879.139073
831.175041	2862.226002
831.491952	2863.594675
831.808819	2873.135058
832.125642	2897.715725
832.442421	2941.402364
832.759157	3024.041999
833.075849	3202.801314
833.392497	3486.368739
833.709101	3696.602498
834.025662	3646.596772
834.342179	3487.140035
834.658653	3308.600010
834.975083	3157.667864
835.291469	3056.428892
835.607811	2970.948567
835.924110	2912.839186
836.240366	2858.830784
836.556578	2815.018116
836.872746	2795.682771
837.188871	2771.709564
837.504952	2754.579723
837.820990	2746.213928
838.136984	2732.678430
838.452935	2725.368757
838.768842	2722.893550
839.084706	2742.065058
839.400526	2821.692604
839.716303	2954.650516
840.032037	3033.952907
840.347727	3020.162831
840.663373	2959.192596
840.978977	2884.167624
841.294537	2810.251705
841.610054	2760.868562
841.925527	2739.572208
842.240957	2715.659495
842.556344	2694.315249
842.871687	2679.539627
843.186987	2671.015036
843.502244	2663.949859
843.817458	2661.426762
844.132629	2649.751449
844.447756	2640.097640
844.762840	2631.023563
845.077881	2635.542957
845.392879	2636.213431
845.707833	2631.235291
846.022745	2623.602984
846.337613	2627.799745
846.652438	2623.461832
846.967221	2623.855042
847.281960	2621.823457
847.596656	2623.668519
847.911309	2621.342027
848.225919	2616.164762
848.540485	2613.112343
848.855009	2614.251644
849.169490	2614.402878
849.483928	2610.616972
849.798323	2613.820625
850.112675	2611.564709
850.426984	2612.998917
850.741251	2610.420367
851.055474	2607.551950
851.369654	2615.620317
851.683792	2615.436315
851.997887	2611.481530
852.311938	2609.661673
852.625947	2614.443208
852.939914	2614.032354
853.253837	2615.053187
853.567718	2612.018413
853.881555	2608.716457
854.195350	2612.862806
854.509103	2612.003289
854.822812	2611.552106
855.136479	2605.608586
855.450103	2612.588063
855.763685	2611.879781
856.077224	2609.979266
856.390720	2608.232506
856.704173	2613.472786
857.017584	2616.963785
857.330953	2618.705503
857.644278	2615.090996
857.957561	2617.412447
858.270802	2614.483537
858.584000	2616.540328
858.897155	2620.268261
859.210268	2621.722634
859.523339	2612.945985
859.836367	2608.998762
860.149352	2611.889863
860.462295	2611.398351
860.775195	2609.429780
861.088054	2609.172681
861.400869	2605.807711
861.713642	2604.439038
862.026373	2607.541868
862.339062	2609.276025
862.651708	2614.347426
862.964312	2614.181068
863.276873	2610.995058
863.589392	2615.048146
863.901869	2622.940072
864.214303	2625.500979
864.526696	2627.308232
864.839045	2628.891155
865.151353	2633.506331
865.463619	2632.372071
865.775842	2630.048099
866.088023	2632.798049
866.400162	2632.843419
866.712258	2631.762092
867.024313	2629.927112
867.336325	2628.760085
867.648296	2629.609519
867.960224	2637.294758
868.272110	2630.438789
868.583954	2626.698253
868.895755	2628.071967
869.207515	2632.293933
869.519233	2639.974131
869.830909	2634.501959
870.142542	2630.549694
870.454134	2635.605972
870.765684	2637.766106
871.077191	2638.113946
871.388657	2646.162148
871.700081	2641.884729
872.011463	2642.814822
872.322803	2643.477733
872.634101	2646.875471
872.945357	2655.500885
873.256571	2661.146977
873.567744	2659.743016
873.878874	2655.405103
874.189963	2658.462563
874.501010	2660.791576
874.812015	2664.423727
875.122979	2665.852895
875.433900	2659.291833
875.744780	2656.791421
876.055618	2662.122441
876.366415	2667.307268
876.677169	2667.539161
876.987882	2662.167811
877.298554	2660.224446
877.609183	2675.035356
877.919771	2676.925789
878.230317	2685.841070
878.540822	2695.308357
878.851285	2712.692776
879.161707	2737.091960
879.472087	2774.817435
879.782425	2821.939621
880.092722	2938.075202
880.402977	3129.364306
880.713191	3396.512692
881.023363	3700.295143
881.333494	3896.242273
881.643583	4069.673088
881.953631	4070.046134
882.263637	3893.245307
882.573602	3670.554856
882.883526	3533.732900
883.193408	3413.617327
883.503248	3308.746203
883.813048	3191.131043
884.122806	3075.527303
884.432522	2984.973057
884.742197	2919.944693
885.051831	2881.828528
885.361424	2846.202694
885.670975	2807.524441
885.980485	2778.187446
886.289954	2757.717841
886.599382	2744.449524
886.908768	2732.484346
887.218113	2711.049359
887.527417	2701.435879
887.836680	2692.870959
888.145901	2686.882068
888.455082	2676.877898
888.764221	2667.357679
889.073319	2661.656134
889.382376	2657.802172
889.691392	2660.221926
890.000366	2658.611277
890.309300	2657.489620
890.618193	2660.201761
890.927044	2661.759478
891.235855	2662.828202
891.544625	2660.899961
891.853353	2659.342244
892.162041	2668.658297
892.470687	2690.970444
892.779293	2701.317412
893.087858	2713.111191
893.396381	2735.390571
893.704864	2777.055707
894.013306	2850.376769
894.321707	2944.061573
894.630068	2995.836743
894.938387	3019.136956
895.246665	3010.312416
895.554903	2966.608133
895.863100	2921.610794
896.171256	2865.023842
896.479371	2800.232412
896.787446	2758.524426
897.095480	2740.557753
897.403473	2733.071640
897.711425	2716.922304
898.019336	2701.453523
898.327207	2683.317972
898.635038	2684.936182
898.942827	2681.351922
899.250576	2671.105777
899.558284	2658.722182
899.865952	2654.883344
900.173579	2651.714979
900.481165	2649.690955
900.788711	2640.500932
901.096216	2635.306023
901.403681	2633.216465
901.711105	2631.091618
902.018489	2630.579941
902.325832	2636.271404
902.633135	2635.127062
902.940397	2651.130205
903.247619	2688.303673
903.554800	2760.581217
903.861941	2892.614077
904.169041	3022.113758
904.476101	3085.380238
904.783121	3085.196236
905.090100	3022.673326
905.397039	2946.307407
905.703938	2870.243957
906.010796	2803.020170
906.317614	2751.285329
906.624391	2710.772096
906.931129	2687.824764
907.237826	2662.099756
907.544483	2644.453197
907.851099	2630.040538
908.157675	2617.286418
908.464211	2612.943464
908.770707	2602.246136
909.077163	2595.054930
909.383578	2593.046030
909.689954	2591.533684
909.996289	2590.550659
910.302584	2592.186513
910.608839	2583.316603
910.915054	2588.919846
911.221229	2590.167531
911.527363	2590.623756
911.833458	2586.258117
912.139513	2591.795824
912.445527	2591.493355
912.751502	2599.390322
913.057436	2603.942484
913.363331	2609.870881
913.669186	2620.316152
913.975000	2637.120838
914.280775	2652.329999
914.586510	2675.035356
914.892205	2709.531972
915.197859	2778.303393
915.503475	2866.831096
915.809050	2931.677978
916.114585	2949.004424
916.420081	2967.162660
916.725536	2976.299751
917.030952	2947.539969
917.336328	2896.929305
917.641665	2849.635720
917.946961	2796.708646
918.252218	2764.354520
918.557435	2733.646332
918.862612	2711.167827
919.167750	2693.057481
919.472848	2673.097033
919.777906	2660.703356
920.082925	2648.559216
920.387904	2635.787453
920.692843	2633.108080
920.997743	2626.453757
921.302603	2618.861779
921.607423	2609.381889
921.912204	2605.837958
922.216946	2601.265632
922.521647	2599.478542
922.826310	2596.862184
923.130932	2591.584096
923.435516	2585.786769
923.740059	2583.659402
924.044564	2580.390213
924.349028	2579.165213
924.653454	2571.674058
924.957840	2570.144068
925.262186	2569.135838
925.566493	2570.265056
925.870761	2562.045455
926.174989	2566.380847
926.479178	2563.782132
926.783328	2562.408418
927.087438	2562.352965
927.391509	2561.334652
927.695541	2560.149981
927.999533	2556.583364
928.303486	2558.004970
928.607400	2554.677808
928.911275	2553.967006
929.215110	2554.965154
929.518906	2555.459187
929.822663	2555.408776
930.126381	2555.849877
930.430060	2555.799465
930.733699	2552.232849
931.037299	2555.428940
931.340861	2554.632438
931.644383	2554.965154
931.947866	2556.346430
932.251309	2556.008673
932.554714	2555.091183
932.858080	2554.874413
933.161407	2553.903991
933.464694	2554.271995
933.767943	2553.909032
934.071153	2553.150339
934.374323	2549.805533
934.677455	2555.655792
934.980548	2549.258568
935.283602	2549.314021
935.586617	2552.845349
935.889593	2551.443908
936.192530	2550.269319
936.495428	2554.050185
936.798287	2555.237376
937.101108	2555.282747
937.403890	2556.752243
937.706632	2563.000753
938.009336	2562.879766
938.312002	2565.654921
938.614628	2568.679613
938.917216	2576.024574
939.219765	2571.734552
939.522275	2574.471899
939.824747	2575.255798
940.127179	2567.008471
940.429573	2567.013512
940.731929	2567.588203
941.034246	2564.757595
941.336524	2566.625343
941.638763	2563.487225
941.940964	2567.870508
942.243126	2562.834395
942.545250	2562.814231
942.847335	2561.296843
943.149381	2559.635783
943.451389	2555.786862
943.753359	2558.539332
944.055290	2554.100596
944.357182	2556.157387
944.659036	2554.796275
944.960851	2556.701832
945.262628	2552.565565
945.564367	2555.171841
945.866067	2555.678477
946.167729	2555.068498
946.469352	2554.405586
946.770937	2553.387273
947.072484	2555.665874
947.373992	2553.329300
947.675462	2555.817109
947.976893	2556.293498
948.278286	2551.456511
948.579641	2551.305276
948.880958	2553.243600
949.182236	2552.051367
949.483476	2551.327962
949.784678	2551.769063
950.085841	2550.339895
950.386967	2549.049360
950.688054	2554.075390
950.989103	2554.380380
951.290114	2555.373487
951.591087	2557.271482
951.892021	2553.820812
952.192917	2558.030176
952.493776	2555.698642
952.794596	2559.824826
953.095378	2560.744837
953.396122	2562.481514
953.696828	2558.529250
953.997496	2557.566389
954.298126	2556.046482
954.598718	2553.941800
954.899272	2553.800647
955.199788	2551.766542
955.500266	2549.855945
955.800706	2547.037940
956.101108	2541.787578
956.401472	2546.617003
956.701798	2541.520397
957.002087	2541.366642
957.302337	2542.382434
957.602550	2542.296734
957.902724	2540.113915
958.202861	2541.044008
958.502960	2542.541230
958.803022	2539.929913
959.103045	2539.929913
959.403031	2537.963863
959.702979	2538.667104
960.002889	2539.730787
960.302762	2539.198945
960.602596	2539.554347
960.902393	2537.371527
961.202153	2538.185673
961.501875	2537.530323
961.801559	2537.787422
962.101205	2534.886238
962.400814	2537.724408
962.700385	2537.013605
962.999918	2537.668955
963.299414	2538.349511
963.598873	2533.126876
963.898293	2535.352545
964.197677	2536.577545
964.497022	2532.254756
964.796331	2533.762061
965.095601	2533.746938
965.394835	2535.864222
965.694030	2534.051927
965.993189	2532.756351
966.292309	2534.150230
966.591393	2535.138296
966.890439	2535.271887
967.189447	2536.602751
967.488419	2536.169212
967.787353	2535.362627
968.086249	2536.378420
968.385108	2536.968235
968.683930	2537.028729
968.982714	2534.361958
969.281462	2535.849099
969.580172	2532.176618
969.878844	2535.302133
970.177480	2535.584438
970.476078	2536.993441
970.774639	2538.662063
971.073162	2535.927237
971.371649	2532.985723
971.670098	2532.537061
971.968510	2532.605116
972.266885	2533.504962
972.565223	2539.821528
972.863524	2536.466640
973.161788	2536.489325
973.460014	2535.196269
973.758204	2537.774819
974.056356	2536.862371
974.354471	2538.044521
974.652550	2536.257432
974.950591	2537.114428
975.248595	2537.331198
975.546563	2536.491846
975.844493	2534.409849
976.142386	2534.755168
976.440243	2532.174098
976.738062	2534.770292
977.035845	2534.911444
977.333590	2533.121834
977.631299	2533.704088
977.928971	2531.516227
978.226606	2534.999664
978.524204	2534.112421
978.821765	2535.070240
979.119290	2535.392874
979.416777	2535.014788
979.714228	2533.593182
980.011642	2532.995806
980.309020	2534.205682
980.606360	2534.470343
980.903664	2536.411187
981.200931	2535.493697
981.498162	2533.421783
981.795356	2537.174922
982.092513	2542.362269
982.389633	2543.012578
982.686717	2546.438042
982.983764	2547.937786
983.280775	2553.377191
983.577749	2553.031872
983.874686	2551.297715
984.171587	2548.280584
984.468451	2544.681200
984.765279	2543.153731
985.062070	2541.094419
985.358824	2537.605941
985.655543	2536.678368
985.952224	2538.084850
986.248869	2533.946063
986.545478	2532.249715
986.842050	2530.157636
987.138586	2530.795342
987.435086	2529.472039
987.731549	2528.514220
988.027975	2529.887934
988.324366	2531.417924
988.620719	2532.466484
988.917037	2530.631504
989.213318	2533.111752
989.509563	2530.356762
989.805772	2532.040507
990.101944	2529.555218
990.398080	2530.359282
990.694180	2530.830630
990.990244	2531.937163
991.286271	2531.186031
991.582262	2530.626463
991.878217	2533.167205
992.174136	2529.078829
992.470019	2528.652852
992.765865	2533.255425
993.061676	2531.886752
993.357450	2531.463295
993.653188	2532.680733
993.948890	2531.173428
994.244556	2533.472195
994.540186	2533.547812
994.835780	2531.924560
995.131337	2531.566638
995.426859	2533.676361
995.722345	2535.302133
996.017795	2535.319778
996.313208	2537.709284
996.608586	2535.844058
996.903928	2537.794984
997.199234	2536.517052
997.494504	2532.703419
997.789738	2535.634850
998.084936	2533.298275
998.380099	2533.653676
998.675225	2533.709129
998.970316	2532.612678
999.265371	2535.128214
999.560390	2533.643594
999.855373	2532.889941
1000.150320	2531.077647
1000.445232	2533.268028
1000.740108	2533.273069
1001.034948	2530.830630
1001.329752	2529.691329
1001.624521	2531.425486
1001.919254	2526.890968
1002.213951	2528.758716
1002.508613	2525.524816
1002.803239	2528.153777
1003.097829	2524.622449
1003.392384	2531.768285
1003.686903	2527.596730
1003.981386	2531.783408
1004.275834	2527.243849
1004.570246	2533.091588
1004.864623	2528.594878
1005.158964	2527.039682
1005.453270	2529.993798
1005.747540	2527.682429
1006.041775	2528.184024
1006.335974	2529.393901
1006.630138	2525.378622
1006.924266	2528.045393
1007.218359	2530.044210
1007.512416	2528.118489
1007.806438	2528.902389
1008.100425	2528.393232
1008.394376	2528.846936
1008.688292	2527.009435
1008.982172	2527.193438
1009.276017	2528.675537
1009.569827	2530.016484
1009.863602	2529.587986
1010.157341	2527.954652
1010.451045	2526.008766
1010.744714	2527.541277
1011.038347	2528.884745
1011.331945	2526.724610
1011.625508	2527.959693
1011.919036	2527.803417
1012.212528	2529.388860
1012.505986	2529.136802
1012.799408	2530.220650
1013.092795	2527.654703
1013.386147	2528.121010
1013.679464	2528.546987
1013.972745	2529.083870
1014.265992	2529.126720
1014.559204	2530.213089
1014.852380	2529.608150
1015.145521	2529.260311
1015.438628	2527.483304
1015.731699	2530.855836
1016.024736	2527.591689
1016.317737	2530.513037
1016.610703	2530.477749
1016.903635	2526.666637
1017.196531	2523.349558
1017.489393	2525.237470
1017.782219	2524.236801
1018.075011	2526.091945
1018.367768	2530.263500
1018.660490	2530.893644
1018.953177	2530.893644
1019.245829	2530.893644
