Dividing Wavelength (nm)	Counts (n)	Blue Motor Position (mm): 0.000000	Red Motor Position (mm): 45.600000	
326.493990	2126.714094
326.888308	2126.714094
327.282561	2126.714094
327.676750	2095.380802
328.070874	2094.390215
328.464933	2097.568663
328.858929	2104.343973
329.252859	2113.090375
329.646726	2125.610081
330.040528	2138.891001
330.434265	2153.926242
330.827938	2171.983655
331.221547	2190.230112
331.615091	2209.164685
332.008571	2231.670917
332.401986	2246.812022
332.795338	2266.071751
333.188625	2283.146139
333.581847	2304.538275
333.975006	2324.050061
334.368100	2340.970694
334.761129	2360.205216
335.154095	2375.863040
335.546996	2398.913716
335.939833	2422.143353
336.332606	2438.695982
336.725315	2450.330965
337.117960	2461.973510
337.510540	2465.991309
337.903056	2478.773155
338.295508	2489.404948
338.687896	2495.386277
339.080220	2502.557319
339.472480	2509.627537
339.864676	2514.078876
340.256807	2518.719258
340.648875	2521.121368
341.040879	2523.757891
341.432818	2525.131606
341.824694	2527.387522
342.216506	2526.616225
342.608253	2530.255938
342.999937	2526.296112
343.391557	2525.897861
343.783113	2526.666637
344.174605	2526.444826
344.566033	2521.895185
344.957397	2519.598939
345.348697	2519.616583
345.739934	2518.943589
346.131106	2517.600122
346.522215	2514.688855
346.913260	2512.629544
347.304241	2513.841942
347.695159	2512.455624
348.086012	2509.216683
348.476802	2506.754079
348.867528	2507.212824
349.258191	2504.233502
349.648789	2503.714263
350.039324	2501.445744
350.429796	2500.891217
350.820203	2501.501197
351.210548	2499.819972
351.600828	2498.927688
351.991045	2496.170177
352.381198	2496.954076
352.771288	2498.403408
353.161314	2495.124137
353.551276	2497.070023
353.941175	2496.573469
354.331010	2495.106493
354.720782	2497.087667
355.110490	2496.250835
355.500135	2496.815444
355.889717	2498.635301
356.279235	2496.833088
356.668689	2498.461381
357.058080	2496.833088
357.447408	2494.423417
357.836672	2491.481904
358.225873	2495.925681
358.615010	2494.151195
359.004084	2498.229488
359.393095	2500.679489
359.782043	2499.406598
360.170927	2499.396515
360.559748	2503.545385
360.948505	2501.009684
361.337199	2503.653770
361.725830	2504.422546
362.114398	2502.151506
362.502903	2506.602845
362.891344	2507.169974
363.279722	2505.773575
363.668037	2504.788029
364.056289	2507.696775
364.444478	2510.035870
364.832603	2508.173164
365.220665	2510.693741
365.608665	2509.735922
365.996601	2510.630727
366.384474	2511.848165
366.772284	2515.117353
367.160031	2513.489061
367.547715	2515.311438
367.935336	2516.619617
368.322893	2522.958868
368.710388	2525.383663
369.097820	2532.375744
369.485189	2534.198121
369.872495	2538.223482
370.259738	2545.202960
370.646918	2554.824002
371.034035	2562.675599
371.421090	2571.104408
371.808081	2581.804257
372.195010	2594.989395
372.581875	2602.684716
372.968678	2618.695421
373.355418	2626.630197
373.742096	2649.648106
374.128710	2660.194199
374.515262	2673.402023
374.901751	2691.935825
375.288177	2704.379913
375.674540	2726.185424
376.060841	2745.997158
376.447079	2764.266300
376.833254	2786.626338
377.219367	2799.307360
377.605417	2835.757423
377.991404	2844.186232
378.377329	2866.581558
378.763191	2885.115361
379.148991	2924.012904
379.534727	2947.575257
379.920402	2977.824700
380.306013	2988.758963
380.691563	3035.596323
381.077049	3058.485683
381.462474	3074.282138
381.847835	3114.296297
382.233134	3138.178763
382.618371	3138.945018
383.003545	3204.298537
383.388657	3210.461347
383.773706	3248.857296
384.158693	3261.089656
384.543618	3287.714510
384.928480	3323.237000
385.313280	3368.768702
385.698017	3370.656614
386.082692	3422.431784
386.467305	3423.992022
386.851856	3459.229687
387.236344	3480.155517
387.620770	3511.990403
388.005133	3539.981410
388.389435	3566.699525
388.773674	3578.596648
389.157851	3620.241620
389.541965	3634.830719
389.926018	3598.385698
390.310008	3668.687109
390.693936	3689.794420
391.077802	3729.536356
391.461606	3718.604614
391.845348	3781.619037
392.229027	3782.478554
392.612645	3794.942807
392.996200	3869.733365
393.379694	3912.436979
393.763125	3976.789829
394.146494	3944.581897
394.529801	4005.579858
394.913047	4056.573650
395.296230	4020.405892
395.679351	4079.823452
396.062410	4098.906740
396.445408	4077.781784
396.828343	4114.577166
397.211217	4137.761433
397.594028	4055.572981
397.976778	4124.732571
398.359466	4149.915655
398.742092	4183.371272
399.124656	4102.959827
399.507158	4183.346067
399.889598	4205.582596
400.271977	4271.914098
400.654294	4235.577462
401.036549	4248.008947
401.418742	4220.070872
401.800874	4317.120646
402.182944	4342.775078
402.564952	4405.794542
402.946898	4394.981267
403.328783	4390.106471
403.710606	4299.806803
404.092367	4497.392307
404.474067	4458.298159
404.855705	4468.355261
405.237282	4395.881113
405.618797	4505.458153
406.000250	4539.032238
406.381642	4619.862099
406.762972	4584.233744
407.144240	4590.121812
407.525447	4594.220270
407.906593	4649.141120
408.287677	4695.219787
408.668700	4624.930979
409.049661	4677.333773
409.430560	4716.145617
409.811399	4642.025532
410.192176	4803.496210
410.572891	4742.306684
410.953545	4847.409701
411.334138	4725.718768
411.714669	4791.732677
412.095139	4687.821894
412.475547	4833.029810
412.855894	4812.799659
413.236180	4819.990865
413.616405	4774.096201
413.996568	4858.704406
414.376670	4803.559224
414.756711	4757.939302
415.136691	4790.096823
415.516609	4872.998598
415.896466	4900.351899
416.276262	4938.856232
416.655997	4919.823355
417.035670	5103.669195
417.415283	5192.663204
417.794834	5139.990708
418.174324	5091.005817
418.553753	4996.678266
418.933121	5177.418755
419.312428	5247.949539
419.691674	5187.415363
420.070859	5312.521678
420.449983	5229.924893
420.829045	5340.154763
421.208047	5252.882308
421.586988	5321.366383
421.965867	5332.766952
422.344686	5467.736285
422.723444	5318.913861
423.102141	5139.693280
423.480777	5437.799392
423.859352	5202.493454
424.237866	5466.360050
424.616319	5453.661383
424.994712	5563.641716
425.373044	5443.107727
425.751314	5586.959573
426.129524	5385.948605
426.507673	5585.290951
426.885762	5664.437067
427.263789	5597.543476
427.641756	5476.263396
428.019662	5599.935503
428.397508	5609.513695
428.775292	5555.782557
429.153016	5653.525489
429.530679	5578.634107
429.908282	5662.894473
430.285824	5529.588722
430.663305	5811.472401
431.040726	5547.958686
431.418086	5544.999529
431.795385	5651.972814
432.172624	5659.274925
432.549802	5652.313092
432.926920	5669.863869
433.303977	5676.152708
433.680974	5719.131065
434.057910	5735.144290
434.434786	5737.637141
434.811601	5709.487338
435.188355	5942.053409
435.565050	5817.730993
435.941683	5798.851872
436.318257	6014.585530
436.694770	5997.347305
437.071222	6031.886770
437.447614	5964.494105
437.823946	5874.302822
438.200218	6026.550709
438.576429	5893.446603
438.952580	5997.286811
439.328670	6036.910280
439.704700	5944.745385
440.080670	5929.609321
440.456580	6205.920004
440.832429	6085.809473
441.208218	5932.051760
441.583947	6084.783598
441.959616	6086.737045
442.335224	6016.231467
442.710773	6153.986037
443.086261	6181.397311
443.461689	5973.495085
443.837057	6122.577128
444.212365	6280.879441
444.587612	6174.753070
444.962800	6330.111350
445.337927	6307.065715
445.712995	5919.174132
446.088002	6497.346587
446.462949	6324.951729
446.837837	6250.186376
447.212664	6422.566111
447.587431	6571.885088
447.962139	7116.228880
448.336786	8035.689972
448.711374	7784.665716
449.085901	6854.590475
449.460369	6769.611745
449.834776	6709.974895
450.209124	7099.945953
450.583412	7249.005311
450.957640	7399.181284
451.331808	7160.064234
451.705917	6714.143929
452.079965	6639.479399
452.453954	6850.045875
452.827883	6725.095836
453.201752	6822.107800
453.575562	6619.178673
453.949311	6827.307751
454.323001	6710.421037
454.696632	6787.192769
455.070202	6925.396002
455.443713	7077.462407
455.817164	7182.583068
456.190556	7261.930829
456.563888	7340.988725
456.937160	7382.951289
457.310373	7036.162754
457.683526	7062.134779
458.056619	6954.601926
458.429653	6944.464166
458.802628	6876.461521
459.175542	6986.530074
459.548398	7333.938671
459.921194	7498.852457
460.293930	7500.354721
460.666607	8031.246194
461.039224	8341.897218
461.411782	8470.295406
461.784280	8486.079259
462.156719	8380.915749
462.529099	8253.866069
462.901419	7839.515990
463.273680	7740.245589
463.645882	7751.086590
464.018024	7624.520861
464.390106	7782.384594
464.762130	8171.654932
465.134094	8635.413359
465.505999	9649.338112
465.877845	10878.353776
466.249631	11532.050277
466.621358	11145.769343
466.993026	10520.608293
467.364634	10272.129820
467.736184	9904.934694
468.107674	9570.922964
468.479105	9601.976472
468.850477	9364.744813
469.221790	9138.737283
469.593043	8814.293662
469.964238	8671.344183
470.335373	8684.461266
470.706449	8744.377900
471.077467	8715.630720
471.448425	10028.674857
471.819324	11106.851635
472.190164	11130.318207
472.560945	9884.155058
472.931667	9087.743491
473.302330	8960.131723
473.672934	8602.897917
474.043479	8957.538049
474.413965	8899.295078
474.784393	8779.139176
475.154761	8943.087582
475.525070	9024.925673
475.895321	8850.163993
476.265513	9026.390128
476.635645	9199.881438
477.005719	9195.886323
477.375734	9317.572216
477.745691	9550.528976
478.115588	9681.687196
478.485427	9928.499568
478.855207	10457.767790
479.224928	11274.016297
479.594591	11903.424519
479.964194	11723.755276
480.333739	11659.588949
480.703226	11573.874210
481.072653	11667.836277
481.442022	11900.767831
481.811333	12093.206317
482.180584	11896.596276
482.549777	11604.176586
482.918912	11425.379462
483.287988	11450.922988
483.657005	11461.854730
484.025964	11146.480146
484.394864	11275.067377
484.763706	11248.137534
485.132489	11005.277427
485.501213	10969.858280
485.869879	11040.772191
486.238487	10877.766481
486.607036	10990.945426
486.975527	10770.256314
487.343959	10965.830398
487.712333	11012.786225
488.080648	10940.707808
488.448905	10986.841927
488.817104	10922.340363
489.185244	11195.754904
489.553326	11346.573624
489.921350	11881.301416
490.289315	12946.119137
490.657222	13286.404583
491.025070	13192.583669
491.392861	13067.568095
491.760593	12693.685878
492.128267	12343.247548
492.495883	12009.248421
492.863440	11673.066474
493.230939	11341.240083
493.598380	11276.478901
493.965763	11145.802111
494.333088	11041.195648
494.700354	10969.112189
495.067563	11020.514314
495.434713	10860.374500
495.801805	10978.980247
496.168839	10904.046016
496.535815	10840.945893
496.902733	10839.189051
497.269593	10771.831674
497.636395	10874.202385
498.003139	10864.314162
498.369825	10727.025899
498.736453	10889.804757
499.103023	10811.724845
499.469535	10838.110244
499.835989	10837.185193
500.202385	10793.541403
500.568723	10646.775771
500.935003	10865.221570
501.301226	10674.973465
501.667390	10937.315111
502.033497	11032.303052
502.399546	10881.436441
502.765537	10792.628954
503.131470	10871.913702
503.497345	11045.097501
503.863163	10655.267594
504.228923	10970.349792
504.594625	11027.287104
504.960269	10780.149578
505.325856	10997.660243
505.691385	10792.349170
506.056856	10949.870105
506.422270	10973.593775
506.787625	10861.765859
507.152924	10974.622170
507.518164	10957.620879
507.883347	10888.337781
508.248472	10794.491661
508.613540	11027.990345
508.978550	10912.779815
509.343503	10886.154961
509.708398	11006.414207
510.073236	11122.678338
510.438016	11125.037598
510.802738	11067.893598
511.167403	11126.441559
511.532010	11023.884325
511.896561	11259.391910
512.261053	11327.933958
512.625488	11194.103926
512.989866	11180.228150
513.354186	11165.145018
513.718449	11069.002652
514.082655	11264.241500
514.446803	11150.250929
514.810894	11280.438727
515.174927	11146.964097
515.538904	11172.802531
515.902822	11321.438431
516.266684	11206.656399
516.630488	11142.800103
516.994235	11206.870648
517.357925	11268.728127
517.721558	11354.573935
518.085133	11378.610157
518.448651	11385.690458
518.812112	11271.815833
519.175516	11285.658842
519.538863	11407.816082
519.902152	11318.297792
520.265385	11484.194604
520.628560	11389.292362
520.991678	11369.987263
521.354739	11431.275091
521.717743	11366.143383
522.080690	11344.322749
522.443580	11481.512710
522.806413	11436.361615
523.169189	11461.935389
523.531908	11520.521158
523.894569	11342.742347
524.257174	11342.596154
524.619722	11458.177209
524.982213	11412.867318
525.344647	11462.605862
525.707025	11409.361195
526.069345	11509.385249
526.431608	11422.243864
526.793815	11529.247396
527.155964	11323.477578
527.518057	11373.861390
527.880093	11326.461941
528.242072	11387.563246
528.603995	11301.180554
528.965860	11221.278266
529.327669	11275.354723
529.689421	11218.271218
530.051117	11190.101250
530.412755	11299.869854
530.774337	11192.016888
531.135862	11169.319093
531.497331	11194.063597
531.858743	11044.689167
532.220098	11206.076667
532.581396	11087.317164
532.942638	11062.890253
533.303824	11027.816425
533.664953	11042.140864
534.026025	10953.358583
534.387040	11054.970601
534.747999	11055.913296
535.108902	11116.843202
535.469748	10869.425892
535.830537	10978.821451
536.191270	10953.557709
536.551947	10977.306584
536.912567	10978.317336
537.273131	10897.701724
537.633638	10876.216326
537.994089	10867.227949
538.354483	10817.559981
538.714821	10960.224635
539.075103	10974.443209
539.435328	10931.260685
539.795497	10762.651733
540.155609	10920.951526
540.515665	11001.688125
540.875665	10748.312171
541.235609	10804.931890
541.595496	10813.297685
541.955328	10963.957609
542.315102	10851.040804
542.674821	10798.353185
543.034483	10803.510285
543.394090	10813.476646
543.753640	10734.832126
544.113134	10957.837648
544.472571	10805.249483
544.831953	10947.888931
545.191278	10754.167471
545.550548	10778.793508
545.909761	10926.153996
546.268918	10897.767259
546.628019	10980.598458
546.987064	10840.280461
547.346053	10758.868347
547.704986	10858.605055
548.063863	10847.771616
548.422684	10840.782056
548.781449	10763.107957
549.140158	10863.154697
549.498811	10742.242622
549.857408	10593.374828
550.215949	10819.241206
550.574434	10666.877372
550.932864	10770.362178
551.291237	10833.048926
551.649555	10775.524319
552.007817	10788.475044
552.366022	10752.750907
552.724173	10748.957439
553.082267	10726.942720
553.440305	10865.032527
553.798288	10669.302167
554.156215	10817.628036
554.514086	10802.640686
554.871902	10654.642491
555.229661	10682.325988
555.587365	10656.739611
555.945014	10559.347040
556.302606	10680.324650
556.660143	10574.578886
557.017625	10731.111754
557.375050	10626.248192
557.732421	10767.397979
558.089735	10675.298619
558.446994	10680.430514
558.804197	10715.257325
559.161345	10718.224044
559.518437	10565.966075
559.875474	10651.690896
560.232455	10680.579228
560.589381	10630.865889
560.946251	10629.262802
561.303065	10735.424461
561.659825	10670.398618
562.016528	10603.396642
562.373177	10482.552622
562.729770	10605.796231
563.086307	10503.705304
563.442789	10599.545200
563.799216	10485.214352
564.155587	10523.585094
564.511904	10481.476336
564.868164	10471.905706
565.224370	10488.796092
565.580520	10416.858826
565.936615	10418.933261
566.292654	10286.998703
566.648638	10415.679196
567.004567	10374.593792
567.360441	10357.438746
567.716260	10269.160580
568.072023	10363.384787
568.427732	10315.224123
568.783385	10220.919258
569.138982	10294.225197
569.494525	10314.931737
569.850013	10188.928096
570.205445	10273.213668
570.560823	10166.797431
570.916145	10085.158465
571.271412	10151.711778
571.626625	10102.797462
571.981782	10077.531199
572.336884	10048.461385
572.691931	10056.577643
573.046923	10004.840281
573.401860	9955.552920
573.756743	9892.336851
574.111570	9940.615981
574.466342	9917.955995
574.821059	9952.374473
575.175722	9845.297844
575.530330	9854.102219
575.884882	9843.399850
576.239380	9769.766236
576.593823	9748.348894
576.948211	9765.607284
577.302544	9651.258792
577.656823	9654.359101
578.011047	9659.606942
578.365216	9633.806317
578.719330	9555.151714
579.073389	9566.128827
579.427394	9518.527731
579.781344	9493.657199
580.135239	9442.194580
580.489080	9451.435015
580.842866	9348.338378
581.196597	9361.155511
581.550273	9399.720338
581.903895	9364.119710
582.257463	9434.272407
582.610975	9309.813880
582.964434	9337.951080
583.317837	9261.433926
583.671186	9245.077903
584.024481	9236.825534
584.377721	9158.506168
584.730906	9133.156726
585.084037	9167.847426
585.437113	9097.041899
585.790135	9116.972101
586.143103	9018.110033
586.496016	8996.168411
586.848874	9048.775372
587.201679	9039.860091
587.554428	8919.230321
587.907124	8968.663876
588.259765	8940.814021
588.612352	8947.853992
588.964884	8820.363212
589.317362	8837.780398
589.669786	8839.398609
590.022155	8889.979026
590.374470	8899.897496
590.726731	8839.214607
591.078937	8689.676339
591.431090	8796.004356
591.783188	8675.261160
592.135232	8656.848346
592.487222	8663.961414
592.839157	8723.237821
593.191038	8655.794744
593.542866	8597.750899
593.894639	8500.101228
594.246358	8549.333137
594.598022	8566.659583
594.949633	8461.785939
595.301190	8437.762320
595.652692	8467.754665
596.004141	8574.894308
596.355535	8360.113427
596.706876	8334.539654
597.058162	8266.118593
597.409395	8343.165068
597.760573	8409.589832
598.111698	8312.802198
598.462768	8302.208214
598.813785	8266.163964
599.164748	8234.437462
599.515657	8228.987975
599.866511	8134.305023
600.217312	8261.427800
600.568060	8118.072508
600.918753	8223.800627
601.269392	8192.852984
601.619978	8108.312834
601.970510	8169.262904
602.320988	8163.485742
602.671412	8218.121768
603.021783	8154.893095
603.372100	8130.577090
603.722363	8128.245556
604.072572	8106.462730
604.422728	8120.071325
604.772830	8049.432157
605.122878	8056.252838
605.472872	8051.254534
605.822813	8087.313908
606.172701	8027.399794
606.522534	8103.261598
606.872314	8102.838141
607.222041	8071.383861
607.571714	8124.391594
607.921333	8086.368691
608.270899	8094.263138
608.620411	8173.787340
608.969870	8083.797703
609.319276	8078.988442
609.668627	8094.991585
610.017926	8127.305381
610.367171	8176.285232
610.716362	8152.521232
611.065500	8144.669635
611.414585	8173.225251
611.763616	8157.302767
612.112594	8139.724263
612.461518	8150.557703
612.810389	8216.460707
613.159207	8154.746902
613.507971	8103.102801
613.856682	8220.158394
614.205340	8172.650560
614.553945	8253.011593
614.902496	8153.542066
615.250994	8205.675159
615.599439	8190.705452
615.947830	8203.855302
616.296169	8172.408584
616.644454	8192.162346
616.992686	8187.065739
617.340864	8242.989779
617.688990	8147.611149
618.037063	8241.023729
618.385082	8188.361316
618.733048	8275.046477
619.080961	8211.359060
619.428821	8233.265394
619.776628	8236.590035
620.124382	8184.542642
620.472083	8170.571084
620.819731	8195.232408
621.167326	8085.388187
621.514868	8100.602389
621.862357	7987.478897
622.209793	8003.809715
622.557176	7942.259747
622.904506	7908.471413
623.251783	7843.977411
623.599007	7794.377499
623.946179	7796.729197
624.293297	7758.476922
624.640363	7674.876947
624.987376	7655.279461
625.334336	7608.061494
625.681243	7551.837505
626.028097	7544.699231
626.374899	7525.787342
626.721647	7514.805189
627.068343	7443.765249
627.414987	7415.055877
627.761577	7368.969649
628.108115	7408.275526
628.454600	7295.215048
628.801032	7350.027513
629.147412	7310.335989
629.493739	7300.480533
629.840014	7238.454176
630.186236	7289.614326
630.532405	7176.644589
630.878521	7227.560242
631.224585	7180.715320
631.570597	7101.896880
631.916556	7138.825852
632.262462	7138.082282
632.608316	7097.858916
632.954117	7071.526449
633.299866	7057.781743
633.645562	7052.531381
633.991206	6968.354194
634.336797	6910.993425
634.682336	6872.670573
635.027823	6841.473393
635.373257	6829.644325
635.718639	6763.443893
636.063968	6775.741788
636.409245	6672.503998
636.754470	6667.772875
637.099642	6625.495239
637.444762	6570.823925
637.789829	6580.462611
638.134845	6526.741555
638.479808	6507.368401
638.824719	6513.705132
639.169577	6442.350119
639.514383	6456.689682
639.859137	6388.835751
640.203839	6395.963942
640.548489	6383.023300
640.893086	6361.563108
641.237632	6330.527245
641.582125	6356.032963
641.926566	6322.358055
642.270955	6336.339695
642.615292	6333.751063
642.959576	6348.556932
643.303809	6334.310631
643.647990	6343.853535
643.992118	6335.391958
644.336195	6283.173166
644.680219	6304.814840
645.024192	6296.330578
645.368112	6389.226440
645.711981	6411.830974
646.055797	6488.078426
646.399562	6441.044461
646.743274	6568.706641
647.086935	6625.996833
647.430544	6617.562983
647.774101	6637.699872
648.117606	6645.314535
648.461059	6639.784389
648.804460	6602.689059
649.147810	6506.340006
649.491108	6475.508309
649.834354	6454.950483
650.177548	6371.015272
650.520690	6284.110821
650.863781	6267.729591
651.206820	6283.289113
651.549807	6203.439756
651.892742	6145.695860
652.235626	6150.893289
652.578458	6138.756711
652.921238	6041.517895
653.263967	6079.865952
653.606644	6024.282190
653.949269	6026.104567
654.291843	5964.002593
654.634365	6008.216033
654.976836	5968.557275
655.319255	5963.538807
655.661622	5944.140447
656.003938	5939.734478
656.346203	5894.923662
656.688416	5933.327172
657.030577	5884.730448
657.372687	5851.854564
657.714746	5841.527760
658.056753	5882.900510
658.398708	5823.079658
658.740612	5819.800387
659.082465	5864.724629
659.424266	5859.769175
659.766016	5855.431262
660.107715	5832.988045
660.449362	5846.873904
660.790958	5836.393345
661.132503	5825.370862
661.473996	5864.160020
661.815438	5850.987485
662.156829	5842.798131
662.498168	5838.087172
662.839456	5816.024563
663.180693	5849.722156
663.521879	5851.294996
663.863013	5834.782696
664.204097	5854.569225
664.545129	5898.689403
664.886110	5894.361573
665.227040	5928.210400
665.567918	5887.503083
665.908746	5918.551550
666.249522	5922.700419
666.590248	5907.529067
666.930922	5937.042502
667.271545	5948.773267
667.612118	5953.010357
667.952639	5923.259987
668.293109	5942.449139
668.633528	5900.605042
668.973896	5903.160907
669.314213	5894.651439
669.654480	5875.066557
669.994695	5868.805443
670.334859	5862.814032
670.674973	5848.129151
671.015035	5853.026632
671.355047	5856.061407
671.695008	5833.046019
672.034918	5810.668337
672.374777	5819.969266
672.714585	5804.550897
673.054342	5808.760260
673.394049	5802.078211
673.733705	5829.444114
674.073310	5811.479963
674.412864	5776.259941
674.752368	5767.468169
675.091820	5768.536893
675.431223	5712.484304
675.770574	5708.484148
676.109875	5658.294421
676.449125	5668.732130
676.788324	5626.656139
677.127473	5572.068005
677.466571	5570.439712
677.805619	5551.427000
678.144616	5545.049941
678.483562	5517.638667
678.822458	5487.016177
679.161303	5485.864274
679.500098	5473.016893
679.838842	5454.818328
680.177535	5455.251867
680.516179	5472.749712
680.854771	5480.591227
681.193314	5557.922527
681.531805	5664.177447
681.870247	5812.165559
682.208638	5910.430251
682.546978	5922.954998
682.885268	5897.787037
683.223508	5818.320808
683.561697	5762.026243
683.899836	5729.089865
684.237925	5689.189132
684.575963	5650.173122
684.913951	5607.754333
685.251889	5661.760214
685.589776	5634.227952
685.927614	5610.340445
686.265401	5673.546432
686.603137	5655.194111
686.940824	5725.871088
687.278460	5749.083081
687.616046	5758.366366
687.953582	5819.714687
688.291068	5800.122243
688.628504	5858.075348
688.965889	5822.855326
689.303224	5766.270895
689.640510	5722.183484
689.977745	5642.351772
690.314930	5547.101690
690.652065	5493.236961
690.989150	5403.597684
691.326185	5328.166899
691.663170	5276.522799
692.000105	5200.514802
692.336990	5122.150065
692.673825	5097.952527
693.010610	5033.284605
693.347345	4966.383452
693.684030	4943.834371
694.020665	4906.348351
694.357251	4817.369465
694.693786	4825.654602
695.030272	4796.057987
695.366707	4758.907204
695.703093	4725.282708
696.039429	4744.769288
696.375716	4721.968149
696.711952	4700.366805
697.048139	4685.376934
697.384276	4664.987987
697.720363	4673.547867
698.056400	4681.470040
698.392388	4633.364829
698.728326	4614.165595
699.064214	4588.745577
699.400053	4587.928910
699.735842	4547.967683
700.071581	4530.205177
700.407270	4502.793903
700.742910	4483.012416
701.078501	4430.700362
701.414042	4424.247685
701.749533	4395.944127
702.084974	4335.180579
702.420366	4391.278539
702.755709	4332.912060
703.091002	4275.914254
703.426246	4319.502591
703.761440	4283.173516
704.096584	4246.453751
704.431679	4262.535032
704.766725	4246.410901
705.101721	4233.848346
705.436668	4262.109054
705.771565	4210.296075
706.106413	4239.043255
706.441212	4264.979991
706.775961	4270.159777
707.110661	4255.553034
707.445311	4282.427425
707.779913	4293.021410
708.114465	4311.129234
708.448967	4328.508612
708.783421	4382.486767
709.117825	4423.241975
709.452180	4423.451183
709.786485	4471.100169
710.120742	4549.875760
710.454949	4530.094272
710.789107	4592.491154
711.123216	4656.420546
711.457275	4652.889218
711.791286	4716.601841
712.125247	4722.409250
712.459159	4640.293895
712.793023	4716.405236
713.126837	4662.583357
713.460602	4654.898118
713.794318	4590.094085
714.127985	4589.582408
714.461602	4508.283720
714.795171	4486.485771
715.128691	4421.570833
715.462162	4363.166545
715.795584	4318.131397
716.128957	4297.230773
716.462281	4253.017333
716.795556	4229.666709
717.128782	4188.639278
717.461960	4119.822487
717.795088	4131.459991
718.128167	4092.615380
718.461198	4040.026063
718.794180	4034.926936
719.127113	4006.031042
719.459997	3989.720388
719.792833	3952.594811
720.125619	3946.426959
720.458357	3904.648397
720.791046	3903.476328
721.123686	3881.093605
721.456278	3847.222093
721.788821	3855.577805
722.121315	3833.951255
722.453761	3810.290600
722.786158	3812.042401
723.118506	3835.763550
723.450805	3797.823826
723.783056	3814.429387
724.115259	3821.671004
724.447412	3831.014783
724.779518	3826.203002
725.111574	3826.820543
725.443582	3851.547403
725.775542	3834.402438
726.107453	3879.782905
726.439315	3876.942215
726.771129	3894.135070
727.102895	3925.062549
727.434612	3961.774752
727.766281	3975.365703
728.097901	3973.807986
728.429473	3978.554233
728.760996	3983.819718
729.092471	3978.738235
729.423897	3961.462201
729.755276	3965.477480
730.086606	3965.946307
730.417887	4005.784025
730.749120	4058.567427
731.080305	4107.322946
731.411442	4129.887151
731.742530	4113.682362
732.073570	4113.387454
732.404562	4157.210204
732.735506	4148.793998
733.066401	4114.229327
733.397249	4057.433167
733.728048	3990.842045
734.058798	3905.598654
734.389501	3840.658510
734.720156	3792.565903
735.050762	3746.401536
735.381320	3734.448961
735.711831	3691.735264
736.042293	3663.981192
736.372707	3682.300745
736.703073	3656.048936
737.033391	3650.019716
737.363661	3666.196779
737.693883	3685.426260
738.024056	3690.386755
738.354182	3688.549255
738.684260	3743.954056
739.014290	3760.776387
739.344272	3759.571551
739.674207	3792.278557
740.004093	3797.470945
740.333931	3791.603042
740.663722	3790.582209
740.993464	3782.723050
741.323159	3765.502468
741.652806	3733.962489
741.982405	3711.209241
742.311956	3681.476516
742.641460	3672.543591
742.970915	3651.063235
743.300323	3617.216928
743.629683	3587.055704
743.958996	3574.067172
744.288260	3552.347360
744.617477	3520.199922
744.946647	3510.359590
745.275768	3484.271619
745.604842	3474.211996
745.933869	3439.881738
746.262847	3434.225564
746.591778	3460.200109
746.920662	3434.966613
747.249498	3413.662697
747.578286	3445.033798
747.907027	3462.171200
748.235720	3468.780153
748.564365	3481.498984
748.892963	3474.693426
749.221514	3463.771767
749.550017	3446.339457
749.878473	3440.605144
750.206881	3416.425250
750.535242	3409.367634
750.863555	3410.567429
751.191821	3403.189700
751.520039	3391.894995
751.848210	3378.233468
752.176334	3398.324987
752.504411	3398.302302
752.832440	3370.180225
753.160421	3357.824357
753.488356	3359.477855
753.816243	3364.836602
754.144082	3332.364009
754.471875	3321.878409
754.799620	3331.524657
755.127318	3325.843277
755.454969	3328.247907
755.782572	3329.150274
756.110129	3308.463899
756.437638	3299.614153
756.765100	3307.720329
757.092515	3315.158551
757.419882	3319.377997
757.747203	3300.907209
758.074477	3303.400060
758.401703	3311.254178
758.728882	3329.344358
759.056014	3336.578414
759.383099	3341.584280
759.710138	3340.248374
760.037129	3355.298739
760.364073	3372.542005
760.690970	3359.810571
761.017820	3343.378930
761.344623	3360.294522
761.671379	3395.063360
761.998088	3433.202210
762.324751	3536.800442
762.651366	3750.268101
762.977935	4161.114578
763.304456	4517.481305
763.630931	4583.275925
763.957359	4291.645175
764.283740	4002.071215
764.610074	3834.515864
764.936362	3661.634534
765.262602	3534.002601
765.588796	3439.188580
765.914943	3367.546222
766.241044	3299.694812
766.567097	3265.742641
766.893104	3228.365005
767.219064	3202.017415
767.544978	3177.908097
767.870845	3140.439721
768.196665	3121.066566
768.522438	3124.237452
768.848165	3117.182357
769.173846	3086.229673
769.499479	3079.005699
769.825066	3066.750654
770.150607	3048.693241
770.476101	3058.140363
770.801548	3049.315824
771.126949	3022.448994
771.452303	3007.353259
771.777611	3007.610358
772.102872	3007.932992
772.428087	2990.057060
772.753256	2979.458034
773.078378	2972.952425
773.403453	2948.545679
773.728482	2939.809359
774.053465	2948.994342
774.378401	2941.750203
774.703291	2922.566093
775.028135	2921.139446
775.352932	2916.090730
775.677683	2906.126890
776.002388	2899.608678
776.327046	2902.174625
776.651658	2890.640465
776.976224	2884.512943
777.300743	2883.978580
777.625216	2877.757797
777.949643	2872.467106
778.274024	2876.784854
778.598359	2864.774305
778.922647	2864.741537
779.246889	2865.197762
779.571086	2854.381966
779.895236	2849.237469
780.219339	2859.675178
780.543397	2865.732124
780.867409	2869.248329
781.191374	2863.387987
781.515294	2860.375898
781.839167	2860.091073
782.162995	2856.431195
782.486776	2857.341123
782.810511	2858.974457
783.134201	2844.955008
783.457844	2849.701255
783.781441	2846.371573
784.104993	2834.199707
784.428498	2831.669047
784.751958	2839.699606
785.075372	2833.186435
785.398739	2826.695949
785.722061	2832.445385
786.045337	2839.482836
786.368568	2834.688699
786.691752	2825.856597
787.014891	2857.328521
787.337983	2880.205277
787.661030	2911.808270
787.984031	2964.916826
788.306987	2997.160046
788.629897	2993.046464
788.952760	2977.544916
789.275579	2959.913481
789.598351	2917.119126
789.921078	2882.720813
790.243759	2872.204966
790.566395	2857.585619
790.888984	2841.491736
791.211529	2827.157215
791.534027	2818.836790
791.856480	2809.664411
792.178888	2802.125365
792.501249	2795.065229
792.823566	2790.283695
793.145836	2788.453756
793.468062	2788.173972
793.790241	2782.858075
794.112375	2787.818571
794.434464	2795.334931
794.756507	2801.565797
795.078505	2805.407157
795.400457	2820.313848
795.722364	2843.871160
796.044226	2862.483100
796.366042	2866.896631
796.687812	2858.266175
797.009538	2869.626415
797.331218	2857.691484
797.652852	2845.784278
797.974442	2834.759275
798.295986	2828.818275
798.617484	2826.169149
798.938938	2815.456697
799.260346	2805.097126
799.581709	2798.715025
799.903026	2794.465332
800.224299	2787.127933
800.545526	2779.172992
800.866708	2772.533792
801.187845	2762.390991
801.508936	2762.121289
801.829983	2767.401898
802.150984	2759.104158
802.471940	2750.609814
802.792851	2750.745925
803.113717	2750.967736
803.434538	2749.967067
803.755314	2748.404309
804.076045	2742.725450
804.396731	2740.532548
804.717372	2743.406005
805.037967	2740.605644
805.358518	2747.370873
805.679024	2749.798188
805.999485	2744.560430
806.319901	2750.198960
806.640272	2745.845924
806.960598	2749.798188
807.280879	2756.505444
807.601115	2759.827564
807.921306	2752.104516
808.241453	2751.234917
808.561554	2756.570979
808.881611	2755.338417
809.201623	2749.722571
809.521590	2749.987232
809.841513	2746.995307
810.161390	2750.161152
810.481223	2743.363156
810.801011	2739.420973
811.120755	2735.687999
811.440453	2735.982906
811.760107	2733.089284
812.079716	2728.723645
812.399281	2721.419013
812.718801	2719.818447
813.038276	2713.776624
813.357707	2716.939948
813.677093	2721.487068
813.996434	2719.193343
814.315731	2718.895915
814.634983	2711.225800
814.954191	2712.647405
815.273354	2723.974878
815.592473	2727.486042
815.911547	2730.629201
816.230577	2734.795715
816.549562	2742.186046
816.868502	2741.248392
817.187399	2745.830800
817.506250	2755.267840
817.825058	2751.121491
818.143821	2760.283788
818.462539	2772.261570
818.781213	2787.964764
819.099843	2813.546099
819.418429	2859.896988
819.736970	2900.687485
820.055466	2954.650516
820.373919	3017.768283
820.692327	3111.995010
821.010691	3238.132241
821.329011	3582.808532
821.647286	4299.159014
821.965517	5387.821393
822.283704	5979.345344
822.601847	5954.729390
822.919945	5410.509106
823.237999	4940.968475
823.556010	4477.724245
823.873976	4057.501222
824.191897	3756.526694
824.509775	3542.403684
824.827609	3356.508616
825.145398	3268.215327
825.463144	3264.252980
825.780845	3321.225580
826.098502	3407.126841
826.416116	3614.562760
826.733685	3861.047457
827.051210	3905.691916
827.368692	3806.804642
827.686129	3589.183071
828.003522	3358.882999
828.320872	3175.969773
828.638177	3049.310783
828.955439	2957.135805
829.272656	2898.066085
829.589830	2850.364167
829.906960	2817.508446
830.224046	2788.741102
830.541088	2766.008019
830.858086	2754.483941
831.175041	2744.562950
831.491952	2748.139649
831.808819	2748.331213
832.125642	2766.302926
832.442421	2795.118162
832.759157	2857.804910
833.075849	2985.071359
833.392497	3176.894825
833.709101	3310.692089
834.025662	3275.474588
834.342179	3159.807834
834.658653	3036.780995
834.975083	2932.540015
835.291469	2870.100284
835.607811	2806.864050
835.924110	2772.465737
836.240366	2738.541292
836.556578	2713.857282
836.872746	2696.576207
837.188871	2683.161696
837.504952	2677.071982
837.820990	2664.340548
838.136984	2657.991215
838.452935	2656.453663
838.768842	2655.516009
839.084706	2663.803666
839.400526	2719.163097
839.716303	2809.429997
840.032037	2867.057948
840.347727	2853.645958
840.663373	2808.860347
840.978977	2750.178796
841.294537	2706.713967
841.610054	2678.324709
841.925527	2662.228305
842.240957	2646.956129
842.556344	2634.864922
842.871687	2623.842439
843.186987	2619.131481
843.502244	2613.266098
843.817458	2610.561519
844.132629	2608.739142
844.447756	2599.319746
844.762840	2592.259610
845.077881	2594.681885
845.392879	2591.349682
845.707833	2593.030907
846.022745	2585.849783
846.337613	2589.668457
846.652438	2588.977819
846.967221	2590.396904
847.281960	2589.181986
847.596656	2587.367170
847.911309	2584.705441
848.225919	2583.044381
848.540485	2584.125708
848.855009	2580.962384
849.169490	2582.809967
849.483928	2582.013465
849.798323	2581.663105
850.112675	2580.901891
850.426984	2581.310224
850.741251	2578.628330
851.055474	2576.954667
851.369654	2583.946747
851.683792	2583.467838
851.997887	2579.520614
852.311938	2578.419122
852.625947	2579.417271
852.939914	2580.238979
853.253837	2582.454566
853.567718	2576.931982
853.881555	2581.030440
854.195350	2580.750656
854.509103	2579.949112
854.822812	2578.958526
855.136479	2575.507856
855.450103	2580.032292
855.763685	2579.298804
856.077224	2576.198494
856.390720	2578.635892
856.704173	2580.415419
857.017584	2580.498598
857.330953	2580.796026
857.644278	2584.705441
857.957561	2583.480441
858.270802	2582.784762
858.584000	2579.694534
858.897155	2580.344843
859.210268	2582.580595
859.523339	2577.892322
859.836367	2578.436766
860.149352	2577.085737
860.462295	2578.237641
860.775195	2575.036508
861.088054	2574.855027
861.400869	2572.493246
861.713642	2572.778071
862.026373	2575.661611
862.339062	2577.090778
862.651708	2577.776375
862.964312	2580.470872
863.276873	2580.117991
863.589392	2580.780903
863.901869	2588.153590
864.214303	2586.810123
864.526696	2587.064701
864.839045	2587.294074
865.151353	2590.913622
865.463619	2589.575196
865.775842	2591.102665
866.088023	2588.030082
866.400162	2588.962696
866.712258	2587.495720
867.024313	2588.617377
867.336325	2587.636872
867.648296	2584.929772
867.960224	2589.703745
868.272110	2588.655185
868.583954	2583.077148
868.895755	2585.733837
869.207515	2587.382294
869.519233	2591.170721
869.830909	2591.667275
870.142542	2589.088724
870.454134	2588.698035
870.765684	2590.563262
871.077191	2589.799527
871.388657	2594.855804
871.700081	2595.521237
872.011463	2595.438058
872.322803	2596.950404
872.634101	2598.913933
872.945357	2601.502566
873.256571	2608.295521
873.567744	2602.866198
873.878874	2602.372165
874.189963	2602.092381
874.501010	2604.996085
874.812015	2605.724532
875.122979	2606.795777
875.433900	2602.941815
875.744780	2601.863008
876.055618	2605.013729
876.366415	2604.489449
876.677169	2605.066662
876.987882	2600.118769
877.298554	2599.579366
877.609183	2601.689088
877.919771	2607.078082
878.230317	2610.216200
878.540822	2615.675770
878.851285	2621.367232
879.161707	2636.702422
879.472087	2659.153201
879.782425	2685.508353
880.092722	2749.437746
880.402977	2865.013760
880.713191	3058.732699
881.023363	3287.333903
881.333494	3448.817184
881.643583	3547.807801
881.953631	3516.285466
882.263637	3383.907287
882.573602	3226.565313
882.883526	3123.985394
883.193408	3042.321223
883.503248	2967.709625
883.813048	2896.208420
884.122806	2830.542350
884.432522	2780.161058
884.742197	2742.410377
885.051831	2720.473797
885.361424	2699.137113
885.670975	2679.350584
885.980485	2664.063285
886.289954	2652.420740
886.599382	2648.735657
886.908768	2638.494553
887.218113	2627.207409
887.527417	2621.468056
887.836680	2618.163579
888.145901	2613.906325
888.455082	2604.136569
888.764221	2600.451485
889.073319	2598.009046
889.382376	2597.247832
889.691392	2595.067533
890.000366	2599.609612
890.309300	2598.939139
890.618193	2598.132554
890.927044	2599.314705
891.235855	2600.567432
891.544625	2603.032556
891.853353	2601.865529
892.162041	2607.166302
892.470687	2615.648043
892.779293	2622.589712
893.087858	2631.809983
893.396381	2640.788278
893.704864	2668.348266
894.013306	2705.625078
894.321707	2760.853439
894.630068	2793.721762
894.938387	2803.065541
895.246665	2791.533901
895.554903	2763.018614
895.863100	2733.457288
896.171256	2702.338246
896.479371	2673.883453
896.787446	2652.274547
897.095480	2639.938843
897.403473	2633.821403
897.711425	2626.196658
898.019336	2615.849690
898.327207	2610.984976
898.635038	2609.023967
898.942827	2608.146807
899.250576	2604.186980
899.558284	2596.637852
899.865952	2597.018459
900.173579	2592.176431
900.481165	2590.200299
900.788711	2589.406317
901.096216	2584.191243
901.403681	2582.946078
901.711105	2582.930955
902.018489	2580.874164
902.325832	2585.746439
902.633135	2584.241655
902.940397	2592.582244
903.247619	2612.807353
903.554800	2652.110709
903.861941	2728.045610
904.169041	2806.198618
904.476101	2845.479288
904.783121	2837.032835
905.090100	2798.389870
905.397039	2749.069742
905.703938	2707.210521
906.010796	2672.862619
906.317614	2645.345481
906.624391	2625.621966
906.931129	2608.799636
907.237826	2597.157091
907.544483	2590.739702
907.851099	2583.787951
908.157675	2577.032805
908.464211	2572.311764
908.770707	2565.876732
909.077163	2563.585527
909.383578	2558.194013
909.689954	2559.981102
909.996289	2556.353992
910.302584	2562.025290
910.608839	2562.244580
910.915054	2561.160732
911.221229	2563.744323
911.527363	2561.679971
911.833458	2562.882286
912.139513	2559.769374
912.445527	2562.289951
912.751502	2565.833882
913.057436	2569.060220
913.363331	2572.024419
913.669186	2575.313772
913.975000	2580.798547
914.280775	2594.639035
914.586510	2608.890377
914.892205	2630.579941
915.197859	2667.327432
915.503475	2711.550954
915.809050	2752.921183
916.114585	2766.199582
916.420081	2773.458844
916.725536	2771.981786
917.030952	2752.908580
917.336328	2722.273488
917.641665	2697.549149
917.946961	2671.388082
918.252218	2652.105668
918.557435	2639.081847
918.862612	2625.354785
919.167750	2614.196191
919.472848	2605.175046
919.777906	2596.169025
920.082925	2591.329517
920.387904	2587.480596
920.692843	2583.982036
920.997743	2580.974987
921.302603	2574.978535
921.607423	2571.805128
921.912204	2570.726322
922.216946	2566.494273
922.521647	2566.998388
922.826310	2563.270455
923.130932	2561.024621
923.435516	2559.081256
923.740059	2557.868859
924.044564	2558.317521
924.349028	2556.555638
924.653454	2550.450801
924.957840	2550.617159
925.262186	2551.091027
925.566493	2549.883671
925.870761	2545.782692
926.174989	2551.897612
926.479178	2546.052394
926.783328	2547.698331
927.087438	2546.115408
927.391509	2548.366284
927.695541	2544.713968
927.999533	2546.397713
928.303486	2547.257230
928.607400	2547.854607
928.911275	2545.208001
929.215110	2546.188505
929.518906	2542.475695
929.822663	2543.403268
930.126381	2546.748073
930.430060	2545.412168
930.733699	2543.761190
931.037299	2545.480223
931.340861	2547.151366
931.644383	2546.778320
931.947866	2543.993083
932.251309	2545.739842
932.554714	2545.092054
932.858080	2547.027857
933.161407	2544.739173
933.464694	2544.910573
933.767943	2543.292362
934.071153	2545.893598
934.374323	2542.400078
934.677455	2544.144317
934.980548	2541.381765
935.283602	2542.228679
935.586617	2540.686086
935.889593	2543.514173
936.192530	2542.016950
936.495428	2547.078269
936.798287	2541.336395
937.101108	2545.462579
937.403890	2544.870243
937.706632	2546.521221
938.009336	2552.366439
938.312002	2549.742519
938.614628	2550.622200
938.917216	2552.910884
939.219765	2553.644372
939.522275	2553.752757
939.824747	2554.067829
940.127179	2548.767055
940.429573	2549.276212
940.731929	2547.179092
941.034246	2545.994421
941.336524	2547.718495
941.638763	2551.257385
941.940964	2548.051212
942.243126	2548.504915
942.545250	2548.580533
942.847335	2547.214380
943.149381	2546.422919
943.451389	2546.619524
943.753359	2545.805378
944.055290	2545.313865
944.357182	2546.259081
944.659036	2546.405275
944.960851	2543.748587
945.262628	2541.807742
945.564367	2546.327137
945.866067	2546.054915
946.167729	2546.221273
946.469352	2543.340253
946.770937	2545.578526
947.072484	2544.109029
947.373992	2543.214224
947.675462	2544.542568
947.976893	2541.250695
948.278286	2545.318906
948.579641	2542.324461
948.880958	2541.759852
949.182236	2540.731456
949.483476	2541.774975
949.784678	2543.882177
950.085841	2540.151723
950.386967	2542.130376
950.688054	2542.495860
950.989103	2544.474513
951.290114	2542.576518
951.591087	2544.620706
951.892021	2544.860161
952.192917	2545.139945
952.493776	2546.405275
952.794596	2547.564740
953.095378	2545.402085
953.396122	2546.667415
953.696828	2547.935265
953.997496	2544.880326
954.298126	2542.271529
954.598718	2542.889070
954.899272	2541.631302
955.199788	2541.966539
955.500266	2540.781868
955.800706	2539.274563
956.101108	2538.200797
956.401472	2536.315405
956.701798	2534.606454
957.002087	2536.791794
957.302337	2537.111908
957.602550	2537.169881
957.902724	2535.677699
958.202861	2535.491177
958.502960	2536.887576
958.803022	2537.583256
959.103045	2539.304810
959.403031	2536.025539
959.702979	2534.258615
960.002889	2538.473019
960.302762	2533.691485
960.602596	2536.101156
960.902393	2536.441434
961.202153	2537.152237
961.501875	2534.729963
961.801559	2538.283976
962.101205	2532.337935
962.400814	2533.988913
962.700385	2533.406660
962.999918	2534.596372
963.299414	2532.544622
963.598873	2536.685930
963.898293	2533.124355
964.197677	2533.797349
964.497022	2532.872297
964.796331	2534.477905
965.095601	2533.981351
965.394835	2534.006557
965.694030	2531.417924
965.993189	2533.426824
966.292309	2534.740045
966.591393	2534.399767
966.890439	2531.596885
967.189447	2534.109901
967.488419	2531.904396
967.787353	2533.141999
968.086249	2535.473533
968.385108	2534.603934
968.683930	2534.752648
968.982714	2533.124355
969.281462	2535.798687
969.580172	2533.436907
969.878844	2532.547143
970.177480	2531.891793
970.476078	2532.665610
970.774639	2533.590662
971.073162	2533.247863
971.371649	2528.967924
971.670098	2532.678213
971.968510	2532.776515
972.266885	2529.403983
972.565223	2532.559746
972.863524	2532.804242
973.161788	2533.822555
973.460014	2534.510672
973.758204	2535.342463
974.056356	2534.364479
974.354471	2533.510003
974.652550	2531.473377
974.950591	2530.853315
975.248595	2533.121834
975.546563	2533.855322
975.844493	2535.513862
976.142386	2531.556556
976.440243	2532.920188
976.738062	2533.300795
977.035845	2535.034952
977.333590	2537.913451
977.631299	2532.529499
977.928971	2533.802390
978.226606	2531.768285
978.524204	2533.031094
978.821765	2532.809283
979.119290	2531.347348
979.416777	2533.615868
979.714228	2533.787267
980.011642	2532.796680
980.309020	2535.365148
980.606360	2533.530168
980.903664	2533.036135
981.200931	2535.097967
981.498162	2533.651156
981.795356	2534.394726
982.092513	2537.406815
982.389633	2535.869263
982.686717	2537.966383
982.983764	2540.653318
983.280775	2540.348328
983.577749	2538.135262
983.874686	2539.912269
984.171587	2538.629295
984.468451	2537.144675
984.765279	2536.859850
985.062070	2534.992102
985.358824	2534.233409
985.655543	2532.547143
985.952224	2532.549663
986.248869	2534.107380
986.545478	2528.378109
986.842050	2533.038655
987.138586	2525.471883
987.435086	2526.341482
987.731549	2527.321987
988.027975	2531.869108
988.324366	2532.133768
988.620719	2530.457585
988.917037	2529.676206
989.213318	2533.716691
989.509563	2530.432379
989.805772	2530.989426
990.101944	2531.044879
990.398080	2532.635363
990.694180	2531.415404
990.990244	2530.686957
991.286271	2529.381298
991.582262	2530.545805
991.878217	2532.068233
992.174136	2529.230064
992.470019	2530.863397
992.765865	2532.685775
993.061676	2528.390712
993.357450	2530.291227
993.653188	2531.531350
993.948890	2532.710980
994.244556	2528.899868
994.540186	2531.949766
994.835780	2533.794828
995.131337	2532.574869
995.426859	2531.032276
995.722345	2531.062523
996.017795	2531.289375
996.313208	2533.711649
996.608586	2531.939684
996.903928	2532.191742
997.199234	2532.113604
997.494504	2532.191742
997.789738	2530.520599
998.084936	2532.763913
998.380099	2528.965403
998.675225	2532.887421
998.970316	2529.928263
999.265371	2531.453213
999.560390	2534.684592
999.855373	2530.611340
1000.150320	2529.217461
1000.445232	2531.364992
1000.740108	2528.794004
1001.034948	2528.930115
1001.329752	2528.501617
1001.624521	2534.475384
1001.919254	2525.366019
1002.213951	2527.347193
1002.508613	2527.659744
1002.803239	2529.552698
1003.097829	2524.670340
1003.392384	2529.565300
1003.686903	2526.212933
1003.981386	2528.446164
1004.275834	2529.865249
1004.570246	2529.998840
1004.864623	2529.530012
1005.158964	2530.318953
1005.453270	2530.908768
1005.747540	2528.741072
1006.041775	2531.911958
1006.335974	2528.902389
1006.630138	2528.035310
1006.924266	2529.976154
1007.218359	2528.872142
1007.512416	2529.756864
1007.806438	2530.961700
1008.100425	2527.352234
1008.394376	2526.580937
1008.688292	2531.601927
1008.982172	2527.957172
1009.276017	2532.647966
1009.569827	2527.014477
1009.863602	2531.138140
1010.157341	2528.700742
1010.451045	2530.210568
1010.744714	2525.998684
1011.038347	2529.388860
1011.331945	2528.743592
1011.625508	2529.116638
1011.919036	2529.008253
1012.212528	2528.615043
1012.505986	2528.753675
1012.799408	2526.122192
1013.092795	2528.254600
1013.386147	2527.145547
1013.679464	2526.974147
1013.972745	2528.705784
1014.265992	2530.228212
1014.559204	2528.962883
1014.852380	2530.134951
1015.145521	2529.146885
1015.438628	2527.342152
1015.731699	2530.712163
1016.024736	2528.990609
1016.317737	2528.511699
1016.610703	2532.388347
1016.903635	2524.478776
1017.196531	2523.589013
1017.489393	2527.435413
1017.782219	2522.215298
1018.075011	2527.894158
1018.367768	2525.565145
1018.660490	2526.049096
1018.953177	2526.049096
1019.245829	2526.049096
