Dividing Wavelength (nm)	Counts (n)	Blue Motor Position (mm): 0.000000	Red Motor Position (mm): 30.800000	
326.493990	2128.793570
326.888308	2128.793570
327.282561	2128.793570
327.676750	2095.176635
328.070874	2091.050451
328.464933	2098.075299
328.858929	2105.568974
329.252859	2114.995932
329.646726	2125.274844
330.040528	2137.285393
330.434265	2154.097641
330.827938	2169.543737
331.221547	2190.126768
331.615091	2207.193594
332.008571	2230.357696
332.401986	2246.348236
332.795338	2265.552512
333.188625	2283.574637
333.581847	2305.097843
333.975006	2323.490493
334.368100	2338.447596
334.761129	2359.048272
335.154095	2376.563761
335.546996	2393.965824
335.939833	2411.113308
336.332606	2426.486307
336.725315	2440.183122
337.117960	2447.273505
337.510540	2459.228601
337.903056	2469.454582
338.295508	2477.780047
338.687896	2484.459576
339.080220	2493.211019
339.472480	2499.537668
339.864676	2505.876918
340.256807	2507.139727
340.648875	2509.937568
341.040879	2515.019051
341.432818	2516.067611
341.824694	2518.421830
342.216506	2516.241531
342.608253	2517.990811
342.999937	2516.639782
343.391557	2516.332272
343.783113	2515.051818
344.174605	2515.893691
344.566033	2512.919410
344.957397	2509.990500
345.348697	2508.180726
345.739934	2507.495129
346.131106	2504.057062
346.522215	2507.477485
346.913260	2505.445900
347.304241	2500.215703
347.695159	2503.444562
348.086012	2499.509941
348.476802	2496.694457
348.867528	2493.788232
349.258191	2494.050372
349.648789	2493.190855
350.039324	2487.985863
350.429796	2492.396873
350.820203	2489.732623
351.210548	2487.524598
351.600828	2484.036119
351.991045	2488.152222
352.381198	2483.947899
352.771288	2487.572489
353.161314	2485.213229
353.551276	2484.880513
353.941175	2486.095431
354.331010	2487.164155
354.720782	2486.155925
355.110490	2485.598877
355.500135	2485.583754
355.889717	2486.407982
356.279235	2486.851604
356.668689	2489.611636
357.058080	2488.401759
357.447408	2486.244145
357.836672	2481.941520
358.225873	2487.224649
358.615010	2484.426809
359.004084	2487.436378
359.393095	2490.219095
359.782043	2490.519043
360.170927	2489.636841
360.559748	2492.475011
360.948505	2491.048364
361.337199	2495.776967
361.725830	2494.337717
362.114398	2498.093377
362.502903	2493.158087
362.891344	2498.511793
363.279722	2495.769405
363.668037	2498.600013
364.056289	2495.560197
364.444478	2499.852740
364.832603	2497.682523
365.220665	2499.691423
365.608665	2500.273676
365.996601	2499.215034
366.384474	2502.748883
366.772284	2502.940446
367.160031	2505.950015
367.547715	2506.980931
367.935336	2508.251302
368.322893	2512.684997
368.710388	2513.960409
369.097820	2522.364012
369.485189	2525.502130
369.872495	2529.550177
370.259738	2537.966383
370.646918	2543.708258
371.034035	2550.029864
371.421090	2563.003274
371.808081	2572.228585
372.195010	2581.678228
372.581875	2592.657861
372.968678	2607.315016
373.355418	2616.651233
373.742096	2636.208389
374.128710	2650.913435
374.515262	2667.662669
374.901751	2681.120029
375.288177	2694.713500
375.674540	2717.111347
376.060841	2736.290417
376.447079	2753.163159
376.833254	2774.978752
377.219367	2787.110289
377.605417	2826.995898
377.991404	2833.912361
378.377329	2856.058150
378.763191	2873.800491
379.148991	2911.914134
379.534727	2936.993875
379.920402	2963.838019
380.306013	2976.390492
380.691563	3026.214736
381.077049	3047.677449
381.462474	3066.412897
381.847835	3102.978906
382.233134	3126.891620
382.618371	3127.267186
383.003545	3196.429296
383.388657	3201.551108
383.773706	3232.637383
384.158693	3249.255547
384.543618	3277.102881
384.928480	3309.998930
385.313280	3356.712782
385.698017	3356.294367
386.082692	3410.194383
386.467305	3415.555651
386.851856	3448.229889
387.236344	3471.043631
387.620770	3501.948425
388.005133	3526.594626
388.389435	3554.071435
388.773674	3565.391346
389.157851	3606.781739
389.541965	3622.084162
389.926018	3588.739450
390.310008	3656.003566
390.693936	3678.219931
391.077802	3720.076631
391.461606	3706.883931
391.845348	3771.226698
392.229027	3773.898510
392.612645	3783.330509
392.996200	3860.934031
393.379694	3899.277047
393.763125	3967.388077
394.146494	3935.361627
394.529801	3991.038650
394.913047	4040.225188
395.296230	4008.624715
395.679351	4061.135894
396.062410	4086.291252
396.445408	4064.636976
396.828343	4100.882872
397.211217	4128.432778
397.594028	4043.501938
397.976778	4109.072226
398.359466	4137.695898
398.742092	4163.730937
399.124656	4089.880554
399.507158	4170.460877
399.889598	4194.502140
400.271977	4258.834825
400.654294	4225.134711
401.036549	4233.659303
401.418742	4202.794838
401.800874	4307.726455
402.182944	4327.644054
402.564952	4391.727202
402.946898	4381.052559
403.328783	4375.754306
403.710606	4289.003610
404.092367	4484.302951
404.474067	4448.460347
404.855705	4457.292449
405.237282	4383.119432
405.618797	4491.594980
406.000250	4525.446328
406.381642	4603.468266
406.762972	4565.079880
407.144240	4578.842230
407.525447	4578.330553
407.906593	4636.029079
408.287677	4679.491387
408.668700	4606.923977
409.049661	4659.062111
409.430560	4699.789593
409.811399	4627.716216
410.192176	4790.409374
410.572891	4728.458635
410.953545	4832.324048
411.334138	4711.016242
411.714669	4779.928816
412.095139	4675.186242
412.475547	4814.924506
412.855894	4797.426661
413.236180	4804.890089
413.616405	4758.604735
413.996568	4846.411552
414.376670	4788.745794
414.756711	4744.653342
415.136691	4773.529071
415.516609	4853.688458
415.896466	4890.733377
416.276262	4921.275208
416.655997	4905.337600
417.035670	5084.719498
417.415283	5177.411193
417.794834	5120.650322
418.174324	5078.798663
418.553753	4981.224609
418.933121	5169.683105
419.312428	5235.639041
419.691674	5173.887427
420.070859	5300.707734
420.449983	5213.440320
420.829045	5324.940561
421.208047	5229.899687
421.586988	5306.242921
421.965867	5313.880269
422.344686	5451.226506
422.723444	5302.469618
423.102141	5124.022854
423.480777	5418.330456
423.859352	5186.119787
424.237866	5448.773984
424.616319	5442.016318
424.994712	5547.429365
425.373044	5425.514101
425.751314	5567.702365
426.129524	5371.687180
426.507673	5565.900153
426.885762	5644.504344
427.263789	5581.245425
427.641756	5463.975584
428.019662	5581.711732
428.397508	5588.860088
428.775292	5538.325041
429.153016	5636.075535
429.530679	5565.832097
429.908282	5642.361854
430.285824	5516.060785
430.663305	5791.413650
431.040726	5529.024113
431.418086	5529.155182
431.795385	5633.370956
432.172624	5644.332945
432.549802	5635.793230
432.926920	5652.371065
433.303977	5661.251057
433.680974	5701.237490
434.057910	5717.888421
434.434786	5723.456375
434.811601	5687.838103
435.188355	5924.590852
435.565050	5797.163086
435.941683	5777.784890
436.318257	5992.424618
436.694770	5976.003059
437.071222	6014.905644
437.447614	5946.817299
437.823946	5854.775912
438.200218	6014.789697
438.576429	5877.985385
438.952580	5971.730682
439.328670	6018.878073
439.704700	5926.695534
440.080670	5914.747999
440.456580	6182.881931
440.832429	6068.563685
441.208218	5909.795065
441.583947	6070.340692
441.959616	6072.468059
442.335224	5999.610783
442.710773	6135.737060
443.086261	6160.516852
443.461689	5958.643846
443.837057	6102.674653
444.212365	6262.925372
444.587612	6159.004506
444.962800	6310.526467
445.337927	6284.912364
445.712995	5897.086317
446.088002	6478.016283
446.462949	6308.469676
446.837837	6233.618624
447.212664	6408.980202
447.587431	6549.462036
447.962139	7090.198882
448.336786	8020.982405
448.711374	7759.449864
449.085901	6830.849161
449.460369	6752.895279
449.834776	6689.240629
450.209124	7078.412665
450.583412	7233.634833
450.957640	7378.855352
451.331808	7144.010679
451.705917	6698.344953
452.079965	6619.168591
452.453954	6827.116187
452.827883	6700.555499
453.201752	6801.963350
453.575562	6598.666218
453.949311	6803.702548
454.323001	6693.192894
454.696632	6760.288131
455.070202	6903.547641
455.443713	7065.446817
455.817164	7161.306878
456.190556	7239.764876
456.563888	7311.172820
456.937160	7356.792742
457.310373	7013.895978
457.683526	7030.993051
458.056619	6928.019922
458.429653	6911.691625
458.802628	6850.539908
459.175542	6962.267001
459.548398	7314.419323
459.921194	7469.281049
460.293930	7477.659447
460.666607	8007.204932
461.039224	8310.521076
461.411782	8437.855581
461.784280	8457.760577
462.156719	8348.811160
462.529099	8224.972696
462.901419	7816.850962
463.273680	7714.502937
463.645882	7716.015283
464.018024	7582.898574
464.390106	7754.144050
464.762130	8140.424984
465.134094	8605.068134
465.505999	9619.625551
465.877845	10835.448515
466.249631	11478.578758
466.621358	11095.473751
466.993026	10468.081990
467.364634	10208.404594
467.736184	9853.025933
468.107674	9512.223768
468.479105	9548.036125
468.850477	9309.332450
469.221790	9077.769568
469.593043	8747.780679
469.964238	8609.269936
470.335373	8616.262016
470.706449	8668.747989
471.077467	8639.637846
471.448425	9932.046020
471.819324	10985.432924
472.190164	11005.607622
472.560945	9766.996122
472.931667	8978.501687
473.302330	8836.326025
473.672934	8482.772262
474.043479	8826.034510
474.413965	8765.681816
474.784393	8636.061148
475.154761	8782.725957
475.525070	8858.108851
475.895321	8676.823918
476.265513	8845.657201
476.635645	8991.459973
477.005719	8977.755597
477.375734	9080.249816
477.745691	9299.040934
478.115588	9413.026464
478.485427	9635.701791
478.855207	10127.378128
479.224928	10868.692404
479.594591	11458.212497
479.964194	11261.088258
480.333739	11186.577483
480.703226	11077.403735
481.072653	11133.965481
481.442022	11320.387351
481.811333	11471.619445
482.180584	11266.023547
482.549777	10963.690428
482.918912	10765.159707
483.287988	10744.392674
483.657005	10727.346012
484.025964	10412.261294
484.394864	10501.149439
484.763706	10429.988511
485.132489	10185.696717
485.501213	10110.263411
485.869879	10146.688268
486.238487	9958.076017
486.607036	10025.566985
486.975527	9780.070355
487.343959	9911.888966
487.712333	9901.877234
488.080648	9802.437954
488.448905	9789.739288
488.817104	9688.059215
489.185244	9871.264828
489.553326	9950.988155
489.921350	10325.787861
490.289315	11096.285377
490.657222	11322.587814
491.025070	11171.184320
491.392861	11024.224603
491.760593	10668.291415
492.128267	10332.608542
492.495883	10014.985603
492.863440	9694.421151
493.230939	9354.934727
493.598380	9239.734280
493.965763	9063.951766
494.333088	8943.337119
494.700354	8800.916961
495.067563	8796.863873
495.434713	8596.921629
495.801805	8628.806927
496.168839	8497.792380
496.535815	8374.689924
496.902733	8326.476328
497.269593	8196.734672
497.636395	8200.744910
498.003139	8112.202084
498.369825	7960.697767
498.736453	7985.245666
499.103023	7869.437759
499.469535	7815.096641
499.835989	7736.880618
500.202385	7634.701471
500.568723	7475.723643
500.935003	7544.318624
501.301226	7327.415418
501.667390	7425.370078
502.033497	7402.367293
502.399546	7252.957576
502.765537	7126.805221
503.131470	7084.315856
503.497345	7102.675738
503.863163	6831.806980
504.228923	6906.779020
504.594625	6879.211471
504.960269	6673.401324
505.325856	6712.044288
505.691385	6536.556682
506.056856	6536.344953
506.422270	6469.806764
506.787625	6353.552715
507.152924	6324.513148
507.518164	6249.238639
507.883347	6135.898377
508.248472	6034.830804
508.613540	6061.511111
508.978550	5938.882523
509.343503	5853.608885
509.708398	5828.851779
510.073236	5799.008148
510.438016	5737.523715
510.802738	5643.584334
511.167403	5596.144555
511.532010	5485.128265
511.896561	5511.221278
512.261053	5465.142611
512.625488	5345.836143
512.989866	5273.286378
513.354186	5203.973033
513.718449	5104.654741
514.082655	5104.926963
514.446803	5008.114124
514.810894	4985.625537
515.174927	4882.329774
515.538904	4839.464842
515.902822	4805.966375
516.266684	4721.592583
516.630488	4644.430162
516.994235	4613.389257
517.357925	4559.917738
517.721558	4528.297101
518.085133	4471.465653
518.448651	4421.926234
518.812112	4344.053010
519.175516	4287.755924
519.538863	4265.022841
519.902152	4201.169066
520.265385	4169.636649
520.628560	4117.180922
520.991678	4058.212025
521.354739	4024.617776
521.717743	3974.538954
522.080690	3924.689504
522.443580	3893.167169
522.806413	3845.777802
523.169189	3810.341011
523.531908	3777.081999
523.894569	3709.328891
524.257174	3670.943025
524.619722	3641.671565
524.982213	3609.007409
525.344647	3567.982499
525.707025	3531.555121
526.069345	3508.985875
526.431608	3463.600367
526.793815	3441.918365
527.155964	3388.744274
527.518057	3362.815099
527.880093	3329.422496
528.242072	3307.657314
528.603995	3270.483846
528.965860	3234.721900
529.327669	3214.683314
529.689421	3187.019982
530.051117	3159.212978
530.412755	3139.708753
530.774337	3112.741101
531.135862	3087.948706
531.497331	3069.223340
531.858743	3038.111859
532.220098	3029.925025
532.581396	3001.145078
532.942638	2983.543889
533.303824	2966.214923
533.664953	2952.263530
534.026025	2931.123451
534.387040	2920.385793
534.747999	2907.762744
535.108902	2894.791855
535.469748	2872.981303
535.830537	2862.732637
536.191270	2848.730833
536.551947	2837.451251
536.912567	2826.053202
537.273131	2815.050884
537.633638	2805.727270
537.994089	2793.441978
538.354483	2784.428395
538.714821	2782.346398
539.075103	2769.879625
539.435328	2761.276896
539.795497	2751.214753
540.155609	2746.818867
540.515665	2742.511201
540.875665	2732.620457
541.235609	2724.632748
541.595496	2723.732902
541.955328	2718.757284
542.315102	2711.419884
542.674821	2705.483926
543.034483	2701.408153
543.394090	2695.396577
543.753640	2693.823737
544.113134	2689.843746
544.472571	2685.609177
544.831953	2682.735719
545.191278	2679.040553
545.550548	2672.023267
545.909761	2677.452590
546.268918	2670.649552
546.628019	2667.400529
546.987064	2665.454643
547.346053	2662.114879
547.704986	2660.037924
548.063863	2656.861997
548.422684	2657.577841
548.781449	2653.050884
549.140158	2654.999290
549.498811	2652.962664
549.857408	2648.183650
550.215949	2647.256078
550.574434	2641.907414
550.932864	2643.296252
551.291237	2640.276601
551.649555	2641.408340
552.007817	2640.611837
552.366022	2639.550674
552.724173	2638.542444
553.082267	2638.343318
553.440305	2638.479429
553.798288	2635.928605
554.156215	2637.221661
554.514086	2635.565642
554.871902	2633.176135
555.229661	2632.772843
555.587365	2632.427524
555.945014	2631.091618
556.302606	2630.277472
556.660143	2628.780249
557.017625	2628.409724
557.375050	2627.411576
557.732421	2625.490896
558.089735	2628.245887
558.446994	2625.503499
558.804197	2627.441823
559.161345	2623.086266
559.518437	2623.260186
559.875474	2626.065588
560.232455	2623.809672
560.589381	2624.447377
560.946251	2626.179014
561.303065	2623.081225
561.659825	2622.461163
562.016528	2621.916718
562.373177	2619.565020
562.729770	2620.921090
563.086307	2620.777417
563.442789	2618.836573
563.799216	2620.273302
564.155587	2617.483023
564.511904	2617.188116
564.868164	2617.956892
565.224370	2618.927314
565.580520	2618.564351
565.936615	2616.336161
566.292654	2615.741305
566.648638	2613.782817
567.004567	2615.675770
567.360441	2615.723661
567.716260	2615.769031
568.072023	2611.289966
568.427732	2604.882659
568.783385	2609.591097
569.138982	2608.073710
569.494525	2611.917590
569.850013	2609.379369
570.205445	2613.835749
570.560823	2613.225769
570.916145	2608.529934
571.271412	2609.419698
571.626625	2612.162086
571.981782	2611.244596
572.336884	2612.502363
572.691931	2610.190994
573.046923	2608.502208
573.401860	2608.338370
573.756743	2606.576487
574.111570	2609.235696
574.466342	2607.766199
574.821059	2610.158227
575.175722	2607.398195
575.530330	2606.200921
575.884882	2610.334667
576.239380	2607.972887
576.593823	2608.300562
576.948211	2606.407608
577.302544	2604.968359
577.656823	2607.531786
578.011047	2603.176229
578.365216	2605.603544
578.719330	2605.341404
579.073389	2605.580859
579.427394	2603.352669
579.781344	2605.336363
580.135239	2603.697988
580.489080	2607.294852
580.842866	2603.942484
581.196597	2602.304109
581.550273	2603.014912
581.903895	2604.141610
582.257463	2607.756117
582.610975	2603.390478
582.964434	2604.403750
583.317837	2601.197576
583.671186	2604.063472
584.024481	2602.072216
584.377721	2601.434510
584.730906	2600.988368
585.084037	2601.774788
585.437113	2596.065681
585.790135	2602.319233
586.143103	2600.252360
586.496016	2599.009715
586.848874	2595.932091
587.201679	2599.912082
587.554428	2594.646597
587.907124	2600.108687
588.259765	2595.654827
588.612352	2599.891917
588.964884	2597.608274
589.317362	2597.983840
589.669786	2598.354365
590.022155	2600.517020
590.374470	2599.569283
590.726731	2600.121290
591.078937	2595.962338
591.431090	2598.308995
591.783188	2599.135744
592.135232	2594.969230
592.487222	2599.773450
592.839157	2595.488469
593.191038	2595.352358
593.542866	2598.024170
593.894639	2596.779005
594.246358	2597.076433
594.598022	2597.136927
594.949633	2595.208685
595.301190	2593.938314
595.652692	2595.632142
596.004141	2594.523088
596.355535	2597.709097
596.706876	2594.122317
597.058162	2590.890937
597.409395	2594.550815
597.760573	2593.658530
598.111698	2590.943869
598.462768	2592.052923
598.813785	2593.293047
599.164748	2592.700711
599.515657	2592.456215
599.866511	2590.729620
600.217312	2595.778336
600.568060	2592.844384
600.918753	2595.942173
601.269392	2592.539394
601.619978	2592.090732
601.970510	2595.604416
602.320988	2592.105855
602.671412	2594.528129
603.021783	2592.274734
603.372100	2590.429671
603.722363	2591.742892
604.072572	2592.488983
604.422728	2591.972264
604.772830	2587.667119
605.122878	2585.746439
605.472872	2589.111410
605.822813	2587.374732
606.172701	2589.234918
606.522534	2590.449836
606.872314	2591.518561
607.222041	2593.139292
607.571714	2591.463108
607.921333	2590.212902
608.270899	2593.295567
608.620411	2592.952769
608.969870	2592.814137
609.319276	2591.800865
609.668627	2596.905033
610.017926	2597.131885
610.367171	2603.229161
610.716362	2600.315374
611.065500	2597.497369
611.414585	2596.287492
611.763616	2597.139447
612.112594	2594.364292
612.461518	2594.588623
612.810389	2592.955289
613.159207	2592.118458
613.507971	2592.025197
613.856682	2592.181472
614.205340	2594.573500
614.553945	2593.698860
614.902496	2590.268354
615.250994	2594.591144
615.599439	2593.295567
615.947830	2592.685588
616.296169	2595.990064
616.644454	2591.092583
616.992686	2591.135433
617.340864	2592.438571
617.688990	2592.325145
618.037063	2593.971082
618.385082	2589.981009
618.733048	2593.802203
619.080961	2591.248859
619.428821	2592.620053
619.776628	2593.318252
620.124382	2593.119127
620.472083	2592.781370
620.819731	2594.397059
621.167326	2591.009404
621.514868	2593.499734
621.862357	2590.593509
622.209793	2590.250710
622.557176	2589.718869
622.904506	2587.168045
623.251783	2588.163673
623.599007	2584.571851
623.946179	2586.371543
624.293297	2588.279619
624.640363	2587.662078
624.987376	2587.304156
625.334336	2588.645103
625.681243	2586.749629
626.028097	2587.899012
626.374899	2584.680235
626.721647	2586.116964
627.068343	2588.045206
627.414987	2585.859865
627.761577	2583.848445
628.108115	2584.292067
628.454600	2584.014803
628.801032	2586.936152
629.147412	2584.304669
629.493739	2585.726275
629.840014	2586.023703
630.186236	2585.764083
630.532405	2583.367015
630.878521	2582.089082
631.224585	2584.604618
631.570597	2583.924062
631.916556	2583.374577
632.262462	2583.641758
632.608316	2587.367170
632.954117	2581.879874
633.299866	2583.717375
633.645562	2582.865420
633.991206	2581.768969
634.336797	2580.947261
634.682336	2580.768300
635.027823	2576.886612
635.373257	2580.843917
635.718639	2578.119174
636.063968	2578.812332
636.409245	2579.177816
636.754470	2573.814028
637.099642	2577.615058
637.444762	2578.227558
637.789829	2574.998699
638.134845	2573.756055
638.479808	2576.516087
638.824719	2577.829307
639.169577	2573.269584
639.514383	2576.231262
639.859137	2577.814184
640.203839	2577.884760
640.548489	2576.541293
640.893086	2574.728998
641.237632	2570.917885
641.582125	2571.749676
641.926566	2570.612896
642.270955	2576.241344
642.615292	2572.936867
642.959576	2577.604976
643.303809	2575.094481
643.647990	2573.992989
643.992118	2574.444172
644.336195	2573.272104
644.680219	2573.642629
645.024192	2574.383679
645.368112	2576.427867
645.711981	2573.899728
646.055797	2578.623289
646.399562	2577.438618
646.743274	2577.357959
647.086935	2577.070614
647.430544	2577.713361
647.774101	2579.092116
648.117606	2579.439956
648.461059	2577.708320
648.804460	2577.950295
649.147810	2577.710840
649.491108	2579.485326
649.834354	2575.792681
650.177548	2574.262691
650.520690	2576.720253
650.863781	2574.595407
651.206820	2578.376272
651.549807	2577.153793
651.892742	2573.456106
652.235626	2572.896538
652.578458	2573.352763
652.921238	2569.138358
653.263967	2572.561302
653.606644	2571.623647
653.949269	2572.145406
654.291843	2570.822103
654.634365	2571.588359
654.976836	2569.428224
655.319255	2570.706157
655.661622	2570.680951
656.003938	2569.138358
656.346203	2568.470405
656.688416	2569.561815
657.030577	2568.974521
657.372687	2571.321178
657.714746	2572.223544
658.056753	2570.542319
658.398708	2566.075857
658.740612	2567.026115
659.082465	2566.088460
659.424266	2568.024263
659.766016	2566.688357
660.107715	2574.330747
660.449362	2570.668348
660.790958	2570.920406
661.132503	2569.385375
661.473996	2569.292113
661.815438	2569.022412
662.156829	2570.978379
662.498168	2573.967783
662.839456	2571.452248
663.180693	2571.674058
663.521879	2569.488718
663.863013	2571.893349
664.204097	2570.857392
664.545129	2572.886456
664.886110	2573.420818
665.227040	2575.223031
665.567918	2570.711198
665.908746	2572.210941
666.249522	2573.312433
666.590248	2569.166084
666.930922	2574.751683
667.271545	2571.437124
667.612118	2572.011816
667.952639	2572.266394
668.293109	2572.901579
668.633528	2573.009964
668.973896	2572.082392
669.314213	2572.115159
669.654480	2571.568194
669.994695	2571.091805
670.334859	2572.218503
670.674973	2569.758420
671.015035	2570.189439
671.355047	2570.033163
671.695008	2571.356466
672.034918	2571.245560
672.374777	2569.803790
672.714585	2570.837227
673.054342	2570.784295
673.394049	2572.510890
673.733705	2573.957701
674.073310	2571.111970
674.412864	2572.929306
674.752368	2572.006775
675.091820	2572.110118
675.431223	2570.600293
675.770574	2572.457958
676.109875	2565.392781
676.449125	2565.692729
676.788324	2565.856567
677.127473	2569.148440
677.466571	2566.751372
677.805619	2568.712381
678.144616	2567.787329
678.483562	2570.504511
678.822458	2567.825137
679.161303	2571.628688
679.500098	2568.505693
679.838842	2568.540981
680.177535	2569.334963
680.516179	2566.085939
680.854771	2566.627863
681.193314	2570.948132
681.531805	2568.896383
681.870247	2570.741445
682.208638	2575.031467
682.546978	2572.319326
682.885268	2573.423339
683.223508	2570.784295
683.561697	2571.399316
683.899836	2568.798080
684.237925	2567.860426
684.575963	2571.220355
684.913951	2568.659448
685.251889	2570.960735
685.589776	2568.477967
685.927614	2568.273800
686.265401	2568.044428
686.603137	2568.528378
686.940824	2573.662794
687.278460	2572.939388
687.616046	2575.001220
687.953582	2574.179512
688.291068	2570.829665
688.628504	2575.399471
688.965889	2570.481826
689.303224	2576.105233
689.640510	2573.292269
689.977745	2567.469736
690.314930	2570.333112
690.652065	2569.362689
690.989150	2568.949315
691.326185	2568.293965
691.663170	2567.016032
692.000105	2564.624005
692.336990	2568.082236
692.673825	2565.503686
693.010610	2564.066957
693.347345	2562.390774
693.684030	2558.675443
694.020665	2561.581668
694.357251	2559.731565
694.693786	2561.324570
695.030272	2562.105948
695.366707	2561.422872
695.703093	2564.104766
696.039429	2560.316339
696.375716	2562.778942
696.711952	2560.671740
697.048139	2560.240722
697.384276	2559.361040
697.720363	2562.095866
698.056400	2560.278530
698.392388	2562.592420
698.728326	2560.621329
699.064214	2560.722152
699.400053	2560.255845
699.735842	2557.377346
700.071581	2559.449260
700.407270	2558.756102
700.742910	2558.556976
701.078501	2561.664847
701.414042	2558.531770
701.749533	2555.963303
702.084974	2560.379353
702.420366	2558.269630
702.755709	2557.697459
703.091002	2556.255689
703.426246	2557.074877
703.761440	2558.723334
704.096584	2559.555125
704.431679	2554.776111
704.766725	2559.081256
705.101721	2558.453633
705.436668	2555.035730
705.771565	2557.271482
706.106413	2557.662171
706.441212	2560.089487
706.775961	2557.435319
707.110661	2556.971533
707.445311	2557.218550
707.779913	2560.681822
708.114465	2561.097718
708.448967	2559.658468
708.783421	2562.133675
709.117825	2559.492110
709.452180	2559.660989
709.786485	2560.523026
710.120742	2559.736606
710.454949	2564.540826
710.789107	2558.698128
711.123216	2559.744168
711.457275	2560.515464
711.791286	2562.191648
712.125247	2560.497820
712.459159	2562.552091
712.793023	2567.421845
713.126837	2563.714077
713.460602	2562.060578
713.794318	2561.422872
714.127985	2561.069991
714.461602	2560.155022
714.795171	2564.271124
715.128691	2558.990515
715.462162	2559.744168
715.795584	2556.817778
716.128957	2557.972202
716.462281	2560.132337
716.795556	2558.841801
717.128782	2557.455484
717.461960	2556.104455
717.795088	2557.120247
718.128167	2553.914073
718.461198	2554.420709
718.794180	2555.282747
719.127113	2555.381049
719.459997	2553.478014
719.792833	2554.120761
720.125619	2554.985319
720.458357	2553.868703
720.791046	2552.721841
721.123686	2553.107489
721.456278	2555.010524
721.788821	2553.651933
722.121315	2557.049671
722.453761	2554.829043
722.786158	2553.664536
723.118506	2551.446429
723.450805	2554.282078
723.783056	2553.898950
724.115259	2552.016079
724.447412	2552.832746
724.779518	2552.235369
725.111574	2553.558672
725.443582	2555.635628
725.775542	2554.519012
726.107453	2554.904660
726.439315	2554.297201
726.771129	2557.296688
727.102895	2553.578837
727.434612	2558.453632
727.766281	2554.859290
728.097901	2554.395504
728.429473	2553.094886
728.760996	2556.835422
729.092471	2547.398382
729.423897	2559.177038
729.755276	2555.118909
730.086606	2554.632438
730.417887	2556.316183
730.749120	2555.257541
731.080305	2554.476162
731.411442	2561.198541
731.742530	2559.915567
732.073570	2559.968499
732.404562	2557.594116
732.735506	2557.034548
733.066401	2558.274672
733.397249	2555.859959
733.728048	2558.060423
734.058798	2554.806358
734.389501	2554.554300
734.720156	2554.975236
735.050762	2554.758467
735.381320	2551.438867
735.711831	2552.880637
736.042293	2552.321069
736.372707	2550.884340
736.703073	2551.310318
737.033391	2550.095399
737.363661	2552.810061
737.693883	2553.609084
738.024056	2555.368446
738.354182	2552.815102
738.684260	2553.170503
739.014290	2553.823333
739.344272	2556.774928
739.674207	2554.337530
740.004093	2554.335010
740.333931	2555.875082
740.663722	2556.923642
740.993464	2555.948179
741.323159	2555.280226
741.652806	2555.325597
741.982405	2552.099258
742.311956	2552.817622
742.641460	2554.549259
742.970915	2552.767211
743.300323	2551.683363
743.629683	2552.951213
743.958996	2552.217725
744.288260	2550.034906
744.617477	2551.625390
744.946647	2548.207487
745.275768	2548.343598
745.604842	2546.700182
745.933869	2547.607590
746.262847	2547.403423
746.591778	2551.769062
746.920662	2551.607746
747.249498	2553.160421
747.578286	2549.994576
747.907027	2551.504402
748.235720	2550.657488
748.564365	2550.425595
748.892963	2550.304607
749.221514	2551.879968
749.550017	2550.675132
749.878473	2550.370142
750.206881	2551.194371
750.535242	2550.526418
750.863555	2550.062632
751.191821	2554.196378
751.520039	2546.876623
751.848210	2547.940306
752.176334	2548.522559
752.504411	2549.193033
752.832440	2550.909546
753.160421	2552.058929
753.488356	2548.522559
753.816243	2549.470296
754.144082	2548.028526
754.471875	2552.129505
754.799620	2548.252858
755.127318	2548.341078
755.454969	2547.680687
755.782572	2550.927190
756.110129	2547.748742
756.437638	2548.814946
756.765100	2549.984494
757.092515	2550.677653
757.419882	2546.710265
757.747203	2550.660009
758.074477	2548.394010
758.401703	2550.337375
758.728882	2550.667570
759.056014	2550.657488
759.383099	2552.772252
759.710138	2552.348795
760.037129	2550.712941
760.364073	2550.932231
760.690970	2551.045657
761.017820	2549.520708
761.344623	2550.932231
761.671379	2551.254865
761.998088	2545.558361
762.324751	2551.282591
762.651366	2556.008673
762.977935	2566.539643
763.304456	2568.868656
763.630931	2572.168092
763.957359	2568.956877
764.283740	2565.700291
764.610074	2561.054868
764.936362	2556.656461
765.262602	2557.705021
765.588796	2552.116902
765.914943	2552.273178
766.241044	2551.005328
766.567097	2549.855945
766.893104	2546.294369
767.219064	2549.366953
767.544978	2551.232180
767.870845	2549.182951
768.196665	2546.682538
768.522438	2547.083310
768.848165	2544.056097
769.173846	2546.775800
769.499479	2546.042312
769.825066	2546.765717
770.150607	2541.805222
770.476101	2544.358566
770.801548	2544.323278
771.126949	2545.684390
771.452303	2542.881508
771.777611	2543.662887
772.102872	2544.618186
772.428087	2544.371169
772.753256	2545.102137
773.078378	2543.627599
773.403453	2543.010058
773.728482	2543.733463
774.053465	2543.267157
774.378401	2541.996786
774.703291	2542.258926
775.028135	2539.884542
775.352932	2542.896632
775.677683	2544.446787
776.002388	2544.204811
776.327046	2543.289842
776.651658	2544.983669
776.976224	2542.785726
777.300743	2543.851930
777.625216	2543.977959
777.949643	2542.009389
778.274024	2542.649615
778.598359	2541.406971
778.922647	2537.384130
779.246889	2540.834800
779.571086	2537.376568
779.895236	2538.435211
780.219339	2541.873277
780.543397	2542.833617
780.867409	2544.429142
781.191374	2541.873277
781.515294	2540.217258
781.839167	2542.563916
782.162995	2541.341436
782.486776	2541.303627
782.810511	2541.906045
783.134201	2543.156251
783.457844	2542.677342
783.781441	2542.417722
784.104993	2540.764224
784.428498	2538.329346
784.751958	2541.122146
785.075372	2541.280942
785.398739	2540.350849
785.722061	2542.979811
786.045337	2540.441590
786.368568	2542.153062
786.691752	2542.558874
787.014891	2544.061138
787.337983	2543.297403
787.661030	2544.131714
787.984031	2543.010058
788.306987	2543.030222
788.629897	2545.823022
788.952760	2546.332178
789.275579	2544.787064
789.598351	2544.474513
789.921078	2544.444266
790.243759	2539.884542
790.566395	2539.740869
790.888984	2540.325643
791.211529	2540.764224
791.534027	2542.886549
791.856480	2538.614172
792.178888	2541.923689
792.501249	2539.950077
792.823566	2540.804553
793.145836	2543.950233
793.468062	2542.024512
793.790241	2538.606610
794.112375	2541.628782
794.434464	2543.529297
794.756507	2542.117773
795.078505	2544.232538
795.400457	2538.825900
795.722364	2539.660211
796.044226	2539.607279
796.366042	2538.949408
796.687812	2538.228523
797.009538	2543.683052
797.331218	2542.589121
797.652852	2544.658515
797.974442	2542.838658
798.295986	2541.727084
798.617484	2541.417053
798.938938	2542.276570
799.260346	2543.993083
799.581709	2538.566281
799.903026	2544.277908
800.224299	2541.260777
800.545526	2541.404450
800.866708	2541.477547
801.187845	2541.394368
801.508936	2540.512166
801.829983	2539.927392
802.150984	2539.317412
802.471940	2544.008206
802.792851	2542.044677
803.113717	2540.940664
803.434538	2539.650129
803.755314	2539.819007
804.076045	2537.406815
804.396731	2541.497712
804.717372	2540.542413
805.037967	2540.819676
805.358518	2538.906558
805.679024	2539.879501
805.999485	2536.116280
806.319901	2541.928730
806.640272	2538.954449
806.960598	2540.247505
807.280879	2541.568288
807.601115	2539.551826
807.921306	2539.690458
808.241453	2539.191384
808.561554	2539.864378
808.881611	2542.281611
809.201623	2541.835469
809.521590	2539.730787
809.841513	2540.534851
810.161390	2541.901004
810.481223	2538.404964
810.801011	2539.272042
811.120755	2540.958308
811.440453	2539.907228
811.760107	2539.680376
812.079716	2535.276928
812.399281	2534.757689
812.718801	2535.158461
813.038276	2536.577545
813.357707	2536.827082
813.677093	2538.087371
813.996434	2539.508976
814.315731	2540.396219
814.634983	2539.519059
814.954191	2540.779347
815.273354	2539.594676
815.592473	2540.066024
815.911547	2540.877650
816.230577	2540.335726
816.549562	2540.481919
816.868502	2540.592824
817.187399	2540.933102
817.506250	2541.190201
817.825058	2541.192722
818.143821	2542.652136
818.462539	2543.559543
818.781213	2543.524255
819.099843	2544.461910
819.418429	2547.438711
819.736970	2547.678166
820.055466	2549.906356
820.373919	2549.913918
820.692327	2556.046482
821.010691	2563.272976
821.329011	2578.449369
821.647286	2609.628906
821.965517	2642.270377
822.283704	2660.342913
822.601847	2669.197700
822.919945	2653.126502
823.237999	2631.925929
823.556010	2612.283073
823.873976	2597.734303
824.191897	2590.061667
824.509775	2575.674214
824.827609	2571.290931
825.145398	2569.879408
825.463144	2566.365723
825.780845	2565.939746
826.098502	2568.346897
826.416116	2581.068249
826.733685	2589.161821
827.051210	2594.707090
827.368692	2586.873137
827.686129	2578.116653
828.003522	2568.425035
828.320872	2557.334496
828.638177	2556.510268
828.955439	2549.777807
829.272656	2546.906870
829.589830	2541.656508
829.906960	2545.306303
830.224046	2543.599873
830.541088	2544.547610
830.858086	2542.606765
831.175041	2541.711961
831.491952	2545.752445
831.808819	2542.105171
832.125642	2545.200439
832.442421	2542.110212
832.759157	2546.591798
833.075849	2553.788045
833.392497	2561.992523
833.709101	2566.101063
834.025662	2566.310271
834.342179	2562.536967
834.658653	2558.637635
834.975083	2554.183775
835.291469	2556.169990
835.607811	2545.923845
835.924110	2544.769420
836.240366	2541.369162
836.556578	2538.641898
836.872746	2544.098947
837.188871	2540.131559
837.504952	2540.320602
837.820990	2541.389327
838.136984	2534.402287
838.452935	2537.631147
838.768842	2537.890766
839.084706	2538.099974
839.400526	2542.780685
839.716303	2544.834955
840.032037	2547.015254
840.347727	2548.207487
840.663373	2545.767569
840.978977	2542.475695
841.294537	2541.104502
841.610054	2540.597866
841.925527	2540.113915
842.240957	2535.594520
842.556344	2539.072917
842.871687	2536.726259
843.186987	2536.945550
843.502244	2534.543440
843.817458	2534.913965
844.132629	2535.707946
844.447756	2538.896476
844.762840	2533.026052
845.077881	2531.256607
845.392879	2530.823068
845.707833	2531.183511
846.022745	2530.737369
846.337613	2534.296423
846.652438	2533.227699
846.967221	2534.044366
847.281960	2535.395395
847.596656	2538.977135
847.911309	2534.331711
848.225919	2533.946063
848.540485	2532.990764
848.855009	2533.116793
849.169490	2532.756351
849.483928	2534.729962
849.798323	2534.329191
850.112675	2534.596372
850.426984	2532.773995
850.741251	2535.718029
851.055474	2533.888090
851.369654	2531.604447
851.683792	2534.190559
851.997887	2533.265507
852.311938	2534.427493
852.625947	2535.223996
852.939914	2533.583100
853.253837	2532.831968
853.567718	2536.338091
853.881555	2536.622916
854.195350	2533.326001
854.509103	2534.684592
854.822812	2534.566125
855.136479	2534.755168
855.450103	2536.408667
855.763685	2534.611495
856.077224	2534.893800
856.390720	2535.896990
856.704173	2534.004036
857.017584	2533.457071
857.330953	2536.128883
857.644278	2533.686444
857.957561	2537.053934
858.270802	2535.176105
858.584000	2533.930940
858.897155	2534.054448
859.210268	2533.028573
859.523339	2533.517565
859.836367	2533.270548
860.149352	2535.516383
860.462295	2536.542257
860.775195	2533.008408
861.088054	2529.051103
861.400869	2531.203675
861.713642	2527.982378
862.026373	2532.385826
862.339062	2534.712318
862.651708	2531.617050
862.964312	2533.066382
863.276873	2533.399098
863.589392	2534.987061
863.901869	2535.503780
864.214303	2532.287523
864.526696	2535.972607
864.839045	2534.084695
865.151353	2534.520755
865.463619	2536.469161
865.775842	2533.961187
866.088023	2533.759540
866.400162	2537.258101
866.712258	2535.995292
867.024313	2534.119983
867.336325	2532.670651
867.648296	2537.121990
867.960224	2532.123686
868.272110	2533.946063
868.583954	2536.486805
868.895755	2533.590662
869.207515	2534.974458
869.519233	2536.113759
869.830909	2535.130734
870.142542	2535.486136
870.454134	2533.439427
870.765684	2535.229037
871.077191	2536.554860
871.388657	2538.193235
871.700081	2536.040663
872.011463	2536.970755
872.322803	2534.069571
872.634101	2534.034283
872.945357	2538.054603
873.256571	2538.142824
873.567744	2535.511341
873.878874	2539.256919
874.189963	2536.885056
874.501010	2537.794984
874.812015	2537.827752
875.122979	2537.081661
875.433900	2537.429500
875.744780	2539.728267
876.055618	2537.918492
876.366415	2539.924872
876.677169	2536.867412
876.987882	2535.672658
877.298554	2534.825744
877.609183	2534.644263
877.919771	2534.530837
878.230317	2535.765920
878.540822	2537.600900
878.851285	2541.510314
879.161707	2543.841848
879.472087	2546.301931
879.782425	2544.532486
880.092722	2554.090514
880.402977	2564.772719
880.713191	2578.532548
881.023363	2596.458891
881.333494	2611.196705
881.643583	2613.971860
881.953631	2609.911210
882.263637	2606.652104
882.573602	2602.520879
882.883526	2589.323138
883.193408	2582.628486
883.503248	2573.390571
883.813048	2566.842113
884.122806	2563.560321
884.432522	2561.354817
884.742197	2554.980277
885.051831	2553.215874
885.361424	2546.012065
885.670975	2546.405275
885.980485	2543.226827
886.289954	2544.290511
886.599382	2541.742208
886.908768	2541.916127
887.218113	2540.055942
887.527417	2540.038297
887.836680	2537.537885
888.145901	2541.598535
888.455082	2539.657690
888.764221	2538.278935
889.073319	2535.682741
889.382376	2535.707946
889.691392	2539.708102
890.000366	2539.367824
890.309300	2537.668955
890.618193	2539.755993
890.927044	2538.369676
891.235855	2540.406302
891.544625	2535.130734
891.853353	2537.762217
892.162041	2539.493853
892.470687	2537.328677
892.779293	2539.453524
893.087858	2538.974614
893.396381	2539.274563
893.704864	2545.666746
894.013306	2546.372507
894.321707	2557.039589
894.630068	2560.717111
894.938387	2562.952862
895.246665	2562.168963
895.554903	2559.792059
895.863100	2554.138405
896.171256	2551.653116
896.479371	2550.100441
896.787446	2548.020965
897.095480	2544.245140
897.403473	2543.557023
897.711425	2540.943185
898.019336	2542.178267
898.327207	2541.328833
898.635038	2540.123997
898.942827	2543.463762
899.250576	2539.239275
899.558284	2536.943029
899.865952	2537.918492
900.173579	2535.791125
900.481165	2538.823379
900.788711	2537.558050
901.096216	2532.710980
901.403681	2536.065868
901.711105	2538.301620
902.018489	2536.529654
902.325832	2537.563091
902.633135	2538.132741
902.940397	2539.214069
903.247619	2538.667104
903.554800	2544.903011
903.861941	2557.158056
904.169041	2562.791545
904.476101	2571.709347
904.783121	2570.307906
905.090100	2565.286917
905.397039	2559.300546
905.703938	2553.364588
906.010796	2551.300235
906.317614	2545.838145
906.624391	2540.524769
906.931129	2541.265818
907.237826	2541.517876
907.544483	2538.425128
907.851099	2537.162319
908.157675	2536.930426
908.464211	2537.850437
908.770707	2531.634694
909.077163	2534.465302
909.383578	2527.556401
909.689954	2532.753830
909.996289	2528.073119
910.302584	2533.053779
910.608839	2533.822555
910.915054	2536.751465
911.221229	2531.276772
911.527363	2535.229037
911.833458	2534.031763
912.139513	2537.356404
912.445527	2535.912113
912.751502	2534.629139
913.057436	2531.261649
913.363331	2535.710467
913.669186	2536.171733
913.975000	2540.091230
914.280775	2539.892104
914.586510	2541.653987
914.892205	2546.120450
915.197859	2549.815615
915.503475	2552.363919
915.809050	2560.099569
916.114585	2568.573749
916.420081	2570.418811
916.725536	2568.936712
917.030952	2562.884807
917.336328	2559.071174
917.641665	2558.912378
917.946961	2554.057746
918.252218	2549.951727
918.557435	2548.099102
918.862612	2544.224976
919.167750	2543.577188
919.472848	2540.199614
919.777906	2540.353370
920.082925	2538.180632
920.387904	2537.716846
920.692843	2538.384799
920.997743	2536.065868
921.302603	2535.813811
921.607423	2537.520241
921.912204	2533.419263
922.216946	2535.385313
922.521647	2534.944212
922.826310	2533.709129
923.130932	2534.190559
923.435516	2533.784746
923.740059	2535.133255
924.044564	2532.232071
924.349028	2533.903213
924.653454	2528.546987
924.957840	2529.938346
925.262186	2529.046062
925.566493	2532.794159
925.870761	2526.134795
926.174989	2530.240815
926.479178	2529.565300
926.783328	2530.076978
927.087438	2532.915147
927.391509	2530.248377
927.695541	2531.463295
927.999533	2530.727286
928.303486	2530.767616
928.607400	2530.084539
928.911275	2532.630322
929.215110	2528.310053
929.518906	2530.223171
929.822663	2529.439272
930.126381	2532.630322
930.430060	2529.981196
930.733699	2531.070085
931.037299	2530.616381
931.340861	2531.115455
931.644383	2527.589168
931.947866	2530.777698
932.251309	2534.553522
932.554714	2530.949097
932.858080	2531.359951
933.161407	2531.619571
933.464694	2530.321473
933.767943	2530.571011
934.071153	2531.816176
934.374323	2529.449354
934.677455	2531.032276
934.980548	2527.805938
935.283602	2528.751154
935.586617	2528.635208
935.889593	2529.522451
936.192530	2529.129241
936.495428	2529.378778
936.798287	2529.519930
937.101108	2530.387008
937.403890	2528.257121
937.706632	2530.359282
938.009336	2532.968079
938.312002	2531.019673
938.614628	2532.383305
938.917216	2535.770961
939.219765	2530.928932
939.522275	2534.588810
939.824747	2534.238450
940.127179	2530.006401
940.429573	2527.112779
940.731929	2529.257790
941.034246	2527.926925
941.336524	2533.656197
941.638763	2532.930271
941.940964	2531.453213
942.243126	2532.622760
942.545250	2534.709798
942.847335	2531.193593
943.149381	2531.468336
943.451389	2531.579241
943.753359	2531.745599
944.055290	2532.103521
944.357182	2531.276772
944.659036	2529.484642
944.960851	2532.776515
945.262628	2529.754344
945.564367	2531.445651
945.866067	2527.004394
946.167729	2531.669982
946.469352	2530.654190
946.770937	2534.344314
947.072484	2530.361803
947.373992	2531.828778
947.675462	2530.339117
947.976893	2530.608819
948.278286	2527.556401
948.579641	2527.480783
948.880958	2531.546474
949.182236	2530.639066
949.483476	2528.211751
949.784678	2531.007070
950.085841	2532.378264
950.386967	2531.554036
950.688054	2525.663447
950.989103	2531.198634
951.290114	2529.416586
951.591087	2531.412883
951.892021	2530.346679
952.192917	2530.724766
952.493776	2529.701412
952.794596	2529.540095
953.095378	2532.085877
953.396122	2531.435568
953.696828	2530.374406
953.997496	2529.797193
954.298126	2529.940866
954.598718	2533.245343
954.899272	2532.567307
955.199788	2527.523633
955.500266	2532.741227
955.800706	2526.432223
956.101108	2524.292253
956.401472	2526.399456
956.701798	2522.986595
957.002087	2526.394415
957.302337	2528.032790
957.602550	2528.864580
957.902724	2527.372398
958.202861	2527.541277
958.502960	2526.197810
958.803022	2531.790970
959.103045	2528.892306
959.403031	2529.323325
959.702979	2526.666637
960.002889	2527.493386
960.302762	2527.188396
960.602596	2525.411390
960.902393	2529.018335
961.202153	2531.085208
961.501875	2527.359796
961.801559	2527.117820
962.101205	2527.649662
962.400814	2528.264683
962.700385	2527.377440
962.999918	2527.695032
963.299414	2529.088911
963.598873	2528.158818
963.898293	2528.799045
964.197677	2527.231246
964.497022	2528.017666
964.796331	2525.953314
965.095601	2530.084539
965.394835	2528.307532
965.694030	2526.364168
965.993189	2526.943900
966.292309	2524.894671
966.591393	2527.848788
966.890439	2529.976154
967.189447	2529.282996
967.488419	2528.640249
967.787353	2528.204189
968.086249	2528.015146
968.385108	2526.742254
968.683930	2528.307532
968.982714	2528.247039
969.281462	2525.872655
969.580172	2528.274765
969.878844	2525.650844
970.177480	2527.246370
970.476078	2528.950280
970.774639	2527.773170
971.073162	2527.236287
971.371649	2526.805269
971.670098	2522.885772
971.968510	2524.042716
972.266885	2523.815864
972.565223	2525.295443
972.863524	2526.807789
973.161788	2531.019673
973.460014	2527.269055
973.758204	2528.453726
974.056356	2525.265196
974.354471	2527.586648
974.652550	2524.410721
974.950591	2528.151257
975.248595	2530.238294
975.546563	2528.370547
975.844493	2528.342821
976.142386	2526.018849
976.440243	2525.265196
976.738062	2525.262676
977.035845	2529.005732
977.333590	2526.026410
977.631299	2527.770650
977.928971	2526.880886
978.226606	2527.853829
978.524204	2525.731503
978.821765	2528.229395
979.119290	2525.199661
979.416777	2526.497758
979.714228	2528.854498
980.011642	2524.390556
980.309020	2530.137471
980.606360	2526.754857
980.903664	2528.799045
981.200931	2527.821061
981.498162	2526.225536
981.795356	2526.757378
982.092513	2529.708973
982.389633	2526.838036
982.686717	2529.131761
982.983764	2527.937008
983.280775	2529.938346
983.577749	2527.006915
983.874686	2530.790301
984.171587	2526.986750
984.468451	2530.439941
984.765279	2531.019673
985.062070	2524.572038
985.358824	2525.000536
985.655543	2528.393232
985.952224	2525.502130
986.248869	2528.804086
986.545478	2519.576254
986.842050	2525.668488
987.138586	2522.671523
987.435086	2525.292923
987.731549	2521.900226
988.027975	2526.298633
988.324366	2528.103366
988.620719	2527.783253
988.917037	2525.318128
989.213318	2524.589682
989.509563	2526.442306
989.805772	2524.871986
990.101944	2524.995494
990.398080	2526.616225
990.694180	2525.887779
990.990244	2525.623118
991.286271	2524.814013
991.582262	2526.767460
991.878217	2523.924249
992.174136	2527.977337
992.470019	2523.528519
992.765865	2526.729651
993.061676	2524.761081
993.357450	2525.981040
993.653188	2525.751668
993.948890	2526.288550
994.244556	2527.208561
994.540186	2527.727800
994.835780	2528.443644
995.131337	2524.841739
995.426859	2526.724610
995.722345	2525.577748
996.017795	2526.011287
996.313208	2527.808458
996.608586	2528.947759
996.903928	2524.748478
997.199234	2524.516585
997.494504	2526.487676
997.789738	2523.493231
998.084936	2527.208561
998.380099	2527.352234
998.675225	2526.270906
998.970316	2525.328211
999.265371	2525.650844
999.560390	2526.036493
999.855373	2526.442306
1000.150320	2524.347706
1000.445232	2527.886596
1000.740108	2524.808972
1001.034948	2524.388035
1001.329752	2524.430885
1001.624521	2524.718231
1001.919254	2524.110772
1002.213951	2523.412572
1002.508613	2522.230422
1002.803239	2527.417769
1003.097829	2522.031296
1003.392384	2524.940042
1003.686903	2526.016328
1003.981386	2526.036493
1004.275834	2521.590195
1004.570246	2526.777542
1004.864623	2527.853829
1005.158964	2526.036493
1005.453270	2529.232584
1005.747540	2525.146729
1006.041775	2524.899713
1006.335974	2525.270237
1006.630138	2528.151257
1006.924266	2526.344003
1007.218359	2525.713859
1007.512416	2524.493900
1007.806438	2526.210412
1008.100425	2527.392563
1008.394376	2525.834847
1008.688292	2527.937008
1008.982172	2525.761750
1009.276017	2528.415917
1009.569827	2526.989271
1009.863602	2525.630680
1010.157341	2523.994825
1010.451045	2522.837881
1010.744714	2525.902902
1011.038347	2524.796369
1011.331945	2525.812161
1011.625508	2524.609846
1011.919036	2526.918695
1012.212528	2525.587830
1012.505986	2524.677902
1012.799408	2525.169414
1013.092795	2523.037006
1013.386147	2525.983561
1013.679464	2524.483817
1013.972745	2522.742099
1014.265992	2526.270906
1014.559204	2528.305012
1014.852380	2524.725793
1015.145521	2523.372243
1015.438628	2527.006915
1015.731699	2527.821061
1016.024736	2523.894002
1016.317737	2526.691843
1016.610703	2521.766635
1016.903635	2521.194464
1017.196531	2523.117665
1017.489393	2522.537932
1017.782219	2519.719927
1018.075011	2524.556914
1018.367768	2524.176307
1018.660490	2526.815351
1018.953177	2526.815351
1019.245829	2526.815351
